###################################################################
## OUTPUT of StarlightChains_v04.for    [Cid@UFSC - 01/Apr/2007] ##
###################################################################

## Some input info
KUG0210-078._33_47.txt                   [arq_obs]
Base.CB07.vall.4m                        [arq_base]
Masks.EmLines.NEW.gm                     [arq_masks]
StCv04.C11.config                        [arq_config]
   66                                    [N_base]
    0                                    [N_YAV_components = # of components with extra extinction!]
    0                                    [i_FitPowerLaw (1/0 = Yes/No)]
-9.99                                    [alpha_PowerLaw]
CCM                                      [red_law_option]
 1.458241                                [q_norm = A(l_norm)/A(V)]

## (Re)Sampling Parameters
 3741.00                                 [l_ini (A)]
 7218.00                                 [l_fin (A)]
    1.00                                 [dl    (A)]     (OBS: dl_cushion =    50.00 A)

## Normalization info
 4020.00                                 [l_norm (A) - for base]
 4010.00                                 [llow_norm (A) - window for f_obs]
 4060.00                                 [lupp_norm (A) - window for f_obs]
1.267036E-17                             [fobs_norm (in input units)]

## S/N
 3691.00                                 [llow_SN (A) - window for S/N]
 7268.00                                 [lupp_SN (A) - window for S/N]
   3.421                                 [S/N in S/N window]
   4.992                                 [S/N in norm. window]
   0.010                                 [S/N_err in S/N window]
   0.014                                 [S/N_err in norm. window]
  1.0000                                 [fscale_chi2]

## etc...
    -2007522                             [idum_orig]
  2420                                   [NOl_eff]
  2404                                   [Nl_eff]
    16    NSIGMA                         [Ntot_cliped & clip_method]
  1179290                                [Nglobal_steps]
   7                                     [N_chains]
  35                                     [NEX0s_base = N_base in EX0s-fits]
 0   0   1       16   2.0   2.104E+03    [Clip-Bug, RC-Crash & Burn-In warning-flags, n_censored_weights, wei_nsig_threshold & wei_limit]
    21     20.764     20.273      0.491  [idt_all, wdt_TotTime, wdt_UsrTime & wdt_SysTime (sec)]

## Synthesis Results - Best model ##

 1.31215E-05                             [chi2/Nl_eff]
    18.28619                             [adev (%)]

    99.66048                             [sum-of-x (%)]
 5.15224E-18                             [Flux_tot (units of input spectrum!)]
 1.07384E-13                             [Mini_tot (???)]
 5.60973E-14                             [Mcor_tot (???)]

 321.91                                  [v0_min  (km/s)]
   0.00                                  [vd_min  (km/s)]
-0.6674                                  [AV_min  (mag)]
 0.0000                                  [YAV_min (mag)]

# j     x_j(%)      Mini_j(%)     Mcor_j(%)     age_j(yr)     Z_j      (L/M)_j    YAV?  Mstars   component_j        a/Fe...       SSP_chi2r SSP_adev(%)   SSP_AV   SSP_x(%)
  1      0.0000     0.0000E+00    0.0000E+00    1.000000E+06  0.00400  1.094E-02    0   1.0000   age020_m42            0.0000     1.8184E-05    22.6458   2.4848    80.4787
  2      0.0000     0.0000E+00    0.0000E+00    3.160000E+06  0.00400  4.007E-02    0   0.9999   age045_m42            0.0000     1.5931E-05    21.1124   1.7243    86.8667
  3      0.0000     0.0000E+00    0.0000E+00    5.010000E+06  0.00400  2.539E-02    0   0.9488   age055_m42            0.0000     1.7092E-05    21.9244   2.0650    84.2290
  4      0.0000     0.0000E+00    0.0000E+00    6.610000E+06  0.00400  2.620E-02    0   0.9220   age061_m42            0.0000     1.6132E-05    21.1919   1.6594    86.8366
  5      0.0000     0.0000E+00    0.0000E+00    1.000000E+07  0.00400  1.322E-02    0   0.8862   age070_m42            0.0000     1.6803E-05    22.2470   1.4457    87.1054
  6      0.0000     0.0000E+00    0.0000E+00    1.445000E+07  0.00400  7.883E-03    0   0.8571   age078_m42            0.0000     1.7337E-05    22.5529   1.7731    84.8631
  7      0.0775     7.1073E-04    1.1121E-03    2.512000E+07  0.00400  5.251E-03    0   0.8174   age090_m42            0.0000     1.6762E-05    22.4032   1.3260    87.3802
  8      0.0000     0.0000E+00    0.0000E+00    4.000000E+07  0.00400  3.649E-03    0   0.7851   age104_m42            0.0000     1.6319E-05    21.9906   1.0866    88.4516
  9      0.0000     0.0000E+00    0.0000E+00    5.500000E+07  0.00400  3.098E-03    0   0.7629   age110_m42            0.0000     1.5765E-05    21.1209   1.2017    89.3178
 10      0.0000     0.0000E+00    0.0000E+00    1.015200E+08  0.00400  2.228E-03    0   0.7207   age116_m42            0.0000     1.5460E-05    20.6650   1.2003    90.0001
 11      0.0000     0.0000E+00    0.0000E+00    2.861200E+08  0.00400  1.093E-03    0   0.6648   age125_m42            0.0000     1.5186E-05    20.5955   0.6445    92.3601
 12      0.0000     0.0000E+00    0.0000E+00    5.088000E+08  0.00400  6.597E-04    0   0.6365   age130_m42            0.0000     1.4596E-05    19.6901   0.5905    94.2234
 13      0.0000     0.0000E+00    0.0000E+00    1.434000E+09  0.00400  2.132E-04    0   0.5798   age139_m42            0.0000     1.3499E-05    18.8871  -0.4102    97.0350
 14      4.5034     3.6778E+00    3.7855E+00    4.250000E+09  0.00400  5.895E-05    0   0.5377   age158_m42            0.0000     1.3726E-05    19.0590  -0.8924    94.4308
 15      0.0000     0.0000E+00    0.0000E+00    7.500000E+09  0.00400  3.510E-05    0   0.5212   age171_m42            0.0000     1.3824E-05    19.6626  -1.0000    92.7137
 16      0.0000     0.0000E+00    0.0000E+00    1.300000E+10  0.00400  2.005E-05    0   0.5034   age193_m42            0.0000     1.4526E-05    21.9760  -1.0000    89.5072
 17      0.0000     0.0000E+00    0.0000E+00    1.800000E+10  0.00400  1.525E-05    0   0.4967   age213_m42            0.0000     1.4627E-05    22.4858  -1.0000    88.6924
 18      0.0000     0.0000E+00    0.0000E+00    1.000000E+06  0.00800  1.238E-02    0   1.0000   age020_m52            0.0000     1.8247E-05    22.7335   2.4848    80.6208
 19      0.0000     0.0000E+00    0.0000E+00    3.160000E+06  0.00800  3.074E-02    0   0.9966   age045_m52            0.0000     1.8146E-05    22.6985   2.4058    81.4313
 20      0.0000     0.0000E+00    0.0000E+00    5.010000E+06  0.00800  2.668E-02    0   0.9443   age055_m52            0.0000     1.7508E-05    22.2223   2.1573    83.2864
 21      0.0000     0.0000E+00    0.0000E+00    6.610000E+06  0.00800  2.136E-02    0   0.9177   age061_m52            0.0000     1.6608E-05    22.1018   0.9409    88.3446
 22      0.9022     3.5749E-03    6.0406E-03    1.000000E+07  0.00800  1.215E-02    0   0.8827   age070_m52            0.0000     1.7332E-05    22.9232   1.6484    86.3542
 23      0.0000     0.0000E+00    0.0000E+00    1.445000E+07  0.00800  8.717E-03    0   0.8552   age078_m52            0.0000     1.7169E-05    22.4860   1.7398    86.0353
 24      0.0000     0.0000E+00    0.0000E+00    2.512000E+07  0.00800  5.592E-03    0   0.8162   age090_m52            0.0000     1.6692E-05    22.4216   1.3923    88.3536
 25      0.0000     0.0000E+00    0.0000E+00    4.000000E+07  0.00800  3.896E-03    0   0.7841   age104_m52            0.0000     1.6140E-05    21.7794   1.2830    89.5504
 26      0.0000     0.0000E+00    0.0000E+00    1.015200E+08  0.00800  2.148E-03    0   0.7226   age116_m52            0.0000     1.5641E-05    20.9718   1.1848    90.2781
 27      0.0000     0.0000E+00    0.0000E+00    2.861200E+08  0.00800  9.925E-04    0   0.6683   age125_m52            0.0000     1.4657E-05    19.6670   0.6605    94.9685
 28     33.7016     5.1656E+00    6.0693E+00    9.047900E+08  0.00800  3.141E-04    0   0.6138   age135_m52            0.0000     1.3121E-05    18.2029  -0.2127   100.9716
 29      0.0000     0.0000E+00    0.0000E+00    1.434000E+09  0.00800  1.719E-04    0   0.5853   age139_m52            0.0000     1.3375E-05    18.6470  -0.7883    98.8933
 30      7.3877     4.5181E+00    4.8433E+00    2.500000E+09  0.00800  7.872E-05    0   0.5600   age150_m52            0.0000     1.3392E-05    19.2756  -1.0000    95.8998
 31      0.0000     0.0000E+00    0.0000E+00    4.250000E+09  0.00800  4.336E-05    0   0.5426   age158_m52            0.0000     1.3615E-05    19.5079  -1.0000    94.7514
 32      0.0000     0.0000E+00    0.0000E+00    6.250000E+09  0.00800  3.159E-05    0   0.5319   age166_m52            0.0000     1.4431E-05    22.3240  -1.0000    91.3856
 33      0.7862     2.7810E+00    2.7006E+00    1.300000E+10  0.00800  1.361E-05    0   0.5073   age193_m52            0.0000     1.9277E-05    31.3936  -1.0000    81.4294
 34      0.0000     0.0000E+00    0.0000E+00    1.800000E+10  0.00800  9.886E-06    0   0.4990   age213_m52            0.0000     2.1358E-05    33.2994  -1.0000    78.7013
 35      0.0000     0.0000E+00    0.0000E+00    1.000000E+06  0.02000  1.544E-02    0   1.0000   age020_m62            0.0000     1.8353E-05    22.8480   2.4848    80.7719
 36      0.0000     0.0000E+00    0.0000E+00    3.160000E+06  0.02000  3.762E-02    0   0.9858   age045_m62            0.0000     1.8387E-05    22.8093   2.4199    81.5325
 37      0.0000     0.0000E+00    0.0000E+00    5.010000E+06  0.02000  3.296E-02    0   0.9342   age055_m62            0.0000     1.6790E-05    21.5737   2.0103    85.6173
 38      0.0000     0.0000E+00    0.0000E+00    8.710000E+06  0.02000  1.154E-02    0   0.8861   age067_m62            0.0000     1.9614E-05    26.6631   1.2291    85.8136
 39      0.0000     0.0000E+00    0.0000E+00    1.445000E+07  0.02000  7.663E-03    0   0.8472   age078_m62            0.0000     1.7618E-05    23.8519   1.3333    87.4726
 40      0.0000     0.0000E+00    0.0000E+00    2.512000E+07  0.02000  4.532E-03    0   0.8099   age090_m62            0.0000     1.7710E-05    23.9514   1.3296    87.0981
 41      0.0000     0.0000E+00    0.0000E+00    5.500000E+07  0.02000  2.733E-03    0   0.7595   age110_m62            0.0000     1.6466E-05    22.0082   1.2720    88.7722
 42      0.0241     8.4865E-04    1.1347E-03    1.609000E+08  0.02000  1.369E-03    0   0.6985   age120_m62            0.0000     1.5446E-05    20.5496   1.0546    92.5890
 43      0.0000     0.0000E+00    0.0000E+00    2.861200E+08  0.02000  9.013E-04    0   0.6714   age125_m62            0.0000     1.4799E-05    19.6275   0.7687    96.2023
 44      0.0000     0.0000E+00    0.0000E+00    5.088000E+08  0.02000  5.028E-04    0   0.6449   age130_m62            0.0000     1.3560E-05    18.3378   0.3178   100.7190
 45     27.9227     5.5366E+00    6.5488E+00    9.047900E+08  0.02000  2.428E-04    0   0.6179   age135_m62            0.0000     1.3005E-05    18.2978  -0.3026   101.1621
 46      0.0000     0.0000E+00    0.0000E+00    1.434000E+09  0.02000  1.263E-04    0   0.5908   age139_m62            0.0000     1.3187E-05    18.5373  -0.7589   100.0955
 47      2.2979     1.8484E+00    2.0073E+00    2.500000E+09  0.02000  5.985E-05    0   0.5673   age150_m62            0.0000     1.3614E-05    19.5927  -1.0000    97.0249
 48      8.7798     1.2922E+01    1.3526E+01    4.250000E+09  0.02000  3.271E-05    0   0.5468   age158_m62            0.0000     1.5502E-05    24.0827  -1.0000    90.7427
 49      0.0000     0.0000E+00    0.0000E+00    1.000000E+10  0.02000  1.360E-05    0   0.5167   age181_m62            0.0000     2.0099E-05    30.6810  -1.0000    83.1045
 50      3.0057     2.0312E+01    1.9492E+01    1.800000E+10  0.02000  7.124E-06    0   0.5013   age213_m62            0.0000     2.4310E-05    34.6043  -1.0000    77.6701
 51      0.0055     1.0231E-05    1.9580E-05    1.000000E+06  0.05000  2.592E-02    0   0.9998   age020_m72            0.0000     1.8658E-05    23.1981   2.4894    80.6513
 52      1.3533     1.3447E-03    2.4652E-03    3.160000E+06  0.05000  4.845E-02    0   0.9577   age045_m72            0.0000     1.7806E-05    22.3534   2.2875    82.9359
 53      0.0000     0.0000E+00    0.0000E+00    5.010000E+06  0.05000  3.072E-02    0   0.9147   age055_m72            0.0000     1.7977E-05    23.2947   1.8818    84.8595
 54      0.0000     0.0000E+00    0.0000E+00    6.610000E+06  0.05000  1.455E-02    0   0.8877   age061_m72            0.0000     2.0844E-05    27.9545   1.3127    85.3876
 55      0.0000     0.0000E+00    0.0000E+00    1.000000E+07  0.05000  9.074E-03    0   0.8524   age070_m72            0.0000     1.8045E-05    23.3709   2.0591    84.5806
 56      0.0000     0.0000E+00    0.0000E+00    2.512000E+07  0.05000  4.250E-03    0   0.7902   age090_m72            0.0000     1.7257E-05    22.7702   1.7517    86.4435
 57      0.0000     0.0000E+00    0.0000E+00    4.000000E+07  0.05000  3.087E-03    0   0.7618   age104_m72            0.0000     1.7004E-05    22.7718   1.5301    87.7760
 58      0.8850     2.5064E-02    3.4046E-02    1.015200E+08  0.05000  1.700E-03    0   0.7096   age116_m72            0.0000     1.5836E-05    21.1264   1.2209    91.5729
 59      3.9895     2.6011E-01    3.3027E-01    2.861200E+08  0.05000  7.384E-04    0   0.6633   age125_m72            0.0000     1.4221E-05    18.8982   0.5982    98.5607
 60      0.0000     0.0000E+00    0.0000E+00    5.088000E+08  0.05000  3.819E-04    0   0.6372   age130_m72            0.0000     1.3272E-05    18.4105   0.0426   101.9501
 61      0.0000     0.0000E+00    0.0000E+00    9.047900E+08  0.05000  1.676E-04    0   0.6110   age135_m72            0.0000     1.3296E-05    18.7878  -0.7206   102.0639
 62      0.0000     0.0000E+00    0.0000E+00    1.434000E+09  0.05000  8.837E-05    0   0.5874   age139_m72            0.0000     1.3769E-05    19.6987  -1.0000    98.5376
 63      0.0000     0.0000E+00    0.0000E+00    2.500000E+09  0.05000  4.233E-05    0   0.5598   age150_m72            0.0000     1.5719E-05    24.0394  -1.0000    91.6369
 64      0.0000     0.0000E+00    0.0000E+00    6.250000E+09  0.05000  1.435E-05    0   0.5249   age166_m72            0.0000     2.1749E-05    32.5414  -1.0000    80.6102
 65      0.0000     0.0000E+00    0.0000E+00    1.300000E+10  0.05000  6.513E-06    0   0.5036   age193_m72            0.0000     2.8022E-05    37.6592  -1.0000    74.6556
 66      4.0383     4.2946E+01    4.0652E+01    1.800000E+10  0.05000  4.527E-06    0   0.4945   age213_m72            0.0000     3.2184E-05    40.3935  -1.0000    70.5405


## Synthesis Results - Average & Chains ##

# j      x_j: min, <> & last-chain-values for 1 ...  7 chains
  1      0.0000      1.2366      0.8878      1.3752      0.7100      2.0082      0.0379      0.0000      0.3985
  2      0.0000      1.1541      1.4700      0.0000      1.0546      0.1322      0.0000      0.0000      0.4033
  3      0.0000      1.2836      2.0896      0.7153      0.0446      0.6212      0.3910      0.0755      4.8646
  4      0.0000      0.9467      0.7940      0.2928      3.3268      0.0000      1.4305      0.0000      1.0288
  5      0.0000      1.0560      0.0000      0.0000      0.5328      0.4033      1.2689      0.0000      1.1236
  6      0.0000      1.2895      0.0000      0.2923      0.0000      0.5314      4.0019      0.1540      1.3109
  7      0.0775      1.0807      0.0000      6.8198      1.2004      0.8383      2.9196      1.9866      0.3891
  8      0.0000      0.9764      0.0000      0.0000      0.0000      0.8921      1.2697      0.0000      0.3039
  9      0.0000      1.2327      1.2906      0.0000      1.1137      0.4028      0.0294      0.0000      2.9193
 10      0.0000      1.0414      0.0231      1.1793      0.2298      0.0107      1.0476      0.0000      0.0000
 11      0.0000      0.9051      2.9529      0.3919      1.2236      0.0499      1.7593      1.8790      0.5656
 12      0.0000      1.1339      4.2582      0.0000      4.5823      0.9488      0.8948      3.4345      2.4041
 13      0.0000      1.0695      4.1653      0.2111      3.0081      1.5483      1.0682      0.2274      0.4148
 14      4.5034      1.0901      5.6467      0.0000      1.1599      0.8586      4.0006      1.3586      1.9231
 15      0.0000      1.0174      0.0363      0.0000      1.2297      0.0477      0.5601      0.7207      2.8985
 16      0.0000      1.0974      0.1440      0.2463      0.0000      3.0282      3.2328      2.2299      5.5210
 17      0.0000      0.8762      2.0768      3.8719      2.3850      0.0000      0.0000      2.0348      0.6176
 18      0.0000      1.4553      0.2856      5.3196      5.9933      1.9872      0.6219      0.9464      4.8141
 19      0.0000      1.0749      0.0000      0.0181      0.0000      0.8338      0.0000      0.9608      0.0000
 20      0.0000      1.1530      0.0000      1.2495      0.0000      0.0489      3.7744      0.0000      0.6997
 21      0.0000      1.1217      0.0000      3.5107      0.3662      0.0000      1.8812      4.6416      0.8924
 22      0.9022      0.9351      1.6724      3.0259      0.0819      1.5010      0.3976      0.7123      0.0000
 23      0.0000      0.9923      0.9472      0.0000      0.0000      0.8246      0.0000      3.0057      0.0000
 24      0.0000      1.0039      2.3705      1.1154      2.1779      0.0000      0.0000      0.0000      0.7623
 25      0.0000      0.9861      1.5409      0.4158      0.0000      0.0639      0.1654      1.0165      0.4475
 26      0.0000      1.1217      0.1548      1.7900      1.9392      0.8139      1.0069      1.4327      1.5362
 27      0.0000      1.0127      1.6043      0.0000      0.0000      0.7422      0.0000      0.0000      0.0073
 28     33.7016      1.3273      1.7012      2.8619      0.0000      1.1118      1.7245      1.2982      0.0000
 29      0.0000      1.0538      2.5076      0.6221      0.6109      0.9185      2.5582      1.3857      0.0000
 30      7.3877      1.2443      3.3217      0.2178      0.3534      1.1576      0.8386      4.9101      0.5469
 31      0.0000      0.7271      1.4201      2.3105      3.5469      0.0000      0.6197      1.4755      2.1251
 32      0.0000      1.2112      1.9375      0.0423      3.7102      1.4275      1.2761      0.0000      1.6044
 33      0.7862      0.7254      1.1956      0.1060      0.0000      0.0000      4.1157      3.6045      0.0000
 34      0.0000      1.2949      0.0000      2.8908      3.4456      1.1630      1.2107      0.1807      1.1461
 35      0.0000      0.9584      0.3705      0.0897      2.8093      0.4827      2.1090      2.8965      0.5289
 36      0.0000      1.1842      0.0000      0.1434      1.1601      0.0000      1.0312      0.0000      2.2546
 37      0.0000      0.8727      0.0000      1.1110      3.8285      0.0000      0.6797      0.0000      0.0000
 38      0.0000      7.1629      3.4105      1.5278      0.5551     20.0938      1.9179      0.0000      0.4082
 39      0.0000      0.8595      0.0000      1.5586      0.0000      0.2109      2.2121      0.0000      0.6157
 40      0.0000      0.9837      1.1180      0.1670      0.0000      1.1935      0.8527      0.2536      0.0000
 41      0.0000      1.3628      1.3875      0.3922      5.8529      0.3363      1.9132      0.0000      0.1364
 42      0.0241      1.1686      0.0000      1.4917      0.0000      0.0000      1.7291      1.3952      5.4424
 43      0.0000      1.3408      2.2599      5.3113      3.4128      2.7146      0.0000      0.0000      2.3695
 44      0.0000      0.9058      0.0000      0.0000      0.9134      2.6355      1.4273      0.0000      0.2947
 45     27.9227      1.0360      0.0000      1.5954      1.5354      0.0000      2.0083      3.7606      0.3228
 46      0.0000      1.2308      2.7946      1.3913      1.9837      0.3179      0.9239      0.0000      0.6565
 47      2.2979      1.0911      3.9176      0.8259      5.0548      0.0000      2.6520      1.4964      7.4602
 48      8.7798      1.1364      0.7551      0.0000      0.2204      0.6624      2.2388      3.0549      0.0084
 49      0.0000      1.5194      2.0421      0.0000      0.0000      3.5198      1.3531      0.0000      1.4801
 50      3.0057      1.9698      0.5563      3.5843      4.0089      0.0000      1.6781      6.0118      4.8193
 51      0.0055      1.3746      1.5099      0.1562      0.0000      3.5593      0.1372      1.3783      0.6849
 52      1.3533      1.1637      2.7035      0.0000      0.2130      1.5861      0.8188      0.7599      1.4326
 53      0.0000      1.1934      0.3016      0.1831      0.3015      0.0000      0.0791      5.4346      1.1566
 54      0.0000      1.0750      0.1745      0.0000      0.1341      0.0000      1.8142      6.2393      0.4169
 55      0.0000      1.0616      0.0000      0.0000      0.0000      0.8681      0.7650      0.1164      0.0000
 56      0.0000      0.7642      0.0000      0.4384      0.1178      0.0000      1.6688      0.0000      1.3492
 57      0.0000      1.2189      0.3473      1.1108      1.6339      0.4959      0.0000      0.0000      0.0000
 58      0.8850      0.7706      0.3182      0.0000      1.8939      0.2480      0.0000      1.3546      0.0000
 59      3.9895      0.8946      0.0000      0.8542      1.3634      0.4306      0.0000      1.9885      0.0000
 60      0.0000      1.3030      0.0000      4.2296      0.0000      0.0000      1.0347      2.6253      1.4755
 61      0.0000      1.1978      1.2104      4.6676      0.0000      2.1782      1.2950      2.9546      0.6897
 62      0.0000      1.3859      1.6441      7.6779      2.3359      1.1386      2.1307      0.0000      3.6745
 63      0.0000      1.2147      2.2840      0.8096      0.0000      4.1321      1.4095      0.0604      0.0000
 64      0.0000      2.2339      1.5120      0.0000      0.0000      5.0782      3.1394      1.8001      1.5261
 65      0.0000      1.3479      2.4937      0.5301      0.0000      2.5367      1.1429      0.0000      0.7816
 66      4.0383      2.7205      3.4611      2.6541      1.0516      4.8128      1.3897      3.1181      1.5301

# j      m_j: min, <> & last-chain-values for 1 ...  7 chains
  1  0.0000E+00  1.1525E-02  7.1955E-03  1.2338E-02  7.2679E-03  1.3905E-02  3.3443E-04  0.0000E+00  3.2257E-03
  2  0.0000E+00  2.9363E-03  3.2526E-03  0.0000E+00  2.9471E-03  2.4992E-04  0.0000E+00  0.0000E+00  8.9120E-04
  3  0.0000E+00  4.8905E-03  6.9240E-03  2.6236E-03  1.8660E-04  1.7584E-03  1.4114E-03  2.2038E-04  1.6096E-02
  4  0.0000E+00  3.3968E-03  2.4776E-03  1.0115E-03  1.3111E-02  0.0000E+00  4.8632E-03  0.0000E+00  3.2056E-03
  5  0.0000E+00  7.2172E-03  0.0000E+00  0.0000E+00  4.0000E-03  2.0480E-03  8.2171E-03  0.0000E+00  6.6690E-03
  6  0.0000E+00  1.4295E-02  0.0000E+00  3.1194E-03  0.0000E+00  4.3767E-03  4.2034E-02  1.3078E-03  1.2620E-02
  7  1.1121E-03  1.7151E-02  0.0000E+00  1.0420E-01  2.0927E-02  9.8851E-03  4.3903E-02  2.4153E-02  5.3625E-03
  8  0.0000E+00  2.1419E-02  0.0000E+00  0.0000E+00  0.0000E+00  1.4539E-02  2.6391E-02  0.0000E+00  5.7892E-03
  9  0.0000E+00  3.0949E-02  2.8182E-02  0.0000E+00  3.0715E-02  7.5141E-03  7.0053E-04  0.0000E+00  6.3654E-02
 10  0.0000E+00  3.4345E-02  6.6301E-04  3.7440E-02  8.3257E-03  2.6170E-04  3.2734E-02  0.0000E+00  0.0000E+00
 11  0.0000E+00  5.6132E-02  1.5926E-01  2.3393E-02  8.3350E-02  2.2998E-03  1.0337E-01  8.9260E-02  3.0459E-02
 12  0.0000E+00  1.1155E-01  3.6430E-01  0.0000E+00  4.9513E-01  6.9345E-02  8.3401E-02  2.5880E-01  2.0538E-01
 13  0.0000E+00  2.9654E-01  1.0044E+00  5.6347E-02  9.1614E-01  3.1896E-01  2.8062E-01  4.8308E-02  9.9889E-02
 14  3.7855E+00  1.0137E+00  4.5670E+00  0.0000E+00  1.1848E+00  5.9325E-01  3.5251E+00  9.6786E-01  1.5532E+00
 15  0.0000E+00  1.5404E+00  4.7743E-02  0.0000E+00  2.0450E+00  5.3619E-02  8.0338E-01  8.3582E-01  3.8110E+00
 16  0.0000E+00  2.8093E+00  3.2067E-01  6.0696E-01  0.0000E+00  5.7594E+00  7.8409E+00  4.3726E+00  1.2274E+01
 17  0.0000E+00  2.9096E+00  5.9980E+00  1.2378E+01  8.6995E+00  0.0000E+00  0.0000E+00  5.1761E+00  1.7812E+00
 18  0.0000E+00  1.1985E-02  2.0454E-03  4.2174E-02  5.4216E-02  1.2159E-02  4.8526E-03  5.9707E-03  3.4432E-02
 19  0.0000E+00  3.5529E-03  0.0000E+00  5.7674E-05  0.0000E+00  2.0477E-03  0.0000E+00  2.4329E-03  0.0000E+00
 20  0.0000E+00  4.1608E-03  0.0000E+00  4.3406E-03  0.0000E+00  1.3122E-04  1.2905E-02  0.0000E+00  2.1927E-03
 21  0.0000E+00  4.9136E-03  0.0000E+00  1.4804E-02  1.7621E-03  0.0000E+00  7.8075E-03  1.5575E-02  3.3950E-03
 22  6.0406E-03  6.9268E-03  1.0774E-02  2.1576E-02  6.6615E-04  8.2605E-03  2.7902E-03  4.0415E-03  0.0000E+00
 23  0.0000E+00  9.9258E-03  8.2399E-03  0.0000E+00  0.0000E+00  6.1285E-03  0.0000E+00  2.3031E-02  0.0000E+00
 24  0.0000E+00  1.4940E-02  3.0680E-02  1.5979E-02  3.5600E-02  0.0000E+00  0.0000E+00  0.0000E+00  9.8521E-03
 25  0.0000E+00  2.0235E-02  2.7498E-02  8.2139E-03  0.0000E+00  9.7349E-04  3.2159E-03  1.5978E-02  7.9754E-03
 26  0.0000E+00  3.8474E-02  4.6178E-03  5.9102E-02  7.3059E-02  2.0740E-02  3.2721E-02  3.7641E-02  4.5758E-02
 27  0.0000E+00  6.9528E-02  9.5785E-02  0.0000E+00  0.0000E+00  3.7859E-02  0.0000E+00  0.0000E+00  4.3505E-04
 28  6.0693E+00  2.6445E-01  2.9477E-01  5.4890E-01  0.0000E+00  1.6458E-01  3.2554E-01  1.9814E-01  0.0000E+00
 29  0.0000E+00  3.6585E-01  7.5709E-01  2.0788E-01  2.3293E-01  2.3691E-01  8.4143E-01  3.6850E-01  0.0000E+00
 30  4.8433E+00  9.0247E-01  2.0953E+00  1.5207E-01  2.8156E-01  6.2384E-01  5.7627E-01  2.7280E+00  3.4446E-01
 31  0.0000E+00  9.2766E-01  1.5758E+00  2.8378E+00  4.9708E+00  0.0000E+00  7.4913E-01  1.4420E+00  2.3547E+00
 32  0.0000E+00  2.0792E+00  2.8928E+00  6.9824E-02  6.9962E+00  1.8208E+00  2.0757E+00  0.0000E+00  2.3920E+00
 33  2.7006E+00  2.7568E+00  3.9516E+00  3.8790E-01  0.0000E+00  0.0000E+00  1.4820E+01  1.0493E+01  0.0000E+00
 34  0.0000E+00  6.6641E+00  0.0000E+00  1.4321E+01  1.9477E+01  4.4469E+00  5.9033E+00  7.1230E-01  5.1225E+00
 35  0.0000E+00  6.3288E-03  2.1277E-03  5.7039E-04  2.0377E-02  2.3684E-03  1.3195E-02  1.4651E-02  3.0332E-03
 36  0.0000E+00  3.1638E-03  0.0000E+00  3.6874E-04  3.4044E-03  0.0000E+00  2.6105E-03  0.0000E+00  5.2312E-03
 37  0.0000E+00  2.5221E-03  0.0000E+00  3.0907E-03  1.2153E-02  0.0000E+00  1.8611E-03  0.0000E+00  0.0000E+00
 38  0.0000E+00  5.6077E-02  2.3220E-02  1.1514E-02  4.7736E-03  1.1688E-01  1.4226E-02  0.0000E+00  2.7755E-03
 39  0.0000E+00  9.6886E-03  0.0000E+00  1.6912E-02  0.0000E+00  1.7661E-03  2.3625E-02  0.0000E+00  6.0277E-03
 40  0.0000E+00  1.7923E-02  1.7716E-02  2.9288E-03  0.0000E+00  1.6157E-02  1.4721E-02  3.5395E-03  0.0000E+00
 41  0.0000E+00  3.8613E-02  3.4189E-02  1.0697E-02  1.8216E-01  7.0795E-03  5.1361E-02  0.0000E+00  3.3560E-03
 42  1.1347E-03  6.0794E-02  0.0000E+00  7.4700E-02  0.0000E+00  0.0000E+00  8.5227E-02  5.5597E-02  2.4588E-01
 43  0.0000E+00  1.0184E-01  1.4927E-01  3.8833E-01  2.8471E-01  1.5318E-01  0.0000E+00  0.0000E+00  1.5629E-01
 44  0.0000E+00  1.1845E-01  0.0000E+00  0.0000E+00  1.3120E-01  2.5606E-01  1.7685E-01  0.0000E+00  3.3469E-02
 45  6.5488E+00  2.6882E-01  0.0000E+00  3.9850E-01  4.3760E-01  0.0000E+00  4.9372E-01  7.4745E-01  7.2735E-02
 46  0.0000E+00  5.8702E-01  1.1592E+00  6.3875E-01  1.0392E+00  1.1265E-01  4.1748E-01  0.0000E+00  2.7194E-01
 47  2.0073E+00  1.0545E+00  3.2927E+00  7.6832E-01  5.3658E+00  0.0000E+00  2.4284E+00  1.1078E+00  6.2612E+00
 48  1.3526E+01  1.9369E+00  1.1192E+00  0.0000E+00  4.1267E-01  8.3877E-01  3.6154E+00  3.9884E+00  1.2507E-02
 49  0.0000E+00  5.8855E+00  6.8795E+00  0.0000E+00  0.0000E+00  1.0130E+01  4.9660E+00  0.0000E+00  4.9791E+00
 50  1.9492E+01  1.4133E+01  3.4711E+00  2.4755E+01  3.1592E+01  0.0000E+00  1.1407E+01  3.3039E+01  3.0028E+01
 51  1.9580E-05  5.4061E-03  5.1642E-03  5.9143E-04  0.0000E+00  1.0400E-02  5.1138E-04  4.1522E-03  2.3391E-03
 52  2.4652E-03  2.3453E-03  4.7386E-03  0.0000E+00  4.7143E-04  2.3749E-03  1.5636E-03  1.1732E-03  2.5074E-03
 53  0.0000E+00  3.6229E-03  7.9638E-04  5.3513E-04  1.0055E-03  0.0000E+00  2.2748E-04  1.2638E-02  3.0494E-03
 54  0.0000E+00  6.6868E-03  9.4383E-04  0.0000E+00  9.1630E-04  0.0000E+00  1.0693E-02  2.9730E-02  2.2522E-03
 55  0.0000E+00  1.0168E-02  0.0000E+00  0.0000E+00  0.0000E+00  6.1775E-03  6.9418E-03  8.5413E-04  0.0000E+00
 56  0.0000E+00  1.4487E-02  0.0000E+00  8.0006E-03  2.4535E-03  0.0000E+00  2.9973E-02  0.0000E+00  2.2213E-02
 57  0.0000E+00  3.0668E-02  7.6001E-03  2.6906E-02  4.5155E-02  9.2699E-03  0.0000E+00  0.0000E+00  0.0000E+00
 58  3.4046E-02  3.2794E-02  1.1775E-02  0.0000E+00  8.8534E-02  7.8412E-03  0.0000E+00  4.4161E-02  0.0000E+00
 59  3.3027E-01  8.1932E-02  0.0000E+00  7.5310E-02  1.3716E-01  2.9301E-02  0.0000E+00  1.3951E-01  0.0000E+00
 60  0.0000E+00  2.2167E-01  0.0000E+00  6.9266E-01  0.0000E+00  0.0000E+00  1.6678E-01  3.4211E-01  2.1799E-01
 61  0.0000E+00  4.4521E-01  3.9126E-01  1.6701E+00  0.0000E+00  6.0154E-01  4.5606E-01  8.4125E-01  2.2265E-01
 62  0.0000E+00  9.3925E-01  9.6905E-01  5.0091E+00  1.7389E+00  5.7333E-01  1.3682E+00  0.0000E+00  2.1626E+00
 63  0.0000E+00  1.6379E+00  2.6784E+00  1.0509E+00  0.0000E+00  4.1395E+00  1.8006E+00  6.2378E-02  0.0000E+00
 64  0.0000E+00  8.3313E+00  4.9041E+00  0.0000E+00  0.0000E+00  1.4071E+01  1.1093E+01  5.1425E+00  4.9429E+00
 65  0.0000E+00  1.0627E+01  1.7097E+01  4.0233E+00  0.0000E+00  1.4858E+01  8.5367E+00  0.0000E+00  5.3510E+00
 66  4.0652E+01  3.0299E+01  3.3524E+01  2.8455E+01  1.2864E+01  3.9824E+01  1.4664E+01  2.6601E+01  1.4799E+01

# AV, chi2 & Mass for <> & i_chain = 1 ...  7 solutions
AV      -0.6674     -0.0351     -0.1411      0.0957      0.1455     -0.0665     -0.1023     -0.1539     -0.0282
chi2 1.3121E-05  1.7925E-05  1.6461E-05  1.6600E-05  1.6275E-05  1.6937E-05  1.5999E-05  1.5873E-05  1.6567E-05
Mass 5.6097E-14  1.1855E-13  1.1823E-13  1.4680E-13  1.3756E-13  1.5297E-13  1.1433E-13  1.3194E-13  1.3777E-13
 321.91                                  [v0_min (km/s) before EX0s...]
   0.00                                  [vd_min (km/s) before EX0s...]


## Synthetic spectrum (Best Model) ##l_obs f_obs f_syn wei
 3478    [Nl_obs]
 3741.00    0.84272   0.40114    0.000
 3742.00    0.97408   0.47643    0.000
 3743.00    1.02944   0.55286    0.000
 3744.00    0.98585   0.60285    0.000
 3745.00    0.88459   0.61432    0.033
 3746.00    0.84103   0.58433    0.032
 3747.00    0.82679   0.54096    0.032
 3748.00    0.46949   0.51074    0.032
 3749.00   -0.03865   0.48118    0.000
 3750.00   -0.02432   0.45076    0.000
 3751.00    0.18725   0.42459    0.030
 3752.00    0.42877   0.36770    0.030
 3753.00    0.67989   0.31079    0.031
 3754.00    0.64350   0.32244    0.030
 3755.00    0.53006   0.39972    0.029
 3756.00    0.54245   0.48097    0.028
 3757.00    0.58246   0.54077    0.028
 3758.00    0.60823   0.60088    0.028
 3759.00    0.63153   0.65056    0.028
 3760.00    0.46482   0.64543    0.032
 3761.00    0.27287   0.57652    0.040
 3762.00    0.26201   0.51205    0.033
 3763.00    0.26817   0.51361    0.027
 3764.00    0.45150   0.55259    0.027
 3765.00    0.64504   0.58241    0.027
 3766.00    0.70841   0.59290    0.027
 3767.00    0.76804   0.58324    0.026
 3768.00    0.74773   0.57550    0.026
 3769.00    0.72685   0.57693    0.027
 3770.00    0.69233   0.54712    0.027
 3771.00    0.64780   0.50177    0.026
 3772.00    0.47211   0.48563    0.026
 3773.00    0.32247   0.47159    0.026
 3774.00    0.40159   0.44009    0.027
 3775.00    0.47883   0.44675    0.027
 3776.00    0.54397   0.50733    0.027
 3777.00    0.56739   0.56381    0.027
 3778.00    0.37966   0.58617    0.027
 3779.00    0.23627   0.59880    0.027
 3780.00    0.27433   0.62497    0.027
 3781.00    0.27829   0.65534    0.028
 3782.00    0.16663   0.67727    0.028
 3783.00    0.08081   0.70701    0.029
 3784.00    0.06891   0.74183    0.029
 3785.00   -0.02239   0.75483    0.000
 3786.00   -0.30768   0.75071    0.000
 3787.00   -0.38647   0.75730    0.000
 3788.00   -0.03001   0.77085    0.000
 3789.00    0.24825   0.74139    0.029
 3790.00    0.38329   0.67140    0.029
 3791.00    0.46847   0.62638    0.028
 3792.00    0.47386   0.61274    0.028
 3793.00    0.50300   0.60033    0.027
 3794.00    0.56549   0.59904    0.027
 3795.00    0.53066   0.61447    0.027
 3796.00    0.37554   0.60986    0.027
 3797.00    0.28022   0.56795    0.027
 3798.00    0.25005   0.51379    0.027
 3799.00    0.32362   0.47353    0.027
 3800.00    0.49688   0.43947    0.027
 3801.00    0.54695   0.39063    0.027
 3802.00    0.49263   0.35552    0.027
 3803.00    0.43467   0.38295    0.027
 3804.00    0.37399   0.46031    0.026
 3805.00    0.40348   0.53496    0.026
 3806.00    0.49210   0.59347    0.027
 3807.00    0.47334   0.64623    0.027
 3808.00    0.39295   0.67640    0.026
 3809.00    0.34537   0.67617    0.026
 3810.00    0.31419   0.65427    0.026
 3811.00    0.28829   0.64279    0.026
 3812.00    0.26467   0.67680    0.027
 3813.00    0.42786   0.73201    0.027
 3814.00    0.66033   0.76788    0.027
 3815.00    0.63011   0.77139    0.027
 3816.00    0.51731   0.73781    0.028
 3817.00    0.44113   0.67941    0.027
 3818.00    0.37455   0.63679    0.027
 3819.00    0.46569   0.62039    0.027
 3820.00    0.59063   0.63266    0.028
 3821.00    0.66553   0.67628    0.028
 3822.00    0.73194   0.70139    0.028
 3823.00    0.56466   0.66721    0.028
 3824.00    0.36740   0.61068    0.028
 3825.00    0.06844   0.60474    0.027
 3826.00   -0.23964   0.64414    0.000
 3827.00   -0.05714   0.64877    0.000
 3828.00    0.15173   0.59683    0.027
 3829.00    0.12030   0.54931    0.027
 3830.00    0.08666   0.53591    0.027
 3831.00    0.27347   0.53268    0.028
 3832.00    0.46537   0.52348    0.028
 3833.00    0.77069   0.51379    0.028
 3834.00    1.03451   0.50807    0.029
 3835.00    0.78228   0.48276    0.029
 3836.00    0.54916   0.42680    0.028
 3837.00    0.47748   0.37251    0.027
 3838.00    0.43139   0.33801    0.027
 3839.00    0.54621   0.32847    0.027
 3840.00    0.66958   0.35031    0.027
 3841.00    0.83517   0.37937    0.027
 3842.00    0.92865   0.39759    0.028
 3843.00    0.73352   0.41926    0.027
 3844.00    0.52374   0.44960    0.027
 3845.00    0.26527   0.49710    0.027
 3846.00    0.08009   0.56261    0.027
 3847.00    0.10074   0.61411    0.000
 3848.00    0.12947   0.64083    0.000
 3849.00    0.17765   0.65123    0.000
 3850.00    0.22420   0.66148    0.000
 3851.00    0.26737   0.68811    0.000
 3852.00    0.30791   0.70603    0.000
 3853.00    0.34373   0.68630    0.000
 3854.00    0.38990   0.66927    0.000
 3855.00    0.45238   0.69921    0.000
 3856.00    0.47060   0.73790    0.000
 3857.00    0.42755   0.74255    0.000
 3858.00    0.38430   0.72596    0.000
 3859.00    0.34080   0.70252    0.000
 3860.00    0.29729   0.68664    0.000
 3861.00    0.25377   0.69444    0.000
 3862.00    0.41179   0.68825    0.000
 3863.00    0.76078   0.65720    0.000
 3864.00    0.88341   0.65646    0.000
 3865.00    0.81695   0.70067    0.000
 3866.00    0.86533   0.74862    0.000
 3867.00    0.99817   0.77158    0.000
 3868.00    0.97917   0.76972    0.000
 3869.00    0.86210   0.75281    0.000
 3870.00    0.86695   0.74074    0.000
 3871.00    0.94071   0.74596    0.000
 3872.00    0.83113   0.75709    0.000
 3873.00    0.63137   0.75584    0.000
 3874.00    0.45289   0.73144    0.000
 3875.00    0.28346   0.68926    0.000
 3876.00    0.45206   0.64699    0.000
 3877.00    0.74378   0.64267    0.000
 3878.00    0.71524   0.68396    0.000
 3879.00    0.58798   0.72535    0.000
 3880.00    0.48646   0.72556    0.000
 3881.00    0.39154   0.67459    0.026
 3882.00    0.48664   0.60984    0.026
 3883.00    0.62147   0.60289    0.025
 3884.00    0.35451   0.63750    0.026
 3885.00    0.02128   0.63406    0.026
 3886.00   -0.00919   0.59785    0.000
 3887.00   -0.00218   0.58526    0.000
 3888.00    0.17023   0.58667    0.026
 3889.00    0.35679   0.54544    0.026
 3890.00    0.40051   0.47222    0.026
 3891.00    0.43712   0.41978    0.026
 3892.00    0.53977   0.38964    0.026
 3893.00    0.63818   0.38062    0.026
 3894.00    0.39314   0.42026    0.026
 3895.00    0.17313   0.49449    0.026
 3896.00    0.46517   0.55928    0.026
 3897.00    0.73007   0.59381    0.027
 3898.00    0.67396   0.60505    0.026
 3899.00    0.60901   0.60853    0.026
 3900.00    0.47208   0.62880    0.025
 3901.00    0.36733   0.66160    0.025
 3902.00    0.45914   0.67237    0.025
 3903.00    0.53672   0.66460    0.024
 3904.00    0.54575   0.67651    0.024
 3905.00    0.54118   0.71789    0.023
 3906.00    0.48335   0.73704    0.023
 3907.00    0.43413   0.72179    0.023
 3908.00    0.41294   0.71198    0.024
 3909.00    0.38458   0.69780    0.025
 3910.00    0.33645   0.68694    0.025
 3911.00    0.36826   0.71919    0.026
 3912.00    0.58884   0.77631    0.026
 3913.00    0.71622   0.81615    0.027
 3914.00    0.65337   0.83191    0.027
 3915.00    0.57052   0.84323    0.028
 3916.00    0.45214   0.84789    0.028
 3917.00    0.44960   0.83034    0.028
 3918.00    0.62704   0.81179    0.028
 3919.00    0.76867   0.81030    0.028
 3920.00    0.86144   0.80238    0.028
 3921.00    0.90986   0.78765    0.028
 3922.00    0.90502   0.77536    0.029
 3923.00    0.93497   0.75652    0.028
 3924.00    1.00175   0.73416    0.028
 3925.00    0.88801   0.72529    0.027
 3926.00    0.60563   0.73370    0.027
 3927.00    0.47396   0.74951    0.027
 3928.00    0.46642   0.76306    0.027
 3929.00    0.40564   0.75201    0.027
 3930.00    0.30626   0.71780    0.028
 3931.00    0.38546   0.67461    0.028
 3932.00    0.57831   0.62051    0.027
 3933.00    0.53857   0.56304    0.027
 3934.00    0.36939   0.50458    0.028
 3935.00    0.09731   0.43669    0.027
 3936.00   -0.22459   0.35673    0.000
 3937.00   -0.04734   0.28254    0.000
 3938.00    0.33858   0.25730    0.027
 3939.00    0.59010   0.30362    0.028
 3940.00    0.79355   0.39521    0.028
 3941.00    0.80605   0.48679    0.028
 3942.00    0.76084   0.56008    0.028
 3943.00    0.79022   0.62534    0.028
 3944.00    0.83835   0.67638    0.028
 3945.00    0.83188   0.69703    0.028
 3946.00    0.81428   0.69675    0.029
 3947.00    0.94226   0.68455    0.029
 3948.00    1.09356   0.67571    0.029
 3949.00    1.11372   0.70538    0.030
 3950.00    1.11823   0.75797    0.030
 3951.00    0.80162   0.77285    0.030
 3952.00    0.45885   0.75266    0.029
 3953.00    0.56397   0.74781    0.029
 3954.00    0.68968   0.77026    0.030
 3955.00    0.57305   0.78462    0.030
 3956.00    0.45316   0.76920    0.030
 3957.00    0.32411   0.76060    0.030
 3958.00    0.21859   0.78338    0.029
 3959.00    0.55881   0.78591    0.029
 3960.00    0.86456   0.74270    0.000
 3961.00    0.78179   0.70965    0.000
 3962.00    0.71818   0.71961    0.000
 3963.00    0.80519   0.73690    0.000
 3964.00    0.89633   0.71136    0.000
 3965.00    1.01196   0.63939    0.000
 3966.00    1.13137   0.57265    0.000
 3967.00    1.26855   0.54093    0.000
 3968.00    1.27877   0.51718    0.000
 3969.00    0.80245   0.47287    0.000
 3970.00    0.47442   0.40254    0.000
 3971.00    0.62036   0.31970    0.000
 3972.00    0.80038   0.24841    0.000
 3973.00    1.07272   0.21463    0.000
 3974.00    1.20248   0.23119    0.000
 3975.00    1.00113   0.28804    0.000
 3976.00    0.92431   0.35978    0.000
 3977.00    1.09763   0.42551    0.000
 3978.00    1.18785   0.48596    0.000
 3979.00    1.13271   0.54550    0.000
 3980.00    1.09869   0.59264    0.000
 3981.00    1.09701   0.62975    0.029
 3982.00    0.98979   0.67350    0.029
 3983.00    0.74064   0.72269    0.029
 3984.00    0.57250   0.76099    0.029
 3985.00    0.50028   0.77083    0.029
 3986.00    0.59459   0.75907    0.029
 3987.00    0.86280   0.75493    0.028
 3988.00    0.95994   0.76979    0.028
 3989.00    0.89954   0.79336    0.028
 3990.00    0.75718   0.80852    0.028
 3991.00    0.54828   0.82260    0.028
 3992.00    0.44842   0.84960    0.028
 3993.00    0.42647   0.86079    0.028
 3994.00    0.51645   0.85169    0.028
 3995.00    0.67661   0.85767    0.028
 3996.00    0.88628   0.88268    0.028
 3997.00    1.12309   0.90316    0.028
 3998.00    1.02847   0.90236    0.028
 3999.00    0.77598   0.88545    0.028
 4000.00    0.67159   0.86116    0.028
 4001.00    0.62808   0.83494    0.028
 4002.00    0.79182   0.83111    0.029
 4003.00    1.02835   0.87071    0.029
 4004.00    0.79682   0.91831    0.029
 4005.00    0.42660   0.93474    0.029
 4006.00    0.56951   0.93867    0.029
 4007.00    0.83847   0.94481    0.029
 4008.00    0.95761   0.91576    0.029
 4009.00    1.04696   0.84658    0.030
 4010.00    0.74608   0.81252    0.029
 4011.00    0.38457   0.85175    0.029
 4012.00    0.64108   0.90978    0.029
 4013.00    0.96865   0.93721    0.030
 4014.00    0.86891   0.94258    0.030
 4015.00    0.73613   0.94379    0.029
 4016.00    0.85943   0.94050    0.030
 4017.00    0.99351   0.93912    0.030
 4018.00    1.00323   0.94287    0.030
 4019.00    1.00845   0.95423    0.030
 4020.00    0.86569   0.96196    0.030
 4021.00    0.72815   0.94903    0.031
 4022.00    0.68267   0.94417    0.030
 4023.00    0.67889   0.97120    0.029
 4024.00    1.12367   0.99239    0.030
 4025.00    1.49870   0.98182    0.030
 4026.00    1.34426   0.96437    0.030
 4027.00    1.21211   0.95295    0.030
 4028.00    1.20859   0.93331    0.030
 4029.00    1.17554   0.92217    0.030
 4030.00    1.00715   0.94733    0.029
 4031.00    0.89336   0.98612    0.028
 4032.00    0.98434   1.00340    0.028
 4033.00    1.10244   0.98112    0.029
 4034.00    1.30553   0.91447    0.028
 4035.00    1.37745   0.84824    0.028
 4036.00    1.10043   0.82397    0.028
 4037.00    0.97423   0.82661    0.028
 4038.00    1.19243   0.84364    0.028
 4039.00    1.27456   0.87774    0.029
 4040.00    1.08767   0.92882    0.028
 4041.00    0.97764   0.98395    0.028
 4042.00    1.00000   1.01623    0.029
 4043.00    1.06730   1.01297    0.029
 4044.00    1.20238   0.98387    0.029
 4045.00    1.16970   0.96066    0.028
 4046.00    0.91465   0.96867    0.028
 4047.00    0.71713   0.97127    0.028
 4048.00    0.58679   0.91395    0.028
 4049.00    0.63132   0.81636    0.028
 4050.00    0.85589   0.77110    0.028
 4051.00    1.06290   0.82772    0.028
 4052.00    1.25396   0.91338    0.028
 4053.00    1.35462   0.95724    0.028
 4054.00    1.38294   0.97553    0.028
 4055.00    1.31573   0.98307    0.028
 4056.00    1.18125   0.96765    0.028
 4057.00    0.87705   0.93862    0.028
 4058.00    0.46802   0.91191    0.028
 4059.00    0.31229   0.89684    0.028
 4060.00    0.29323   0.89563    0.028
 4061.00    0.33390   0.88478    0.029
 4062.00    0.40255   0.86658    0.029
 4063.00    0.61960   0.88096    0.029
 4064.00    0.89662   0.92610    0.029
 4065.00    0.79427   0.94967    0.029
 4066.00    0.56111   0.91130    0.029
 4067.00    0.57171   0.83253    0.029
 4068.00    0.65310   0.79495    0.029
 4069.00    0.62816   0.83348    0.029
 4070.00    0.57767   0.87529    0.029
 4071.00    0.80632   0.87659    0.029
 4072.00    1.08905   0.88882    0.029
 4073.00    1.25209   0.93131    0.030
 4074.00    1.39710   0.94014    0.030
 4075.00    1.24600   0.88328    0.030
 4076.00    1.06214   0.83484    0.030
 4077.00    0.88437   0.85922    0.030
 4078.00    0.70706   0.90589    0.029
 4079.00    0.88050   0.90283    0.030
 4080.00    1.06738   0.84356    0.031
 4081.00    1.08013   0.77055    0.031
 4082.00    1.09104   0.74528    0.030
 4083.00    1.06876   0.78841    0.030
 4084.00    1.02771   0.86119    0.030
 4085.00    0.67742   0.91873    0.029
 4086.00    0.37069   0.93261    0.029
 4087.00    0.51218   0.90362    0.029
 4088.00    0.64152   0.86596    0.029
 4089.00    0.68166   0.84666    0.029
 4090.00    0.73857   0.85217    0.029
 4091.00    0.88958   0.88024    0.029
 4092.00    1.02103   0.91280    0.000
 4093.00    1.06492   0.92470    0.000
 4094.00    1.07431   0.91108    0.000
 4095.00    0.95693   0.88558    0.000
 4096.00    0.92833   0.85906    0.000
 4097.00    1.17270   0.84418    0.000
 4098.00    1.28740   0.83666    0.000
 4099.00    1.06317   0.80493    0.000
 4100.00    0.83608   0.75200    0.000
 4101.00    0.60257   0.71158    0.000
 4102.00    0.48124   0.68812    0.000
 4103.00    0.57821   0.65977    0.000
 4104.00    0.68946   0.60371    0.000
 4105.00    0.82495   0.52471    0.000
 4106.00    0.94842   0.48088    0.000
 4107.00    1.05402   0.51399    0.000
 4108.00    1.02386   0.58745    0.000
 4109.00    0.81630   0.65602    0.000
 4110.00    0.69684   0.71183    0.000
 4111.00    0.67879   0.74926    0.000
 4112.00    0.78073   0.76576    0.000
 4113.00    1.00447   0.76855    0.027
 4114.00    1.11531   0.76626    0.027
 4115.00    1.12507   0.77049    0.027
 4116.00    1.02450   0.78778    0.027
 4117.00    0.83686   0.81713    0.027
 4118.00    0.94975   0.84889    0.027
 4119.00    1.27117   0.87283    0.027
 4120.00    1.30504   0.89043    0.027
 4121.00    1.16395   0.89466    0.027
 4122.00    0.74536   0.86959    0.027
 4123.00    0.17935   0.83749    0.027
 4124.00    0.20511   0.83846    0.027
 4125.00    0.50373   0.85851    0.028
 4126.00    0.77358   0.86302    0.028
 4127.00    1.03201   0.86082    0.028
 4128.00    0.85808   0.87646    0.027
 4129.00    0.53783   0.90101    0.027
 4130.00    0.68047   0.90476    0.027
 4131.00    0.95480   0.88224    0.028
 4132.00    1.14612   0.85573    0.028
 4133.00    1.31795   0.84839    0.028
 4134.00    1.02710   0.85410    0.028
 4135.00    0.64893   0.84472    0.027
 4136.00    0.74136   0.81481    0.028
 4137.00    0.90252   0.79862    0.028
 4138.00    1.13159   0.81577    0.029
 4139.00    1.36787   0.85647    0.029
 4140.00    1.19887   0.90210    0.029
 4141.00    1.00183   0.92638    0.029
 4142.00    1.09418   0.93589    0.029
 4143.00    1.19651   0.95159    0.029
 4144.00    1.08920   0.96396    0.029
 4145.00    0.98612   0.95490    0.028
 4146.00    1.03652   0.90748    0.029
 4147.00    1.07767   0.83067    0.029
 4148.00    0.97589   0.78843    0.029
 4149.00    0.85684   0.82164    0.029
 4150.00    0.56754   0.88188    0.029
 4151.00    0.39735   0.91470    0.029
 4152.00    1.07268   0.91914    0.029
 4153.00    1.58812   0.90587    0.030
 4154.00    1.23076   0.88881    0.029
 4155.00    0.98005   0.88635    0.029
 4156.00    1.19550   0.89105    0.029
 4157.00    1.29349   0.88432    0.029
 4158.00    0.96903   0.86494    0.028
 4159.00    0.64070   0.85139    0.027
 4160.00    0.30072   0.85182    0.027
 4161.00    0.18041   0.85797    0.027
 4162.00    0.62425   0.87535    0.028
 4163.00    0.97670   0.90278    0.029
 4164.00    1.12728   0.91969    0.029
 4165.00    1.24244   0.91961    0.028
 4166.00    1.28976   0.92472    0.029
 4167.00    1.26507   0.94178    0.029
 4168.00    1.12004   0.94803    0.028
 4169.00    0.97746   0.94147    0.028
 4170.00    0.83847   0.92834    0.027
 4171.00    0.75817   0.90316    0.027
 4172.00    0.75345   0.88863    0.027
 4173.00    0.82527   0.90658    0.027
 4174.00    0.98394   0.92273    0.028
 4175.00    0.96811   0.89512    0.028
 4176.00    0.77762   0.83272    0.027
 4177.00    0.75167   0.78481    0.027
 4178.00    0.87097   0.78826    0.027
 4179.00    1.00155   0.82462    0.027
 4180.00    1.14091   0.85055    0.027
 4181.00    1.05698   0.84676    0.027
 4182.00    0.82033   0.83052    0.027
 4183.00    0.77753   0.83599    0.027
 4184.00    0.85091   0.86608    0.027
 4185.00    0.79710   0.88290    0.027
 4186.00    0.67678   0.87065    0.027
 4187.00    0.73174   0.86089    0.027
 4188.00    0.86621   0.87481    0.027
 4189.00    0.97656   0.90068    0.027
 4190.00    1.07749   0.90642    0.027
 4191.00    1.01695   0.87083    0.027
 4192.00    0.90277   0.83839    0.026
 4193.00    0.77423   0.85854    0.026
 4194.00    0.64169   0.89649    0.026
 4195.00    0.72167   0.90307    0.026
 4196.00    0.85041   0.90222    0.027
 4197.00    0.95439   0.92956    0.026
 4198.00    1.05382   0.95171    0.026
 4199.00    0.89186   0.92651    0.026
 4200.00    0.69293   0.87867    0.026
 4201.00    0.81511   0.84557    0.026
 4202.00    0.97003   0.81999    0.025
 4203.00    0.84215   0.80516    0.025
 4204.00    0.69585   0.82240    0.025
 4205.00    0.61099   0.84175    0.025
 4206.00    0.52855   0.83461    0.025
 4207.00    0.79495   0.83407    0.026
 4208.00    1.05538   0.85419    0.026
 4209.00    1.14054   0.87179    0.026
 4210.00    1.22231   0.88834    0.026
 4211.00    1.25484   0.91102    0.026
 4212.00    1.28374   0.92797    0.026
 4213.00    1.27837   0.92698    0.026
 4214.00    1.25934   0.91219    0.026
 4215.00    1.14642   0.90872    0.026
 4216.00    1.02551   0.92675    0.026
 4217.00    0.86215   0.93967    0.026
 4218.00    0.73271   0.91903    0.026
 4219.00    0.74814   0.86345    0.026
 4220.00    0.75228   0.81823    0.026
 4221.00    0.71666   0.83962    0.025
 4222.00    0.64854   0.90282    0.025
 4223.00    0.48414   0.94208    0.025
 4224.00    0.43655   0.95297    0.026
 4225.00    0.68374   0.95925    0.026
 4226.00    0.87165   0.95129    0.026
 4227.00    0.93073   0.91637    0.026
 4228.00    0.95916   0.86485    0.027
 4229.00    0.92980   0.79932    0.026
 4230.00    0.94291   0.71837    0.026
 4231.00    1.02594   0.66451    0.025
 4232.00    1.06146   0.70417    0.025
 4233.00    1.02838   0.81595    0.025
 4234.00    0.98714   0.90680    0.025
 4235.00    0.93553   0.94481    0.025
 4236.00    0.88370   0.93897    0.024
 4237.00    0.83161   0.89520    0.025
 4238.00    0.81951   0.85975    0.025
 4239.00    0.84686   0.85761    0.025
 4240.00    0.83327   0.85363    0.025
 4241.00    0.78405   0.84875    0.025
 4242.00    0.78965   0.85997    0.025
 4243.00    0.83728   0.86591    0.026
 4244.00    0.75762   0.86962    0.026
 4245.00    0.59217   0.89337    0.026
 4246.00    0.75639   0.91917    0.026
 4247.00    1.11525   0.92743    0.027
 4248.00    1.17766   0.94144    0.027
 4249.00    1.08744   0.96128    0.027
 4250.00    1.08906   0.94756    0.027
 4251.00    1.13165   0.90235    0.028
 4252.00    0.93705   0.86980    0.028
 4253.00    0.65152   0.86057    0.027
 4254.00    0.76669   0.84395    0.027
 4255.00    1.01245   0.82840    0.027
 4256.00    0.97560   0.85224    0.027
 4257.00    0.86160   0.88451    0.027
 4258.00    0.88289   0.87246    0.027
 4259.00    0.93449   0.84641    0.027
 4260.00    0.86737   0.86356    0.027
 4261.00    0.77900   0.91071    0.027
 4262.00    1.08987   0.92548    0.028
 4263.00    1.45537   0.88655    0.028
 4264.00    1.25028   0.82954    0.027
 4265.00    0.98945   0.79931    0.026
 4266.00    1.20907   0.82689    0.027
 4267.00    1.45808   0.89421    0.027
 4268.00    1.44428   0.94695    0.026
 4269.00    1.42188   0.96829    0.026
 4270.00    1.10217   0.97514    0.026
 4271.00    0.78471   0.96440    0.025
 4272.00    0.52664   0.93206    0.025
 4273.00    0.30112   0.89882    0.025
 4274.00    0.52310   0.86415    0.025
 4275.00    0.72341   0.80626    0.026
 4276.00    0.72676   0.75156    0.026
 4277.00    0.72904   0.75150    0.026
 4278.00    0.72422   0.78036    0.026
 4279.00    0.74970   0.79232    0.026
 4280.00    0.93201   0.81835    0.026
 4281.00    1.03419   0.87606    0.026
 4282.00    0.80179   0.92442   -2.000
 4283.00    0.60947   0.93454   -2.000
 4284.00    0.55549   0.90906   -2.000
 4285.00    0.53057   0.87683   -2.000
 4286.00    0.59015   0.86460   -2.000
 4287.00    0.65918   0.86602   -2.000
 4288.00    0.75163   0.87277   -2.000
 4289.00    0.87629   0.87345   -2.000
 4290.00    1.06980   0.86050   -2.000
 4291.00    1.08951   0.85258   -2.000
 4292.00    0.78653   0.84431   -2.000
 4293.00    0.54147   0.80351   -2.000
 4294.00    0.39034   0.74525   -2.000
 4295.00    0.43965   0.73616   -2.000
 4296.00    0.77412   0.79311   -2.000
 4297.00    0.94345   0.85302   -2.000
 4298.00    0.90608   0.86277    0.025
 4299.00    0.99101   0.84153    0.025
 4300.00    1.21083   0.83302    0.025
 4301.00    1.21314   0.82801    0.025
 4302.00    1.00384   0.79927    0.024
 4303.00    0.77618   0.74241    0.024
 4304.00    0.53277   0.68377    0.024
 4305.00    0.49758   0.66933    0.024
 4306.00    0.61973   0.68772    0.024
 4307.00    0.64075   0.69936    0.024
 4308.00    0.59460   0.71517    0.024
 4309.00    0.84890   0.73719    0.024
 4310.00    1.27791   0.73771    0.024
 4311.00    1.36687   0.71345    0.024
 4312.00    1.28349   0.67596    0.023
 4313.00    1.08922   0.65388    0.023
 4314.00    0.84629   0.67544    0.023
 4315.00    0.72152   0.72233    0.023
 4316.00    0.64125   0.75994    0.023
 4317.00    0.67338   0.77542    0.023
 4318.00    0.74145   0.77743    0.023
 4319.00    0.97954   0.79173    0.023
 4320.00    1.26308   0.84943    0.024
 4321.00    1.16905   0.92592    0.024
 4322.00    0.99240   0.95862    0.024
 4323.00    0.87830   0.94590    0.024
 4324.00    0.77509   0.92126    0.024
 4325.00    0.82779   0.89541    0.024
 4326.00    0.90111   0.87643    0.023
 4327.00    0.86879   0.85708    0.024
 4328.00    0.82660   0.80259    0.024
 4329.00    0.88309   0.72029    0.024
 4330.00    0.94523   0.66478    0.000
 4331.00    0.90981   0.68883    0.000
 4332.00    0.87296   0.77880    0.000
 4333.00    0.93288   0.85384    0.000
 4334.00    0.98291   0.86550    0.000
 4335.00    0.79555   0.83964    0.000
 4336.00    0.63043   0.82565    0.000
 4337.00    0.75475   0.82842    0.000
 4338.00    0.88182   0.82746    0.000
 4339.00    1.03292   0.82427    0.000
 4340.00    1.14988   0.80916    0.000
 4341.00    1.04631   0.74846    0.000
 4342.00    0.97113   0.65156    0.000
 4343.00    1.03911   0.56929    0.000
 4344.00    1.06918   0.51030    0.000
 4345.00    0.94450   0.48192    0.000
 4346.00    0.87080   0.52599    0.000
 4347.00    0.96956   0.61290    0.000
 4348.00    1.06861   0.67050    0.000
 4349.00    1.16842   0.70629    0.000
 4350.00    1.22201   0.74914    0.000
 4351.00    1.16287   0.77893    0.024
 4352.00    1.07073   0.79762    0.024
 4353.00    0.90918   0.83135    0.024
 4354.00    0.91749   0.85327    0.024
 4355.00    1.23631   0.81126    0.025
 4356.00    1.33031   0.73332    0.025
 4357.00    1.06508   0.71202    0.024
 4358.00    0.79803   0.76335    0.024
 4359.00    0.52843   0.81636    0.024
 4360.00    0.46248   0.84509    0.024
 4361.00    0.64779   0.87214    0.024
 4362.00    0.92602   0.88423    0.024
 4363.00    1.30532   0.86352    0.024
 4364.00    1.34962   0.84611    0.025
 4365.00    1.07257   0.87007    0.025
 4366.00    0.93425   0.91002    0.025
 4367.00    0.91329   0.92579    0.025
 4368.00    0.89538   0.92971    0.025
 4369.00    0.87975   0.94912    0.025
 4370.00    0.83819   0.96145    0.025
 4371.00    0.77968   0.93297    0.024
 4372.00    0.86093   0.88570    0.024
 4373.00    1.02225   0.86666    0.025
 4374.00    1.03435   0.87742    0.025
 4375.00    0.97202   0.88989    0.024
 4376.00    1.10913   0.90005    0.025
 4377.00    1.33231   0.89940    0.025
 4378.00    1.21877   0.86363    0.025
 4379.00    0.98065   0.80962    0.025
 4380.00    0.82127   0.79666    0.024
 4381.00    0.68660   0.84574    0.024
 4382.00    0.81178   0.91020    0.024
 4383.00    1.00495   0.93896    0.024
 4384.00    0.95281   0.93023    0.024
 4385.00    0.84828   0.91095    0.024
 4386.00    0.86453   0.87950    0.024
 4387.00    0.90122   0.80020    0.024
 4388.00    0.92387   0.69728    0.024
 4389.00    0.94473   0.66675    0.024
 4390.00    0.95754   0.73444    0.024
 4391.00    0.96964   0.82213    0.024
 4392.00    1.10589   0.86086    0.024
 4393.00    1.24875   0.86178    0.025
 4394.00    1.17280   0.85543    0.025
 4395.00    1.09210   0.84922    0.025
 4396.00    0.97262   0.85890    0.024
 4397.00    0.86224   0.88336    0.024
 4398.00    0.95198   0.88523    0.024
 4399.00    1.03826   0.85722    0.024
 4400.00    1.08164   0.85095    0.024
 4401.00    1.11223   0.89656    0.024
 4402.00    1.03515   0.94253    0.024
 4403.00    0.98219   0.93641    0.024
 4404.00    1.08046   0.89041    0.024
 4405.00    1.15112   0.84902    0.024
 4406.00    1.08600   0.85842    0.024
 4407.00    1.02678   0.89440    0.024
 4408.00    0.99111   0.87283    0.024
 4409.00    0.97556   0.80298    0.024
 4410.00    1.02669   0.78588    0.024
 4411.00    0.98265   0.82987    0.024
 4412.00    0.67195   0.85132    0.024
 4413.00    0.51650   0.84646    0.023
 4414.00    0.73316   0.87242    0.024
 4415.00    0.86646   0.92130    0.024
 4416.00    0.82719   0.95326    0.024
 4417.00    0.87288   0.96542    0.024
 4418.00    1.07149   0.94389    0.024
 4419.00    1.14058   0.87404    0.024
 4420.00    1.00577   0.81472    0.024
 4421.00    0.97295   0.82183    0.024
 4422.00    1.08107   0.86300    0.024
 4423.00    1.15201   0.90818    0.024
 4424.00    1.17775   0.95261    0.024
 4425.00    1.13620   0.96486    0.024
 4426.00    1.02251   0.93084    0.024
 4427.00    1.06791   0.88700    0.024
 4428.00    1.26378   0.87981    0.024
 4429.00    1.28772   0.90126    0.024
 4430.00    1.16830   0.90925    0.024
 4431.00    1.10567   0.90271    0.024
 4432.00    1.08473   0.90471    0.023
 4433.00    0.95079   0.91764    0.023
 4434.00    0.74399   0.91259    0.024
 4435.00    0.74870   0.88840    0.024
 4436.00    0.87271   0.89276    0.024
 4437.00    0.87639   0.91097    0.024
 4438.00    0.82101   0.88977    0.024
 4439.00    0.89441   0.83987    0.024
 4440.00    1.02247   0.81474    0.023
 4441.00    0.94920   0.84957    0.024
 4442.00    0.80277   0.91765    0.024
 4443.00    0.98370   0.96732    0.024
 4444.00    1.26530   0.97983    0.025
 4445.00    1.34550   0.95180    0.024
 4446.00    1.37413   0.89613    0.024
 4447.00    1.22056   0.84408    0.024
 4448.00    1.02901   0.82845    0.024
 4449.00    1.01085   0.86684    0.024
 4450.00    1.02119   0.92960    0.024
 4451.00    1.08493   0.95621    0.024
 4452.00    1.15524   0.94508    0.023
 4453.00    0.97967   0.94354    0.023
 4454.00    0.78318   0.94268    0.023
 4455.00    0.87722   0.92426    0.023
 4456.00    0.98561   0.92135    0.023
 4457.00    0.94521   0.92866    0.023
 4458.00    0.90388   0.90364    0.022
 4459.00    0.95261   0.84552    0.022
 4460.00    1.00331   0.80534    0.022
 4461.00    1.09414   0.81852    0.000
 4462.00    1.17284   0.84630    0.000
 4463.00    1.10896   0.84730    0.000
 4464.00    1.04242   0.83833    0.000
 4465.00    0.95436   0.83382    0.000
 4466.00    0.91133   0.82148    0.000
 4467.00    1.14232   0.82935    0.000
 4468.00    1.34525   0.87510    0.000
 4469.00    1.41356   0.90439    0.000
 4470.00    1.44686   0.89875    0.000
 4471.00    1.34345   0.89070    0.000
 4472.00    1.22671   0.88644    0.000
 4473.00    1.06661   0.87181    0.000
 4474.00    0.98394   0.85610    0.000
 4475.00    1.11428   0.86700    0.000
 4476.00    1.15455   0.89623    0.000
 4477.00    0.98259   0.92535    0.000
 4478.00    0.84571   0.95208    0.000
 4479.00    0.78031   0.96316    0.000
 4480.00    0.79503   0.95448    0.000
 4481.00    0.95179   0.95713    0.000
 4482.00    1.04872   0.98094    0.022
 4483.00    1.05287   0.98254    0.022
 4484.00    1.14280   0.93455    0.022
 4485.00    1.34956   0.86058    0.022
 4486.00    1.40869   0.81071    0.022
 4487.00    1.29080   0.82424    0.022
 4488.00    1.20894   0.88772    0.022
 4489.00    1.16519   0.94659    0.022
 4490.00    1.12741   0.97702    0.022
 4491.00    1.09522   0.98396    0.022
 4492.00    1.05458   0.96216    0.022
 4493.00    1.00701   0.91340    0.022
 4494.00    1.03767   0.87030    0.022
 4495.00    1.12492   0.86790    0.022
 4496.00    0.99600   0.90155    0.022
 4497.00    0.72975   0.93454    0.022
 4498.00    0.77696   0.92979    0.022
 4499.00    0.99828   0.89174    0.022
 4500.00    0.99151   0.87096    0.022
 4501.00    0.87454   0.88496    0.022
 4502.00    0.91389   0.91720    0.022
 4503.00    1.01845   0.95091    0.022
 4504.00    1.14329   0.96364    0.022
 4505.00    1.27536   0.94538    0.022
 4506.00    1.19684   0.91821    0.022
 4507.00    1.05484   0.93456    0.021
 4508.00    1.02152   0.98937    0.021
 4509.00    1.01543   1.02218    0.021
 4510.00    1.03956   1.01815    0.021
 4511.00    1.06982   0.99731    0.021
 4512.00    1.02472   0.97261    0.022
 4513.00    0.96759   0.95992    0.022
 4514.00    1.02357   0.97117    0.022
 4515.00    1.09299   0.99088    0.021
 4516.00    1.12139   0.99173    0.022
 4517.00    1.14646   0.96992    0.022
 4518.00    1.10097   0.94452    0.022
 4519.00    1.05227   0.92493    0.022
 4520.00    1.01353   0.92125    0.022
 4521.00    0.97672   0.93374    0.021
 4522.00    1.03277   0.93470    0.021
 4523.00    1.08323   0.92676    0.021
 4524.00    1.02905   0.93645    0.021
 4525.00    0.96755   0.95490    0.021
 4526.00    0.82410   0.96011    0.021
 4527.00    0.72240   0.93503    0.021
 4528.00    0.94735   0.90961    0.021
 4529.00    1.14711   0.90829    0.021
 4530.00    1.19787   0.89577    0.021
 4531.00    1.21384   0.86504    0.021
 4532.00    1.06693   0.83608    0.021
 4533.00    0.97022   0.81567    0.021
 4534.00    1.06535   0.81460    0.021
 4535.00    1.15468   0.83372    0.021
 4536.00    1.22552   0.85780    0.021
 4537.00    1.23123   0.87617    0.021
 4538.00    1.06094   0.85922    0.021
 4539.00    0.87711   0.82225    0.021
 4540.00    0.66191   0.81822    0.021
 4541.00    0.56762   0.86829    0.021
 4542.00    0.71568   0.94221    0.021
 4543.00    0.89907   0.97110    0.021
 4544.00    1.14412   0.94713    0.021
 4545.00    1.18382   0.91146    0.021
 4546.00    0.90971   0.89671    0.021
 4547.00    0.75452   0.91608    0.021
 4548.00    0.75894   0.93676    0.021
 4549.00    0.79065   0.92197    0.021
 4550.00    0.85462   0.89882    0.000
 4551.00    0.89939   0.90193    0.000
 4552.00    0.92414   0.90929    0.000
 4553.00    0.89422   0.88598    0.000
 4554.00    0.81402   0.84399    0.000
 4555.00    0.78750   0.84694    0.000
 4556.00    0.80448   0.89098    0.000
 4557.00    0.79204   0.90352    0.000
 4558.00    0.75864   0.88049    0.000
 4559.00    0.84770   0.85245    0.000
 4560.00    1.01342   0.84277    0.000
 4561.00    1.01293   0.87162    0.000
 4562.00    0.92154   0.91850    0.000
 4563.00    0.89211   0.94185    0.000
 4564.00    0.89214   0.94649    0.000
 4565.00    0.94473   0.95223    0.000
 4566.00    1.01887   0.95989    0.000
 4567.00    1.05258   0.95431    0.000
 4568.00    1.07211   0.91816    0.000
 4569.00    0.95318   0.87853    0.000
 4570.00    0.79333   0.87117    0.000
 4571.00    0.78830   0.90115    0.000
 4572.00    0.82119   0.94734    0.000
 4573.00    0.79026   0.97073    0.000
 4574.00    0.74670   0.96604    0.000
 4575.00    0.75249   0.94099    0.000
 4576.00    0.76591   0.89415    0.000
 4577.00    0.75178   0.88297    0.000
 4578.00    0.73450   0.92959    0.000
 4579.00    0.82802   0.95830    0.000
 4580.00    0.93005   0.94879    0.000
 4581.00    0.99186   0.94234    0.000
 4582.00    1.05200   0.94333    0.000
 4583.00    1.09451   0.93149    0.000
 4584.00    1.13471   0.89974    0.000
 4585.00    1.08257   0.86775    0.000
 4586.00    1.03452   0.86107    0.000
 4587.00    1.05798   0.87345    0.000
 4588.00    1.08120   0.87562    0.000
 4589.00    1.10195   0.87040    0.000
 4590.00    1.09818   0.87252    0.000
 4591.00    0.90902   0.87754    0.000
 4592.00    0.75610   0.89602    0.000
 4593.00    0.81147   0.92223    0.000
 4594.00    0.86712   0.93672    0.000
 4595.00    0.92401   0.93052    0.000
 4596.00    0.96833   0.90473    0.000
 4597.00    0.96560   0.88272    0.000
 4598.00    0.95802   0.88476    0.000
 4599.00    0.93527   0.89220    0.000
 4600.00    0.91146   0.88756    0.000
 4601.00    0.88484   0.88722    0.000
 4602.00    0.89758   0.89409    0.000
 4603.00    1.00001   0.90250    0.000
 4604.00    1.06085   0.90840    0.000
 4605.00    1.03965   0.89380    0.000
 4606.00    0.97922   0.88379    0.000
 4607.00    0.85132   0.89660    0.000
 4608.00    0.82728   0.90560    0.000
 4609.00    0.95963   0.90388    0.000
 4610.00    1.05104   0.89649    0.000
 4611.00    1.08828   0.90097    0.000
 4612.00    1.10305   0.92426    0.000
 4613.00    1.09161   0.95774    0.000
 4614.00    1.11149   0.97994    0.000
 4615.00    1.16357   0.97011    0.000
 4616.00    1.16369   0.94470    0.000
 4617.00    1.11671   0.92883    0.000
 4618.00    1.02137   0.92152    0.000
 4619.00    0.88741   0.92929    0.000
 4620.00    0.81248   0.94257    0.000
 4621.00    0.77906   0.93726    0.000
 4622.00    0.83606   0.93634    0.000
 4623.00    0.94881   0.93228    0.000
 4624.00    1.00663   0.91194    0.000
 4625.00    1.03487   0.91646    0.000
 4626.00    0.94235   0.94325    0.000
 4627.00    0.79335   0.94936    0.000
 4628.00    0.81267   0.94618    0.000
 4629.00    0.89985   0.94691    0.000
 4630.00    0.91884   0.93530    0.000
 4631.00    0.91438   0.92555    0.000
 4632.00    1.04023   0.93320    0.000
 4633.00    1.20382   0.93152    0.000
 4634.00    1.15242   0.91157    0.000
 4635.00    1.04953   0.91464    0.000
 4636.00    1.07088   0.94421    0.000
 4637.00    1.11623   0.94581    0.000
 4638.00    0.99677   0.91456    0.000
 4639.00    0.85258   0.89686    0.000
 4640.00    0.74007   0.90250    0.000
 4641.00    0.63106   0.90730    0.000
 4642.00    0.84371   0.89466    0.000
 4643.00    1.07975   0.88018    0.000
 4644.00    0.86409   0.87712    0.000
 4645.00    0.63135   0.88010    0.000
 4646.00    0.82898   0.90108    0.000
 4647.00    1.02194   0.92164    0.000
 4648.00    0.96058   0.91526    0.000
 4649.00    0.90560   0.89968    0.000
 4650.00    0.95497   0.87816    0.000
 4651.00    1.00489   0.84006    0.000
 4652.00    1.06042   0.81625    0.000
 4653.00    1.09492   0.82740    0.000
 4654.00    0.97566   0.85789    0.000
 4655.00    0.89368   0.88920    0.000
 4656.00    1.02015   0.90557    0.000
 4657.00    1.08827   0.91289    0.000
 4658.00    0.89606   0.91406    0.000
 4659.00    0.79173   0.88980    0.000
 4660.00    1.00931   0.86346    0.000
 4661.00    1.18000   0.85888    0.000
 4662.00    1.20681   0.87677    0.000
 4663.00    1.17175   0.92013    0.000
 4664.00    0.97537   0.96096    0.000
 4665.00    0.84205   0.97064    0.000
 4666.00    0.85004   0.94979    0.000
 4667.00    0.87000   0.91604    0.000
 4668.00    0.91323   0.88804    0.000
 4669.00    0.91063   0.88280    0.000
 4670.00    0.83040   0.88016    0.000
 4671.00    0.79958   0.83735    0.000
 4672.00    0.84206   0.77833    0.000
 4673.00    0.84088   0.76978    0.000
 4674.00    0.78276   0.81188    0.000
 4675.00    0.77421   0.85920    0.000
 4676.00    0.82261   0.89116    0.000
 4677.00    0.83234   0.89689    0.000
 4678.00    0.80289   0.88503    0.000
 4679.00    0.82563   0.88128    0.000
 4680.00    0.89501   0.89491    0.000
 4681.00    0.88485   0.91872    0.000
 4682.00    0.81205   0.92150    0.000
 4683.00    0.82618   0.89454    0.000
 4684.00    0.90054   0.86890    0.000
 4685.00    0.94136   0.85857    0.000
 4686.00    0.96182   0.85375    0.000
 4687.00    1.05674   0.85998    0.000
 4688.00    1.19116   0.88322    0.000
 4689.00    1.13589   0.89977    0.000
 4690.00    0.99334   0.89981    0.000
 4691.00    0.96796   0.89740    0.000
 4692.00    0.98900   0.89044    0.000
 4693.00    0.98904   0.88275    0.000
 4694.00    0.98198   0.88462    0.000
 4695.00    0.91622   0.88316    0.000
 4696.00    0.83380   0.87250    0.000
 4697.00    0.91192   0.87273    0.000
 4698.00    1.02763   0.88409    0.000
 4699.00    1.06897   0.89552    0.000
 4700.00    1.09633   0.91058    0.000
 4701.00    1.04179   0.92151    0.000
 4702.00    0.97534   0.90683    0.000
 4703.00    0.96583   0.86760    0.000
 4704.00    0.96234   0.84302    0.000
 4705.00    0.93024   0.85137    0.000
 4706.00    0.89618   0.85598    0.000
 4707.00    0.97848   0.83690    0.000
 4708.00    1.06475   0.82034    0.000
 4709.00    0.91120   0.83949    0.000
 4710.00    0.76378   0.87066    0.000
 4711.00    0.82745   0.87406    0.000
 4712.00    0.89233   0.85182    0.000
 4713.00    0.97567   0.83329    0.000
 4714.00    1.05623   0.83190    0.000
 4715.00    1.10952   0.85162    0.000
 4716.00    1.13733   0.88520    0.000
 4717.00    0.98489   0.89898    0.000
 4718.00    0.87540   0.88205    0.000
 4719.00    0.99957   0.85308    0.000
 4720.00    1.08717   0.84877    0.000
 4721.00    1.01543   0.87972    0.000
 4722.00    0.94436   0.90644    0.000
 4723.00    0.87568   0.91427    0.000
 4724.00    0.84091   0.92403    0.000
 4725.00    0.90825   0.93349    0.000
 4726.00    0.96645   0.92815    0.000
 4727.00    1.00121   0.91250    0.000
 4728.00    0.99436   0.90753    0.000
 4729.00    0.89576   0.92311    0.000
 4730.00    0.83283   0.93818    0.000
 4731.00    0.83809   0.92383    0.000
 4732.00    0.81831   0.87613    0.000
 4733.00    0.75673   0.83444    0.000
 4734.00    0.70851   0.82682    0.000
 4735.00    0.67982   0.83323    0.000
 4736.00    0.69584   0.83966    0.000
 4737.00    0.76933   0.85765    0.000
 4738.00    0.78904   0.87680    0.000
 4739.00    0.74781   0.88632    0.000
 4740.00    0.75582   0.89071    0.000
 4741.00    0.81304   0.87251    0.000
 4742.00    0.84503   0.85609    0.000
 4743.00    0.85481   0.87962    0.000
 4744.00    0.88906   0.90418    0.000
 4745.00    0.94230   0.89614    0.000
 4746.00    0.92454   0.88193    0.000
 4747.00    0.85829   0.88605    0.000
 4748.00    0.86575   0.90018    0.000
 4749.00    0.91731   0.90237    0.000
 4750.00    0.94838   0.89447    0.000
 4751.00    0.96877   0.90077    0.000
 4752.00    0.91979   0.91229    0.000
 4753.00    0.83941   0.90957    0.000
 4754.00    0.82482   0.90648    0.000
 4755.00    0.83583   0.91172    0.000
 4756.00    0.92198   0.91005    0.000
 4757.00    1.03304   0.89500    0.000
 4758.00    1.01249   0.88061    0.000
 4759.00    0.95536   0.87015    0.000
 4760.00    0.97545   0.86509    0.000
 4761.00    1.01319   0.86424    0.019
 4762.00    0.97084   0.86928    0.019
 4763.00    0.91383   0.87906    0.018
 4764.00    0.92575   0.89028    0.019
 4765.00    0.94737   0.89663    0.019
 4766.00    0.89122   0.87968    0.019
 4767.00    0.82719   0.84667    0.018
 4768.00    0.78086   0.82943    0.018
 4769.00    0.73568   0.82556    0.018
 4770.00    0.84764   0.81536    0.018
 4771.00    0.96409   0.80858    0.018
 4772.00    0.95784   0.82280    0.018
 4773.00    0.95055   0.84826    0.018
 4774.00    0.91309   0.87262    0.018
 4775.00    0.88349   0.88405    0.018
 4776.00    0.96728   0.86898    0.018
 4777.00    1.03510   0.85170    0.018
 4778.00    0.95257   0.86145    0.018
 4779.00    0.88487   0.88950    0.018
 4780.00    0.91875   0.90341    0.018
 4781.00    0.95775   0.89753    0.018
 4782.00    1.02390   0.89982    0.017
 4783.00    1.07629   0.90422    0.017
 4784.00    1.07010   0.89292    0.017
 4785.00    1.03527   0.88232    0.017
 4786.00    0.89976   0.88299    0.017
 4787.00    0.80366   0.87494    0.017
 4788.00    0.82396   0.85444    0.017
 4789.00    0.84149   0.85313    0.017
 4790.00    0.85205   0.86439    0.017
 4791.00    0.86159   0.85215    0.017
 4792.00    0.86892   0.84222    0.017
 4793.00    0.85259   0.85037    0.017
 4794.00    0.79175   0.84879    0.017
 4795.00    0.76792   0.84749    0.017
 4796.00    0.80495   0.85800    0.017
 4797.00    0.84987   0.86917    0.017
 4798.00    0.90619   0.88698    0.017
 4799.00    0.90883   0.91241    0.017
 4800.00    0.84344   0.92588    0.017
 4801.00    0.82364   0.91839    0.018
 4802.00    0.85477   0.90007    0.017
 4803.00    0.85772   0.87667    0.017
 4804.00    0.83291   0.85374    0.017
 4805.00    0.82700   0.84684    0.017
 4806.00    0.83752   0.86491    0.018
 4807.00    0.89578   0.89277    0.018
 4808.00    0.99058   0.90406    0.018
 4809.00    1.01269   0.88851    0.018
 4810.00    0.98590   0.86373    0.018
 4811.00    0.94383   0.85608    0.018
 4812.00    0.89275   0.85445    0.017
 4813.00    0.88733   0.84926    0.017
 4814.00    0.90538   0.85405    0.017
 4815.00    0.86702   0.86630    0.017
 4816.00    0.80354   0.87150    0.017
 4817.00    0.76489   0.86976    0.017
 4818.00    0.73574   0.86850    0.017
 4819.00    0.81726   0.87154    0.018
 4820.00    0.93477   0.87793    0.018
 4821.00    0.92201   0.88558    0.018
 4822.00    0.87378   0.89264    0.018
 4823.00    0.84623   0.89758    0.018
 4824.00    0.82330   0.90293    0.017
 4825.00    0.86695   0.90280    0.018
 4826.00    0.92246   0.89564    0.018
 4827.00    0.96673   0.87583    0.018
 4828.00    1.00947   0.83457    0.018
 4829.00    0.90813   0.80981    0.018
 4830.00    0.79279   0.83154    0.018
 4831.00    0.80836   0.86405    0.018
 4832.00    0.83187   0.87218    0.018
 4833.00    0.81830   0.85998    0.018
 4834.00    0.80388   0.84927    0.018
 4835.00    0.81473   0.85065    0.018
 4836.00    0.82401   0.84464    0.018
 4837.00    0.79208   0.82840    0.018
 4838.00    0.75753   0.83064    0.018
 4839.00    0.68731   0.84872    0.018
 4840.00    0.63481   0.85628    0.018
 4841.00    0.74244   0.85115    0.017
 4842.00    0.82216   0.84981    0.017
 4843.00    0.71676   0.84456    0.017
 4844.00    0.63250   0.82492    0.018
 4845.00    0.65738   0.80844    0.018
 4846.00    0.68272   0.81182    0.018
 4847.00    0.70997   0.81838    0.018
 4848.00    0.75679   0.81054    0.000
 4849.00    0.87098   0.81008    0.000
 4850.00    0.92259   0.82736    0.000
 4851.00    0.79273   0.83816    0.000
 4852.00    0.66790   0.82518    0.000
 4853.00    0.55551   0.79502    0.000
 4854.00    0.54425   0.77855    0.000
 4855.00    0.74875   0.79000    0.000
 4856.00    0.89769   0.79912    0.000
 4857.00    0.94369   0.79274    0.000
 4858.00    0.94700   0.78250    0.000
 4859.00    0.88120   0.75572    0.000
 4860.00    0.84955   0.71093    0.000
 4861.00    0.86639   0.68804    0.000
 4862.00    0.86593   0.69725    0.000
 4863.00    0.84386   0.69428    0.000
 4864.00    0.79934   0.64944    0.000
 4865.00    0.73012   0.56794    0.000
 4866.00    0.67890   0.49266    0.000
 4867.00    0.64517   0.49482    0.000
 4868.00    0.63042   0.56636    0.000
 4869.00    0.63193   0.62876    0.000
 4870.00    0.69261   0.66726    0.000
 4871.00    0.79791   0.70059    0.000
 4872.00    0.78648   0.72359    0.000
 4873.00    0.69768   0.73576    0.000
 4874.00    0.81232   0.74594    0.000
 4875.00    1.04506   0.73563    0.018
 4876.00    0.95677   0.69612    0.018
 4877.00    0.70611   0.67877    0.018
 4878.00    0.59797   0.71207    0.018
 4879.00    0.55224   0.75176    0.018
 4880.00    0.64728   0.76514    0.018
 4881.00    0.79522   0.76930    0.018
 4882.00    0.81484   0.77803    0.018
 4883.00    0.79354   0.78903    0.018
 4884.00    0.80696   0.81387    0.018
 4885.00    0.82965   0.83283    0.018
 4886.00    0.82832   0.81775    0.018
 4887.00    0.82174   0.79882    0.018
 4888.00    0.78123   0.80196    0.018
 4889.00    0.73483   0.80235    0.018
 4890.00    0.79063   0.78384    0.018
 4891.00    0.85989   0.76663    0.018
 4892.00    0.83404   0.76962    0.018
 4893.00    0.79935   0.78354    0.018
 4894.00    0.89772   0.78683    0.018
 4895.00    1.00364   0.76376    0.018
 4896.00    0.83787   0.72993    0.018
 4897.00    0.66865   0.74363    0.018
 4898.00    0.79938   0.80351    0.018
 4899.00    0.92337   0.85586    0.018
 4900.00    0.88743   0.88380    0.018
 4901.00    0.85494   0.89187    0.018
 4902.00    0.86708   0.88951    0.017
 4903.00    0.87459   0.88355    0.017
 4904.00    0.84187   0.86445    0.018
 4905.00    0.82450   0.84059    0.018
 4906.00    0.90580   0.83914    0.018
 4907.00    0.98287   0.84514    0.017
 4908.00    1.03859   0.83369    0.018
 4909.00    1.05622   0.82668    0.018
 4910.00    0.91881   0.84752    0.017
 4911.00    0.79460   0.87652    0.017
 4912.00    0.71487   0.88174    0.017
 4913.00    0.66584   0.86208    0.017
 4914.00    0.70417   0.83105    0.017
 4915.00    0.74759   0.80010    0.017
 4916.00    0.80338   0.79126    0.017
 4917.00    0.83867   0.81040    0.017
 4918.00    0.83094   0.83417    0.017
 4919.00    0.83203   0.85103    0.017
 4920.00    0.84921   0.86836    0.017
 4921.00    0.85411   0.87724    0.017
 4922.00    0.83941   0.85840    0.017
 4923.00    0.85994   0.80723    0.017
 4924.00    0.92979   0.74504    0.017
 4925.00    0.92806   0.70530    0.017
 4926.00    0.83817   0.71229    0.017
 4927.00    0.79236   0.75585    0.017
 4928.00    0.79440   0.78695    0.017
 4929.00    0.82449   0.78538    0.017
 4930.00    0.88145   0.78813    0.017
 4931.00    0.85125   0.81798    0.016
 4932.00    0.74748   0.84738    0.016
 4933.00    0.71312   0.86226    0.016
 4934.00    0.73039   0.87587    0.016
 4935.00    0.76287   0.88297    0.016
 4936.00    0.80529   0.88030    0.016
 4937.00    0.81657   0.86598    0.016
 4938.00    0.81004   0.82744    0.016
 4939.00    0.82395   0.79526    0.016
 4940.00    0.84804   0.80857    0.000
 4941.00    0.82987   0.83260    0.000
 4942.00    0.79350   0.82016    0.000
 4943.00    0.74714   0.78013    0.000
 4944.00    0.69708   0.75636    0.000
 4945.00    0.74435   0.77978    0.000
 4946.00    0.82205   0.82757    0.000
 4947.00    0.83540   0.85569    0.000
 4948.00    0.83195   0.86675    0.000
 4949.00    0.85834   0.87477    0.000
 4950.00    0.89109   0.86785    0.000
 4951.00    0.88677   0.85210    0.000
 4952.00    0.87619   0.85337    0.000
 4953.00    0.78625   0.86773    0.000
 4954.00    0.68621   0.87539    0.000
 4955.00    0.61616   0.87756    0.000
 4956.00    0.54877   0.88132    0.000
 4957.00    0.74265   0.87765    0.000
 4958.00    0.95031   0.86354    0.000
 4959.00    0.94176   0.85204    0.000
 4960.00    0.92948   0.84519    0.000
 4961.00    0.94870   0.81601    0.000
 4962.00    0.96453   0.74922    0.000
 4963.00    0.90664   0.71252    0.000
 4964.00    0.84951   0.75864    0.000
 4965.00    0.80160   0.82704    0.000
 4966.00    0.76447   0.85506    0.000
 4967.00    0.81766   0.85290    0.000
 4968.00    0.86050   0.85150    0.000
 4969.00    0.83871   0.84799    0.000
 4970.00    0.82018   0.82622    0.000
 4971.00    0.81762   0.80251    0.000
 4972.00    0.80840   0.79667    0.000
 4973.00    0.77273   0.79954    0.000
 4974.00    0.73539   0.80374    0.000
 4975.00    0.69253   0.80923    0.000
 4976.00    0.65767   0.81824    0.000
 4977.00    0.64519   0.83168    0.000
 4978.00    0.66323   0.84283    0.000
 4979.00    0.75427   0.85166    0.000
 4980.00    0.78072   0.85595    0.000
 4981.00    0.67377   0.85157    0.000
 4982.00    0.62345   0.84071    0.000
 4983.00    0.67491   0.82178    0.000
 4984.00    0.72535   0.80417    0.000
 4985.00    0.77417   0.79767    0.000
 4986.00    0.78417   0.78366    0.000
 4987.00    0.74061   0.74579    0.000
 4988.00    0.77589   0.71046    0.000
 4989.00    0.90691   0.70945    0.000
 4990.00    0.91310   0.73338    0.000
 4991.00    0.78570   0.76482    0.000
 4992.00    0.71252   0.80088    0.000
 4993.00    0.69054   0.82406    0.000
 4994.00    0.74478   0.82261    0.000
 4995.00    0.86248   0.80773    0.000
 4996.00    0.90475   0.79474    0.000
 4997.00    0.89174   0.79838    0.000
 4998.00    0.88349   0.80650    0.000
 4999.00    0.87830   0.80447    0.000
 5000.00    0.81084   0.80917    0.000
 5001.00    0.70833   0.82085    0.000
 5002.00    0.72245   0.82392    0.000
 5003.00    0.79371   0.81706    0.000
 5004.00    0.84676   0.79715    0.000
 5005.00    0.89209   0.77017    0.000
 5006.00    0.82659   0.75332    0.000
 5007.00    0.72089   0.75201    0.000
 5008.00    0.79891   0.76162    0.000
 5009.00    0.93328   0.76678    0.000
 5010.00    0.88258   0.74839    0.000
 5011.00    0.78463   0.71775    0.000
 5012.00    0.73663   0.71594    0.000
 5013.00    0.69902   0.75368    0.000
 5014.00    0.76601   0.79139    0.000
 5015.00    0.85013   0.80012    0.000
 5016.00    0.83554   0.78579    0.000
 5017.00    0.80884   0.75661    0.000
 5018.00    0.79657   0.72584    0.000
 5019.00    0.78552   0.70886    0.000
 5020.00    0.77173   0.71571    0.000
 5021.00    0.75782   0.73788    0.000
 5022.00    0.78443   0.74370    0.000
 5023.00    0.80981   0.72781    0.000
 5024.00    0.72134   0.72433    0.000
 5025.00    0.63739   0.74310    0.000
 5026.00    0.64385   0.75587    0.000
 5027.00    0.65454   0.74999    0.000
 5028.00    0.71455   0.74975    0.000
 5029.00    0.76601   0.76840    0.016
 5030.00    0.74847   0.78581    0.016
 5031.00    0.74058   0.78702    0.016
 5032.00    0.79115   0.77038    0.016
 5033.00    0.83476   0.75649    0.016
 5034.00    0.84507   0.76928    0.016
 5035.00    0.83007   0.78978    0.016
 5036.00    0.71652   0.79932    0.016
 5037.00    0.65696   0.81106    0.016
 5038.00    0.77256   0.82895    0.016
 5039.00    0.84200   0.83285    0.016
 5040.00    0.78469   0.80501    0.016
 5041.00    0.74502   0.76646    0.016
 5042.00    0.74679   0.75769    0.016
 5043.00    0.76041   0.76717    0.016
 5044.00    0.79811   0.75492    0.016
 5045.00    0.78994   0.71472    0.016
 5046.00    0.70059   0.67242    0.016
 5047.00    0.70376   0.67439    0.016
 5048.00    0.85017   0.72832    0.016
 5049.00    0.91017   0.78373    0.016
 5050.00    0.85271   0.81594    0.016
 5051.00    0.80237   0.83496    0.016
 5052.00    0.76056   0.83384    0.016
 5053.00    0.77316   0.80339    0.016
 5054.00    0.84318   0.76518    0.016
 5055.00    0.83843   0.74711    0.016
 5056.00    0.76409   0.74638    0.016
 5057.00    0.75611   0.75079    0.016
 5058.00    0.80259   0.76555    0.016
 5059.00    0.80340   0.78946    0.016
 5060.00    0.77121   0.80649    0.016
 5061.00    0.73140   0.80960    0.016
 5062.00    0.68676   0.80902    0.016
 5063.00    0.73414   0.81457    0.016
 5064.00    0.83254   0.82074    0.016
 5065.00    0.81275   0.82408    0.016
 5066.00    0.73599   0.83121    0.016
 5067.00    0.69210   0.83839    0.016
 5068.00    0.66191   0.83074    0.016
 5069.00    0.68456   0.79764    0.016
 5070.00    0.72602   0.75849    0.016
 5071.00    0.78971   0.75060    0.016
 5072.00    0.86009   0.76476    0.017
 5073.00    0.79365   0.76731    0.017
 5074.00    0.69303   0.76579    0.017
 5075.00    0.68772   0.77924    0.016
 5076.00    0.70172   0.78758    0.016
 5077.00    0.75141   0.77210    0.016
 5078.00    0.80676   0.76076    0.016
 5079.00    0.75941   0.77086    0.016
 5080.00    0.69991   0.77749    0.016
 5081.00    0.83185   0.77403    0.016
 5082.00    0.97918   0.77797    0.016
 5083.00    0.82991   0.77717    0.016
 5084.00    0.66729   0.74367    0.015
 5085.00    0.63886   0.70109    0.015
 5086.00    0.61277   0.69664    0.015
 5087.00    0.62421   0.72205    0.015
 5088.00    0.63814   0.73853    0.015
 5089.00    0.69826   0.74486    0.015
 5090.00    0.75212   0.76035    0.015
 5091.00    0.73632   0.77811    0.015
 5092.00    0.72115   0.78231    0.015
 5093.00    0.71090   0.77964    0.015
 5094.00    0.70896   0.78314    0.015
 5095.00    0.75600   0.78834    0.015
 5096.00    0.79000   0.78913    0.016
 5097.00    0.76315   0.79444    0.015
 5098.00    0.74890   0.80772    0.015
 5099.00    0.78266   0.81563    0.015
 5100.00    0.77960   0.80837    0.015
 5101.00    0.65938   0.78972    0.015
 5102.00    0.57673   0.76571    0.015
 5103.00    0.59535   0.73805    0.015
 5104.00    0.61808   0.71413    0.015
 5105.00    0.65028   0.71540    0.015
 5106.00    0.68366   0.74577    0.015
 5107.00    0.71939   0.77586    0.015
 5108.00    0.72700   0.78398    0.015
 5109.00    0.68563   0.77697    0.015
 5110.00    0.67312   0.76983    0.015
 5111.00    0.70462   0.76423    0.015
 5112.00    0.69506   0.75138    0.015
 5113.00    0.63048   0.73821    0.016
 5114.00    0.61642   0.73610    0.016
 5115.00    0.66198   0.73606    0.016
 5116.00    0.69704   0.74072    0.016
 5117.00    0.72117   0.75898    0.016
 5118.00    0.75678   0.77519    0.016
 5119.00    0.80291   0.78180    0.016
 5120.00    0.76338   0.78587    0.016
 5121.00    0.65457   0.78987    0.016
 5122.00    0.60330   0.79867    0.016
 5123.00    0.59300   0.80901    0.015
 5124.00    0.60059   0.80906    0.015
 5125.00    0.61936   0.79710    0.015
 5126.00    0.67018   0.77981    0.016
 5127.00    0.73849   0.76214    0.016
 5128.00    0.73777   0.74043    0.016
 5129.00    0.70429   0.71773    0.016
 5130.00    0.66348   0.71069    0.016
 5131.00    0.61967   0.71960    0.016
 5132.00    0.63790   0.72738    0.016
 5133.00    0.67783   0.72742    0.016
 5134.00    0.71252   0.72413    0.016
 5135.00    0.74567   0.72564    0.016
 5136.00    0.68059   0.73822    0.016
 5137.00    0.59151   0.75293    0.016
 5138.00    0.60527   0.75684    0.016
 5139.00    0.63934   0.75692    0.016
 5140.00    0.73194   0.76806    0.016
 5141.00    0.83356   0.77679    0.016
 5142.00    0.79866   0.76258    0.016
 5143.00    0.74821   0.73723    0.016
 5144.00    0.68001   0.71614    0.016
 5145.00    0.61045   0.71405    0.016
 5146.00    0.64110   0.73317    0.016
 5147.00    0.67589   0.73524    0.016
 5148.00    0.69979   0.71802    0.016
 5149.00    0.72246   0.72304    0.016
 5150.00    0.69716   0.74002    0.016
 5151.00    0.67302   0.73661    0.016
 5152.00    0.66891   0.72233    0.016
 5153.00    0.66264   0.71798    0.016
 5154.00    0.63331   0.72833    0.016
 5155.00    0.61175   0.73903    0.016
 5156.00    0.64871   0.73413    0.016
 5157.00    0.67936   0.72241    0.016
 5158.00    0.67389   0.71591    0.016
 5159.00    0.66679   0.71344    0.016
 5160.00    0.65228   0.71988    0.016
 5161.00    0.64519   0.73946    0.015
 5162.00    0.66579   0.76305    0.015
 5163.00    0.66395   0.77920    0.015
 5164.00    0.59206   0.78219    0.015
 5165.00    0.55859   0.77978    0.015
 5166.00    0.62686   0.77786    0.015
 5167.00    0.65825   0.76587    0.015
 5168.00    0.60576   0.74959    0.015
 5169.00    0.58347   0.74153    0.015
 5170.00    0.62066   0.72153    0.015
 5171.00    0.64396   0.66896    0.015
 5172.00    0.64344   0.59874    0.015
 5173.00    0.63706   0.55211    0.015
 5174.00    0.62190   0.56345    0.015
 5175.00    0.66310   0.61503    0.015
 5176.00    0.77875   0.63958    0.015
 5177.00    0.79219   0.59831    0.015
 5178.00    0.68670   0.55043    0.015
 5179.00    0.61355   0.57666    0.015
 5180.00    0.57357   0.65710    0.015
 5181.00    0.56546   0.71526    0.014
 5182.00    0.58618   0.73273    0.015
 5183.00    0.61241   0.73810    0.015
 5184.00    0.64301   0.74118    0.015
 5185.00    0.65909   0.73513    0.015
 5186.00    0.66497   0.71760    0.015
 5187.00    0.70193   0.67799    0.015
 5188.00    0.75802   0.60640    0.015
 5189.00    0.76295   0.54639    0.015
 5190.00    0.74037   0.56614    0.000
 5191.00    0.72336   0.64720    0.000
 5192.00    0.70895   0.71169    0.000
 5193.00    0.66233   0.72939    0.000
 5194.00    0.60274   0.72778    0.000
 5195.00    0.66096   0.73676    0.000
 5196.00    0.75962   0.73310    0.000
 5197.00    0.72561   0.69359    0.000
 5198.00    0.65328   0.66603    0.000
 5199.00    0.60612   0.68243    0.000
 5200.00    0.56496   0.70184    0.000
 5201.00    0.62138   0.70286    0.000
 5202.00    0.69657   0.70895    0.000
 5203.00    0.73421   0.72458    0.000
 5204.00    0.76625   0.74032    0.000
 5205.00    0.76228   0.75323    0.000
 5206.00    0.75437   0.75676    0.000
 5207.00    0.64732   0.74920    0.000
 5208.00    0.53310   0.73799    0.000
 5209.00    0.65492   0.71950    0.000
 5210.00    0.78555   0.68425    0.000
 5211.00    0.84948   0.65316    0.016
 5212.00    0.90819   0.64970    0.016
 5213.00    0.78831   0.65239    0.016
 5214.00    0.68027   0.64755    0.016
 5215.00    0.76441   0.66118    0.016
 5216.00    0.83649   0.69480    0.016
 5217.00    0.78575   0.72999    0.016
 5218.00    0.73116   0.75872    0.016
 5219.00    0.64842   0.76846    0.016
 5220.00    0.58538   0.75120    0.016
 5221.00    0.63202   0.72184    0.015
 5222.00    0.67588   0.70964    0.015
 5223.00    0.70736   0.72447    0.015
 5224.00    0.73139   0.75140    0.015
 5225.00    0.72823   0.77103    0.015
 5226.00    0.72110   0.77875    0.016
 5227.00    0.70179   0.77960    0.016
 5228.00    0.71057   0.77074    0.015
 5229.00    0.79244   0.74795    0.015
 5230.00    0.82155   0.71294    0.015
 5231.00    0.73264   0.66824    0.015
 5232.00    0.64681   0.62930    0.015
 5233.00    0.56696   0.63515    0.015
 5234.00    0.54469   0.69045    0.015
 5235.00    0.61972   0.74028    0.015
 5236.00    0.66143   0.75913    0.015
 5237.00    0.65381   0.75528    0.015
 5238.00    0.63726   0.72871    0.015
 5239.00    0.60907   0.70390    0.015
 5240.00    0.57734   0.70622    0.015
 5241.00    0.54155   0.72833    0.015
 5242.00    0.54972   0.75542    0.015
 5243.00    0.60235   0.77310    0.015
 5244.00    0.66167   0.77662    0.015
 5245.00    0.72697   0.77383    0.015
 5246.00    0.74159   0.77345    0.015
 5247.00    0.71638   0.77351    0.015
 5248.00    0.71031   0.76872    0.015
 5249.00    0.71748   0.77029    0.015
 5250.00    0.70901   0.78305    0.015
 5251.00    0.69107   0.78062    0.015
 5252.00    0.69146   0.74958    0.015
 5253.00    0.70154   0.72401    0.015
 5254.00    0.71895   0.72633    0.015
 5255.00    0.73974   0.72766    0.015
 5256.00    0.76357   0.71713    0.015
 5257.00    0.78860   0.72171    0.015
 5258.00    0.79212   0.73986    0.015
 5259.00    0.78840   0.74528    0.015
 5260.00    0.72722   0.73251    0.016
 5261.00    0.64976   0.72784    0.016
 5262.00    0.57893   0.75272    0.016
 5263.00    0.50964   0.78472    0.016
 5264.00    0.45422   0.79778    0.016
 5265.00    0.40139   0.79064    0.016
 5266.00    0.53073   0.76681    0.016
 5267.00    0.68646   0.73034    0.016
 5268.00    0.67592   0.68963    0.016
 5269.00    0.64790   0.65603    0.016
 5270.00    0.67326   0.63201    0.016
 5271.00    0.70226   0.61921    0.016
 5272.00    0.66599   0.63242    0.016
 5273.00    0.62752   0.66349    0.016
 5274.00    0.73167   0.65461    0.016
 5275.00    0.82920   0.60387    0.016
 5276.00    0.70932   0.59812    0.016
 5277.00    0.59930   0.65789    0.016
 5278.00    0.63934   0.70791    0.016
 5279.00    0.67006   0.71549    0.016
 5280.00    0.60992   0.70385    0.016
 5281.00    0.56509   0.69399    0.015
 5282.00    0.62812   0.71330    0.015
 5283.00    0.68453   0.75779    0.015
 5284.00    0.70510   0.78305    0.015
 5285.00    0.70969   0.77426    0.015
 5286.00    0.64484   0.75042    0.015
 5287.00    0.63300   0.72922    0.015
 5288.00    0.81079   0.71312    0.015
 5289.00    0.91300   0.70215    0.015
 5290.00    0.78822   0.71395    0.015
 5291.00    0.67474   0.75590    0.015
 5292.00    0.59016   0.79321    0.015
 5293.00    0.57588   0.80001    0.015
 5294.00    0.71627   0.79182    0.015
 5295.00    0.79229   0.79173    0.015
 5296.00    0.74549   0.79999    0.015
 5297.00    0.69143   0.80157    0.015
 5298.00    0.62529   0.79204    0.015
 5299.00    0.61273   0.78220    0.015
 5300.00    0.67836   0.77853    0.015
 5301.00    0.70953   0.76582    0.015
 5302.00    0.69650   0.73030    0.015
 5303.00    0.65716   0.69024    0.015
 5304.00    0.58810   0.68398    0.015
 5305.00    0.55678   0.71531    0.015
 5306.00    0.56311   0.73991    0.015
 5307.00    0.52484   0.73884    0.015
 5308.00    0.44735   0.74146    0.015
 5309.00    0.43172   0.76385    0.015
 5310.00    0.46403   0.78925    0.014
 5311.00    0.52686   0.79729    0.014
 5312.00    0.61049   0.78683    0.015
 5313.00    0.63396   0.77494    0.015
 5314.00    0.62152   0.77859    0.014
 5315.00    0.60943   0.79232    0.014
 5316.00    0.59752   0.79881    0.014
 5317.00    0.58318   0.79483    0.014
 5318.00    0.56775   0.78647    0.015
 5319.00    0.63045   0.77866    0.015
 5320.00    0.72350   0.77395    0.015
 5321.00    0.68472   0.76372    0.015
 5322.00    0.60237   0.74694    0.015
 5323.00    0.63798   0.74486    0.015
 5324.00    0.70630   0.75900    0.015
 5325.00    0.68798   0.76773    0.015
 5326.00    0.64991   0.76797    0.015
 5327.00    0.68344   0.76572    0.015
 5328.00    0.73004   0.75659    0.015
 5329.00    0.77327   0.73406    0.015
 5330.00    0.81603   0.71417    0.015
 5331.00    0.74361   0.71710    0.015
 5332.00    0.65957   0.71090    0.015
 5333.00    0.63119   0.65880    0.015
 5334.00    0.60638   0.60797    0.015
 5335.00    0.63109   0.63152    0.015
 5336.00    0.65716   0.70110    0.015
 5337.00    0.63609   0.74388    0.015
 5338.00    0.61674   0.74802    0.015
 5339.00    0.64680   0.74768    0.015
 5340.00    0.67689   0.76165    0.015
 5341.00    0.70748   0.77173    0.014
 5342.00    0.73211   0.76546    0.014
 5343.00    0.70108   0.75605    0.014
 5344.00    0.67931   0.74736    0.014
 5345.00    0.72077   0.72335    0.014
 5346.00    0.75376   0.69497    0.014
 5347.00    0.74202   0.70038    0.014
 5348.00    0.72487   0.73495    0.014
 5349.00    0.68473   0.75857    0.014
 5350.00    0.64273   0.75939    0.014
 5351.00    0.59421   0.74709    0.014
 5352.00    0.56195   0.73942    0.014
 5353.00    0.57760   0.74073    0.014
 5354.00    0.60208   0.73207    0.014
 5355.00    0.64878   0.72292    0.014
 5356.00    0.68047   0.73724    0.014
 5357.00    0.67967   0.76399    0.014
 5358.00    0.69412   0.77658    0.014
 5359.00    0.73719   0.77736    0.014
 5360.00    0.76654   0.78656    0.014
 5361.00    0.77340   0.80052    0.014
 5362.00    0.75142   0.80513    0.014
 5363.00    0.68796   0.80424    0.014
 5364.00    0.68166   0.80326    0.014
 5365.00    0.74767   0.80090    0.014
 5366.00    0.76569   0.79244    0.014
 5367.00    0.73022   0.77481    0.014
 5368.00    0.67034   0.75719   -2.000
 5369.00    0.58647   0.74938   -2.000
 5370.00    0.57688   0.74316   -2.000
 5371.00    0.63172   0.73616   -2.000
 5372.00    0.65894   0.73756   -2.000
 5373.00    0.66507   0.73970   -2.000
 5374.00    0.69308   0.73370   -2.000
 5375.00    0.73579   0.71089   -2.000
 5376.00    0.77533   0.67496   -2.000
 5377.00    0.81301   0.65983   -2.000
 5378.00    0.76306   0.69016   -2.000
 5379.00    0.66816   0.74073   -2.000
 5380.00    0.64222   0.77269   -2.000
 5381.00    0.64691   0.78226   -2.000
 5382.00    0.67793   0.77716   -2.000
 5383.00    0.71899   0.76971    0.015
 5384.00    0.71214   0.77110    0.014
 5385.00    0.68974   0.77088    0.014
 5386.00    0.70504   0.76117    0.014
 5387.00    0.73057   0.75189    0.014
 5388.00    0.69386   0.74509    0.014
 5389.00    0.64328   0.73997    0.014
 5390.00    0.64147   0.74899    0.014
 5391.00    0.64833   0.76503    0.014
 5392.00    0.62660   0.76907    0.014
 5393.00    0.60100   0.76396    0.014
 5394.00    0.62266   0.75520    0.014
 5395.00    0.64889   0.74104    0.014
 5396.00    0.65104   0.72805    0.014
 5397.00    0.65174   0.72302    0.014
 5398.00    0.59487   0.72187    0.014
 5399.00    0.53753   0.72133    0.014
 5400.00    0.65233   0.72263    0.014
 5401.00    0.76064   0.71824    0.013
 5402.00    0.70151   0.69399    0.013
 5403.00    0.64549   0.67336    0.013
 5404.00    0.63156   0.69309    0.013
 5405.00    0.62336   0.72425    0.013
 5406.00    0.66675   0.73172    0.013
 5407.00    0.69763   0.73345    0.013
 5408.00    0.64588   0.73749    0.013
 5409.00    0.60300   0.71793    0.014
 5410.00    0.60568   0.67588    0.013
 5411.00    0.60873   0.64619    0.013
 5412.00    0.61324   0.65328    0.013
 5413.00    0.63135   0.68653    0.013
 5414.00    0.69614   0.70572    0.013
 5415.00    0.73705   0.69322    0.013
 5416.00    0.70886   0.68211    0.013
 5417.00    0.68226   0.70393    0.013
 5418.00    0.65959   0.73642    0.013
 5419.00    0.66037   0.74728    0.013
 5420.00    0.71106   0.73873    0.014
 5421.00    0.73173   0.73565    0.014
 5422.00    0.69686   0.75121    0.014
 5423.00    0.68093   0.76623    0.014
 5424.00    0.69559   0.76403    0.013
 5425.00    0.71600   0.75137    0.013
 5426.00    0.74457   0.73994    0.014
 5427.00    0.75722   0.74051    0.014
 5428.00    0.75003   0.74703    0.014
 5429.00    0.71239   0.73414    0.014
 5430.00    0.64129   0.71340    0.014
 5431.00    0.60751   0.72334    0.014
 5432.00    0.60991   0.75449    0.014
 5433.00    0.62787   0.76908    0.014
 5434.00    0.65913   0.74295    0.014
 5435.00    0.69256   0.69343    0.014
 5436.00    0.72763   0.68276    0.014
 5437.00    0.71424   0.71378    0.014
 5438.00    0.66879   0.72287    0.014
 5439.00    0.65852   0.70328    0.014
 5440.00    0.66862   0.68626    0.014
 5441.00    0.65914   0.68657    0.014
 5442.00    0.63978   0.70413    0.014
 5443.00    0.64992   0.72964    0.014
 5444.00    0.67296   0.75639    0.013
 5445.00    0.71717   0.77393    0.013
 5446.00    0.76934   0.77959    0.013
 5447.00    0.76872   0.77878    0.013
 5448.00    0.75131   0.77782    0.013
 5449.00    0.71854   0.77425    0.013
 5450.00    0.68169   0.75538    0.013
 5451.00    0.64096   0.71769    0.013
 5452.00    0.59939   0.67598    0.013
 5453.00    0.63336   0.66619    0.013
 5454.00    0.68039   0.70129    0.013
 5455.00    0.66421   0.73861    0.013
 5456.00    0.63974   0.75173    0.013
 5457.00    0.62900   0.74995    0.013
 5458.00    0.61954   0.74381    0.013
 5459.00    0.71269   0.73123    0.013
 5460.00    0.81161   0.70241    0.013
 5461.00    0.82229   0.66790    0.013
 5462.00    0.83058   0.67050    0.013
 5463.00    0.79596   0.71246    0.013
 5464.00    0.76163   0.74667    0.013
 5465.00    0.73395   0.75357    0.013
 5466.00    0.70839   0.74305    0.013
 5467.00    0.71004   0.72733    0.013
 5468.00    0.70972   0.70658    0.013
 5469.00    0.69229   0.69161    0.013
 5470.00    0.67312   0.70412    0.013
 5471.00    0.64281   0.72510    0.013
 5472.00    0.61968   0.72865    0.013
 5473.00    0.63250   0.72984    0.013
 5474.00    0.66031   0.73711    0.014
 5475.00    0.74898   0.73540    0.014
 5476.00    0.81333   0.72496    0.014
 5477.00    0.79578   0.72192    0.014
 5478.00    0.76525   0.72104   -2.000
 5479.00    0.69784   0.70985   -2.000
 5480.00    0.68067   0.70333   -2.000
 5481.00    0.78547   0.69489   -2.000
 5482.00    0.82470   0.66393   -2.000
 5483.00    0.72655   0.65014   -2.000
 5484.00    0.64129   0.68364   -2.000
 5485.00    0.57953   0.71809   -2.000
 5486.00    0.48252   0.71308   -2.000
 5487.00    0.32942   0.68969   -2.000
 5488.00    0.33293   0.68804   -2.000
 5489.00    0.55520   0.70751   -2.000
 5490.00    0.71028   0.73028   -2.000
 5491.00    0.78274   0.74532   -2.000
 5492.00    0.85360   0.73728   -2.000
 5493.00    0.92273   0.71284   -2.000
 5494.00    0.89514   0.70408   -2.000
 5495.00    0.77508   0.71508   -2.000
 5496.00    0.73432   0.72220   -2.000
 5497.00    0.76040   0.72778   -2.000
 5498.00    0.76695   0.73128   -2.000
 5499.00    0.75901   0.72309   -2.000
 5500.00    0.75235   0.71928   -2.000
 5501.00    0.74651   0.72725   -2.000
 5502.00    0.75752   0.72404    0.013
 5503.00    0.77813   0.70745    0.013
 5504.00    0.76574   0.71108    0.013
 5505.00    0.73695   0.73275    0.012
 5506.00    0.67851   0.73313    0.012
 5507.00    0.60733   0.71010    0.012
 5508.00    0.61179   0.69641    0.013
 5509.00    0.64410   0.70254    0.013
 5510.00    0.64325   0.71220    0.013
 5511.00    0.63205   0.70777    0.013
 5512.00    0.61755   0.69026    0.013
 5513.00    0.60220   0.69071    0.013
 5514.00    0.60251   0.71148    0.013
 5515.00    0.60615   0.72024    0.013
 5516.00    0.60246   0.71472    0.013
 5517.00    0.59755   0.70249    0.013
 5518.00    0.63810   0.68455    0.013
 5519.00    0.68440   0.67787    0.013
 5520.00    0.65701   0.68675    0.013
 5521.00    0.62311   0.69944    0.013
 5522.00    0.61514   0.70977    0.013
 5523.00    0.60852   0.71990    0.013
 5524.00    0.68234   0.73532    0.013
 5525.00    0.75628   0.74439    0.013
 5526.00    0.72604   0.74080    0.013
 5527.00    0.69439   0.73515    0.013
 5528.00    0.63229   0.73349    0.013
 5529.00    0.57789   0.73425    0.013
 5530.00    0.61745   0.73251    0.013
 5531.00    0.65486   0.72326    0.013
 5532.00    0.67443   0.70763    0.013
 5533.00    0.69550   0.68451    0.013
 5534.00    0.72594   0.66546    0.013
 5535.00    0.75100   0.67790    0.013
 5536.00    0.74970   0.71087    0.013
 5537.00    0.73899   0.72782    0.013
 5538.00    0.69093   0.72539    0.013
 5539.00    0.65722   0.71873    0.013
 5540.00    0.67087   0.70925    0.013
 5541.00    0.68958   0.70042    0.015
 5542.00    0.72236   0.70759    0.036
 5543.00    0.73846   0.71850   -1.000
 5544.00    0.71472   0.72000   -1.000
 5545.00    0.69238   0.72524   -1.000
 5546.00    0.67293   0.73673   -1.000
 5547.00    0.64945   0.74242   -1.000
 5548.00    0.61875   0.73387   -1.000
 5549.00    0.61081   0.71830    0.062
 5550.00    0.63856   0.71405    0.017
 5551.00    0.66530   0.71776    0.012
 5552.00    0.69065   0.71710    0.012
 5553.00    0.72073   0.72237    0.012
 5554.00    0.75655   0.73692    0.012
 5555.00    0.76697   0.74537    0.013
 5556.00    0.75027   0.74576    0.013
 5557.00    0.72666   0.74436    0.013
 5558.00    0.69655   0.73838    0.013
 5559.00    0.69317   0.72566    0.013
 5560.00    0.71201   0.71474    0.013
 5561.00    0.68984   0.71606    0.013
 5562.00    0.63769   0.72371    0.013
 5563.00    0.62747   0.72401    0.013
 5564.00    0.64419   0.72158    0.013
 5565.00    0.65440   0.72410    0.013
 5566.00    0.66095   0.72488    0.013
 5567.00    0.67158   0.72062    0.013
 5568.00    0.68422   0.71110    0.013
 5569.00    0.63308   0.70299    0.013
 5570.00    0.55500   0.70502    0.013
 5571.00    0.54854   0.70347    0.013
 5572.00    0.56799   0.69652    0.013
 5573.00    0.58766   0.69768    0.013
 5574.00    0.60738   0.70055    0.013
 5575.00    0.60239   0.69493    0.013
 5576.00    0.59111   0.69736    0.013
 5577.00    0.57871   0.70916    0.013
 5578.00    0.56608   0.69823    0.013
 5579.00    0.59813   0.68456    0.013
 5580.00    0.63746   0.70155    0.012
 5581.00    0.63301   0.71547    0.012
 5582.00    0.62322   0.71045    0.012
 5583.00    0.65212   0.71350    0.012
 5584.00    0.68428   0.71811    0.012
 5585.00    0.66206   0.71794    0.012
 5586.00    0.63721   0.72190    0.013
 5587.00    0.56891   0.71828    0.025
 5588.00    0.50193   0.70945   -1.000
 5589.00    0.55163   0.71120   -1.000
 5590.00    0.59976   0.71243   -1.000
 5591.00    0.61667   0.69984   -1.000
 5592.00    0.62980   0.67271   -1.000
 5593.00    0.59891   0.64440   -1.000
 5594.00    0.57635   0.63364   -1.000
 5595.00    0.62073   0.64043   -1.000
 5596.00    0.66578   0.65979   -1.000
 5597.00    0.71485   0.68062   -1.000
 5598.00    0.74847   0.68775    0.148
 5599.00    0.70842   0.68262    0.022
 5600.00    0.67168   0.67403    0.013
 5601.00    0.64781   0.68505    0.013
 5602.00    0.61229   0.71252    0.013
 5603.00    0.53906   0.71283    0.013
 5604.00    0.48105   0.68554    0.013
 5605.00    0.46472   0.67307    0.013
 5606.00    0.47340   0.67540    0.013
 5607.00    0.54079   0.66718    0.013
 5608.00    0.59685   0.65522    0.013
 5609.00    0.62992   0.65933    0.013
 5610.00    0.63741   0.68762    0.013
 5611.00    0.59974   0.71736    0.013
 5612.00    0.59418   0.73124    0.013
 5613.00    0.63822   0.73377    0.013
 5614.00    0.65942   0.73101    0.013
 5615.00    0.64964   0.72815    0.013
 5616.00    0.62993   0.72692    0.013
 5617.00    0.59837   0.73004    0.013
 5618.00    0.56902   0.73532    0.013
 5619.00    0.54202   0.73150    0.012
 5620.00    0.55373   0.69958    0.012
 5621.00    0.60142   0.65084    0.012
 5622.00    0.63965   0.64071    0.012
 5623.00    0.67013   0.67330    0.012
 5624.00    0.65817   0.69568    0.012
 5625.00    0.61562   0.69427    0.012
 5626.00    0.58414   0.69251    0.012
 5627.00    0.55967   0.70216    0.012
 5628.00    0.58071   0.71207    0.012
 5629.00    0.62694   0.70141    0.012
 5630.00    0.68006   0.67141    0.012
 5631.00    0.73650   0.65774    0.012
 5632.00    0.75286   0.67455    0.012
 5633.00    0.75257   0.69275    0.012
 5634.00    0.75119   0.70033    0.012
 5635.00    0.74941   0.71029    0.012
 5636.00    0.70953   0.72021    0.012
 5637.00    0.65822   0.72318    0.012
 5638.00    0.63936   0.72011    0.012
 5639.00    0.62858   0.71341    0.012
 5640.00    0.62970   0.70573    0.012
 5641.00    0.63322   0.69964    0.012
 5642.00    0.62135   0.69166    0.012
 5643.00    0.60705   0.68204    0.012
 5644.00    0.64549   0.68164    0.012
 5645.00    0.69015   0.69098    0.012
 5646.00    0.66424   0.69240    0.012
 5647.00    0.63270   0.68220    0.012
 5648.00    0.64036   0.68065    0.012
 5649.00    0.64976   0.68845    0.012
 5650.00    0.67153   0.69232    0.012
 5651.00    0.69231   0.69565    0.013
 5652.00    0.65776   0.70000    0.013
 5653.00    0.62257   0.70458    0.012
 5654.00    0.57538   0.70537    0.012
 5655.00    0.53475   0.69953    0.013
 5656.00    0.56668   0.69531    0.013
 5657.00    0.59221   0.70112    0.013
 5658.00    0.56814   0.71111    0.012
 5659.00    0.54937   0.71159    0.012
 5660.00    0.56172   0.69716    0.012
 5661.00    0.57414   0.68501    0.012
 5662.00    0.58690   0.68993    0.012
 5663.00    0.59977   0.68168    0.012
 5664.00    0.61309   0.64741    0.012
 5665.00    0.62027   0.63769    0.012
 5666.00    0.60797   0.66595    0.012
 5667.00    0.60487   0.68122    0.012
 5668.00    0.62651   0.66955    0.012
 5669.00    0.64202   0.66583    0.012
 5670.00    0.64338   0.68274    0.012
 5671.00    0.65564   0.69940    0.012
 5672.00    0.68966   0.70015    0.012
 5673.00    0.72029   0.68901    0.012
 5674.00    0.74500   0.68181    0.012
 5675.00    0.73576   0.68372    0.012
 5676.00    0.67483   0.68827    0.012
 5677.00    0.64329   0.69290    0.012
 5678.00    0.65107   0.70358    0.012
 5679.00    0.65283   0.71655    0.012
 5680.00    0.64750   0.71879    0.012
 5681.00    0.62639   0.71103    0.012
 5682.00    0.58888   0.71005    0.012
 5683.00    0.57473   0.71622    0.012
 5684.00    0.58197   0.71363    0.012
 5685.00    0.59522   0.70592    0.012
 5686.00    0.61332   0.70435    0.012
 5687.00    0.60158   0.70075    0.012
 5688.00    0.56864   0.68516    0.012
 5689.00    0.56666   0.67476    0.012
 5690.00    0.58398   0.68147    0.012
 5691.00    0.57615   0.69095    0.012
 5692.00    0.55462   0.68791    0.012
 5693.00    0.55638   0.67572    0.012
 5694.00    0.56915   0.66988    0.012
 5695.00    0.60360   0.67712    0.012
 5696.00    0.64690   0.69087    0.012
 5697.00    0.68504   0.70109    0.012
 5698.00    0.72137   0.70948    0.012
 5699.00    0.69192   0.71293    0.012
 5700.00    0.64313   0.70879    0.012
 5701.00    0.62706   0.70547    0.012
 5702.00    0.61898   0.70719    0.012
 5703.00    0.64719   0.70487    0.012
 5704.00    0.68255   0.69276    0.012
 5705.00    0.64309   0.68538    0.012
 5706.00    0.59213   0.68249    0.012
 5707.00    0.56881   0.67285    0.012
 5708.00    0.54862   0.66697    0.012
 5709.00    0.54925   0.67529    0.012
 5710.00    0.55145   0.68744    0.012
 5711.00    0.56753   0.68661    0.012
 5712.00    0.58417   0.67281    0.012
 5713.00    0.57486   0.66056    0.012
 5714.00    0.56603   0.64968    0.012
 5715.00    0.58542   0.63936    0.012
 5716.00    0.60479   0.64155    0.012
 5717.00    0.62381   0.64662    0.012
 5718.00    0.64136   0.65083    0.012
 5719.00    0.64322   0.66958    0.012
 5720.00    0.64524   0.68872    0.012
 5721.00    0.64836   0.69561    0.012
 5722.00    0.64830   0.69951    0.012
 5723.00    0.62997   0.70051    0.012
 5724.00    0.62093   0.69864    0.012
 5725.00    0.65401   0.70238    0.012
 5726.00    0.67031   0.70778    0.012
 5727.00    0.62415   0.71175    0.012
 5728.00    0.59455   0.71703    0.012
 5729.00    0.61649   0.72001    0.012
 5730.00    0.62781   0.71888    0.012
 5731.00    0.61106   0.71549    0.012
 5732.00    0.60469   0.70598    0.012
 5733.00    0.62187   0.69279    0.012
 5734.00    0.64459   0.69281    0.012
 5735.00    0.67820   0.70483    0.012
 5736.00    0.68850   0.70731    0.012
 5737.00    0.65887   0.69469    0.012
 5738.00    0.64781   0.68811    0.012
 5739.00    0.66462   0.69793    0.012
 5740.00    0.68699   0.70966    0.000
 5741.00    0.71667   0.71375    0.000
 5742.00    0.73643   0.71086    0.000
 5743.00    0.74467   0.70558    0.000
 5744.00    0.74408   0.70298    0.000
 5745.00    0.73444   0.70298    0.000
 5746.00    0.71468   0.70343    0.000
 5747.00    0.68577   0.70342    0.000
 5748.00    0.69083   0.70024    0.000
 5749.00    0.72294   0.69708    0.000
 5750.00    0.74092   0.70137    0.000
 5751.00    0.74902   0.71151    0.000
 5752.00    0.70741   0.71534    0.000
 5753.00    0.63528   0.70360    0.000
 5754.00    0.59689   0.68767    0.000
 5755.00    0.57659   0.68903    0.000
 5756.00    0.62004   0.70357    0.000
 5757.00    0.69318   0.70860    0.000
 5758.00    0.73455   0.69501    0.000
 5759.00    0.76317   0.67356    0.000
 5760.00    0.72608   0.66189    0.000
 5761.00    0.66651   0.67264    0.000
 5762.00    0.64577   0.69497    0.000
 5763.00    0.63622   0.70988    0.000
 5764.00    0.62680   0.71358    0.000
 5765.00    0.61740   0.70757    0.000
 5766.00    0.62408   0.69482    0.000
 5767.00    0.63385   0.67976    0.000
 5768.00    0.64923   0.66561    0.000
 5769.00    0.66544   0.66225    0.000
 5770.00    0.63888   0.67957    0.000
 5771.00    0.60765   0.70110    0.000
 5772.00    0.63712   0.71002    0.000
 5773.00    0.67095   0.71164    0.000
 5774.00    0.69014   0.71130    0.000
 5775.00    0.70879   0.70859    0.000
 5776.00    0.73059   0.70529    0.000
 5777.00    0.75109   0.70151    0.000
 5778.00    0.72477   0.69613    0.000
 5779.00    0.69883   0.69374    0.000
 5780.00    0.67921   0.69183    0.000
 5781.00    0.66340   0.69025    0.000
 5782.00    0.68612   0.69479    0.000
 5783.00    0.70254   0.70091    0.000
 5784.00    0.67332   0.70195    0.000
 5785.00    0.64877   0.69529    0.000
 5786.00    0.65007   0.67623    0.000
 5787.00    0.65549   0.65188    0.000
 5788.00    0.67913   0.64260    0.000
 5789.00    0.69616   0.64919    0.000
 5790.00    0.68915   0.65174    0.000
 5791.00    0.68262   0.64502   -2.000
 5792.00    0.67759   0.64884   -2.000
 5793.00    0.68230   0.66711   -2.000
 5794.00    0.71231   0.68214   -2.000
 5795.00    0.72767   0.68915   -2.000
 5796.00    0.71036   0.68529   -2.000
 5797.00    0.69420   0.67538   -2.000
 5798.00    0.68030   0.67620   -2.000
 5799.00    0.67905   0.68603   -2.000
 5800.00    0.69918   0.69572   -2.000
 5801.00    0.71436   0.70356   -2.000
 5802.00    0.72224   0.70325   -2.000
 5803.00    0.72192   0.69028   -2.000
 5804.00    0.71092   0.67912   -2.000
 5805.00    0.71109   0.68724   -2.000
 5806.00    0.72405   0.70502   -2.000
 5807.00    0.72763   0.71538   -2.000
 5808.00    0.72172   0.71796   -2.000
 5809.00    0.70498   0.71225   -2.000
 5810.00    0.67860   0.69788   -2.000
 5811.00    0.66516   0.68698    0.000
 5812.00    0.66189   0.68611    0.000
 5813.00    0.64313   0.69070    0.000
 5814.00    0.61369   0.69509    0.000
 5815.00    0.62027   0.69695    0.000
 5816.00    0.64865   0.69929    0.000
 5817.00    0.67622   0.70280    0.000
 5818.00    0.70336   0.70388    0.000
 5819.00    0.70467   0.70238    0.000
 5820.00    0.69415   0.69768    0.000
 5821.00    0.71996   0.68746    0.000
 5822.00    0.76011   0.67694    0.000
 5823.00    0.76080   0.67861    0.000
 5824.00    0.74823   0.69294    0.000
 5825.00    0.73817   0.70529    0.000
 5826.00    0.72881   0.70951    0.000
 5827.00    0.72423   0.70955    0.000
 5828.00    0.72076   0.70691    0.000
 5829.00    0.72406   0.70297    0.000
 5830.00    0.72863   0.70146    0.000
 5831.00    0.70643   0.70388    0.000
 5832.00    0.68038   0.70510    0.000
 5833.00    0.68325   0.70374    0.000
 5834.00    0.68914   0.70306    0.000
 5835.00    0.71421   0.70543    0.000
 5836.00    0.74058   0.70745    0.000
 5837.00    0.74924   0.70581    0.000
 5838.00    0.75732   0.70419    0.000
 5839.00    0.72712   0.70335    0.000
 5840.00    0.69724   0.69892    0.000
 5841.00    0.67849   0.69437    0.000
 5842.00    0.65892   0.69698    0.000
 5843.00    0.62709   0.70019    0.000
 5844.00    0.60435   0.69599    0.000
 5845.00    0.66981   0.69340    0.000
 5846.00    0.73198   0.69882    0.000
 5847.00    0.77105   0.70598    0.000
 5848.00    0.80479   0.70943    0.000
 5849.00    0.80972   0.71004    0.000
 5850.00    0.80822   0.70773    0.000
 5851.00    0.77891   0.70221    0.000
 5852.00    0.74862   0.69465    0.000
 5853.00    0.71486   0.68643    0.000
 5854.00    0.68288   0.68210    0.000
 5855.00    0.65626   0.68408    0.000
 5856.00    0.63715   0.68764    0.000
 5857.00    0.63719   0.68655    0.000
 5858.00    0.63598   0.67721    0.000
 5859.00    0.63201   0.66365    0.000
 5860.00    0.62602   0.65944    0.000
 5861.00    0.61620   0.66624    0.000
 5862.00    0.61273   0.66561    0.000
 5863.00    0.61982   0.64949    0.000
 5864.00    0.64195   0.63690    0.000
 5865.00    0.68600   0.64376    0.000
 5866.00    0.71138   0.66009    0.000
 5867.00    0.71285   0.67164    0.000
 5868.00    0.70866   0.67138    0.000
 5869.00    0.69807   0.66829    0.000
 5870.00    0.69960   0.67290    0.000
 5871.00    0.71319   0.67815    0.000
 5872.00    0.72149   0.67393    0.000
 5873.00    0.72512   0.66726    0.000
 5874.00    0.69105   0.67086    0.000
 5875.00    0.62781   0.68121    0.000
 5876.00    0.60868   0.68885    0.000
 5877.00    0.61954   0.69008    0.000
 5878.00    0.62883   0.68598    0.000
 5879.00    0.63718   0.68079    0.000
 5880.00    0.62089   0.68072    0.000
 5881.00    0.59179   0.68383    0.000
 5882.00    0.59727   0.68305    0.000
 5883.00    0.61834   0.67884    0.000
 5884.00    0.61354   0.67472    0.000
 5885.00    0.59871   0.66935    0.000
 5886.00    0.59926   0.66185    0.000
 5887.00    0.60487   0.65973    0.000
 5888.00    0.61325   0.66469    0.000
 5889.00    0.62240   0.66563    0.000
 5890.00    0.61451   0.66032    0.000
 5891.00    0.60276   0.65862    0.000
 5892.00    0.60317   0.66130    0.000
 5893.00    0.60580   0.65645    0.000
 5894.00    0.65235   0.62591    0.000
 5895.00    0.70502   0.55868    0.000
 5896.00    0.68138   0.49417    0.000
 5897.00    0.65007   0.49628    0.000
 5898.00    0.61352   0.55086    0.000
 5899.00    0.57664   0.59570    0.000
 5900.00    0.59964   0.60439    0.000
 5901.00    0.62433   0.57070    0.012
 5902.00    0.62634   0.52559    0.012
 5903.00    0.62862   0.53196    0.012
 5904.00    0.63874   0.58165    0.012
 5905.00    0.64746   0.61889    0.012
 5906.00    0.63616   0.63565    0.012
 5907.00    0.62442   0.64823    0.011
 5908.00    0.60855   0.65625    0.011
 5909.00    0.59675   0.65946    0.011
 5910.00    0.61260   0.66109    0.011
 5911.00    0.63110   0.65884    0.011
 5912.00    0.66350   0.65492    0.011
 5913.00    0.68405   0.65675    0.011
 5914.00    0.65441   0.66284    0.011
 5915.00    0.62539   0.66552    0.011
 5916.00    0.59856   0.66510    0.011
 5917.00    0.58202   0.66757    0.011
 5918.00    0.59573   0.66994    0.011
 5919.00    0.60695   0.66257    0.011
 5920.00    0.61195   0.64707    0.011
 5921.00    0.62506   0.63809    0.011
 5922.00    0.65567   0.64002    0.011
 5923.00    0.67943   0.64769    0.011
 5924.00    0.69037   0.65555    0.011
 5925.00    0.69035   0.66031    0.011
 5926.00    0.67239   0.66427    0.011
 5927.00    0.65299   0.66536    0.011
 5928.00    0.63153   0.66128    0.011
 5929.00    0.62926   0.65872    0.011
 5930.00    0.65123   0.66164    0.011
 5931.00    0.67445   0.66626    0.011
 5932.00    0.69904   0.66976    0.011
 5933.00    0.70274   0.66959    0.011
 5934.00    0.68592   0.66401    0.011
 5935.00    0.67898   0.65416    0.011
 5936.00    0.68059   0.64530    0.011
 5937.00    0.67313   0.64812    0.011
 5938.00    0.65875   0.66086    0.011
 5939.00    0.64065   0.66704    0.011
 5940.00    0.62007   0.65951    0.011
 5941.00    0.62122   0.65103    0.011
 5942.00    0.63513   0.65466    0.011
 5943.00    0.66131   0.66369    0.011
 5944.00    0.69375   0.66878    0.011
 5945.00    0.67888   0.67118    0.011
 5946.00    0.64302   0.66808    0.011
 5947.00    0.64483   0.65745    0.011
 5948.00    0.66097   0.65001    0.011
 5949.00    0.67720   0.65243    0.011
 5950.00    0.69346   0.65933    0.011
 5951.00    0.67130   0.66617    0.011
 5952.00    0.63874   0.67066    0.011
 5953.00    0.61215   0.66842    0.011
 5954.00    0.58687   0.65721    0.011
 5955.00    0.61034   0.64548    0.011
 5956.00    0.64243   0.64679    0.011
 5957.00    0.67059   0.65680    0.011
 5958.00    0.69822   0.65686    0.011
 5959.00    0.69776   0.64801    0.011
 5960.00    0.69461   0.64824    0.011
 5961.00    0.65607   0.65654    0.011
 5962.00    0.61542   0.65667    0.011
 5963.00    0.61136   0.64865    0.011
 5964.00    0.60815   0.64550    0.011
 5965.00    0.59146   0.65098    0.011
 5966.00    0.57540   0.66012    0.011
 5967.00    0.57560   0.66796    0.011
 5968.00    0.57785   0.67203    0.011
 5969.00    0.60779   0.67195    0.011
 5970.00    0.63613   0.66977    0.011
 5971.00    0.65019   0.66501    0.011
 5972.00    0.65904   0.65925    0.011
 5973.00    0.63358   0.65972    0.011
 5974.00    0.61398   0.66522    0.011
 5975.00    0.62439   0.66933    0.011
 5976.00    0.63663   0.67202    0.011
 5977.00    0.65646   0.67479    0.011
 5978.00    0.66479   0.67583    0.011
 5979.00    0.63371   0.67475    0.011
 5980.00    0.61242   0.67164    0.011
 5981.00    0.61937   0.66386    0.011
 5982.00    0.62472   0.65243    0.011
 5983.00    0.62616   0.64393    0.011
 5984.00    0.62029   0.64257    0.011
 5985.00    0.59886   0.64775    0.011
 5986.00    0.58683   0.65724    0.011
 5987.00    0.59214   0.66507    0.011
 5988.00    0.60996   0.66486    0.011
 5989.00    0.64794   0.65390    0.011
 5990.00    0.67289   0.63728    0.011
 5991.00    0.67939   0.63024    0.011
 5992.00    0.66746   0.63820    0.011
 5993.00    0.63261   0.64793    0.011
 5994.00    0.58788   0.65215    0.011
 5995.00    0.53231   0.65652    0.011
 5996.00    0.50010   0.66066    0.011
 5997.00    0.49049   0.65821    0.011
 5998.00    0.50919   0.65383    0.011
 5999.00    0.55205   0.65811    0.011
 6000.00    0.57793   0.66778    0.011
 6001.00    0.59105   0.67174    0.011
 6002.00    0.59543   0.66675    0.011
 6003.00    0.59404   0.65631    0.011
 6004.00    0.59441   0.64767    0.011
 6005.00    0.59580   0.64703    0.011
 6006.00    0.60666   0.65266    0.011
 6007.00    0.62230   0.65746    0.011
 6008.00    0.62789   0.65473    0.011
 6009.00    0.62909   0.64730    0.011
 6010.00    0.64163   0.64679    0.011
 6011.00    0.65842   0.65240    0.011
 6012.00    0.65914   0.65217    0.011
 6013.00    0.65476   0.64222    0.011
 6014.00    0.63544   0.62917    0.011
 6015.00    0.61216   0.62793    0.011
 6016.00    0.61850   0.64350    0.011
 6017.00    0.63127   0.65829    0.011
 6018.00    0.64243   0.65689    0.011
 6019.00    0.65332   0.64505    0.011
 6020.00    0.67514   0.63902    0.011
 6021.00    0.69840   0.64319    0.011
 6022.00    0.67289   0.64530    0.011
 6023.00    0.64291   0.64194    0.011
 6024.00    0.62311   0.64268    0.011
 6025.00    0.60388   0.64425    0.011
 6026.00    0.62575   0.63805    0.011
 6027.00    0.64865   0.63148    0.011
 6028.00    0.68345   0.63301    0.011
 6029.00    0.71697   0.63776    0.011
 6030.00    0.72094   0.63984    0.011
 6031.00    0.72082   0.64370    0.011
 6032.00    0.66861   0.65031    0.011
 6033.00    0.62131   0.65255    0.011
 6034.00    0.61639   0.65369    0.011
 6035.00    0.61138   0.65895    0.011
 6036.00    0.60579   0.66282    0.011
 6037.00    0.60170   0.66241    0.011
 6038.00    0.60518   0.66282    0.011
 6039.00    0.61377   0.66599    0.011
 6040.00    0.64310   0.66785    0.011
 6041.00    0.66785   0.66717    0.010
 6042.00    0.67728   0.66628    0.010
 6043.00    0.68490   0.66652    0.010
 6044.00    0.68742   0.66696    0.010
 6045.00    0.68718   0.66526    0.011
 6046.00    0.68028   0.66121    0.011
 6047.00    0.66783   0.65803    0.011
 6048.00    0.64379   0.65675    0.011
 6049.00    0.62301   0.65892    0.011
 6050.00    0.60812   0.66482    0.011
 6051.00    0.59298   0.66888    0.011
 6052.00    0.57745   0.66939    0.011
 6053.00    0.56272   0.66977    0.011
 6054.00    0.54913   0.67010    0.011
 6055.00    0.56203   0.66893    0.011
 6056.00    0.60743   0.66906    0.011
 6057.00    0.63001   0.67084    0.011
 6058.00    0.62792   0.66921    0.011
 6059.00    0.62155   0.66282    0.011
 6060.00    0.61109   0.65671    0.011
 6061.00    0.61614   0.65354    0.011
 6062.00    0.63423   0.65006    0.011
 6063.00    0.64684   0.64755    0.011
 6064.00    0.65539   0.65031    0.011
 6065.00    0.65447   0.65694    0.011
 6066.00    0.64739   0.66288    0.011
 6067.00    0.63849   0.66481    0.011
 6068.00    0.62854   0.66191    0.011
 6069.00    0.64404   0.65559    0.011
 6070.00    0.67216   0.64669    0.011
 6071.00    0.69565   0.63434    0.011
 6072.00    0.71717   0.62856    0.010
 6073.00    0.70763   0.64101    0.010
 6074.00    0.68669   0.66003    0.010
 6075.00    0.68372   0.66953    0.010
 6076.00    0.68635   0.67086    0.010
 6077.00    0.66512   0.67066    0.010
 6078.00    0.63769   0.67103    0.011
 6079.00    0.61734   0.67186    0.011
 6080.00    0.59849   0.67237    0.010
 6081.00    0.63715   0.67170    0.011
 6082.00    0.68542   0.66905    0.011
 6083.00    0.67950   0.66319    0.011
 6084.00    0.66675   0.65275    0.011
 6085.00    0.66541   0.64262    0.011
 6086.00    0.66507   0.64202    0.011
 6087.00    0.68061   0.64569    0.011
 6088.00    0.69697   0.64252    0.011
 6089.00    0.67487   0.63865    0.011
 6090.00    0.65196   0.64122    0.011
 6091.00    0.62068   0.64322    0.011
 6092.00    0.59099   0.64191    0.011
 6093.00    0.59522   0.64384    0.011
 6094.00    0.60059   0.64934    0.011
 6095.00    0.61973   0.65021    0.011
 6096.00    0.63908   0.64251    0.010
 6097.00    0.66022   0.63512    0.010
 6098.00    0.67749   0.63531    0.010
 6099.00    0.67073   0.63796    0.010
 6100.00    0.65660   0.64150    0.010
 6101.00    0.60654   0.64967    0.010
 6102.00    0.56261   0.65620    0.010
 6103.00    0.54296   0.65425    0.010
 6104.00    0.52931   0.65095    0.010
 6105.00    0.53542   0.65394    0.010
 6106.00    0.54129   0.65917    0.010
 6107.00    0.54649   0.65470    0.010
 6108.00    0.56798   0.63034    0.011
 6109.00    0.62829   0.60090    0.011
 6110.00    0.67499   0.60045    0.011
 6111.00    0.69369   0.62759    0.011
 6112.00    0.68495   0.64861    0.011
 6113.00    0.62708   0.65125    0.011
 6114.00    0.58175   0.64642    0.011
 6115.00    0.55602   0.64673    0.011
 6116.00    0.54343   0.65259    0.011
 6117.00    0.54889   0.65256    0.011
 6118.00    0.55505   0.64692    0.011
 6119.00    0.56206   0.64803    0.011
 6120.00    0.56098   0.65598    0.011
 6121.00    0.55129   0.65988    0.011
 6122.00    0.54333   0.65438    0.011
 6123.00    0.53701   0.64726    0.011
 6124.00    0.53245   0.64860    0.011
 6125.00    0.52937   0.65092    0.011
 6126.00    0.53256   0.64339    0.011
 6127.00    0.54033   0.62740    0.011
 6128.00    0.54643   0.60846    0.011
 6129.00    0.55146   0.60204    0.011
 6130.00    0.55074   0.61983    0.010
 6131.00    0.54680   0.64075    0.010
 6132.00    0.54659   0.64472    0.010
 6133.00    0.54820   0.63988    0.010
 6134.00    0.55545   0.63511    0.010
 6135.00    0.56507   0.63345    0.010
 6136.00    0.56373   0.63831    0.011
 6137.00    0.55842   0.64659    0.011
 6138.00    0.55092   0.65127    0.011
 6139.00    0.54275   0.65231    0.011
 6140.00    0.53444   0.65042    0.011
 6141.00    0.52610   0.63872    0.011
 6142.00    0.54973   0.61216    0.011
 6143.00    0.57995   0.57921    0.011
 6144.00    0.59865   0.56814    0.011
 6145.00    0.61549   0.59520    0.011
 6146.00    0.61000   0.63076    0.011
 6147.00    0.60180   0.63831    0.011
 6148.00    0.59210   0.62427    0.011
 6149.00    0.58227   0.62137    0.011
 6150.00    0.55322   0.63741    0.011
 6151.00    0.52325   0.65134    0.010
 6152.00    0.51054   0.65344    0.010
 6153.00    0.49845   0.64938    0.010
 6154.00    0.50781   0.64152    0.010
 6155.00    0.51785   0.63134    0.010
 6156.00    0.54119   0.62457    0.010
 6157.00    0.56238   0.62533    0.010
 6158.00    0.55861   0.63232    0.010
 6159.00    0.55546   0.63974    0.010
 6160.00    0.55721   0.63969    0.010
 6161.00    0.56407   0.63134    0.011
 6162.00    0.60165   0.62603    0.011
 6163.00    0.63215   0.62755    0.011
 6164.00    0.62897   0.62776    0.011
 6165.00    0.61772   0.62546    0.011
 6166.00    0.57522   0.61832    0.010
 6167.00    0.54353   0.59452    0.010
 6168.00    0.54671   0.55950    0.010
 6169.00    0.55086   0.54211    0.011
 6170.00    0.55765   0.55535    0.010
 6171.00    0.56974   0.58129    0.010
 6172.00    0.59423   0.59890    0.011
 6173.00    0.61313   0.60701    0.011
 6174.00    0.62070   0.60943    0.011
 6175.00    0.62845   0.59653    0.011
 6176.00    0.63653   0.57486    0.011
 6177.00    0.63752   0.57450    0.011
 6178.00    0.62755   0.59728    0.010
 6179.00    0.60953   0.61350    0.010
 6180.00    0.58058   0.61440    0.010
 6181.00    0.56486   0.61349    0.010
 6182.00    0.56491   0.61334    0.010
 6183.00    0.56425   0.61117    0.010
 6184.00    0.56283   0.61275    0.010
 6185.00    0.57847   0.61908    0.010
 6186.00    0.60994   0.62082    0.010
 6187.00    0.64170   0.61932    0.010
 6188.00    0.67369   0.62331    0.011
 6189.00    0.66804   0.62817    0.011
 6190.00    0.63531   0.62808    0.010
 6191.00    0.60577   0.62620    0.010
 6192.00    0.57824   0.62141    0.010
 6193.00    0.56785   0.61176    0.010
 6194.00    0.56694   0.60454    0.010
 6195.00    0.57882   0.60367    0.011
 6196.00    0.59684   0.60174   -2.000
 6197.00    0.69003   0.58825   -2.000
 6198.00    0.81436   0.57193   -2.000
 6199.00    0.81412   0.57809   -2.000
 6200.00    0.76971   0.60133   -2.000
 6201.00    0.74852   0.61539   -2.000
 6202.00    0.73429   0.61917   -2.000
 6203.00    0.61910   0.62279   -2.000
 6204.00    0.47883   0.62451   -2.000
 6205.00    0.50737   0.61680   -2.000
 6206.00    0.56989   0.60245   -2.000
 6207.00    0.60669   0.59749   -2.000
 6208.00    0.63943   0.60790    0.011
 6209.00    0.62923   0.62075    0.011
 6210.00    0.61400   0.62537    0.010
 6211.00    0.60554   0.62410    0.010
 6212.00    0.59761   0.62359    0.010
 6213.00    0.58513   0.62518    0.010
 6214.00    0.57245   0.62586    0.010
 6215.00    0.57431   0.62518    0.010
 6216.00    0.57664   0.62335    0.010
 6217.00    0.59354   0.61970    0.010
 6218.00    0.60959   0.61495    0.010
 6219.00    0.60997   0.60580    0.010
 6220.00    0.60716   0.58998    0.010
 6221.00    0.56918   0.57769    0.010
 6222.00    0.53474   0.57617    0.011
 6223.00    0.52765   0.58402    0.011
 6224.00    0.52360   0.59534    0.011
 6225.00    0.53726   0.59709    0.011
 6226.00    0.54661   0.58798    0.011
 6227.00    0.53590   0.58316    0.011
 6228.00    0.52610   0.58923    0.011
 6229.00    0.51977   0.59815    0.011
 6230.00    0.51514   0.60085    0.011
 6231.00    0.51590   0.59856    0.011
 6232.00    0.51570   0.59960    0.011
 6233.00    0.51294   0.60285    0.010
 6234.00    0.51566   0.60351    0.010
 6235.00    0.53101   0.59926    0.010
 6236.00    0.54141   0.58395    0.010
 6237.00    0.54194   0.56373    0.010
 6238.00    0.54097   0.55869    0.010
 6239.00    0.53738   0.57101    0.010
 6240.00    0.54752   0.58753    0.010
 6241.00    0.57854   0.60446    0.010
 6242.00    0.60370   0.61459    0.010
 6243.00    0.62104   0.61192    0.010
 6244.00    0.61704   0.60191    0.010
 6245.00    0.58796   0.59143    0.010
 6246.00    0.56883   0.58305    0.010
 6247.00    0.56000   0.58022    0.010
 6248.00    0.56113   0.58456    0.010
 6249.00    0.57136   0.58305    0.010
 6250.00    0.56616   0.57356    0.010
 6251.00    0.54854   0.57106    0.010
 6252.00    0.56056   0.57303    0.010
 6253.00    0.59361   0.57424    0.011
 6254.00    0.60565   0.58346    0.011
 6255.00    0.60461   0.59733    0.011
 6256.00    0.60459   0.60445    0.011
 6257.00    0.60511   0.60258    0.011
 6258.00    0.63892   0.59052    0.011
 6259.00    0.68846   0.57313    0.011
 6260.00    0.70045   0.56489    0.011
 6261.00    0.69715   0.56761    0.012
 6262.00    0.67092   0.57105    0.013
 6263.00    0.63672   0.56794    0.013
 6264.00    0.60314   0.56017    0.013
 6265.00    0.56974   0.55604    0.012
 6266.00    0.52917   0.56452    0.012
 6267.00    0.48686   0.57989    0.011
 6268.00    0.50836   0.58968    0.011
 6269.00    0.54238   0.59913    0.010
 6270.00    0.56543   0.60732    0.010
 6271.00    0.58679   0.60262    0.010
 6272.00    0.57842   0.59227    0.010
 6273.00    0.56671   0.59352    0.010
 6274.00    0.56391   0.60160    0.010
 6275.00    0.56177   0.60212    0.010
 6276.00    0.56801   0.59695    0.010
 6277.00    0.57458   0.59466    0.010
 6278.00    0.56590   0.59745    0.010
 6279.00    0.55708   0.60296    0.010
 6280.00    0.54731   0.60611    0.000
 6281.00    0.53938   0.60485    0.000
 6282.00    0.56280   0.60407    0.000
 6283.00    0.58429   0.60434    0.000
 6284.00    0.58542   0.60323    0.000
 6285.00    0.58298   0.60027    0.000
 6286.00    0.55389   0.59343    0.000
 6287.00    0.52618   0.58513    0.000
 6288.00    0.50626   0.58513    0.000
 6289.00    0.49284   0.59292    0.000
 6290.00    0.50886   0.60126    0.000
 6291.00    0.52638   0.60600    0.000
 6292.00    0.54948   0.60553    0.000
 6293.00    0.57156   0.60717    0.000
 6294.00    0.59044   0.61325    0.000
 6295.00    0.60368   0.61792    0.000
 6296.00    0.60204   0.61714    0.000
 6297.00    0.59909   0.60984    0.000
 6298.00    0.59319   0.60192    0.000
 6299.00    0.58930   0.59864    0.000
 6300.00    0.58933   0.59978    0.000
 6301.00    0.58274   0.60360    0.000
 6302.00    0.56481   0.60194    0.000
 6303.00    0.54560   0.59112    0.000
 6304.00    0.52449   0.58263    0.000
 6305.00    0.51974   0.58522    0.000
 6306.00    0.53653   0.59209    0.000
 6307.00    0.55367   0.59021    0.000
 6308.00    0.57121   0.57919    0.000
 6309.00    0.58465   0.57484    0.000
 6310.00    0.59389   0.58469    0.000
 6311.00    0.59093   0.59588    0.000
 6312.00    0.57697   0.59866    0.000
 6313.00    0.56652   0.60154    0.000
 6314.00    0.55886   0.61024    0.000
 6315.00    0.55456   0.61574    0.000
 6316.00    0.55261   0.61255    0.000
 6317.00    0.55730   0.60415    0.000
 6318.00    0.56606   0.59776    0.000
 6319.00    0.55905   0.59772    0.000
 6320.00    0.54360   0.59930    0.000
 6321.00    0.54117   0.59192    0.010
 6322.00    0.54478   0.58254    0.010
 6323.00    0.55236   0.58335    0.010
 6324.00    0.56153   0.58153    0.010
 6325.00    0.55949   0.57186    0.010
 6326.00    0.55363   0.57464    0.010
 6327.00    0.55211   0.58928    0.010
 6328.00    0.55183   0.59704    0.010
 6329.00    0.54713   0.59611    0.010
 6330.00    0.54137   0.59855    0.010
 6331.00    0.54210   0.60635    0.010
 6332.00    0.54407   0.61077    0.010
 6333.00    0.54568   0.60991    0.010
 6334.00    0.54724   0.60700    0.010
 6335.00    0.55136   0.60765    0.010
 6336.00    0.55575   0.60893    0.010
 6337.00    0.59449   0.60501    0.010
 6338.00    0.63566   0.60451    0.010
 6339.00    0.63091   0.61108    0.010
 6340.00    0.62449   0.61465    0.010
 6341.00    0.59134   0.60441    0.010
 6342.00    0.55908   0.58332    0.010
 6343.00    0.56170   0.57211    0.010
 6344.00    0.56370   0.57960    0.010
 6345.00    0.55589   0.59100    0.010
 6346.00    0.55019   0.59700    0.010
 6347.00    0.56574   0.60422    0.010
 6348.00    0.57991   0.60913    0.010
 6349.00    0.58412   0.60362    0.010
 6350.00    0.58665   0.59088    0.010
 6351.00    0.57986   0.58242    0.010
 6352.00    0.57498   0.58585    0.010
 6353.00    0.57852   0.59175    0.010
 6354.00    0.57519   0.59430    0.010
 6355.00    0.54688   0.60008    0.010
 6356.00    0.52200   0.60681    0.010
 6357.00    0.50753   0.60894    0.010
 6358.00    0.50043   0.60918    0.010
 6359.00    0.51239   0.60857    0.010
 6360.00    0.52438   0.60318    0.010
 6361.00    0.53641   0.59269    0.010
 6362.00    0.54545   0.58620    0.010
 6363.00    0.54872   0.58977    0.010
 6364.00    0.54704   0.59012    0.010
 6365.00    0.53703   0.57889    0.010
 6366.00    0.53626   0.56972    0.010
 6367.00    0.54911   0.56958    0.010
 6368.00    0.56059   0.56767    0.010
 6369.00    0.57030   0.56275    0.010
 6370.00    0.57794   0.56431    0.010
 6371.00    0.58323   0.57298    0.010
 6372.00    0.57927   0.58224    0.010
 6373.00    0.56598   0.58938    0.010
 6374.00    0.55134   0.59653    0.010
 6375.00    0.53551   0.60289    0.010
 6376.00    0.52773   0.60236    0.010
 6377.00    0.52627   0.59667    0.010
 6378.00    0.51702   0.59555    0.010
 6379.00    0.50240   0.60296    0.010
 6380.00    0.50523   0.61096    0.010
 6381.00    0.51860   0.61200    0.010
 6382.00    0.54299   0.61014    0.010
 6383.00    0.57319   0.61037    0.010
 6384.00    0.57769   0.60850    0.010
 6385.00    0.57045   0.60127    0.010
 6386.00    0.55915   0.59553    0.010
 6387.00    0.54626   0.59492    0.010
 6388.00    0.52691   0.59658    0.010
 6389.00    0.50539   0.60102    0.010
 6390.00    0.52026   0.60293    0.009
 6391.00    0.54538   0.59881    0.009
 6392.00    0.56392   0.59707    0.010
 6393.00    0.58094   0.60199    0.010
 6394.00    0.56585   0.60659    0.010
 6395.00    0.54478   0.60698    0.010
 6396.00    0.51858   0.60691    0.010
 6397.00    0.49164   0.60730    0.010
 6398.00    0.50145   0.60330    0.010
 6399.00    0.51507   0.58877    0.010
 6400.00    0.53742   0.57042    0.010
 6401.00    0.56035   0.57045    0.010
 6402.00    0.58826   0.58926    0.010
 6403.00    0.61633   0.60530    0.010
 6404.00    0.62048   0.61073    0.010
 6405.00    0.62442   0.60380    0.010
 6406.00    0.62160   0.58059    0.010
 6407.00    0.61859   0.56046    0.010
 6408.00    0.61276   0.57321    0.010
 6409.00    0.60506   0.60030    0.010
 6410.00    0.57927   0.61273    0.010
 6411.00    0.55589   0.61417    0.010
 6412.00    0.54937   0.61115    0.010
 6413.00    0.54729   0.60324    0.010
 6414.00    0.56921   0.59053    0.010
 6415.00    0.58967   0.58356    0.010
 6416.00    0.60388   0.59278    0.010
 6417.00    0.61309   0.59914    0.010
 6418.00    0.60452   0.58849    0.010
 6419.00    0.59558   0.58273    0.010
 6420.00    0.58549   0.58979    0.010
 6421.00    0.57641   0.59437    0.010
 6422.00    0.56989   0.59560    0.010
 6423.00    0.56298   0.59848    0.010
 6424.00    0.55524   0.59929    0.010
 6425.00    0.54628   0.59607    0.010
 6426.00    0.53498   0.58683    0.010
 6427.00    0.52273   0.57294    0.010
 6428.00    0.50888   0.56820    0.010
 6429.00    0.50394   0.58247    0.010
 6430.00    0.51194   0.60260    0.010
 6431.00    0.51222   0.60898    0.010
 6432.00    0.50264   0.60621    0.010
 6433.00    0.50225   0.60746    0.010
 6434.00    0.51223   0.61199    0.010
 6435.00    0.52721   0.61241    0.010
 6436.00    0.54717   0.60238    0.010
 6437.00    0.56348   0.58252    0.010
 6438.00    0.57660   0.56976    0.010
 6439.00    0.58027   0.57745    0.010
 6440.00    0.57664   0.59197    0.010
 6441.00    0.56755   0.60150    0.010
 6442.00    0.55474   0.60666    0.010
 6443.00    0.52164   0.60809    0.010
 6444.00    0.47649   0.60139    0.010
 6445.00    0.46546   0.58166    0.010
 6446.00    0.47214   0.56753    0.010
 6447.00    0.49236   0.58112    0.010
 6448.00    0.51866   0.60437    0.010
 6449.00    0.49363   0.61443    0.010
 6450.00    0.44875   0.61490    0.010
 6451.00    0.44255   0.61397    0.010
 6452.00    0.44907   0.61474    0.010
 6453.00    0.46780   0.61662    0.010
 6454.00    0.48989   0.61410    0.010
 6455.00    0.50931   0.59839    0.010
 6456.00    0.52813   0.56715    0.010
 6457.00    0.53214   0.54730    0.010
 6458.00    0.53346   0.56204    0.010
 6459.00    0.53191   0.58783    0.010
 6460.00    0.52995   0.60237    0.010
 6461.00    0.53637   0.60204    0.010
 6462.00    0.54362   0.58756    0.010
 6463.00    0.53803   0.57553    0.010
 6464.00    0.53164   0.58275    0.010
 6465.00    0.53059   0.60039    0.010
 6466.00    0.52978   0.61247    0.010
 6467.00    0.55922   0.61367    0.010
 6468.00    0.58795   0.59864    0.010
 6469.00    0.59710   0.56916    0.010
 6470.00    0.60600   0.55717    0.010
 6471.00    0.61139   0.57613    0.010
 6472.00    0.61418   0.59582    0.010
 6473.00    0.59294   0.60409    0.010
 6474.00    0.57330   0.60763    0.011
 6475.00    0.56446   0.60654    0.010
 6476.00    0.55525   0.60022    0.010
 6477.00    0.54414   0.59395    0.010
 6478.00    0.53756   0.58768    0.010
 6479.00    0.55012   0.58682    0.010
 6480.00    0.56028   0.59451    0.010
 6481.00    0.56206   0.59529    0.010
 6482.00    0.56309   0.58888    0.010
 6483.00    0.56194   0.58995    0.010
 6484.00    0.56337   0.59777    0.010
 6485.00    0.57126   0.60031    0.010
 6486.00    0.57187   0.59877    0.010
 6487.00    0.55676   0.59543    0.010
 6488.00    0.54111   0.58320    0.010
 6489.00    0.52445   0.56765    0.009
 6490.00    0.51519   0.56583    0.009
 6491.00    0.51803   0.57670    0.010
 6492.00    0.52393   0.58670    0.010
 6493.00    0.53422   0.59119    0.010
 6494.00    0.54265   0.59329    0.010
 6495.00    0.54872   0.59459    0.010
 6496.00    0.54824   0.59155    0.010
 6497.00    0.54047   0.58394    0.010
 6498.00    0.53906   0.57702    0.010
 6499.00    0.54386   0.57049    0.010
 6500.00    0.54126   0.55180    0.010
 6501.00    0.53227   0.51960    0.010
 6502.00    0.52337   0.50086    0.010
 6503.00    0.51455   0.50557    0.010
 6504.00    0.51995   0.52109    0.010
 6505.00    0.53487   0.53798    0.010
 6506.00    0.53712   0.54597    0.010
 6507.00    0.53195   0.55478    0.010
 6508.00    0.52740   0.56785    0.010
 6509.00    0.52316   0.57668    0.009
 6510.00    0.53095   0.58130    0.009
 6511.00    0.54408   0.58404    0.009
 6512.00    0.55776   0.58735    0.010
 6513.00    0.57166   0.59028    0.009
 6514.00    0.57831   0.58872    0.010
 6515.00    0.58261   0.58276    0.010
 6516.00    0.57459   0.58027    0.010
 6517.00    0.56324   0.58427    0.010
 6518.00    0.53409   0.58826    0.010
 6519.00    0.50100   0.58829    0.010
 6520.00    0.48731   0.58752    0.010
 6521.00    0.47704   0.58472    0.010
 6522.00    0.49661   0.57638    0.010
 6523.00    0.52018   0.56845    0.010
 6524.00    0.51452   0.56551    0.010
 6525.00    0.50607   0.56314    0.010
 6526.00    0.48253   0.56509    0.010
 6527.00    0.45810   0.57595    0.010
 6528.00    0.50047   0.58501    0.000
 6529.00    0.54430   0.58647    0.000
 6530.00    0.55674   0.58523    0.000
 6531.00    0.56895   0.58647    0.000
 6532.00    0.57519   0.58729    0.000
 6533.00    0.58116   0.58000    0.000
 6534.00    0.58343   0.57159    0.000
 6535.00    0.58374   0.57337    0.000
 6536.00    0.56659   0.58098    0.000
 6537.00    0.54850   0.58483    0.000
 6538.00    0.52423   0.58137    0.000
 6539.00    0.50504   0.57329    0.000
 6540.00    0.51183   0.56851    0.000
 6541.00    0.51906   0.57194    0.000
 6542.00    0.52806   0.58016    0.000
 6543.00    0.54027   0.58428    0.000
 6544.00    0.56348   0.58118    0.000
 6545.00    0.58222   0.57919    0.000
 6546.00    0.58809   0.58346    0.000
 6547.00    0.58648   0.58770    0.000
 6548.00    0.56647   0.58521    0.000
 6549.00    0.54935   0.57770    0.000
 6550.00    0.53837   0.57115    0.000
 6551.00    0.53871   0.56680    0.000
 6552.00    0.55989   0.55785    0.000
 6553.00    0.58234   0.54498    0.000
 6554.00    0.60682   0.54389    0.000
 6555.00    0.64335   0.55404    0.000
 6556.00    0.69687   0.56058    0.000
 6557.00    0.75914   0.55855    0.000
 6558.00    0.83227   0.55170    0.000
 6559.00    0.89666   0.54683    0.000
 6560.00    0.95148   0.54276    0.000
 6561.00    0.95096   0.53413    0.000
 6562.00    0.89699   0.52341    0.000
 6563.00    0.80544   0.51877    0.000
 6564.00    0.68187   0.52146    0.000
 6565.00    0.58396   0.52258    0.000
 6566.00    0.50531   0.51648    0.000
 6567.00    0.46853   0.50134    0.000
 6568.00    0.45936   0.45942    0.000
 6569.00    0.46781   0.38159    0.000
 6570.00    0.48644   0.33569    0.000
 6571.00    0.50448   0.38292    0.000
 6572.00    0.52224   0.46083    0.000
 6573.00    0.52811   0.50431    0.000
 6574.00    0.52880   0.52253    0.000
 6575.00    0.54923   0.52765    0.000
 6576.00    0.57703   0.52361    0.000
 6577.00    0.62917   0.52466    0.000
 6578.00    0.68900   0.53125    0.000
 6579.00    0.71222   0.53128    0.000
 6580.00    0.72575   0.52495    0.000
 6581.00    0.70673   0.52114    0.000
 6582.00    0.68067   0.52457    0.000
 6583.00    0.65171   0.53797    0.000
 6584.00    0.62225   0.55247    0.000
 6585.00    0.59521   0.56007    0.000
 6586.00    0.56847   0.56021    0.000
 6587.00    0.53433   0.55429    0.000
 6588.00    0.49951   0.54833    0.000
 6589.00    0.50866   0.55092    0.000
 6590.00    0.52023   0.55810    0.000
 6591.00    0.54779   0.56175    0.000
 6592.00    0.57532   0.56065    0.000
 6593.00    0.56808   0.55705    0.000
 6594.00    0.56021   0.55868    0.000
 6595.00    0.53760   0.56577    0.000
 6596.00    0.51435   0.57052    0.000
 6597.00    0.48276   0.57167    0.000
 6598.00    0.45320   0.56520    0.000
 6599.00    0.44094   0.54513    0.000
 6600.00    0.43472   0.52350    0.000
 6601.00    0.46701   0.52459    0.000
 6602.00    0.49678   0.54438    0.000
 6603.00    0.51404   0.55828    0.000
 6604.00    0.52816   0.55917    0.000
 6605.00    0.52960   0.55421    0.000
 6606.00    0.52733   0.55384    0.000
 6607.00    0.51265   0.56167    0.000
 6608.00    0.50756   0.57033    0.000
 6609.00    0.52959   0.57299    0.010
 6610.00    0.54777   0.57027    0.010
 6611.00    0.55662   0.56411    0.010
 6612.00    0.56361   0.55802    0.010
 6613.00    0.56668   0.55589    0.010
 6614.00    0.57226   0.55434    0.010
 6615.00    0.58240   0.54832    0.010
 6616.00    0.59169   0.54126    0.010
 6617.00    0.59963   0.54650    0.010
 6618.00    0.60427   0.56134    0.010
 6619.00    0.60434   0.56910    0.010
 6620.00    0.60012   0.56558    0.010
 6621.00    0.59068   0.56191    0.010
 6622.00    0.57962   0.56676    0.010
 6623.00    0.56682   0.57166    0.010
 6624.00    0.55551   0.57045    0.010
 6625.00    0.54563   0.56832    0.010
 6626.00    0.54900   0.56942    0.010
 6627.00    0.56349   0.57203    0.010
 6628.00    0.56860   0.57358    0.010
 6629.00    0.56676   0.57191    0.010
 6630.00    0.54990   0.56560    0.009
 6631.00    0.52327   0.55561    0.010
 6632.00    0.50174   0.54941    0.010
 6633.00    0.48310   0.55348    0.010
 6634.00    0.50347   0.55927    0.010
 6635.00    0.54316   0.56079    0.010
 6636.00    0.54943   0.56033    0.010
 6637.00    0.54141   0.55899    0.010
 6638.00    0.53903   0.55704    0.010
 6639.00    0.53872   0.55153    0.010
 6640.00    0.54606   0.54142    0.010
 6641.00    0.55579   0.53469    0.010
 6642.00    0.52645   0.54010    0.010
 6643.00    0.48701   0.55161    0.010
 6644.00    0.49548   0.55973    0.010
 6645.00    0.51406   0.56179    0.010
 6646.00    0.52379   0.55862    0.010
 6647.00    0.53204   0.55608    0.009
 6648.00    0.53159   0.55963    0.010
 6649.00    0.53004   0.55998    0.010
 6650.00    0.53368   0.54941    0.010
 6651.00    0.53777   0.54247    0.010
 6652.00    0.52281   0.54865    0.010
 6653.00    0.50687   0.55644    0.010
 6654.00    0.51845   0.55687    0.010
 6655.00    0.53048   0.55576    0.010
 6656.00    0.53894   0.55748    0.010
 6657.00    0.54679   0.55836    0.010
 6658.00    0.54176   0.55579    0.010
 6659.00    0.53675   0.55315    0.010
 6660.00    0.53202   0.55283    0.010
 6661.00    0.52782   0.55354    0.010
 6662.00    0.52804   0.55477    0.010
 6663.00    0.52798   0.55429    0.010
 6664.00    0.52615   0.55306    0.010
 6665.00    0.51932   0.55392    0.010
 6666.00    0.48822   0.55467    0.010
 6667.00    0.47217   0.55250    0.009
 6668.00    0.51552   0.54912    0.009
 6669.00    0.55092   0.54341    0.010
 6670.00    0.56025   0.53382    0.010
 6671.00    0.56648   0.53112    0.010
 6672.00    0.56414   0.53834    0.010
 6673.00    0.55960   0.54329    0.010
 6674.00    0.54986   0.54297    0.010
 6675.00    0.53718   0.54350    0.010
 6676.00    0.51846   0.54815    0.010
 6677.00    0.50655   0.55413    0.010
 6678.00    0.50684   0.55747    0.010
 6679.00    0.51991   0.55764    0.010
 6680.00    0.55293   0.55720    0.010
 6681.00    0.58072   0.55714    0.010
 6682.00    0.60131   0.55756    0.010
 6683.00    0.59751   0.55351    0.010
 6684.00    0.56427   0.53807    0.010
 6685.00    0.55229   0.52092    0.010
 6686.00    0.56295   0.52234    0.010
 6687.00    0.56151   0.53614    0.010
 6688.00    0.54871   0.54298    0.009
 6689.00    0.54185   0.54432    0.009
 6690.00    0.53993   0.54654    0.009
 6691.00    0.54697   0.54954    0.009
 6692.00    0.56054   0.55096    0.009
 6693.00    0.56217   0.55049    0.009
 6694.00    0.55617   0.54884    0.010
 6695.00    0.55443   0.54722    0.010
 6696.00    0.55508   0.54772    0.000
 6697.00    0.55461   0.54926    0.000
 6698.00    0.55359   0.55001    0.000
 6699.00    0.55089   0.54974    0.000
 6700.00    0.54749   0.54946    0.000
 6701.00    0.54247   0.54893    0.000
 6702.00    0.53686   0.54414    0.000
 6703.00    0.53791   0.53538    0.000
 6704.00    0.54097   0.53158    0.000
 6705.00    0.54859   0.53476    0.000
 6706.00    0.55736   0.54013    0.000
 6707.00    0.56706   0.54651    0.000
 6708.00    0.57694   0.55054    0.000
 6709.00    0.58654   0.54938    0.000
 6710.00    0.59608   0.54388    0.000
 6711.00    0.61889   0.53760    0.000
 6712.00    0.64329   0.53677    0.000
 6713.00    0.64872   0.54120    0.000
 6714.00    0.65257   0.54512    0.000
 6715.00    0.67545   0.54620    0.000
 6716.00    0.69922   0.54561    0.000
 6717.00    0.68942   0.54279    0.000
 6718.00    0.67860   0.54092    0.000
 6719.00    0.63704   0.54076    0.000
 6720.00    0.59658   0.53772    0.000
 6721.00    0.57753   0.53288    0.000
 6722.00    0.55907   0.52806    0.000
 6723.00    0.54740   0.52118    0.000
 6724.00    0.53812   0.51248    0.000
 6725.00    0.54778   0.51065    0.000
 6726.00    0.56047   0.52119    0.000
 6727.00    0.59127   0.53249    0.000
 6728.00    0.61509   0.53532    0.000
 6729.00    0.60585   0.53417    0.000
 6730.00    0.59451   0.53637    0.000
 6731.00    0.57511   0.53997    0.000
 6732.00    0.55509   0.53864    0.000
 6733.00    0.53311   0.53373    0.000
 6734.00    0.51636   0.53232    0.000
 6735.00    0.51388   0.53564    0.000
 6736.00    0.50935   0.53906    0.000
 6737.00    0.50003   0.54143    0.000
 6738.00    0.49259   0.54250    0.000
 6739.00    0.48897   0.54145    0.000
 6740.00    0.49135   0.53870    0.000
 6741.00    0.50429   0.53733    0.000
 6742.00    0.52151   0.53860    0.000
 6743.00    0.54533   0.54063    0.000
 6744.00    0.54448   0.53920    0.000
 6745.00    0.51025   0.53351    0.000
 6746.00    0.49127   0.52868    0.000
 6747.00    0.49047   0.52955    0.000
 6748.00    0.50019   0.53324    0.000
 6749.00    0.52096   0.53271    0.000
 6750.00    0.54400   0.52886    0.000
 6751.00    0.56915   0.52897    0.000
 6752.00    0.59585   0.53237    0.000
 6753.00    0.62382   0.53282    0.010
 6754.00    0.62253   0.53045    0.011
 6755.00    0.60021   0.52743    0.011
 6756.00    0.55574   0.52397    0.011
 6757.00    0.49732   0.52151    0.011
 6758.00    0.47518   0.52347    0.011
 6759.00    0.47304   0.52577    0.011
 6760.00    0.46658   0.52483    0.011
 6761.00    0.45806   0.52671    0.012
 6762.00    0.50549   0.53091    0.012
 6763.00    0.57607   0.53354    0.012
 6764.00    0.60490   0.53614    0.012
 6765.00    0.61896   0.53946    0.012
 6766.00    0.59676   0.54202    0.012
 6767.00    0.56373   0.54331    0.012
 6768.00    0.58590   0.54292    0.011
 6769.00    0.62174   0.54086    0.011
 6770.00    0.64376   0.54041    0.011
 6771.00    0.66301   0.54151    0.011
 6772.00    0.63101   0.54057    0.011
 6773.00    0.59095   0.53526    0.011
 6774.00    0.58996   0.52764    0.010
 6775.00    0.59352   0.52456    0.010
 6776.00    0.55949   0.52852    0.010
 6777.00    0.52250   0.53130    0.010
 6778.00    0.49144   0.52854    0.010
 6779.00    0.46063   0.52729    0.010
 6780.00    0.47084   0.53188    0.011
 6781.00    0.48248   0.53840    0.011
 6782.00    0.54088   0.54297    0.011
 6783.00    0.59714   0.54480    0.011
 6784.00    0.61466   0.54401    0.011
 6785.00    0.63164   0.54324    0.011
 6786.00    0.64271   0.54492    0.011
 6787.00    0.64910   0.54569    0.011
 6788.00    0.61944   0.54258    0.011
 6789.00    0.58748   0.53567    0.011
 6790.00    0.54207   0.52648    0.011
 6791.00    0.50206   0.51891    0.011
 6792.00    0.48697   0.51703    0.011
 6793.00    0.48475   0.51927    0.011
 6794.00    0.53116   0.52374    0.011
 6795.00    0.56376   0.53002    0.011
 6796.00    0.55280   0.53345    0.010
 6797.00    0.53938   0.53320    0.010
 6798.00    0.51938   0.53349    0.010
 6799.00    0.51910   0.53393    0.010
 6800.00    0.56411   0.53069    0.010
 6801.00    0.58974   0.52674    0.010
 6802.00    0.57679   0.52657    0.011
 6803.00    0.56363   0.52786    0.011
 6804.00    0.55013   0.52960    0.011
 6805.00    0.52988   0.53109    0.011
 6806.00    0.49941   0.53167    0.010
 6807.00    0.49409   0.53282    0.010
 6808.00    0.52229   0.53484    0.010
 6809.00    0.54881   0.53625    0.010
 6810.00    0.57338   0.53485    0.011
 6811.00    0.58324   0.53173    0.011
 6812.00    0.57786   0.53139    0.011
 6813.00    0.56706   0.53181    0.011
 6814.00    0.55131   0.53032    0.011
 6815.00    0.54667   0.53100    0.011
 6816.00    0.55098   0.53194    0.010
 6817.00    0.55674   0.53002    0.010
 6818.00    0.56351   0.52971    0.010
 6819.00    0.56949   0.53205    0.010
 6820.00    0.57497   0.53268    0.010
 6821.00    0.56898   0.52926    0.010
 6822.00    0.55677   0.52473    0.010
 6823.00    0.55564   0.52599    0.010
 6824.00    0.55974   0.53232    0.010
 6825.00    0.56082   0.53595    0.011
 6826.00    0.56066   0.53372    0.011
 6827.00    0.55792   0.52890    0.011
 6828.00    0.55429   0.52776    0.011
 6829.00    0.57506   0.53187    0.011
 6830.00    0.60298   0.53660    0.011
 6831.00    0.61275   0.53877    0.011
 6832.00    0.61813   0.53885    0.011
 6833.00    0.61136   0.53837    0.011
 6834.00    0.60221   0.53509    0.010
 6835.00    0.61116   0.52819    0.010
 6836.00    0.62287   0.52451    0.010
 6837.00    0.59977   0.52826    0.010
 6838.00    0.57277   0.53398    0.011
 6839.00    0.58533   0.53528    0.011
 6840.00    0.60084   0.53339    0.011
 6841.00    0.58697   0.53366    0.011
 6842.00    0.57192   0.53650    0.011
 6843.00    0.55097   0.53732    0.010
 6844.00    0.53147   0.53450    0.010
 6845.00    0.57146   0.52994    0.010
 6846.00    0.60767   0.52415    0.010
 6847.00    0.57987   0.51746    0.010
 6848.00    0.55525   0.51060    0.010
 6849.00    0.56383   0.50667    0.010
 6850.00    0.57230   0.50950    0.010
 6851.00    0.57995   0.51824    0.010
 6852.00    0.58414   0.52767    0.010
 6853.00    0.56867   0.53250    0.010
 6854.00    0.55334   0.53284    0.011
 6855.00    0.53861   0.53235    0.010
 6856.00    0.52599   0.53157    0.010
 6857.00    0.52122   0.53022    0.010
 6858.00    0.51202   0.52956    0.010
 6859.00    0.48910   0.53028    0.010
 6860.00    0.43954   0.53085    0.010
 6861.00    0.31992   0.52617    0.010
 6862.00    0.26906   0.51644    0.010
 6863.00    0.37360   0.51176    0.010
 6864.00    0.46375   0.51464    0.010
 6865.00    0.52571   0.51830    0.011
 6866.00    0.56878   0.52121    0.011
 6867.00    0.57959   0.52159    0.011
 6868.00    0.56334   0.51642    0.011
 6869.00    0.50663   0.51234    0.011
 6870.00    0.46710   0.51764    0.011
 6871.00    0.45012   0.52789    0.011
 6872.00    0.45468   0.53292    0.011
 6873.00    0.48418   0.53041    0.011
 6874.00    0.49956   0.52324    0.010
 6875.00    0.50053   0.51561    0.010
 6876.00    0.50089   0.51429    0.010
 6877.00    0.50070   0.51952    0.010
 6878.00    0.49839   0.52273    0.010
 6879.00    0.49439   0.51991    0.010
 6880.00    0.50623   0.51764    0.010
 6881.00    0.52911   0.51988    0.010
 6882.00    0.54934   0.52196    0.010
 6883.00    0.56795   0.52255    0.010
 6884.00    0.58322   0.52515    0.010
 6885.00    0.59671   0.52951    0.010
 6886.00    0.59499   0.53168    0.010
 6887.00    0.58622   0.53054    0.010
 6888.00    0.56286   0.52582    0.010
 6889.00    0.53365   0.51845    0.010
 6890.00    0.52611   0.51392    0.010
 6891.00    0.52594   0.51719    0.010
 6892.00    0.51768   0.52313    0.011
 6893.00    0.50711   0.52453    0.011
 6894.00    0.50937   0.52525    0.011
 6895.00    0.51467   0.52903    0.010
 6896.00    0.52762   0.53242    0.010
 6897.00    0.54203   0.53409    0.010
 6898.00    0.58708   0.53556    0.010
 6899.00    0.63666   0.53578    0.010
 6900.00    0.63280   0.53417    0.010
 6901.00    0.62318   0.53289    0.010
 6902.00    0.58844   0.53137    0.010
 6903.00    0.55193   0.52926    0.010
 6904.00    0.54904   0.52931    0.010
 6905.00    0.54735   0.53192    0.010
 6906.00    0.53544   0.53315    0.010
 6907.00    0.52400   0.53095    0.010
 6908.00    0.53009   0.52961    0.010
 6909.00    0.53726   0.53250    0.011
 6910.00    0.56149   0.53578    0.010
 6911.00    0.58278   0.53535    0.010
 6912.00    0.57451   0.53324    0.011
 6913.00    0.56975   0.53333    0.011
 6914.00    0.59015   0.53632    0.011
 6915.00    0.60952   0.53890    0.011
 6916.00    0.62319   0.53926    0.011
 6917.00    0.62481   0.53825    0.011
 6918.00    0.57330   0.53609    0.010
 6919.00    0.53802   0.53344    0.010
 6920.00    0.56157   0.52977    0.010
 6921.00    0.57902   0.52394    0.010
 6922.00    0.57800   0.52057    0.010
 6923.00    0.56706   0.52232    0.010
 6924.00    0.53048   0.52428    0.010
 6925.00    0.49827   0.52560    0.010
 6926.00    0.47578   0.52845    0.010
 6927.00    0.46932   0.53193    0.010
 6928.00    0.49379   0.53504    0.010
 6929.00    0.50570   0.53651    0.011
 6930.00    0.49652   0.53395    0.011
 6931.00    0.50213   0.52621    0.011
 6932.00    0.52954   0.51784    0.011
 6933.00    0.55106   0.51558    0.011
 6934.00    0.56498   0.52081    0.011
 6935.00    0.55661   0.52814    0.011
 6936.00    0.52282   0.53183    0.011
 6937.00    0.51635   0.53219    0.011
 6938.00    0.53739   0.53134    0.011
 6939.00    0.56703   0.52888    0.011
 6940.00    0.60432   0.52442    0.011
 6941.00    0.58979   0.52270    0.010
 6942.00    0.53474   0.52684    0.010
 6943.00    0.49855   0.53090    0.010
 6944.00    0.47534   0.53078    0.010
 6945.00    0.47445   0.52941    0.010
 6946.00    0.48701   0.53005    0.010
 6947.00    0.52288   0.53284    0.011
 6948.00    0.57102   0.53547    0.011
 6949.00    0.58081   0.53488    0.011
 6950.00    0.57311   0.53061    0.011
 6951.00    0.54179   0.52382    0.011
 6952.00    0.50119   0.51655    0.011
 6953.00    0.50089   0.51526    0.011
 6954.00    0.51407   0.52218    0.011
 6955.00    0.54309   0.53000    0.011
 6956.00    0.57656   0.53386    0.011
 6957.00    0.56961   0.53363    0.011
 6958.00    0.55330   0.52862    0.011
 6959.00    0.55321   0.52276    0.011
 6960.00    0.55614   0.52065    0.010
 6961.00    0.55611   0.52076    0.010
 6962.00    0.55566   0.52215    0.011
 6963.00    0.56715   0.52603    0.011
 6964.00    0.57987   0.53060    0.010
 6965.00    0.55597   0.53247    0.011
 6966.00    0.52963   0.53210    0.011
 6967.00    0.53512   0.53184    0.011
 6968.00    0.54162   0.53269    0.011
 6969.00    0.55761   0.53404    0.011
 6970.00    0.57190   0.53515    0.011
 6971.00    0.53393   0.53596    0.011
 6972.00    0.49876   0.53478    0.011
 6973.00    0.50541   0.53161    0.011
 6974.00    0.51258   0.53157    0.011
 6975.00    0.52475   0.53651    0.011
 6976.00    0.53355   0.54041    0.011
 6977.00    0.51891   0.53902    0.011
 6978.00    0.50916   0.53443    0.011
 6979.00    0.52558   0.53219    0.011
 6980.00    0.53796   0.53502    0.011
 6981.00    0.53291   0.53742    0.011
 6982.00    0.52582   0.53390    0.011
 6983.00    0.51148   0.52661    0.011
 6984.00    0.50272   0.51778    0.011
 6985.00    0.51056   0.50547    0.011
 6986.00    0.51922   0.49526    0.011
 6987.00    0.52996   0.49926    0.011
 6988.00    0.53777   0.51483    0.011
 6989.00    0.53916   0.52843    0.011
 6990.00    0.53413   0.53577    0.011
 6991.00    0.51693   0.53903    0.011
 6992.00    0.51873   0.53959    0.011
 6993.00    0.55198   0.53881    0.011
 6994.00    0.56015   0.53728    0.011
 6995.00    0.53192   0.53426    0.011
 6996.00    0.52668   0.52935    0.011
 6997.00    0.55081   0.52619    0.011
 6998.00    0.58187   0.52845    0.011
 6999.00    0.62072   0.53365    0.011
 7000.00    0.60607   0.53672    0.011
 7001.00    0.53834   0.53551    0.010
 7002.00    0.53865   0.53279    0.010
 7003.00    0.59848   0.53266    0.011
 7004.00    0.59806   0.53472    0.011
 7005.00    0.55119   0.53455    0.011
 7006.00    0.53003   0.52873    0.011
 7007.00    0.52628   0.52072    0.011
 7008.00    0.51201   0.51919    0.011
 7009.00    0.49149   0.52517    0.011
 7010.00    0.50834   0.52937    0.011
 7011.00    0.54455   0.52584    0.011
 7012.00    0.57808   0.51950    0.011
 7013.00    0.61041   0.51712    0.011
 7014.00    0.59525   0.51908    0.011
 7015.00    0.56175   0.52325    0.011
 7016.00    0.54607   0.52827    0.011
 7017.00    0.53625   0.53127    0.011
 7018.00    0.55360   0.52990    0.011
 7019.00    0.57842   0.52762    0.011
 7020.00    0.58066   0.52897    0.011
 7021.00    0.57778   0.53080    0.011
 7022.00    0.58006   0.52475    0.011
 7023.00    0.58327   0.50970    0.011
 7024.00    0.56168   0.49962    0.011
 7025.00    0.53666   0.50714    0.011
 7026.00    0.55879   0.52377    0.011
 7027.00    0.58561   0.53489    0.011
 7028.00    0.57993   0.53823    0.011
 7029.00    0.57221   0.53537    0.012
 7030.00    0.52795   0.52600    0.012
 7031.00    0.48306   0.51511    0.011
 7032.00    0.54859   0.51147    0.012
 7033.00    0.61076   0.51651    0.012
 7034.00    0.58090   0.52277    0.011
 7035.00    0.55453   0.52544    0.011
 7036.00    0.57708   0.52680    0.011
 7037.00    0.59002   0.52886    0.011
 7038.00    0.51440   0.53066    0.011
 7039.00    0.45278   0.53068    0.011
 7040.00    0.48555   0.52909    0.011
 7041.00    0.51895   0.52743    0.011
 7042.00    0.55567   0.52715    0.011
 7043.00    0.58439   0.52949    0.011
 7044.00    0.57941   0.53004    0.011
 7045.00    0.56629   0.52178    0.011
 7046.00    0.52479   0.51303    0.011
 7047.00    0.50296   0.51912    0.012
 7048.00    0.53867   0.53555    0.012
 7049.00    0.56513   0.54743    0.012
 7050.00    0.56848   0.55089   -2.000
 7051.00    0.56002   0.54787   -2.000
 7052.00    0.52616   0.54083   -2.000
 7053.00    0.51601   0.53655   -2.000
 7054.00    0.55014   0.53957   -2.000
 7055.00    0.57967   0.54595   -2.000
 7056.00    0.60170   0.55006   -2.000
 7057.00    0.62977   0.54987   -2.000
 7058.00    0.66649   0.54562   -2.000
 7059.00    0.67455   0.53624   -2.000
 7060.00    0.64652   0.52154   -2.000
 7061.00    0.64288   0.50751   -2.000
 7062.00    0.66629   0.50012   -2.000
 7063.00    0.65354   0.50055   -2.000
 7064.00    0.60543   0.50640   -2.000
 7065.00    0.59275   0.51099   -2.000
 7066.00    0.61065   0.50850   -2.000
 7067.00    0.59149   0.50012   -2.000
 7068.00    0.54418   0.49409   -2.000
 7069.00    0.55595   0.49534   -2.000
 7070.00    0.60718   0.49994   -2.000
 7071.00    0.64026   0.50447   -2.000
 7072.00    0.66273   0.50819   -2.000
 7073.00    0.61850   0.50711   -2.000
 7074.00    0.54027   0.49989   -2.000
 7075.00    0.55446   0.49088   -2.000
 7076.00    0.60946   0.48611   -2.000
 7077.00    0.59720   0.49104   -2.000
 7078.00    0.55944   0.50204   -2.000
 7079.00    0.56930   0.50923   -2.000
 7080.00    0.59449   0.51086   -2.000
 7081.00    0.62161   0.51118   -2.000
 7082.00    0.64926   0.51129   -2.000
 7083.00    0.68000   0.51028   -2.000
 7084.00    0.71143   0.50923   -2.000
 7085.00    0.67237   0.50986   -2.000
 7086.00    0.62092   0.51165   -2.000
 7087.00    0.58704   0.51332   -2.000
 7088.00    0.55551   0.51507   -2.000
 7089.00    0.54590   0.51453   -2.000
 7090.00    0.53837   0.50752   -2.000
 7091.00    0.55302   0.49447   -2.000
 7092.00    0.56898   0.48257   -2.000
 7093.00    0.58378   0.48001   -2.000
 7094.00    0.59809   0.48279   -2.000
 7095.00    0.54844   0.48102   -2.000
 7096.00    0.50210   0.47637   -2.000
 7097.00    0.53820   0.47314   -2.000
 7098.00    0.57093   0.47169   -2.000
 7099.00    0.55901   0.47309   -2.000
 7100.00    0.54368   0.47466   -2.000
 7101.00    0.49824   0.47410   -2.000
 7102.00    0.46485   0.47389   -2.000
 7103.00    0.51021   0.47379   -2.000
 7104.00    0.55267   0.47385   -2.000
 7105.00    0.58034   0.47567   -2.000
 7106.00    0.60339   0.48098   -2.000
 7107.00    0.60739   0.48747   -2.000
 7108.00    0.60504   0.48896   -2.000
 7109.00    0.58101   0.48647   -2.000
 7110.00    0.55392   0.48360   -2.000
 7111.00    0.51803   0.48433   -2.000
 7112.00    0.48494   0.48873   -2.000
 7113.00    0.45869   0.49173   -2.000
 7114.00    0.45790   0.48959   -2.000
 7115.00    0.51095   0.48638   -2.000
 7116.00    0.57144   0.48645   -2.000
 7117.00    0.64559   0.48632   -2.000
 7118.00    0.66371   0.48155   -2.000
 7119.00    0.59182   0.47635   -2.000
 7120.00    0.55377   0.47736   -2.000
 7121.00    0.56344   0.48267   -2.000
 7122.00    0.58072   0.48653   -2.000
 7123.00    0.60746   0.48822   -2.000
 7124.00    0.67045   0.48989   -2.000
 7125.00    0.77308   0.49049   -2.000
 7126.00    0.76533   0.48989   -2.000
 7127.00    0.65115   0.48937   -2.000
 7128.00    0.63858   0.48839   -2.000
 7129.00    0.71244   0.48572   -2.000
 7130.00    0.72314   0.48372   -2.000
 7131.00    0.68655   0.48643   -2.000
 7132.00    0.70735   0.48785   -2.000
 7133.00    0.76592   0.48208   -2.000
 7134.00    0.69049   0.47566   -2.000
 7135.00    0.53787   0.47500   -2.000
 7136.00    0.51174   0.47661   -2.000
 7137.00    0.54909   0.47335   -2.000
 7138.00    0.59412   0.46556   -2.000
 7139.00    0.64249   0.46283   -2.000
 7140.00    0.65956   0.46868   -2.000
 7141.00    0.66497   0.47664   -2.000
 7142.00    0.60826   0.48233   -2.000
 7143.00    0.53193   0.48455   -2.000
 7144.00    0.57605   0.48543   -2.000
 7145.00    0.65195   0.48660   -2.000
 7146.00    0.62352   0.48419   -2.000
 7147.00    0.57260   0.48009   -2.000
 7148.00    0.55384   0.48096   -2.000
 7149.00    0.54057   0.48509   -2.000
 7150.00    0.55380   0.48608   -2.000
 7151.00    0.57047   0.48519   -2.000
 7152.00    0.58413   0.48477   -2.000
 7153.00    0.59752   0.48422   -2.000
 7154.00    0.57987   0.48164   -2.000
 7155.00    0.56052   0.47319   -2.000
 7156.00    0.55650   0.46485   -2.000
 7157.00    0.55278   0.46755   -2.000
 7158.00    0.54675   0.47598   -2.000
 7159.00    0.54641   0.48238   -2.000
 7160.00    0.67510   0.48861   -2.000
 7161.00    0.80203   0.49304   -2.000
 7162.00    0.90662   0.49124   -2.000
 7163.00    0.98818   0.48732   -2.000
 7164.00    0.87326   0.48942   -2.000
 7165.00    0.74843   0.49445   -2.000
 7166.00    0.56079   0.49285   -2.000
 7167.00    0.43741   0.48684   -2.000
 7168.00    0.63310   0.48362   -2.000
 7169.00    0.77389   0.48562   -2.000
 7170.00    0.69373   0.48739   -2.000
 7171.00    0.62711   0.48029   -2.000
 7172.00    0.60575   0.46659   -2.000
 7173.00    0.57591   0.46082   -2.000
 7174.00    0.52211   0.46975   -2.000
 7175.00    0.50642   0.48318   -2.000
 7176.00    0.58263   0.49020   -2.000
 7177.00    0.63905   0.48975   -2.000
 7178.00    0.65425   0.48814   -2.000
 7179.00    0.66547   0.49037   -2.000
 7180.00    0.66947   0.49452   -2.000
 7181.00    0.67073   0.49619   -2.000
 7182.00    0.66765   0.49352   -2.000
 7183.00    0.64184   0.48708   -2.000
 7184.00    0.58444   0.48239   -2.000
 7185.00    0.54310   0.48559   -2.000
 7186.00    0.52141   0.49062   -2.000
 7187.00    0.54882   0.48602   -2.000
 7188.00    0.62916   0.47413   -2.000
 7189.00    0.65074   0.46756   -2.000
 7190.00    0.61644   0.47385   -2.000
 7191.00    0.57633   0.48629   -2.000
 7192.00    0.53135   0.49264   -2.000
 7193.00    0.51063   0.49031   -2.000
 7194.00    0.50782   0.48123   -2.000
 7195.00    0.51573   0.46966   -2.000
 7196.00    0.53058   0.46493   -2.000
 7197.00    0.55036   0.46835   -2.000
 7198.00    0.57294   0.47556   -2.000
 7199.00    0.63910   0.48155   -2.000
 7200.00    0.72678   0.48116   -2.000
 7201.00    0.81984   0.47855   -2.000
 7202.00    0.91519   0.48068   -2.000
 7203.00    0.80792   0.48527   -2.000
 7204.00    0.62650   0.48396   -2.000
 7205.00    0.50015   0.47951   -2.000
 7206.00    0.39086   0.48100   -2.000
 7207.00    0.45772   0.48623   -2.000
 7208.00    0.57006   0.48719   -2.000
 7209.00    0.52108   0.48309   -2.000
 7210.00    0.43817   0.48013   -2.000
 7211.00    0.50141   0.48449   -2.000
 7212.00    0.58893   0.49189   -2.000
 7213.00    0.60256   0.49138   -2.000
 7214.00    0.60695   0.47836   -2.000
 7215.00    0.60762   0.46330   -2.000
 7216.00    0.60796   0.46143   -2.000
 7217.00    0.54211   0.47105   -2.000
 7218.00    0.47291   0.48349   -2.000
