###################################################################
## OUTPUT of StarlightChains_v04.for    [Cid@UFSC - 01/Apr/2007] ##
###################################################################

## Some input info
KUG0210-078._40_42.txt                   [arq_obs]
Base.CB07.vall.4m                        [arq_base]
Masks.EmLines.NEW.gm                     [arq_masks]
StCv04.C11.config                        [arq_config]
   66                                    [N_base]
    0                                    [N_YAV_components = # of components with extra extinction!]
    0                                    [i_FitPowerLaw (1/0 = Yes/No)]
-9.99                                    [alpha_PowerLaw]
CCM                                      [red_law_option]
 1.458241                                [q_norm = A(l_norm)/A(V)]

## (Re)Sampling Parameters
 3741.00                                 [l_ini (A)]
 7218.00                                 [l_fin (A)]
    1.00                                 [dl    (A)]     (OBS: dl_cushion =    50.00 A)

## Normalization info
 4020.00                                 [l_norm (A) - for base]
 4010.00                                 [llow_norm (A) - window for f_obs]
 4060.00                                 [lupp_norm (A) - window for f_obs]
1.408149E-17                             [fobs_norm (in input units)]

## S/N
 3691.00                                 [llow_SN (A) - window for S/N]
 7268.00                                 [lupp_SN (A) - window for S/N]
   4.903                                 [S/N in S/N window]
   3.994                                 [S/N in norm. window]
   0.021                                 [S/N_err in S/N window]
   0.017                                 [S/N_err in norm. window]
  1.0000                                 [fscale_chi2]

## etc...
    -2007728                             [idum_orig]
  2428                                   [NOl_eff]
  2418                                   [Nl_eff]
    10    NSIGMA                         [Ntot_cliped & clip_method]
  2076900                                [Nglobal_steps]
   7                                     [N_chains]
  45                                     [NEX0s_base = N_base in EX0s-fits]
 0   0   1       10   2.0   1.833E+03    [Clip-Bug, RC-Crash & Burn-In warning-flags, n_censored_weights, wei_nsig_threshold & wei_limit]
    64     60.509     59.120      1.389  [idt_all, wdt_TotTime, wdt_UsrTime & wdt_SysTime (sec)]

## Synthesis Results - Best model ##

 1.37261E-05                             [chi2/Nl_eff]
    10.35981                             [adev (%)]

   114.45512                             [sum-of-x (%)]
 2.22157E-17                             [Flux_tot (units of input spectrum!)]
 5.13791E-13                             [Mini_tot (???)]
 2.75843E-13                             [Mcor_tot (???)]

-165.30                                  [v0_min  (km/s)]
 124.84                                  [vd_min  (km/s)]
 0.2389                                  [AV_min  (mag)]
 0.0000                                  [YAV_min (mag)]

# j     x_j(%)      Mini_j(%)     Mcor_j(%)     age_j(yr)     Z_j      (L/M)_j    YAV?  Mstars   component_j        a/Fe...       SSP_chi2r SSP_adev(%)   SSP_AV   SSP_x(%)
  1      0.0000     0.0000E+00    0.0000E+00    1.000000E+06  0.00400  1.094E-02    0   1.0000   age020_m42            0.0000     2.4985E-05    15.4178   3.6282    93.0898
  2      0.0000     0.0000E+00    0.0000E+00    3.160000E+06  0.00400  4.007E-02    0   0.9999   age045_m42            0.0000     2.1102E-05    14.2090   2.8832   100.0956
  3      0.0000     0.0000E+00    0.0000E+00    5.010000E+06  0.00400  2.539E-02    0   0.9488   age055_m42            0.0000     2.2861E-05    14.7406   3.2154    97.2555
  4      0.0000     0.0000E+00    0.0000E+00    6.610000E+06  0.00400  2.620E-02    0   0.9220   age061_m42            0.0000     2.1009E-05    14.1608   2.8137   100.1618
  5      0.0000     0.0000E+00    0.0000E+00    1.000000E+07  0.00400  1.322E-02    0   0.8862   age070_m42            0.0000     2.2654E-05    15.3534   2.5579   101.2153
  6      0.0000     0.0000E+00    0.0000E+00    1.445000E+07  0.00400  7.883E-03    0   0.8571   age078_m42            0.0000     2.3595E-05    15.5687   2.8863    98.6260
  7      0.0000     0.0000E+00    0.0000E+00    2.512000E+07  0.00400  5.251E-03    0   0.8174   age090_m42            0.0000     2.2804E-05    15.5608   2.4323   101.6117
  8      0.0000     0.0000E+00    0.0000E+00    4.000000E+07  0.00400  3.649E-03    0   0.7851   age104_m42            0.0000     2.1820E-05    15.1642   2.1980   102.7398
  9      0.0000     0.0000E+00    0.0000E+00    5.500000E+07  0.00400  3.098E-03    0   0.7629   age110_m42            0.0000     2.0646E-05    14.3474   2.3355   103.3660
 10      0.0000     0.0000E+00    0.0000E+00    1.015200E+08  0.00400  2.228E-03    0   0.7207   age116_m42            0.0000     1.9893E-05    13.7921   2.3451   103.9665
 11      0.0000     0.0000E+00    0.0000E+00    2.861200E+08  0.00400  1.093E-03    0   0.6648   age125_m42            0.0000     1.9578E-05    13.9572   1.7745   106.8960
 12      0.8398     4.8093E-02    5.7017E-02    5.088000E+08  0.00400  6.597E-04    0   0.6365   age130_m42            0.0000     1.8262E-05    13.0148   1.7486   108.5048
 13      0.0132     2.3460E-03    2.5336E-03    1.434000E+09  0.00400  2.132E-04    0   0.5798   age139_m42            0.0000     1.5708E-05    12.0155   0.7650   111.2698
 14      0.6906     4.4258E-01    4.4325E-01    4.250000E+09  0.00400  5.895E-05    0   0.5377   age158_m42            0.0000     1.5227E-05    11.5272   0.3119   107.5883
 15      1.3946     1.5010E+00    1.4571E+00    7.500000E+09  0.00400  3.510E-05    0   0.5212   age171_m42            0.0000     1.4991E-05    11.2677   0.1139   107.2400
 16      1.2186     2.2961E+00    2.1529E+00    1.300000E+10  0.00400  2.005E-05    0   0.5034   age193_m42            0.0000     1.4887E-05    11.1143  -0.0588   106.9204
 17      0.0000     0.0000E+00    0.0000E+00    1.800000E+10  0.00400  1.525E-05    0   0.4967   age213_m42            0.0000     1.5093E-05    11.2267  -0.0802   106.3761
 18      0.0012     3.6435E-06    6.7864E-06    1.000000E+06  0.00800  1.238E-02    0   1.0000   age020_m52            0.0000     2.4997E-05    15.4116   3.6245    93.2757
 19      0.0000     0.0000E+00    0.0000E+00    3.160000E+06  0.00800  3.074E-02    0   0.9966   age045_m52            0.0000     2.4651E-05    15.2689   3.5469    94.1588
 20      0.1413     2.0002E-04    3.5182E-04    5.010000E+06  0.00800  2.668E-02    0   0.9443   age055_m52            0.0000     2.3313E-05    14.9028   3.3016    96.2843
 21      0.0089     1.5732E-05    2.6891E-05    6.610000E+06  0.00800  2.136E-02    0   0.9177   age061_m52            0.0000     2.1664E-05    15.0710   2.0568   102.5318
 22      0.0000     0.0000E+00    0.0000E+00    1.000000E+07  0.00800  1.215E-02    0   0.8827   age070_m52            0.0000     2.3809E-05    15.9613   2.7434   100.6827
 23      0.0000     0.0000E+00    0.0000E+00    1.445000E+07  0.00800  8.717E-03    0   0.8552   age078_m52            0.0000     2.3209E-05    15.4847   2.8507   100.0351
 24      0.0000     0.0000E+00    0.0000E+00    2.512000E+07  0.00800  5.592E-03    0   0.8162   age090_m52            0.0000     2.2654E-05    15.5784   2.4930   102.8773
 25      0.0000     0.0000E+00    0.0000E+00    4.000000E+07  0.00800  3.896E-03    0   0.7841   age104_m52            0.0000     2.1532E-05    15.0397   2.3948   104.0638
 26      0.0000     0.0000E+00    0.0000E+00    1.015200E+08  0.00800  2.148E-03    0   0.7226   age116_m52            0.0000     1.9963E-05    14.0749   2.3177   104.5556
 27      0.0000     0.0000E+00    0.0000E+00    2.861200E+08  0.00800  9.925E-04    0   0.6683   age125_m52            0.0000     1.7881E-05    12.9005   1.8115   109.6003
 28     10.9844     1.3211E+00    1.5104E+00    9.047900E+08  0.00800  3.141E-04    0   0.6138   age135_m52            0.0000     1.5089E-05    11.4532   0.9824   115.4293
 29      1.6796     3.6912E-01    4.0242E-01    1.434000E+09  0.00800  1.719E-04    0   0.5853   age139_m52            0.0000     1.4893E-05    11.6289   0.4037   112.9906
 30      0.0000     0.0000E+00    0.0000E+00    2.500000E+09  0.00800  7.872E-05    0   0.5600   age150_m52            0.0000     1.4329E-05    10.8929   0.1202   110.7677
 31      0.0000     0.0000E+00    0.0000E+00    4.250000E+09  0.00800  4.336E-05    0   0.5426   age158_m52            0.0000     1.4486E-05    10.9451   0.1050   109.7385
 32      0.7010     8.3835E-01    8.3058E-01    6.250000E+09  0.00800  3.159E-05    0   0.5319   age166_m52            0.0000     1.4235E-05    10.6123  -0.1141   110.3963
 33      0.2482     6.8884E-01    6.5089E-01    1.300000E+10  0.00800  1.361E-05    0   0.5073   age193_m52            0.0000     1.4371E-05    10.3812  -0.6010   110.3988
 34      1.0274     3.9261E+00    3.6491E+00    1.800000E+10  0.00800  9.886E-06    0   0.4990   age213_m52            0.0000     1.4674E-05    10.3668  -0.7283   110.5853
 35      0.0000     0.0000E+00    0.0000E+00    1.000000E+06  0.02000  1.544E-02    0   1.0000   age020_m62            0.0000     2.5114E-05    15.4457   3.6223    93.4483
 36      0.0000     0.0000E+00    0.0000E+00    3.160000E+06  0.02000  3.762E-02    0   0.9858   age045_m62            0.0000     2.5017E-05    15.3654   3.5610    94.2867
 37      0.0000     0.0000E+00    0.0000E+00    5.010000E+06  0.02000  3.296E-02    0   0.9342   age055_m62            0.0000     2.1857E-05    14.3141   3.1675    98.7564
 38      0.0000     0.0000E+00    0.0000E+00    8.710000E+06  0.02000  1.154E-02    0   0.8861   age067_m62            0.0000     3.0336E-05    19.6074   2.2387   101.4054
 39      0.0000     0.0000E+00    0.0000E+00    1.445000E+07  0.02000  7.663E-03    0   0.8472   age078_m62            0.0000     2.5001E-05    16.8823   2.3990   102.4389
 40      0.0000     0.0000E+00    0.0000E+00    2.512000E+07  0.02000  4.532E-03    0   0.8099   age090_m62            0.0000     2.5237E-05    17.0159   2.3925   102.0461
 41      0.0000     0.0000E+00    0.0000E+00    5.500000E+07  0.02000  2.733E-03    0   0.7595   age110_m62            0.0000     2.1711E-05    15.0478   2.3807   103.2154
 42      0.0000     0.0000E+00    0.0000E+00    1.609000E+08  0.02000  1.369E-03    0   0.6985   age120_m62            0.0000     1.9295E-05    13.5903   2.1929   107.1278
 43      0.0000     0.0000E+00    0.0000E+00    2.861200E+08  0.02000  9.013E-04    0   0.6714   age125_m62            0.0000     1.7999E-05    12.7275   1.9253   110.9367
 44     30.2693     2.2743E+00    2.7319E+00    5.088000E+08  0.02000  5.028E-04    0   0.6449   age130_m62            0.0000     1.6017E-05    11.4476   1.5196   115.0924
 45      0.0000     0.0000E+00    0.0000E+00    9.047900E+08  0.02000  2.428E-04    0   0.6179   age135_m62            0.0000     1.4507E-05    10.9507   0.9180   115.0527
 46      0.0000     0.0000E+00    0.0000E+00    1.434000E+09  0.02000  1.263E-04    0   0.5908   age139_m62            0.0000     1.4398E-05    10.9235   0.4712   113.5169
 47      0.0000     0.0000E+00    0.0000E+00    2.500000E+09  0.02000  5.985E-05    0   0.5673   age150_m62            0.0000     1.4218E-05    10.5879   0.0872   112.7261
 48     26.7049     3.0842E+01    3.1412E+01    4.250000E+09  0.02000  3.271E-05    0   0.5468   age158_m62            0.0000     1.4162E-05    10.2908  -0.2411   112.7039
 49     14.5830     4.0508E+01    3.8986E+01    1.000000E+10  0.02000  1.360E-05    0   0.5167   age181_m62            0.0000     1.5022E-05    10.4335  -0.6211   113.4310
 50      0.0000     0.0000E+00    0.0000E+00    1.800000E+10  0.02000  7.124E-06    0   0.5013   age213_m62            0.0000     1.6146E-05    10.7958  -0.8560   113.4550
 51      0.0000     0.0000E+00    0.0000E+00    1.000000E+06  0.05000  2.592E-02    0   0.9998   age020_m72            0.0000     2.5608E-05    15.6192   3.6172    93.3705
 52      0.0000     0.0000E+00    0.0000E+00    3.160000E+06  0.05000  4.845E-02    0   0.9577   age045_m72            0.0000     2.3729E-05    14.8871   3.4354    95.8245
 53      0.0000     0.0000E+00    0.0000E+00    5.010000E+06  0.05000  3.072E-02    0   0.9147   age055_m72            0.0000     2.5081E-05    16.2728   2.9704    99.0482
 54      0.0000     0.0000E+00    0.0000E+00    6.610000E+06  0.05000  1.455E-02    0   0.8877   age061_m72            0.0000     3.5447E-05    22.1673   2.2742   101.6963
 55      0.0000     0.0000E+00    0.0000E+00    1.000000E+07  0.05000  9.074E-03    0   0.8524   age070_m72            0.0000     2.6102E-05    16.7564   3.1350    98.9362
 56      0.0000     0.0000E+00    0.0000E+00    2.512000E+07  0.05000  4.250E-03    0   0.7902   age090_m72            0.0000     2.4047E-05    16.0330   2.8403   100.9131
 57      0.0000     0.0000E+00    0.0000E+00    4.000000E+07  0.05000  3.087E-03    0   0.7618   age104_m72            0.0000     2.3651E-05    16.0440   2.6119   102.5870
 58      0.0000     0.0000E+00    0.0000E+00    1.015200E+08  0.05000  1.700E-03    0   0.7096   age116_m72            0.0000     2.0330E-05    14.2371   2.3423   106.3060
 59      0.0000     0.0000E+00    0.0000E+00    2.861200E+08  0.05000  7.384E-04    0   0.6633   age125_m72            0.0000     1.6955E-05    12.0313   1.7773   113.1432
 60      3.5488     3.5105E-01    4.1665E-01    5.088000E+08  0.05000  3.819E-04    0   0.6372   age130_m72            0.0000     1.4982E-05    10.9747   1.2616   116.0682
 61      5.8381     1.3159E+00    1.4976E+00    9.047900E+08  0.05000  1.676E-04    0   0.6110   age135_m72            0.0000     1.4100E-05    10.4733   0.5422   115.0841
 62      0.6119     2.6157E-01    2.8619E-01    1.434000E+09  0.05000  8.837E-05    0   0.5874   age139_m72            0.0000     1.4203E-05    10.5560   0.0784   114.6960
 63     13.6271     1.2162E+01    1.2681E+01    2.500000E+09  0.05000  4.233E-05    0   0.5598   age150_m72            0.0000     1.4359E-05    10.3674  -0.2542   114.1772
 64      0.3231     8.5066E-01    8.3168E-01    6.250000E+09  0.05000  1.435E-05    0   0.5249   age166_m72            0.0000     1.5404E-05    10.6640  -0.7283   113.3608
 65      0.0000     0.0000E+00    0.0000E+00    1.300000E+10  0.05000  6.513E-06    0   0.5036   age193_m72            0.0000     1.7115E-05    10.9088  -1.0000   114.2997
 66      0.0000     0.0000E+00    0.0000E+00    1.800000E+10  0.05000  4.527E-06    0   0.4945   age213_m72            0.0000     1.9401E-05    10.8728  -1.0000   109.0175


## Synthesis Results - Average & Chains ##

# j      x_j: min, <> & last-chain-values for 1 ...  7 chains
  1      0.0000      1.2025      0.0000      0.2370      0.0000      0.0000      0.0000      0.1443      0.0000
  2      0.0000      1.6433      0.5645      0.2359      0.1028      0.6545      0.5039      0.0935      0.0000
  3      0.0000      1.1264      0.2986      0.0000      0.0000      0.3603      0.0000      0.2698      0.1486
  4      0.0000      1.4991      0.2638      0.3725      0.0000      1.6249      0.6058      0.0000      0.0000
  5      0.0000      2.3212      0.6726      0.5298      0.4244      0.2604      0.0000      0.6485      0.8689
  6      0.0000      1.3840      0.0582      0.7604      0.0000      0.0000      0.0000      0.0860      1.8876
  7      0.0000      1.9391      0.7527      0.2038      0.1419      0.0000      0.0007      0.5779      0.0000
  8      0.0000      1.6525      2.9857      1.9228      4.3375      2.7110      2.3780      3.3514      2.2731
  9      0.0000      1.1586      0.1570      0.0000      0.1557      0.1322      0.2749      0.0000      0.5544
 10      0.0000      1.3789      0.0752      0.3403      0.0000      0.4653      0.0000      0.8317      0.2403
 11      0.0000      1.1774      0.0000      0.3909      0.3809      1.0651      0.3798      0.0000      1.1991
 12      0.8398      1.7802      0.0000      0.8690      1.0070      0.4737      0.1575      0.0180      1.0706
 13      0.0132      1.7400      0.9008      1.5910      1.1735      0.4320      0.7047      1.0570      1.1269
 14      0.6906      2.7563      7.3773      7.8740      7.1806      7.2470      6.1416      8.0070      6.6237
 15      1.3946      2.2478      0.1557      2.1974      5.1636      2.1471      3.1142      2.7342      2.5301
 16      1.2186      2.6001     10.3346      8.9334      8.4245      8.7996      9.6149     10.6290      9.2305
 17      0.0000      1.6606      3.3755      3.5936      2.5315      2.9958      3.2194      2.9829      2.0427
 18      0.0012      1.6783      1.0545      1.0068      1.1585      0.1683      0.8824      0.7771      1.3669
 19      0.0000      1.1169      0.0000      0.9633      0.0000      0.0483      0.0379      0.4802      0.6967
 20      0.1413      1.0574      0.4618      0.0000      0.0000      0.7025      0.3124      0.3614      0.4524
 21      0.0089      0.8684      0.5504      0.2380      0.3830      0.0565      0.0000      0.0000      0.4325
 22      0.0000      0.8918      0.4004      0.0000      0.0000      0.7803      0.0000      0.3804      0.6211
 23      0.0000      1.1918      0.7879      0.0000      0.8830      0.5123      0.3346      0.0000      0.0896
 24      0.0000      1.4351      0.9535      0.8708      0.0000      0.6414      2.1944      0.7353      1.2058
 25      0.0000      0.9641      0.2410      0.1570      0.0000      0.9481      0.9184      0.1454      0.6038
 26      0.0000      1.2425      1.0038      0.0063      0.5660      0.0659      0.2371      0.4590      0.4382
 27      0.0000      1.2118      0.2202      0.5678      0.2375      0.4445      0.0190      0.0000      0.0977
 28     10.9844      1.1399      0.0000      0.4805      1.0953      0.0000      0.3867      0.0000      0.4236
 29      1.6796      1.2003      2.2259      1.1224      0.4807      3.0699      1.6317      1.4317      2.0966
 30      0.0000      2.4841      3.9888      3.2826      3.1299      3.6785      3.9269      5.0196      3.2969
 31      0.0000      1.6086      0.9797      2.0794      3.5002      2.1908      1.1654      1.9711      2.1336
 32      0.7010      1.3676      2.5636      1.3340      3.0966      2.2190      1.7612      2.3297      1.7874
 33      0.2482      1.6405      1.9860      1.5843      1.0628      1.6985      1.4046      0.7979      2.1137
 34      1.0274      1.7249      1.7852      2.4515      0.0000      1.1068      2.3209      1.4835      2.1489
 35      0.0000      1.1284      0.9947      0.6501      0.2933      0.3738      0.1862      0.4826      0.0000
 36      0.0000      1.0885      0.4565      0.2555      0.2132      0.0000      0.4424      0.9220      0.5317
 37      0.0000      1.8658      1.7797      1.8979      2.1870      1.2180      0.6818      1.4245      0.9620
 38      0.0000      1.3187      1.6958      0.7673      0.9097      1.4140      1.3247      1.5575      0.4457
 39      0.0000      1.2226      0.0867      0.1644      0.0578      0.0000      0.0000      1.0033      0.4030
 40      0.0000      1.1614      0.5335      0.0000      1.2130      0.6147      0.2729      0.0000      0.3626
 41      0.0000      1.1038      0.0000      0.0000      0.0000      0.1418      0.0000      0.0695      0.0000
 42      0.0000      1.2139      0.0548      0.4903      0.0609      0.1262      0.4174      0.2067      0.0000
 43      0.0000      1.2632      0.3054      1.5830      0.8267      0.7543      0.3284      0.0000      1.3487
 44     30.2693      1.5913      0.1451      0.0000      0.2317      0.9012      0.9816      0.2270      0.6424
 45      0.0000      1.6742      0.2646      0.3954      2.9939      0.3935      0.0000      0.9452      0.0369
 46      0.0000      1.1474      0.8259      0.6637      0.7158      1.0372      0.7978      1.7809      1.2554
 47      0.0000      2.6217      4.7694      3.8532      4.3632      5.3192      4.9077      4.3798      5.6350
 48     26.7049      1.4706      3.2967      3.4137      2.6376      2.6633      4.2949      3.3926      2.1872
 49     14.5830      1.5550      0.7180      0.4261      0.4973      1.4488      0.0000      0.8453      0.8267
 50      0.0000      1.9055      5.2188      5.3597      5.8180      6.2414      4.3285      5.3999      5.1597
 51      0.0000      1.3404      0.3625      0.5593      0.5479      0.3090      0.0000      0.5076      0.2332
 52      0.0000      1.3034      0.0994      0.0000      0.0000      0.1754      0.0000      0.4809      0.0022
 53      0.0000      1.2615      0.3782      0.0510      0.0000      0.0000      0.9524      0.2827      0.0484
 54      0.0000      1.8628      0.4382      0.1980      0.0000      0.0000      1.1124      0.0813      0.0660
 55      0.0000      1.8499      0.0000      0.3355      0.0000      0.0000      1.6259      0.6509      0.0576
 56      0.0000      1.1236      1.1148      1.4923      0.0000      1.6340      0.9513      0.5054      0.7707
 57      0.0000      1.8122      0.4202      0.1773      0.0000      0.9989      1.1891      0.0000      0.4896
 58      0.0000      1.4641      0.2311      0.2787      0.2216      0.0264      0.0478      0.0000      0.3535
 59      0.0000      1.3468      0.2294      0.6997      0.0000      0.8478      0.2045      0.2791      0.1615
 60      3.5488      1.5843      0.5307      0.4347      1.2223      0.3105      0.1938      0.6528      1.4785
 61      5.8381      1.7877      2.0402      1.9532      2.5534      2.4012      2.6737      1.8841      2.0084
 62      0.6119      4.8838     15.2259     16.1024     14.0904     14.5565     16.7000     13.6920     15.3141
 63     13.6271      1.9507      5.4136      6.6255      3.9764      4.1176      6.1205      5.6121      4.6491
 64      0.3231      2.4935      6.7545      6.8466      7.8924      6.2709      6.1237      6.7060      7.3192
 65      0.0000      1.4662      0.7215      0.4708      0.3738      0.0000      0.3231      0.3531      0.0128
 66      0.0000      1.4045      2.2210      2.1222      2.7860      2.3128      2.5763      2.0100      2.2101

# j      m_j: min, <> & last-chain-values for 1 ...  7 chains
  1  0.0000E+00  1.0090E-02  0.0000E+00  1.1241E-03  0.0000E+00  0.0000E+00  0.0000E+00  7.0212E-04  0.0000E+00
  2  0.0000E+00  3.7640E-03  7.3127E-04  3.0548E-04  1.3438E-04  8.6790E-04  6.7524E-04  1.2424E-04  0.0000E+00
  3  0.0000E+00  3.8637E-03  5.7923E-04  0.0000E+00  0.0000E+00  7.1544E-04  0.0000E+00  5.3658E-04  2.9942E-04
  4  0.0000E+00  4.8423E-03  4.8203E-04  6.8030E-04  0.0000E+00  3.0385E-03  1.1448E-03  0.0000E+00  0.0000E+00
  5  0.0000E+00  1.4283E-02  2.3408E-03  1.8432E-03  1.4901E-03  9.2771E-04  0.0000E+00  2.3136E-03  3.1409E-03
  6  0.0000E+00  1.3813E-02  3.2853E-04  4.2905E-03  0.0000E+00  0.0000E+00  0.0000E+00  4.9772E-04  1.1067E-02
  7  0.0000E+00  2.7707E-02  6.0830E-03  1.6466E-03  1.1569E-03  0.0000E+00  5.6512E-06  4.7877E-03  0.0000E+00
  8  0.0000E+00  3.2635E-02  3.3350E-02  2.1469E-02  4.8876E-02  3.0993E-02  2.7477E-02  3.8380E-02  2.6372E-02
  9  0.0000E+00  2.6189E-02  2.0072E-03  0.0000E+00  2.0085E-03  1.7302E-03  3.6357E-03  0.0000E+00  7.3617E-03
 10  0.0000E+00  4.0940E-02  1.2624E-03  5.7125E-03  0.0000E+00  7.9970E-03  0.0000E+00  1.4319E-02  4.1911E-03
 11  0.0000E+00  6.5735E-02  0.0000E+00  1.2339E-02  1.2135E-02  3.4425E-02  1.2405E-02  0.0000E+00  3.9330E-02
 12  5.7017E-02  1.5765E-01  0.0000E+00  4.3511E-02  5.0884E-02  2.4288E-02  8.1612E-03  9.2230E-04  5.5699E-02
 13  2.5336E-03  4.3435E-01  1.2718E-01  2.2455E-01  1.6714E-01  6.2433E-02  1.0293E-01  1.5300E-01  1.6526E-01
 14  4.4325E-01  2.3077E+00  3.4934E+00  3.7273E+00  3.4303E+00  3.5124E+00  3.0085E+00  3.8873E+00  3.2579E+00
 15  1.4571E+00  3.0637E+00  1.2003E-01  1.6933E+00  4.0157E+00  1.6941E+00  2.4834E+00  2.1610E+00  2.0259E+00
 16  2.1529E+00  5.9922E+00  1.3471E+01  1.1640E+01  1.1078E+01  1.1740E+01  1.2965E+01  1.4204E+01  1.2497E+01
 17  0.0000E+00  4.9645E+00  5.7077E+00  6.0743E+00  4.3184E+00  5.1848E+00  5.6314E+00  5.1711E+00  3.5876E+00
 18  6.7864E-06  1.2444E-02  4.4221E-03  4.2205E-03  4.9011E-03  7.2236E-04  3.8280E-03  3.3410E-03  5.9540E-03
 19  0.0000E+00  3.3236E-03  0.0000E+00  1.6207E-03  0.0000E+00  8.3132E-05  6.6001E-05  8.2861E-04  1.2180E-03
 20  3.5182E-04  3.4354E-03  8.4846E-04  0.0000E+00  0.0000E+00  1.3212E-03  5.9372E-04  6.8087E-04  8.6336E-04
 21  2.6891E-05  3.4248E-03  1.2277E-03  5.3077E-04  8.6174E-04  1.2891E-04  0.0000E+00  0.0000E+00  1.0021E-03
 22  0.0000E+00  5.9468E-03  1.5100E-03  0.0000E+00  0.0000E+00  3.0122E-03  0.0000E+00  1.4710E-03  2.4331E-03
 23  0.0000E+00  1.0732E-02  4.0129E-03  0.0000E+00  4.5369E-03  2.6704E-03  1.7627E-03  0.0000E+00  4.7424E-04
 24  0.0000E+00  1.9227E-02  7.2251E-03  6.5964E-03  0.0000E+00  4.9749E-03  1.7202E-02  5.7123E-03  9.4902E-03
 25  0.0000E+00  1.7810E-02  2.5182E-03  1.6394E-03  0.0000E+00  1.0139E-02  9.9268E-03  1.5574E-03  6.5531E-03
 26  0.0000E+00  3.8366E-02  1.7530E-02  1.1038E-04  9.9721E-03  1.1786E-03  4.2844E-03  8.2187E-03  7.9496E-03
 27  0.0000E+00  7.4896E-02  7.6969E-03  1.9843E-02  8.3755E-03  1.5904E-02  6.8539E-04  0.0000E+00  3.5487E-03
 28  1.5104E+00  2.0447E-01  0.0000E+00  4.8728E-02  1.1210E-01  0.0000E+00  4.0582E-02  0.0000E+00  4.4637E-02
 29  4.0242E-01  3.7514E-01  3.9347E-01  1.9833E-01  8.5715E-02  5.5541E-01  2.9838E-01  2.5946E-01  3.8495E-01
 30  0.0000E+00  1.6221E+00  1.4731E+00  1.2119E+00  1.1661E+00  1.3905E+00  1.5003E+00  1.9006E+00  1.2647E+00
 31  0.0000E+00  1.8477E+00  6.3645E-01  1.3504E+00  2.2940E+00  1.4568E+00  7.8322E-01  1.3128E+00  1.4398E+00
 32  8.3058E-01  2.1137E+00  2.2409E+00  1.1657E+00  2.7307E+00  1.9853E+00  1.5926E+00  2.0879E+00  1.6229E+00
 33  6.5089E-01  5.6128E+00  3.8430E+00  3.0646E+00  2.0747E+00  3.3640E+00  2.8117E+00  1.5829E+00  4.2485E+00
 34  3.6491E+00  7.9917E+00  4.6780E+00  6.4218E+00  0.0000E+00  2.9686E+00  6.2915E+00  3.9854E+00  5.8489E+00
 35  0.0000E+00  6.7082E-03  3.3445E-03  2.1851E-03  9.9505E-04  1.2863E-03  6.4749E-04  1.6637E-03  0.0000E+00
 36  0.0000E+00  2.6181E-03  6.2103E-04  3.4739E-04  2.9258E-04  0.0000E+00  6.2253E-04  1.2859E-03  7.5127E-04
 37  0.0000E+00  4.8541E-03  2.6187E-03  2.7918E-03  3.2465E-03  1.8344E-03  1.0378E-03  2.1490E-03  1.4704E-03
 38  0.0000E+00  9.2941E-03  6.7601E-03  3.0576E-03  3.6584E-03  5.7692E-03  5.4628E-03  6.3652E-03  1.8453E-03
 39  0.0000E+00  1.2407E-02  4.9765E-04  9.4297E-04  3.3444E-04  0.0000E+00  0.0000E+00  5.9040E-03  2.4026E-03
 40  0.0000E+00  1.9051E-02  4.9494E-03  0.0000E+00  1.1353E-02  5.8369E-03  2.6195E-03  0.0000E+00  3.4942E-03
 41  0.0000E+00  2.8157E-02  0.0000E+00  0.0000E+00  0.0000E+00  2.0945E-03  0.0000E+00  1.0281E-03  0.0000E+00
 42  0.0000E+00  5.6851E-02  1.4515E-03  1.2984E-02  1.6283E-03  3.4220E-03  1.1437E-02  5.6137E-03  0.0000E+00
 43  0.0000E+00  8.6375E-02  1.1811E-02  6.1198E-02  3.2252E-02  2.9855E-02  1.3138E-02  0.0000E+00  5.4177E-02
 44  2.7319E+00  1.8734E-01  9.6595E-03  0.0000E+00  1.5566E-02  6.1423E-02  6.7614E-02  1.5495E-02  4.4429E-02
 45  0.0000E+00  3.9107E-01  3.4956E-02  5.2219E-02  3.9904E-01  5.3212E-02  0.0000E+00  1.2803E-01  5.0664E-03
 46  0.0000E+00  4.9264E-01  2.0058E-01  1.6112E-01  1.7536E-01  2.5780E-01  2.0042E-01  4.4340E-01  3.1666E-01
 47  0.0000E+00  2.2810E+00  2.3470E+00  1.8954E+00  2.1661E+00  2.6791E+00  2.4983E+00  2.2097E+00  2.8802E+00
 48  3.1412E+01  2.2565E+00  2.8610E+00  2.9615E+00  2.3093E+00  2.3657E+00  3.8558E+00  3.0185E+00  1.9716E+00
 49  3.8986E+01  5.4228E+00  1.4162E+00  8.4013E-01  9.8946E-01  2.9249E+00  0.0000E+00  1.7094E+00  1.6936E+00
 50  0.0000E+00  1.2308E+01  1.9065E+01  1.9573E+01  2.1442E+01  2.3337E+01  1.6358E+01  2.0225E+01  1.9578E+01
 51  0.0000E+00  4.7456E-03  7.2599E-04  1.1196E-03  1.1069E-03  6.3325E-04  0.0000E+00  1.0422E-03  4.8500E-04
 52  0.0000E+00  2.3648E-03  1.0195E-04  0.0000E+00  0.0000E+00  1.8426E-04  0.0000E+00  5.0593E-04  2.2966E-06
 53  0.0000E+00  3.4479E-03  5.8456E-04  7.8853E-05  0.0000E+00  0.0000E+00  1.5229E-03  4.4801E-04  7.7659E-05
 54  0.0000E+00  1.0432E-02  1.3879E-03  6.2699E-04  0.0000E+00  0.0000E+00  3.6448E-03  2.6415E-04  2.1710E-04
 55  0.0000E+00  1.5951E-02  0.0000E+00  1.6355E-03  0.0000E+00  0.0000E+00  8.2025E-03  3.2546E-03  2.9165E-04
 56  0.0000E+00  1.9176E-02  1.0761E-02  1.4400E-02  0.0000E+00  1.6143E-02  9.4992E-03  5.0017E-03  7.7273E-03
 57  0.0000E+00  4.1048E-02  5.3834E-03  2.2702E-03  0.0000E+00  1.3098E-02  1.5759E-02  0.0000E+00  6.5150E-03
 58  0.0000E+00  5.6096E-02  5.0085E-03  6.0369E-03  4.8453E-03  5.8506E-04  1.0707E-03  0.0000E+00  7.9564E-03
 59  0.0000E+00  1.1105E-01  1.0696E-02  3.2621E-02  0.0000E+00  4.0465E-02  9.8656E-03  1.3344E-02  7.8248E-03
 60  4.1665E-01  2.4264E-01  4.5972E-02  3.7638E-02  1.0681E-01  2.7531E-02  1.7367E-02  5.7973E-02  1.3303E-01
 61  1.4976E+00  5.9823E-01  3.8613E-01  3.6953E-01  4.8752E-01  4.6514E-01  5.2347E-01  3.6558E-01  3.9482E-01
 62  2.8619E-01  2.9798E+00  5.2542E+00  5.5547E+00  4.9053E+00  5.1414E+00  5.9616E+00  4.8441E+00  5.4891E+00
 63  1.2681E+01  2.3679E+00  3.7167E+00  4.5472E+00  2.7541E+00  2.8935E+00  4.3470E+00  3.9503E+00  3.3154E+00
 64  8.3168E-01  8.3720E+00  1.2827E+01  1.2997E+01  1.5120E+01  1.2188E+01  1.2030E+01  1.3056E+01  1.4437E+01
 65  0.0000E+00  1.0406E+01  2.8961E+00  1.8892E+00  1.5138E+00  0.0000E+00  1.3418E+00  1.4531E+00  5.3342E-02
 66  0.0000E+00  1.4082E+01  1.2595E+01  1.2030E+01  1.5938E+01  1.3424E+01  1.5114E+01  1.1686E+01  1.3018E+01

# AV, chi2 & Mass for <> & i_chain = 1 ...  7 solutions
AV       0.2389      0.3069      0.3011      0.2837      0.3058      0.3207      0.3010      0.2962      0.3147
chi2 1.3726E-05  4.4109E-05  1.5743E-05  1.5580E-05  1.5805E-05  1.5674E-05  1.5703E-05  1.5725E-05  1.5580E-05
Mass 2.7584E-13  2.3166E-13  4.0644E-13  3.9716E-13  4.0541E-13  4.0770E-13  3.9283E-13  3.9384E-13  3.9850E-13
-165.30                                  [v0_min (km/s) before EX0s...]
 124.84                                  [vd_min (km/s) before EX0s...]


## Synthetic spectrum (Best Model) ##l_obs f_obs f_syn wei
 3478    [Nl_obs]
 3741.00    0.29334   0.54619    0.000
 3742.00    0.42995   0.50914    0.000
 3743.00    0.48588   0.47272    0.000
 3744.00    0.42725   0.43757    0.000
 3745.00    0.30188   0.40457    0.036
 3746.00    0.26520   0.37883    0.036
 3747.00    0.27355   0.37232    0.035
 3748.00    0.13833   0.39547    0.038
 3749.00   -0.06004   0.44591    0.000
 3750.00    0.16628   0.50989    0.041
 3751.00    0.55294   0.57157    0.038
 3752.00    0.75825   0.61766    0.037
 3753.00    0.90544   0.63654    0.036
 3754.00    0.78748   0.62407    0.035
 3755.00    0.59847   0.59101    0.035
 3756.00    0.79998   0.55976    0.035
 3757.00    1.08721   0.54842    0.035
 3758.00    1.03954   0.55696    0.037
 3759.00    0.93340   0.57204    0.040
 3760.00    0.55869   0.58236    0.045
 3761.00    0.14831   0.58440    0.052
 3762.00    0.23360   0.57911    0.040
 3763.00    0.36548   0.56804    0.032
 3764.00    0.49107   0.55199    0.032
 3765.00    0.61630   0.53482    0.032
 3766.00    0.45839   0.52231    0.032
 3767.00    0.29623   0.51764    0.031
 3768.00    0.43414   0.52296    0.033
 3769.00    0.56980   0.54107    0.034
 3770.00    0.65090   0.56968    0.033
 3771.00    0.73026   0.60010    0.033
 3772.00    0.78693   0.62547    0.032
 3773.00    0.84343   0.64596    0.032
 3774.00    0.89841   0.66579    0.032
 3775.00    0.94721   0.68844    0.032
 3776.00    0.95586   0.71412    0.035
 3777.00    0.97274   0.74060    0.038
 3778.00    1.03121   0.76393    0.036
 3779.00    1.02669   0.78043    0.035
 3780.00    0.76430   0.78902    0.033
 3781.00    0.55303   0.78790    0.032
 3782.00    0.51514   0.77276    0.033
 3783.00    0.47386   0.74144    0.034
 3784.00    0.42289   0.69950    0.033
 3785.00    0.37139   0.65975    0.033
 3786.00    0.31856   0.63199    0.033
 3787.00    0.31993   0.61806    0.033
 3788.00    0.43552   0.61321    0.035
 3789.00    0.50111   0.60859    0.035
 3790.00    0.47510   0.59489    0.033
 3791.00    0.43623   0.56886    0.032
 3792.00    0.37676   0.53493    0.032
 3793.00    0.31284   0.49939    0.032
 3794.00    0.24270   0.46768    0.032
 3795.00    0.27964   0.44617    0.032
 3796.00    0.44893   0.44394    0.032
 3797.00    0.46377   0.46760    0.032
 3798.00    0.31033   0.51411    0.032
 3799.00    0.29275   0.57129    0.033
 3800.00    0.40573   0.62528    0.034
 3801.00    0.58230   0.66635    0.036
 3802.00    0.81273   0.68926    0.039
 3803.00    0.90921   0.69601    0.040
 3804.00    0.90571   0.69667    0.039
 3805.00    0.90185   0.70360    0.037
 3806.00    0.89776   0.72287    0.034
 3807.00    0.82483   0.74804    0.033
 3808.00    0.71240   0.76441    0.032
 3809.00    0.65239   0.76040    0.032
 3810.00    0.61860   0.73512    0.033
 3811.00    0.58938   0.69823    0.034
 3812.00    0.56214   0.66518    0.037
 3813.00    0.70975   0.64809    0.035
 3814.00    0.92221   0.64774    0.033
 3815.00    0.92611   0.65380    0.032
 3816.00    0.86444   0.65226    0.032
 3817.00    0.69192   0.63910    0.035
 3818.00    0.49033   0.62327    0.039
 3819.00    0.64445   0.61404    0.037
 3820.00    0.87477   0.60856    0.034
 3821.00    0.68253   0.59570    0.032
 3822.00    0.41857   0.57083    0.031
 3823.00    0.30349   0.54175    0.031
 3824.00    0.20752   0.51905    0.031
 3825.00    0.14912   0.50626    0.030
 3826.00    0.09408   0.49964    0.030
 3827.00    0.27152   0.49193    0.034
 3828.00    0.46145   0.47637    0.039
 3829.00    0.37335   0.45032    0.036
 3830.00    0.27943   0.41778    0.033
 3831.00    0.16491   0.38883    0.033
 3832.00    0.06567   0.37248    0.033
 3833.00    0.30587   0.37053    0.033
 3834.00    0.51972   0.37856    0.033
 3835.00    0.40599   0.39112    0.033
 3836.00    0.25968   0.40682    0.033
 3837.00   -0.16196   0.42994    0.000
 3838.00   -0.45049   0.46517    0.000
 3839.00    0.09837   0.51180    0.038
 3840.00    0.56028   0.56288    0.033
 3841.00    0.59322   0.60801    0.032
 3842.00    0.58303   0.64112    0.032
 3843.00    0.40018   0.66342    0.032
 3844.00    0.27105   0.67856    0.032
 3845.00    0.32050   0.68796    0.032
 3846.00    0.36527   0.69155    0.032
 3847.00    0.39694   0.69231    0.000
 3848.00    0.36611   0.69651    0.000
 3849.00    0.18519   0.70673    0.000
 3850.00    0.10471   0.71742    0.000
 3851.00    0.23254   0.72030    0.000
 3852.00    0.39037   0.71331    0.000
 3853.00    0.60233   0.70071    0.000
 3854.00    0.60773   0.68656    0.000
 3855.00    0.28738   0.67251    0.000
 3856.00    0.07569   0.66044    0.000
 3857.00    0.01442   0.65648    0.000
 3858.00    0.14115   0.66846    0.000
 3859.00    0.49696   0.69614    0.000
 3860.00    0.64955   0.72839    0.000
 3861.00    0.58386   0.75171    0.000
 3862.00    0.52726   0.76051    0.000
 3863.00    0.47929   0.75865    0.000
 3864.00    0.48980   0.75290    0.000
 3865.00    0.54916   0.74620    0.000
 3866.00    0.64512   0.73597    0.000
 3867.00    0.76800   0.71872    0.000
 3868.00    0.79814   0.69552    0.000
 3869.00    0.76836   0.67444    0.000
 3870.00    0.78489   0.66605    0.000
 3871.00    0.82758   0.67459    0.000
 3872.00    0.81132   0.69216    0.000
 3873.00    0.76605   0.70258    0.000
 3874.00    0.80940   0.69430    0.000
 3875.00    0.89043   0.67073    0.000
 3876.00    0.83928   0.64551    0.000
 3877.00    0.73998   0.62904    0.000
 3878.00    0.73721   0.62057    0.000
 3879.00    0.76420   0.61353    0.000
 3880.00    0.61589   0.60452    0.000
 3881.00    0.42258   0.59176    0.031
 3882.00    0.47618   0.57098    0.031
 3883.00    0.58140   0.53944    0.032
 3884.00    0.46962   0.50308    0.032
 3885.00    0.32204   0.47491    0.032
 3886.00    0.40365   0.46655    0.031
 3887.00    0.51363   0.48262    0.031
 3888.00    0.46830   0.51978    0.031
 3889.00    0.40967   0.56689    0.031
 3890.00    0.30754   0.61010    0.031
 3891.00    0.20325   0.64091    0.031
 3892.00    0.17245   0.66043    0.030
 3893.00    0.14345   0.67539    0.030
 3894.00    0.15233   0.69034    0.030
 3895.00    0.17181   0.70481    0.030
 3896.00    0.40793   0.71700    0.030
 3897.00    0.63386   0.72859    0.031
 3898.00    0.73922   0.74144    0.030
 3899.00    0.82662   0.75288    0.029
 3900.00    0.76774   0.75752    0.029
 3901.00    0.72749   0.75366    0.029
 3902.00    0.80100   0.74690    0.029
 3903.00    0.85694   0.74670    0.029
 3904.00    0.82838   0.76081    0.028
 3905.00    0.81712   0.79016    0.027
 3906.00    0.87357   0.82678    0.027
 3907.00    0.92400   0.85974    0.028
 3908.00    0.95485   0.88242    0.029
 3909.00    0.94450   0.89358    0.030
 3910.00    0.82050   0.89482    0.030
 3911.00    0.80079   0.88886    0.030
 3912.00    1.02736   0.87885    0.031
 3913.00    1.21155   0.86715    0.032
 3914.00    1.30926   0.85384    0.033
 3915.00    1.24956   0.83773    0.033
 3916.00    0.91028   0.81836    0.034
 3917.00    0.72935   0.79763    0.034
 3918.00    0.79443   0.78040    0.034
 3919.00    0.76623   0.77154    0.033
 3920.00    0.61075   0.77129    0.033
 3921.00    0.49056   0.77334    0.032
 3922.00    0.41276   0.76816    0.032
 3923.00    0.44360   0.74851    0.033
 3924.00    0.58950   0.71277    0.033
 3925.00    0.64911   0.66430    0.034
 3926.00    0.62811   0.60802    0.033
 3927.00    0.64859   0.54753    0.033
 3928.00    0.70321   0.48499    0.033
 3929.00    0.63579   0.42362    0.033
 3930.00    0.47989   0.37166    0.033
 3931.00    0.38162   0.34189    0.033
 3932.00    0.32002   0.34520    0.033
 3933.00    0.33961   0.38271    0.033
 3934.00    0.40438   0.44444    0.032
 3935.00    0.39835   0.51553    0.032
 3936.00    0.35806   0.58320    0.032
 3937.00    0.47821   0.63899    0.032
 3938.00    0.66545   0.67819    0.032
 3939.00    0.78833   0.70042    0.032
 3940.00    0.88817   0.71103    0.032
 3941.00    0.91056   0.72008    0.032
 3942.00    0.90953   0.73663    0.032
 3943.00    0.77224   0.76158    0.032
 3944.00    0.60073   0.78728    0.032
 3945.00    0.72399   0.80625    0.031
 3946.00    0.90736   0.81857    0.031
 3947.00    1.04915   0.82858    0.032
 3948.00    1.18428   0.83723    0.032
 3949.00    0.88483   0.84227    0.032
 3950.00    0.53350   0.84367    0.032
 3951.00    0.54648   0.84312    0.032
 3952.00    0.58913   0.83923    0.032
 3953.00    0.85006   0.82897    0.033
 3954.00    1.12102   0.81371    0.034
 3955.00    1.08533   0.79802    0.034
 3956.00    1.04294   0.78097    0.034
 3957.00    0.85419   0.75397    0.034
 3958.00    0.68181   0.71063    0.034
 3959.00    0.81941   0.65541    0.034
 3960.00    0.94193   0.59897    0.000
 3961.00    0.89447   0.54669    0.000
 3962.00    0.85283   0.49474    0.000
 3963.00    0.85685   0.43717    0.000
 3964.00    0.81799   0.37519    0.000
 3965.00    0.52463   0.31886    0.000
 3966.00    0.26472   0.28205    0.000
 3967.00    0.16179   0.27486    0.000
 3968.00    0.17852   0.29882    0.000
 3969.00    0.65379   0.34704    0.000
 3970.00    0.91756   0.40901    0.000
 3971.00    0.50532   0.47568    0.000
 3972.00    0.21878   0.54161    0.000
 3973.00    0.27264   0.60423    0.000
 3974.00    0.31552   0.66294    0.000
 3975.00    0.33286   0.71802    0.000
 3976.00    0.44477   0.76832    0.000
 3977.00    0.74659   0.80984    0.000
 3978.00    0.92611   0.83791    0.000
 3979.00    0.89168   0.85236    0.000
 3980.00    0.83886   0.85944    0.000
 3981.00    0.75788   0.86735    0.034
 3982.00    0.89271   0.88088    0.035
 3983.00    1.31778   0.89948    0.035
 3984.00    1.49140   0.92002    0.035
 3985.00    1.36723   0.93937    0.034
 3986.00    1.18760   0.95466    0.034
 3987.00    0.95007   0.96571    0.034
 3988.00    0.82979   0.97537    0.033
 3989.00    0.81751   0.98608    0.033
 3990.00    0.70475   0.99617    0.032
 3991.00    0.51040   1.00025    0.031
 3992.00    0.54605   0.99481    0.031
 3993.00    0.74604   0.98224    0.032
 3994.00    0.89014   0.97057    0.032
 3995.00    0.99920   0.96947    0.032
 3996.00    0.92489   0.98395    0.032
 3997.00    0.75009   1.00967    0.031
 3998.00    0.76845   1.03575    0.031
 3999.00    0.87883   1.05161    0.032
 4000.00    0.81514   1.05075    0.031
 4001.00    0.67991   1.03206    0.031
 4002.00    0.78685   1.00268    0.031
 4003.00    0.97884   0.97880    0.032
 4004.00    1.07525   0.97553    0.032
 4005.00    1.14335   0.99450    0.033
 4006.00    0.98012   1.02368    0.032
 4007.00    0.76007   1.04892    0.032
 4008.00    0.84486   1.06429    0.032
 4009.00    0.99026   1.07175    0.032
 4010.00    0.97442   1.07634    0.032
 4011.00    0.93354   1.08111    0.032
 4012.00    1.13737   1.08654    0.033
 4013.00    1.36934   1.09104    0.034
 4014.00    1.47148   1.09386    0.034
 4015.00    1.56357   1.09750    0.034
 4016.00    1.46228   1.10411    0.034
 4017.00    1.35285   1.11114    0.035
 4018.00    1.16332   1.11333    0.034
 4019.00    0.97937   1.10787    0.034
 4020.00    1.07255   1.09736    0.034
 4021.00    1.16447   1.08771    0.033
 4022.00    1.23425   1.08534    0.034
 4023.00    1.29356   1.09348    0.034
 4024.00    1.24029   1.10731    0.035
 4025.00    1.22258   1.11466    0.035
 4026.00    1.47475   1.10284    0.035
 4027.00    1.62824   1.06832    0.034
 4028.00    1.21260   1.02180    0.035
 4029.00    0.78366   0.98104    0.035
 4030.00    0.29376   0.95994    0.034
 4031.00   -0.01793   0.96431    0.000
 4032.00    0.33885   0.99180    0.033
 4033.00    0.71431   1.03510    0.032
 4034.00    1.14835   1.08258    0.033
 4035.00    1.46783   1.12055    0.033
 4036.00    1.48254   1.13985    0.033
 4037.00    1.39880   1.14029    0.033
 4038.00    1.09027   1.12854    0.032
 4039.00    0.86906   1.10960    0.032
 4040.00    0.82043   1.08026    0.033
 4041.00    0.78927   1.03643    0.033
 4042.00    0.78820   0.98651    0.033
 4043.00    0.77187   0.95284    0.033
 4044.00    0.73255   0.95548    0.033
 4045.00    0.75261   0.99263    0.033
 4046.00    0.85139   1.04353    0.033
 4047.00    0.97967   1.08569    0.033
 4048.00    1.14240   1.10714    0.033
 4049.00    1.19907   1.10744    0.033
 4050.00    1.14655   1.09278    0.033
 4051.00    1.04605   1.07096    0.033
 4052.00    0.90197   1.04906    0.032
 4053.00    0.89535   1.03163    0.032
 4054.00    0.99875   1.01994    0.032
 4055.00    0.94739   1.01599    0.032
 4056.00    0.78705   1.02147    0.031
 4057.00    0.75912   1.03170    0.031
 4058.00    0.81299   1.03462    0.032
 4059.00    0.89807   1.01968    0.032
 4060.00    1.00000   0.99011    0.031
 4061.00    0.94320   0.96373    0.031
 4062.00    0.81201   0.95711    0.032
 4063.00    0.75279   0.97112    0.031
 4064.00    0.72264   0.99599    0.031
 4065.00    0.66481   1.02148    0.031
 4066.00    0.59742   1.03956    0.031
 4067.00    0.69694   1.04380    0.031
 4068.00    0.84492   1.03347    0.031
 4069.00    1.05546   1.01886    0.032
 4070.00    1.28104   1.01232    0.033
 4071.00    1.33362   1.01258    0.033
 4072.00    1.35268   1.00656    0.033
 4073.00    1.19436   0.98487    0.032
 4074.00    1.00932   0.95525    0.031
 4075.00    0.71579   0.93854    0.031
 4076.00    0.41028   0.94972    0.031
 4077.00    0.62937   0.98546    0.032
 4078.00    0.88688   1.02754    0.032
 4079.00    0.70689   1.05538    0.032
 4080.00    0.51014   1.06039    0.032
 4081.00    0.84345   1.04953    0.033
 4082.00    1.17677   1.03754    0.034
 4083.00    1.40023   1.03689    0.034
 4084.00    1.59804   1.05039    0.034
 4085.00    1.37317   1.07051    0.034
 4086.00    1.16746   1.08553    0.033
 4087.00    1.15883   1.08726    0.033
 4088.00    1.12750   1.07570    0.033
 4089.00    0.92959   1.05590    0.033
 4090.00    0.76024   1.03294    0.033
 4091.00    0.75107   1.00714    0.032
 4092.00    0.80466   0.97499    0.000
 4093.00    1.13906   0.93659    0.000
 4094.00    1.37675   0.89572    0.000
 4095.00    1.25921   0.85490    0.000
 4096.00    1.15124   0.81269    0.000
 4097.00    1.07269   0.76711    0.000
 4098.00    1.02797   0.72360    0.000
 4099.00    1.07164   0.69718    0.000
 4100.00    1.09411   0.70113    0.000
 4101.00    1.06897   0.73587    0.000
 4102.00    0.98510   0.78956    0.000
 4103.00    0.78692   0.84553    0.000
 4104.00    0.71506   0.89041    0.000
 4105.00    0.85754   0.91906    0.000
 4106.00    0.95373   0.93309    0.000
 4107.00    0.98111   0.93917    0.000
 4108.00    1.08356   0.94598    0.000
 4109.00    1.28409   0.95962    0.000
 4110.00    1.31682   0.98173    0.000
 4111.00    1.15640   1.00872    0.000
 4112.00    1.08202   1.03381    0.000
 4113.00    1.09498   1.05041    0.032
 4114.00    1.09743   1.05416    0.032
 4115.00    1.09047   1.04590    0.031
 4116.00    1.19267   1.03295    0.031
 4117.00    1.38099   1.02458    0.032
 4118.00    1.41224   1.02399    0.032
 4119.00    1.33450   1.02944    0.031
 4120.00    1.18967   1.03808    0.031
 4121.00    1.00402   1.04815    0.031
 4122.00    0.89077   1.05709    0.031
 4123.00    0.81598   1.06005    0.031
 4124.00    0.78574   1.05458    0.031
 4125.00    0.77604   1.04241    0.031
 4126.00    0.81479   1.02805    0.031
 4127.00    0.87279   1.01335    0.030
 4128.00    1.04321   0.99784    0.030
 4129.00    1.25168   0.98290    0.030
 4130.00    1.29167   0.97614    0.031
 4131.00    1.28372   0.98438    0.031
 4132.00    1.26016   1.00917    0.031
 4133.00    1.23294   1.04405    0.030
 4134.00    1.21642   1.07755    0.030
 4135.00    1.20192   1.10355    0.030
 4136.00    0.94459   1.11833    0.030
 4137.00    0.65181   1.11833    0.030
 4138.00    0.71789   1.10038    0.030
 4139.00    0.82210   1.06489    0.031
 4140.00    0.96394   1.02342    0.031
 4141.00    1.10838   0.99575    0.032
 4142.00    1.03429   0.99472    0.031
 4143.00    0.95266   1.01561    0.030
 4144.00    1.12570   1.04271    0.031
 4145.00    1.29363   1.06082    0.032
 4146.00    1.27623   1.06439    0.032
 4147.00    1.24945   1.05867    0.032
 4148.00    1.07753   1.05092    0.031
 4149.00    0.94659   1.04361    0.031
 4150.00    1.21949   1.03638    0.031
 4151.00    1.44513   1.02778    0.032
 4152.00    1.33520   1.02069    0.032
 4153.00    1.21804   1.01900    0.032
 4154.00    1.06135   1.02596    0.031
 4155.00    1.00595   1.04234    0.031
 4156.00    1.39326   1.06361    0.032
 4157.00    1.61944   1.08456    0.032
 4158.00    1.26608   1.10162    0.031
 4159.00    0.96936   1.11503    0.031
 4160.00    0.84352   1.12397    0.031
 4161.00    0.86139   1.12601    0.031
 4162.00    1.24833   1.12065    0.032
 4163.00    1.52839   1.10892    0.032
 4164.00    1.57238   1.09512    0.032
 4165.00    1.52612   1.08543    0.032
 4166.00    1.30700   1.07972    0.032
 4167.00    1.16107   1.07028    0.031
 4168.00    1.13744   1.04970    0.031
 4169.00    0.99422   1.01849    0.031
 4170.00    0.67582   0.98894    0.031
 4171.00    0.53609   0.97401    0.031
 4172.00    0.62649   0.97585    0.031
 4173.00    0.62797   0.98687    0.031
 4174.00    0.52854   0.99762    0.031
 4175.00    0.71870   1.00566    0.031
 4176.00    1.19870   1.01435    0.032
 4177.00    1.33755   1.02471    0.032
 4178.00    1.17527   1.03394    0.031
 4179.00    1.06581   1.04086    0.031
 4180.00    0.99743   1.04798    0.031
 4181.00    1.02713   1.05654    0.031
 4182.00    1.12393   1.06430    0.030
 4183.00    1.17115   1.06473    0.030
 4184.00    1.18866   1.05670    0.030
 4185.00    1.04476   1.04984    0.030
 4186.00    0.81644   1.05225    0.031
 4187.00    0.82551   1.06413    0.030
 4188.00    0.94225   1.08060    0.030
 4189.00    1.26173   1.09720    0.030
 4190.00    1.66032   1.10951    0.031
 4191.00    1.50079   1.11041    0.031
 4192.00    1.15590   1.09533    0.030
 4193.00    0.89917   1.06690    0.029
 4194.00    0.66700   1.03411    0.029
 4195.00    0.78633   1.00645    0.029
 4196.00    0.98632   0.99102    0.030
 4197.00    1.12976   0.98787    0.030
 4198.00    1.26281   0.99121    0.030
 4199.00    1.17307   0.99876    0.029
 4200.00    1.05182   1.01151    0.029
 4201.00    0.91599   1.02945    0.028
 4202.00    0.77869   1.05229    0.028
 4203.00    0.93942   1.07746    0.029
 4204.00    1.11957   1.09993    0.029
 4205.00    1.35848   1.11624    0.029
 4206.00    1.59881   1.12432    0.029
 4207.00    1.58668   1.12625    0.029
 4208.00    1.57155   1.12663    0.029
 4209.00    1.46778   1.12555    0.029
 4210.00    1.36511   1.11851    0.029
 4211.00    1.27860   1.10231    0.029
 4212.00    1.19267   1.08121    0.028
 4213.00    1.11226   1.06966    0.028
 4214.00    1.04995   1.07915    0.028
 4215.00    1.11202   1.10640    0.028
 4216.00    1.15842   1.13897    0.028
 4217.00    1.12157   1.16268    0.028
 4218.00    1.09054   1.16783    0.028
 4219.00    1.08439   1.14966    0.028
 4220.00    1.08274   1.10799    0.028
 4221.00    1.09700   1.04658    0.028
 4222.00    1.08566   0.97605    0.028
 4223.00    0.99851   0.91554    0.028
 4224.00    1.00569   0.88852    0.028
 4225.00    1.25093   0.90918    0.028
 4226.00    1.40236   0.96752    0.028
 4227.00    1.34994   1.03725    0.028
 4228.00    1.27624   1.09093    0.028
 4229.00    1.16240   1.11254    0.027
 4230.00    1.07166   1.10641    0.027
 4231.00    1.01898   1.08810    0.027
 4232.00    0.91969   1.06901    0.027
 4233.00    0.75313   1.05623    0.027
 4234.00    0.83262   1.05321    0.027
 4235.00    1.22450   1.05790    0.027
 4236.00    1.43396   1.06941    0.027
 4237.00    1.43932   1.08740    0.027
 4238.00    1.32648   1.10968    0.027
 4239.00    1.09699   1.13277    0.027
 4240.00    1.03596   1.15407    0.027
 4241.00    1.12153   1.17024    0.027
 4242.00    1.22051   1.17479    0.027
 4243.00    1.32979   1.16382    0.028
 4244.00    1.38097   1.13859    0.028
 4245.00    1.39299   1.10640    0.029
 4246.00    1.35054   1.07669    0.029
 4247.00    1.27592   1.05640    0.029
 4248.00    1.21454   1.05004    0.030
 4249.00    1.15998   1.05486    0.030
 4250.00    1.19862   1.06280    0.030
 4251.00    1.27885   1.06949    0.030
 4252.00    1.24677   1.07656    0.030
 4253.00    1.17163   1.08700    0.029
 4254.00    1.02015   1.09676    0.029
 4255.00    0.84380   1.09558    0.029
 4256.00    0.80076   1.07979    0.029
 4257.00    0.79411   1.05870    0.029
 4258.00    0.90780   1.05118    0.029
 4259.00    1.04847   1.06997    0.029
 4260.00    1.04248   1.11013    0.029
 4261.00    1.01026   1.15565    0.030
 4262.00    1.09703   1.19014    0.030
 4263.00    1.20007   1.20336    0.029
 4264.00    1.27645   1.19282    0.030
 4265.00    1.35023   1.16207    0.030
 4266.00    1.22775   1.11611    0.030
 4267.00    1.09328   1.06122    0.029
 4268.00    0.97857   1.00724    0.029
 4269.00    0.86423   0.96766    0.029
 4270.00    0.71801   0.95158    0.029
 4271.00    0.58268   0.95964    0.029
 4272.00    0.73533   0.98921    0.028
 4273.00    0.88980   1.03260    0.028
 4274.00    1.06934   1.07868    0.029
 4275.00    1.22820   1.11611    0.029
 4276.00    1.19916   1.13433    0.029
 4277.00    1.15851   1.13253    0.029
 4278.00    1.04053   1.12087    0.029
 4279.00    0.95478   1.10890    0.029
 4280.00    1.03588   1.10174    0.029
 4281.00    1.09531   1.09718    0.030
 4282.00    1.06423   1.08931   -2.000
 4283.00    0.99649   1.07647   -2.000
 4284.00    0.80223   1.05740   -2.000
 4285.00    0.66536   1.03165   -2.000
 4286.00    0.69528   1.00334   -2.000
 4287.00    0.77475   0.98294   -2.000
 4288.00    0.97710   0.98099   -2.000
 4289.00    1.15454   0.99870   -2.000
 4290.00    1.27874   1.02485   -2.000
 4291.00    1.36682   1.04370   -2.000
 4292.00    1.38785   1.04727   -2.000
 4293.00    1.32338   1.03363   -2.000
 4294.00    1.12026   1.00491   -2.000
 4295.00    0.90418   0.96440   -2.000
 4296.00    0.66964   0.91749   -2.000
 4297.00    0.58478   0.87690   -2.000
 4298.00    0.68725   0.85265    0.028
 4299.00    0.76781   0.84600    0.028
 4300.00    0.82421   0.85271    0.028
 4301.00    0.85095   0.86284    0.027
 4302.00    0.84882   0.86683    0.028
 4303.00    0.76614   0.86118    0.027
 4304.00    0.61432   0.84640    0.027
 4305.00    0.69036   0.83089    0.027
 4306.00    0.93859   0.82727    0.028
 4307.00    0.96458   0.84211    0.028
 4308.00    0.84300   0.87411    0.027
 4309.00    0.98320   0.91609    0.027
 4310.00    1.27562   0.96180    0.027
 4311.00    1.24635   1.01085    0.027
 4312.00    1.05406   1.06723    0.027
 4313.00    0.96665   1.12896    0.027
 4314.00    0.92527   1.18457    0.027
 4315.00    1.06218   1.22190    0.027
 4316.00    1.26626   1.23337    0.027
 4317.00    1.26541   1.21988    0.027
 4318.00    1.19903   1.18836    0.027
 4319.00    1.20335   1.14297    0.027
 4320.00    1.22657   1.08460    0.027
 4321.00    1.20166   1.02124    0.027
 4322.00    1.16622   0.96875    0.028
 4323.00    0.97752   0.94737    0.027
 4324.00    0.76217   0.96739    0.027
 4325.00    0.99251   1.01735    0.027
 4326.00    1.28180   1.07274    0.028
 4327.00    1.37577   1.11201    0.028
 4328.00    1.45149   1.13011    0.028
 4329.00    1.32519   1.13431    0.027
 4330.00    1.18734   1.13249    0.000
 4331.00    1.27553   1.12542    0.000
 4332.00    1.36667   1.10521    0.000
 4333.00    1.19196   1.06220    0.000
 4334.00    1.02810   0.99508    0.000
 4335.00    1.12444   0.91471    0.000
 4336.00    1.22645   0.83902    0.000
 4337.00    1.40217   0.78866    0.000
 4338.00    1.54009   0.77818    0.000
 4339.00    1.34766   0.80540    0.000
 4340.00    1.19005   0.85713    0.000
 4341.00    1.25734   0.91858    0.000
 4342.00    1.29697   0.97678    0.000
 4343.00    1.19709   1.02556    0.000
 4344.00    1.11138   1.06562    0.000
 4345.00    1.08352   1.09520    0.000
 4346.00    1.05709   1.10819    0.000
 4347.00    1.03549   1.09972    0.000
 4348.00    1.01556   1.07387    0.000
 4349.00    1.00035   1.04677    0.000
 4350.00    1.02427   1.03650    0.000
 4351.00    1.14357   1.05086    0.027
 4352.00    1.16809   1.08389    0.027
 4353.00    0.99322   1.12017    0.027
 4354.00    0.99125   1.14638    0.027
 4355.00    1.30539   1.15954    0.027
 4356.00    1.47625   1.16567    0.027
 4357.00    1.41818   1.17389    0.027
 4358.00    1.35741   1.19008    0.027
 4359.00    1.29284   1.21348    0.027
 4360.00    1.27822   1.23816    0.027
 4361.00    1.32523   1.25713    0.027
 4362.00    1.26452   1.26450    0.027
 4363.00    1.08667   1.25755    0.027
 4364.00    1.06081   1.23847    0.027
 4365.00    1.18077   1.21490    0.027
 4366.00    1.18830   1.19608    0.027
 4367.00    1.10072   1.18653    0.027
 4368.00    0.97205   1.18274    0.027
 4369.00    0.81277   1.17523    0.027
 4370.00    0.78064   1.15827    0.027
 4371.00    0.83170   1.13630    0.026
 4372.00    0.91802   1.12152    0.027
 4373.00    1.02453   1.12521    0.027
 4374.00    1.03542   1.14824    0.027
 4375.00    0.99860   1.17826    0.027
 4376.00    1.04922   1.19686    0.027
 4377.00    1.13755   1.19013    0.027
 4378.00    0.98475   1.15354    0.027
 4379.00    0.74271   1.09213    0.027
 4380.00    0.66063   1.02385    0.027
 4381.00    0.62872   0.97418    0.027
 4382.00    0.69747   0.96179    0.027
 4383.00    0.79255   0.98806    0.027
 4384.00    0.74804   1.03544    0.026
 4385.00    0.67371   1.08033    0.026
 4386.00    0.90461   1.10898    0.026
 4387.00    1.18713   1.12327    0.026
 4388.00    1.31855   1.13249    0.027
 4389.00    1.43067   1.14130    0.027
 4390.00    1.27408   1.14944    0.027
 4391.00    1.09352   1.15717    0.027
 4392.00    1.03256   1.16784    0.027
 4393.00    0.97798   1.18426    0.027
 4394.00    1.16294   1.20272    0.027
 4395.00    1.35140   1.21479    0.027
 4396.00    1.44203   1.21272    0.027
 4397.00    1.52131   1.19741    0.028
 4398.00    1.35099   1.17883    0.027
 4399.00    1.18750   1.16089    0.027
 4400.00    1.10841   1.13976    0.027
 4401.00    1.03580   1.11566    0.027
 4402.00    1.01768   1.09497    0.027
 4403.00    1.01835   1.08545    0.027
 4404.00    1.13676   1.09315    0.028
 4405.00    1.22707   1.11802    0.028
 4406.00    1.17918   1.15322    0.028
 4407.00    1.14846   1.19183    0.028
 4408.00    1.18632   1.22801    0.028
 4409.00    1.23657   1.25122    0.028
 4410.00    1.32794   1.24983    0.028
 4411.00    1.34925   1.22501    0.028
 4412.00    1.17430   1.19261    0.027
 4413.00    1.04752   1.17049    0.027
 4414.00    1.03622   1.17096    0.027
 4415.00    1.03831   1.19530    0.027
 4416.00    1.06810   1.22871    0.027
 4417.00    1.14278   1.25277    0.027
 4418.00    1.29828   1.25890    0.028
 4419.00    1.30352   1.24967    0.028
 4420.00    1.07223   1.23547    0.027
 4421.00    0.95125   1.22591    0.027
 4422.00    0.98270   1.22469    0.027
 4423.00    1.08630   1.22933    0.027
 4424.00    1.27765   1.23453    0.028
 4425.00    1.27349   1.23707    0.028
 4426.00    1.05968   1.23514    0.027
 4427.00    1.00072   1.23040    0.027
 4428.00    1.08821   1.22441    0.027
 4429.00    1.16131   1.21466    0.027
 4430.00    1.22241   1.20094    0.027
 4431.00    1.38407   1.18560    0.027
 4432.00    1.61957   1.17572    0.027
 4433.00    1.72744   1.18224    0.028
 4434.00    1.75303   1.20818    0.028
 4435.00    1.71531   1.24419    0.028
 4436.00    1.64188   1.27214    0.028
 4437.00    1.34334   1.27688    0.028
 4438.00    0.93430   1.25822    0.027
 4439.00    0.98162   1.22916    0.027
 4440.00    1.22260   1.20845    0.027
 4441.00    1.40828   1.20949    0.028
 4442.00    1.57386   1.23087    0.028
 4443.00    1.44695   1.26029    0.028
 4444.00    1.23010   1.28598    0.028
 4445.00    1.23400   1.29997    0.028
 4446.00    1.29443   1.30058    0.028
 4447.00    1.23828   1.29415    0.028
 4448.00    1.15783   1.28345    0.027
 4449.00    1.20978   1.26549    0.027
 4450.00    1.28348   1.23948    0.027
 4451.00    1.39805   1.20735    0.027
 4452.00    1.51767   1.17556    0.026
 4453.00    1.50746   1.15202    0.026
 4454.00    1.48621   1.13966    0.027
 4455.00    1.41957   1.13653    0.027
 4456.00    1.35069   1.13676    0.027
 4457.00    1.31034   1.13575    0.027
 4458.00    1.27322   1.13722    0.027
 4459.00    1.41011   1.14858    0.027
 4460.00    1.52798   1.16883    0.027
 4461.00    1.26053   1.19228    0.000
 4462.00    1.01439   1.21365    0.000
 4463.00    1.01854   1.22564    0.000
 4464.00    1.03179   1.22646    0.000
 4465.00    1.11880   1.22166    0.000
 4466.00    1.19146   1.21892    0.000
 4467.00    1.17673   1.22414    0.000
 4468.00    1.16845   1.23989    0.000
 4469.00    1.19116   1.26566    0.000
 4470.00    1.17728   1.29532    0.000
 4471.00    1.02049   1.32107    0.000
 4472.00    0.95924   1.34044    0.000
 4473.00    1.20870   1.35339    0.000
 4474.00    1.38721   1.35672    0.000
 4475.00    1.37051   1.34580    0.000
 4476.00    1.37677   1.31844    0.000
 4477.00    1.43712   1.27927    0.000
 4478.00    1.45667   1.24295    0.000
 4479.00    1.39311   1.22733    0.000
 4480.00    1.35351   1.23989    0.000
 4481.00    1.35639   1.27342    0.000
 4482.00    1.30169   1.31155    0.026
 4483.00    1.15767   1.33590    0.026
 4484.00    1.14248   1.33664    0.026
 4485.00    1.30274   1.31761    0.026
 4486.00    1.38630   1.29151    0.026
 4487.00    1.37788   1.27189    0.026
 4488.00    1.32240   1.26566    0.026
 4489.00    1.21714   1.26864    0.026
 4490.00    1.24842   1.27064    0.026
 4491.00    1.40701   1.26711    0.026
 4492.00    1.39964   1.26167    0.026
 4493.00    1.25583   1.26214    0.025
 4494.00    1.24065   1.27504    0.025
 4495.00    1.31853   1.29690    0.025
 4496.00    1.28472   1.31800    0.025
 4497.00    1.17995   1.33229    0.026
 4498.00    1.15968   1.34334    0.026
 4499.00    1.18636   1.35879    0.026
 4500.00    1.22133   1.38002    0.026
 4501.00    1.26032   1.40357    0.025
 4502.00    1.37382   1.42144    0.026
 4503.00    1.51843   1.42573    0.026
 4504.00    1.49212   1.41868    0.026
 4505.00    1.40481   1.40918    0.026
 4506.00    1.35985   1.40314    0.026
 4507.00    1.32766   1.40007    0.026
 4508.00    1.42538   1.39531    0.026
 4509.00    1.55565   1.38490    0.025
 4510.00    1.48323   1.36810    0.025
 4511.00    1.36961   1.34956    0.025
 4512.00    1.39001   1.33596    0.025
 4513.00    1.43180   1.32876    0.025
 4514.00    1.40871   1.32749    0.025
 4515.00    1.37791   1.33224    0.025
 4516.00    1.30543   1.33991    0.025
 4517.00    1.22957   1.34726    0.025
 4518.00    1.12765   1.34972    0.025
 4519.00    1.02454   1.34331    0.025
 4520.00    1.06170   1.32843    0.025
 4521.00    1.09948   1.30475    0.025
 4522.00    1.08106   1.27519    0.025
 4523.00    1.07403   1.24419    0.025
 4524.00    1.28077   1.21341    0.025
 4525.00    1.45355   1.18854    0.025
 4526.00    1.24597   1.17610    0.025
 4527.00    1.07611   1.17689    0.025
 4528.00    1.20136   1.18731    0.025
 4529.00    1.30271   1.19859    0.025
 4530.00    1.26276   1.20447    0.025
 4531.00    1.21271   1.20848    0.025
 4532.00    1.11542   1.21894    0.025
 4533.00    1.07313   1.24274    0.025
 4534.00    1.24109   1.27624    0.025
 4535.00    1.34258   1.30804    0.025
 4536.00    1.23213   1.32732    0.025
 4537.00    1.16824   1.32995    0.024
 4538.00    1.23021   1.32401    0.025
 4539.00    1.26198   1.31858    0.025
 4540.00    1.22381   1.31499    0.025
 4541.00    1.24732   1.31197    0.025
 4542.00    1.39446   1.30743    0.025
 4543.00    1.46047   1.29899    0.025
 4544.00    1.38484   1.28739    0.025
 4545.00    1.29845   1.27477    0.025
 4546.00    1.19560   1.26467    0.025
 4547.00    1.17644   1.25973    0.025
 4548.00    1.26961   1.25841    0.025
 4549.00    1.30376   1.25973    0.025
 4550.00    1.26814   1.26045    0.000
 4551.00    1.25888   1.25876    0.000
 4552.00    1.27711   1.26214    0.000
 4553.00    1.26870   1.27715    0.000
 4554.00    1.23578   1.30229    0.000
 4555.00    1.31003   1.33190    0.000
 4556.00    1.47113   1.35792    0.000
 4557.00    1.31266   1.37358    0.000
 4558.00    0.92626   1.37676    0.000
 4559.00    1.06379   1.36709    0.000
 4560.00    1.52919   1.34825    0.000
 4561.00    1.56735   1.32832    0.000
 4562.00    1.37182   1.31656    0.000
 4563.00    1.21593   1.32014    0.000
 4564.00    1.07889   1.33680    0.000
 4565.00    1.01850   1.35646    0.000
 4566.00    0.98957   1.36789    0.000
 4567.00    0.99123   1.36476    0.000
 4568.00    1.00361   1.35454    0.000
 4569.00    1.24761   1.34890    0.000
 4570.00    1.56007   1.35048    0.000
 4571.00    1.49616   1.35911    0.000
 4572.00    1.34006   1.37022    0.000
 4573.00    1.29432   1.37370    0.000
 4574.00    1.27046   1.36577    0.000
 4575.00    1.38657   1.34855    0.000
 4576.00    1.52434   1.32525    0.000
 4577.00    1.41611   1.30147    0.000
 4578.00    1.27972   1.28303    0.000
 4579.00    1.22329   1.27280    0.000
 4580.00    1.17299   1.27091    0.000
 4581.00    1.32568   1.27479    0.000
 4582.00    1.48682   1.28179    0.000
 4583.00    1.42985   1.29361    0.000
 4584.00    1.37464   1.31095    0.000
 4585.00    1.47632   1.32964    0.000
 4586.00    1.56317   1.34381    0.000
 4587.00    1.39061   1.34773    0.000
 4588.00    1.24883   1.34048    0.000
 4589.00    1.43637   1.32675    0.000
 4590.00    1.56342   1.31216    0.000
 4591.00    1.23321   1.30135    0.000
 4592.00    0.99759   1.29671    0.000
 4593.00    1.30566   1.29662    0.000
 4594.00    1.53558   1.29927    0.000
 4595.00    1.40841   1.30372    0.000
 4596.00    1.30921   1.30710    0.000
 4597.00    1.31466   1.30909    0.000
 4598.00    1.33017   1.31095    0.000
 4599.00    1.37711   1.31215    0.000
 4600.00    1.42597   1.31459    0.000
 4601.00    1.47993   1.31954    0.000
 4602.00    1.51444   1.32772    0.000
 4603.00    1.50465   1.34201    0.000
 4604.00    1.51069   1.36319    0.000
 4605.00    1.54798   1.38748    0.000
 4606.00    1.62734   1.40699    0.000
 4607.00    1.77905   1.41546    0.000
 4608.00    1.75288   1.41206    0.000
 4609.00    1.45887   1.40128    0.000
 4610.00    1.31870   1.39153    0.000
 4611.00    1.38208   1.38772    0.000
 4612.00    1.38775   1.38855    0.000
 4613.00    1.32618   1.39181    0.000
 4614.00    1.31733   1.39350    0.000
 4615.00    1.36269   1.39149    0.000
 4616.00    1.39129   1.39034    0.000
 4617.00    1.40472   1.39203    0.000
 4618.00    1.47620   1.39550    0.000
 4619.00    1.59407   1.40138    0.000
 4620.00    1.52802   1.40630    0.000
 4621.00    1.33268   1.40592    0.000
 4622.00    1.22752   1.40230    0.000
 4623.00    1.17796   1.39808    0.000
 4624.00    1.10208   1.39294    0.000
 4625.00    1.01201   1.38856    0.000
 4626.00    1.06926   1.38757    0.000
 4627.00    1.19541   1.38848    0.000
 4628.00    1.25578   1.38780    0.000
 4629.00    1.28962   1.38454    0.000
 4630.00    1.34998   1.37799    0.000
 4631.00    1.41945   1.36698    0.000
 4632.00    1.41559   1.35390    0.000
 4633.00    1.39050   1.34220    0.000
 4634.00    1.33349   1.33234    0.000
 4635.00    1.26884   1.32403    0.000
 4636.00    1.33339   1.31923    0.000
 4637.00    1.42289   1.32093    0.000
 4638.00    1.48665   1.32739    0.000
 4639.00    1.54656   1.33284    0.000
 4640.00    1.50171   1.33222    0.000
 4641.00    1.44533   1.32060    0.000
 4642.00    1.36565   1.29835    0.000
 4643.00    1.28428   1.27413    0.000
 4644.00    1.36297   1.25746    0.000
 4645.00    1.44772   1.25450    0.000
 4646.00    1.39975   1.26742    0.000
 4647.00    1.35089   1.29129    0.000
 4648.00    1.29424   1.31660    0.000
 4649.00    1.24613   1.33422    0.000
 4650.00    1.33760   1.33929    0.000
 4651.00    1.41651   1.33450    0.000
 4652.00    1.36692   1.32739    0.000
 4653.00    1.31538   1.32663    0.000
 4654.00    1.24950   1.33921    0.000
 4655.00    1.21415   1.36348    0.000
 4656.00    1.34946   1.38956    0.000
 4657.00    1.43297   1.40629    0.000
 4658.00    1.28539   1.40597    0.000
 4659.00    1.18389   1.38873    0.000
 4660.00    1.25116   1.36059    0.000
 4661.00    1.32236   1.32655    0.000
 4662.00    1.40561   1.28920    0.000
 4663.00    1.39441   1.25319    0.000
 4664.00    1.13692   1.22562    0.000
 4665.00    1.01633   1.21356    0.000
 4666.00    1.20258   1.22235    0.000
 4667.00    1.34265   1.24949    0.000
 4668.00    1.39302   1.28291    0.000
 4669.00    1.38775   1.31073    0.000
 4670.00    1.28826   1.32939    0.000
 4671.00    1.27355   1.34134    0.000
 4672.00    1.38463   1.34984    0.000
 4673.00    1.37454   1.35500    0.000
 4674.00    1.20641   1.35418    0.000
 4675.00    1.19757   1.34562    0.000
 4676.00    1.37177   1.33047    0.000
 4677.00    1.43573   1.31491    0.000
 4678.00    1.38799   1.30687    0.000
 4679.00    1.34082   1.30907    0.000
 4680.00    1.29416   1.31868    0.000
 4681.00    1.30140   1.33123    0.000
 4682.00    1.35110   1.34165    0.000
 4683.00    1.40913   1.34591    0.000
 4684.00    1.47293   1.34463    0.000
 4685.00    1.38763   1.34053    0.000
 4686.00    1.21176   1.33517    0.000
 4687.00    1.24594   1.33069    0.000
 4688.00    1.39151   1.32926    0.000
 4689.00    1.38214   1.33148    0.000
 4690.00    1.30148   1.33802    0.000
 4691.00    1.27207   1.34826    0.000
 4692.00    1.26296   1.35714    0.000
 4693.00    1.29644   1.35827    0.000
 4694.00    1.34430   1.34931    0.000
 4695.00    1.28373   1.33237    0.000
 4696.00    1.19240   1.31171    0.000
 4697.00    1.20968   1.29243    0.000
 4698.00    1.25238   1.27902    0.000
 4699.00    1.30608   1.27300    0.000
 4700.00    1.36185   1.27289    0.000
 4701.00    1.46308   1.27678    0.000
 4702.00    1.57093   1.28252    0.000
 4703.00    1.41452   1.28724    0.000
 4704.00    1.23018   1.28821    0.000
 4705.00    1.20593   1.28723    0.000
 4706.00    1.19267   1.29011    0.000
 4707.00    1.27640   1.29949    0.000
 4708.00    1.36344   1.31194    0.000
 4709.00    1.51836   1.32190    0.000
 4710.00    1.66372   1.32666    0.000
 4711.00    1.49459   1.32859    0.000
 4712.00    1.33442   1.33354    0.000
 4713.00    1.31180   1.34614    0.000
 4714.00    1.29271   1.36700    0.000
 4715.00    1.30838   1.39092    0.000
 4716.00    1.31779   1.41005    0.000
 4717.00    1.28298   1.42115    0.000
 4718.00    1.28044   1.42569    0.000
 4719.00    1.45346   1.42613    0.000
 4720.00    1.58501   1.42425    0.000
 4721.00    1.53583   1.41953    0.000
 4722.00    1.49377   1.40847    0.000
 4723.00    1.47723   1.38784    0.000
 4724.00    1.46229   1.35835    0.000
 4725.00    1.45217   1.32595    0.000
 4726.00    1.42756   1.29996    0.000
 4727.00    1.36584   1.28869    0.000
 4728.00    1.32228   1.29289    0.000
 4729.00    1.31874   1.30669    0.000
 4730.00    1.31567   1.32373    0.000
 4731.00    1.31347   1.33808    0.000
 4732.00    1.36249   1.34668    0.000
 4733.00    1.49696   1.35200    0.000
 4734.00    1.50733   1.35680    0.000
 4735.00    1.33624   1.36154    0.000
 4736.00    1.25520   1.36772    0.000
 4737.00    1.28994   1.37494    0.000
 4738.00    1.37932   1.38003    0.000
 4739.00    1.53061   1.38289    0.000
 4740.00    1.55347   1.38641    0.000
 4741.00    1.44803   1.39211    0.000
 4742.00    1.31218   1.39853    0.000
 4743.00    1.14954   1.40384    0.000
 4744.00    1.20778   1.40854    0.000
 4745.00    1.43750   1.41274    0.000
 4746.00    1.49425   1.41378    0.000
 4747.00    1.43291   1.40983    0.000
 4748.00    1.41703   1.40181    0.000
 4749.00    1.42836   1.39035    0.000
 4750.00    1.46508   1.37669    0.000
 4751.00    1.51504   1.36397    0.000
 4752.00    1.51791   1.35575    0.000
 4753.00    1.49945   1.35352    0.000
 4754.00    1.47328   1.35690    0.000
 4755.00    1.44411   1.36324    0.000
 4756.00    1.41954   1.36742    0.000
 4757.00    1.39648   1.36477    0.000
 4758.00    1.38649   1.35383    0.000
 4759.00    1.38012   1.33559    0.000
 4760.00    1.36857   1.31344    0.000
 4761.00    1.35584   1.29404    0.021
 4762.00    1.35069   1.28359    0.021
 4763.00    1.34693   1.28394    0.021
 4764.00    1.38467   1.29482    0.021
 4765.00    1.42827   1.31379    0.021
 4766.00    1.46803   1.33456    0.021
 4767.00    1.50740   1.35113    0.021
 4768.00    1.44035   1.36222    0.021
 4769.00    1.36643   1.37015    0.021
 4770.00    1.44281   1.37820    0.021
 4771.00    1.52342   1.38927    0.021
 4772.00    1.44036   1.40293    0.021
 4773.00    1.36169   1.41447    0.021
 4774.00    1.41008   1.41982    0.021
 4775.00    1.45660   1.41951    0.021
 4776.00    1.47615   1.41530    0.021
 4777.00    1.49327   1.40645    0.021
 4778.00    1.48747   1.39350    0.021
 4779.00    1.48214   1.38001    0.020
 4780.00    1.48007   1.36763    0.020
 4781.00    1.47565   1.35594    0.020
 4782.00    1.45883   1.34704    0.020
 4783.00    1.43370   1.34227    0.020
 4784.00    1.37323   1.33929    0.020
 4785.00    1.33055   1.33805    0.020
 4786.00    1.35037   1.34142    0.020
 4787.00    1.37638   1.34979    0.020
 4788.00    1.42065   1.36330    0.020
 4789.00    1.46206   1.38290    0.021
 4790.00    1.49629   1.40568    0.020
 4791.00    1.49099   1.42580    0.020
 4792.00    1.39999   1.43787    0.020
 4793.00    1.31268   1.43773    0.020
 4794.00    1.23234   1.42548    0.021
 4795.00    1.20519   1.40732    0.021
 4796.00    1.26543   1.39203    0.020
 4797.00    1.31370   1.38557    0.020
 4798.00    1.34470   1.38858    0.020
 4799.00    1.40455   1.39659    0.021
 4800.00    1.50097   1.40258    0.021
 4801.00    1.55457   1.40130    0.021
 4802.00    1.56037   1.39191    0.021
 4803.00    1.59788   1.37878    0.021
 4804.00    1.66664   1.36846    0.021
 4805.00    1.62388   1.36436    0.021
 4806.00    1.48423   1.36578    0.021
 4807.00    1.38610   1.37127    0.021
 4808.00    1.31973   1.37893    0.021
 4809.00    1.36065   1.38632    0.021
 4810.00    1.47375   1.39281    0.021
 4811.00    1.53673   1.39984    0.021
 4812.00    1.57015   1.40856    0.021
 4813.00    1.53139   1.41885    0.021
 4814.00    1.45552   1.42933    0.021
 4815.00    1.43538   1.43747    0.021
 4816.00    1.44005   1.44023    0.021
 4817.00    1.41438   1.43478    0.021
 4818.00    1.37709   1.41993    0.021
 4819.00    1.34342   1.39884    0.021
 4820.00    1.31094   1.37822    0.021
 4821.00    1.31059   1.36401    0.021
 4822.00    1.31900   1.35938    0.021
 4823.00    1.40883   1.36368    0.021
 4824.00    1.51686   1.37083    0.021
 4825.00    1.50699   1.37377    0.021
 4826.00    1.47611   1.37025    0.021
 4827.00    1.39271   1.36325    0.021
 4828.00    1.30214   1.35728    0.021
 4829.00    1.32869   1.35449    0.021
 4830.00    1.36662   1.35504    0.021
 4831.00    1.36650   1.35914    0.021
 4832.00    1.36407   1.36479    0.021
 4833.00    1.41588   1.36677    0.021
 4834.00    1.46841   1.36192    0.021
 4835.00    1.39073   1.35183    0.021
 4836.00    1.31919   1.33976    0.021
 4837.00    1.40778   1.32816    0.021
 4838.00    1.48757   1.31999    0.021
 4839.00    1.44728   1.31810    0.021
 4840.00    1.40490   1.32186    0.021
 4841.00    1.34365   1.32766    0.021
 4842.00    1.28406   1.33224    0.021
 4843.00    1.23555   1.33331    0.021
 4844.00    1.22000   1.32910    0.021
 4845.00    1.37453   1.32022    0.021
 4846.00    1.50572   1.31004    0.021
 4847.00    1.53968   1.30202    0.022
 4848.00    1.56313   1.29548    0.000
 4849.00    1.55038   1.28450    0.000
 4850.00    1.53031   1.26431    0.000
 4851.00    1.48901   1.23676    0.000
 4852.00    1.42873   1.20589    0.000
 4853.00    1.32149   1.17356    0.000
 4854.00    1.31453   1.13940    0.000
 4855.00    1.52154   1.10034    0.000
 4856.00    1.66362   1.05421    0.000
 4857.00    1.68537   1.00703    0.000
 4858.00    1.70905   0.97255    0.000
 4859.00    1.73586   0.96414    0.000
 4860.00    1.69166   0.98728    0.000
 4861.00    1.54663   1.03433    0.000
 4862.00    1.41144   1.08836    0.000
 4863.00    1.28853   1.13567    0.000
 4864.00    1.23254   1.17039    0.000
 4865.00    1.25021   1.18925    0.000
 4866.00    1.29900   1.19246    0.000
 4867.00    1.37802   1.18594    0.000
 4868.00    1.38442   1.17767    0.000
 4869.00    1.32864   1.17488    0.000
 4870.00    1.27512   1.18372    0.000
 4871.00    1.22330   1.20522    0.000
 4872.00    1.23341   1.23276    0.000
 4873.00    1.28455   1.25951    0.000
 4874.00    1.33924   1.28384    0.000
 4875.00    1.39599   1.30511    0.021
 4876.00    1.47197   1.32109    0.021
 4877.00    1.55769   1.33011    0.021
 4878.00    1.46415   1.33089    0.021
 4879.00    1.29212   1.32284    0.021
 4880.00    1.27594   1.30933    0.021
 4881.00    1.31833   1.29518    0.021
 4882.00    1.31613   1.28192    0.021
 4883.00    1.29970   1.26972    0.021
 4884.00    1.32498   1.25973    0.021
 4885.00    1.36138   1.25217    0.021
 4886.00    1.32749   1.24692    0.021
 4887.00    1.27826   1.24607    0.021
 4888.00    1.21918   1.25455    0.021
 4889.00    1.15839   1.27781    0.021
 4890.00    1.20246   1.31717    0.021
 4891.00    1.26034   1.36509    0.021
 4892.00    1.29004   1.40759    0.021
 4893.00    1.31711   1.43438    0.021
 4894.00    1.43823   1.44335    0.021
 4895.00    1.56468   1.43831    0.021
 4896.00    1.47291   1.42524    0.021
 4897.00    1.37818   1.40928    0.021
 4898.00    1.50314   1.39521    0.021
 4899.00    1.62507   1.38748    0.020
 4900.00    1.67507   1.38707    0.020
 4901.00    1.70696   1.39156    0.021
 4902.00    1.50478   1.39838    0.020
 4903.00    1.31416   1.40354    0.020
 4904.00    1.22392   1.40076    0.020
 4905.00    1.16151   1.38688    0.020
 4906.00    1.27818   1.36625    0.020
 4907.00    1.38260   1.34802    0.020
 4908.00    1.42543   1.34028    0.020
 4909.00    1.46145   1.34640    0.020
 4910.00    1.46979   1.36295    0.020
 4911.00    1.49226   1.38024    0.020
 4912.00    1.56240   1.38725    0.021
 4913.00    1.60097   1.37659    0.020
 4914.00    1.54963   1.34654    0.020
 4915.00    1.48545   1.30269    0.020
 4916.00    1.39004   1.25782    0.020
 4917.00    1.30012   1.22605    0.020
 4918.00    1.22172   1.21605    0.020
 4919.00    1.19694   1.22780    0.020
 4920.00    1.26999   1.25393    0.020
 4921.00    1.33058   1.28475    0.020
 4922.00    1.37131   1.31537    0.020
 4923.00    1.42635   1.34682    0.020
 4924.00    1.50142   1.37896    0.020
 4925.00    1.53924   1.40725    0.020
 4926.00    1.53118   1.42622    0.020
 4927.00    1.51565   1.43258    0.020
 4928.00    1.49202   1.42591    0.020
 4929.00    1.45442   1.40917    0.020
 4930.00    1.40343   1.38738    0.020
 4931.00    1.40061   1.36508    0.019
 4932.00    1.43846   1.34575    0.019
 4933.00    1.44248   1.33072    0.019
 4934.00    1.42136   1.31848    0.019
 4935.00    1.40764   1.30943    0.020
 4936.00    1.39875   1.30945    0.020
 4937.00    1.38403   1.32458    0.020
 4938.00    1.36598   1.35338    0.020
 4939.00    1.41051   1.38602    0.020
 4940.00    1.48620   1.41183    0.000
 4941.00    1.51937   1.42715    0.000
 4942.00    1.53424   1.43417    0.000
 4943.00    1.60504   1.43669    0.000
 4944.00    1.69648   1.43916    0.000
 4945.00    1.59609   1.44463    0.000
 4946.00    1.43568   1.45153    0.000
 4947.00    1.47590   1.45580    0.000
 4948.00    1.56846   1.45499    0.000
 4949.00    1.48720   1.44779    0.000
 4950.00    1.36893   1.43199    0.000
 4951.00    1.49294   1.40600    0.000
 4952.00    1.65776   1.37282    0.000
 4953.00    1.58756   1.33919    0.000
 4954.00    1.48746   1.31318    0.000
 4955.00    1.43777   1.30353    0.000
 4956.00    1.39256   1.31644    0.000
 4957.00    1.39232   1.34775    0.000
 4958.00    1.39446   1.38109    0.000
 4959.00    1.42665   1.40144    0.000
 4960.00    1.46112   1.40534    0.000
 4961.00    1.62883   1.39689    0.000
 4962.00    1.78142   1.38138    0.000
 4963.00    1.60501   1.36434    0.000
 4964.00    1.43691   1.35201    0.000
 4965.00    1.37087   1.34840    0.000
 4966.00    1.31424   1.35318    0.000
 4967.00    1.33644   1.36410    0.000
 4968.00    1.36750   1.37899    0.000
 4969.00    1.45389   1.39519    0.000
 4970.00    1.51431   1.40944    0.000
 4971.00    1.44745   1.41803    0.000
 4972.00    1.40089   1.41838    0.000
 4973.00    1.43513   1.40985    0.000
 4974.00    1.46721   1.39327    0.000
 4975.00    1.49215   1.37027    0.000
 4976.00    1.45842   1.34233    0.000
 4977.00    1.26067   1.31153    0.000
 4978.00    1.17238   1.28085    0.000
 4979.00    1.34588   1.25388    0.000
 4980.00    1.43379   1.23630    0.000
 4981.00    1.34492   1.23496    0.000
 4982.00    1.27765   1.25169    0.000
 4983.00    1.24919   1.28037    0.000
 4984.00    1.27197   1.31104    0.000
 4985.00    1.37525   1.33560    0.000
 4986.00    1.44831   1.34967    0.000
 4987.00    1.47970   1.35371    0.000
 4988.00    1.43588   1.35266    0.000
 4989.00    1.30075   1.35193    0.000
 4990.00    1.29255   1.35420    0.000
 4991.00    1.42020   1.35844    0.000
 4992.00    1.42095   1.36198    0.000
 4993.00    1.30187   1.36262    0.000
 4994.00    1.25224   1.35745    0.000
 4995.00    1.26040   1.34456    0.000
 4996.00    1.27183   1.32573    0.000
 4997.00    1.28565   1.30506    0.000
 4998.00    1.31570   1.28673    0.000
 4999.00    1.35618   1.27267    0.000
 5000.00    1.41050   1.26185    0.000
 5001.00    1.47259   1.25296    0.000
 5002.00    1.52314   1.24661    0.000
 5003.00    1.56803   1.24559    0.000
 5004.00    1.56739   1.25311    0.000
 5005.00    1.54747   1.26841    0.000
 5006.00    1.51982   1.28364    0.000
 5007.00    1.48937   1.28835    0.000
 5008.00    1.44173   1.27840    0.000
 5009.00    1.38882   1.25853    0.000
 5010.00    1.39284   1.23709    0.000
 5011.00    1.41139   1.22170    0.000
 5012.00    1.45603   1.21597    0.000
 5013.00    1.50610   1.21870    0.000
 5014.00    1.40656   1.22549    0.000
 5015.00    1.28254   1.23228    0.000
 5016.00    1.19617   1.23901    0.000
 5017.00    1.11442   1.24794    0.000
 5018.00    1.19305   1.25889    0.000
 5019.00    1.28523   1.26994    0.000
 5020.00    1.34405   1.28037    0.000
 5021.00    1.40124   1.29055    0.000
 5022.00    1.40243   1.29937    0.000
 5023.00    1.40254   1.30489    0.000
 5024.00    1.38983   1.30820    0.000
 5025.00    1.37781   1.31330    0.000
 5026.00    1.37985   1.32447    0.000
 5027.00    1.37599   1.34215    0.000
 5028.00    1.30316   1.36086    0.000
 5029.00    1.23826   1.37423    0.019
 5030.00    1.23749   1.37834    0.019
 5031.00    1.24602   1.37083    0.019
 5032.00    1.31095   1.35160    0.019
 5033.00    1.36345   1.32394    0.019
 5034.00    1.35654   1.29340    0.019
 5035.00    1.35901   1.26432    0.019
 5036.00    1.39805   1.23793    0.019
 5037.00    1.44299   1.21759    0.019
 5038.00    1.50704   1.21163    0.019
 5039.00    1.53919   1.22729    0.020
 5040.00    1.48378   1.26391    0.019
 5041.00    1.41473   1.30963    0.019
 5042.00    1.31361   1.34755    0.020
 5043.00    1.27958   1.36694    0.020
 5044.00    1.38191   1.36571    0.019
 5045.00    1.40010   1.34833    0.019
 5046.00    1.26942   1.32464    0.019
 5047.00    1.23279   1.30630    0.019
 5048.00    1.34174   1.30052    0.020
 5049.00    1.39713   1.30752    0.020
 5050.00    1.37971   1.32374    0.020
 5051.00    1.38657   1.34483    0.020
 5052.00    1.42250   1.36581    0.020
 5053.00    1.46417   1.38295    0.020
 5054.00    1.51191   1.39566    0.020
 5055.00    1.53673   1.40560    0.020
 5056.00    1.54023   1.41371    0.020
 5057.00    1.54160   1.41831    0.020
 5058.00    1.54122   1.41662    0.020
 5059.00    1.51283   1.40650    0.020
 5060.00    1.46419   1.38725    0.019
 5061.00    1.42077   1.36175    0.019
 5062.00    1.38065   1.33664    0.019
 5063.00    1.31518   1.31954    0.020
 5064.00    1.23566   1.31369    0.020
 5065.00    1.22449   1.31535    0.020
 5066.00    1.24627   1.31948    0.020
 5067.00    1.28753   1.32381    0.020
 5068.00    1.33689   1.32680    0.020
 5069.00    1.42053   1.32700    0.020
 5070.00    1.51636   1.32559    0.020
 5071.00    1.33845   1.32501    0.020
 5072.00    1.07819   1.32367    0.019
 5073.00    1.18861   1.31714    0.019
 5074.00    1.39162   1.30355    0.020
 5075.00    1.31910   1.28397    0.019
 5076.00    1.19074   1.26134    0.019
 5077.00    1.22008   1.24197    0.019
 5078.00    1.27448   1.23437    0.019
 5079.00    1.33074   1.24178    0.019
 5080.00    1.38722   1.25923    0.019
 5081.00    1.44536   1.27997    0.019
 5082.00    1.50364   1.30053    0.019
 5083.00    1.42808   1.31898    0.019
 5084.00    1.34649   1.33355    0.018
 5085.00    1.30767   1.34441    0.018
 5086.00    1.27199   1.35379    0.018
 5087.00    1.36762   1.36328    0.018
 5088.00    1.45523   1.37239    0.018
 5089.00    1.39385   1.37952    0.018
 5090.00    1.34437   1.38224    0.018
 5091.00    1.42747   1.37702    0.018
 5092.00    1.49641   1.36135    0.018
 5093.00    1.45510   1.33685    0.018
 5094.00    1.41678   1.30941    0.018
 5095.00    1.39602   1.28673    0.018
 5096.00    1.38071   1.27537    0.018
 5097.00    1.39079   1.27819    0.018
 5098.00    1.38624   1.29256    0.018
 5099.00    1.32591   1.30992    0.018
 5100.00    1.28197   1.32109    0.018
 5101.00    1.29021   1.32236    0.018
 5102.00    1.31137   1.31557    0.018
 5103.00    1.36738   1.30460    0.018
 5104.00    1.39200   1.29308    0.018
 5105.00    1.34402   1.28422    0.018
 5106.00    1.30850   1.28153    0.018
 5107.00    1.29794   1.28656    0.018
 5108.00    1.30601   1.29817    0.019
 5109.00    1.34654   1.31484    0.018
 5110.00    1.34584   1.33351    0.018
 5111.00    1.28226   1.35072    0.019
 5112.00    1.27713   1.36544    0.019
 5113.00    1.35035   1.37711    0.019
 5114.00    1.42940   1.38446    0.019
 5115.00    1.51534   1.38547    0.019
 5116.00    1.53095   1.37751    0.019
 5117.00    1.47338   1.35981    0.019
 5118.00    1.43181   1.33467    0.019
 5119.00    1.40493   1.30643    0.019
 5120.00    1.34966   1.28005    0.019
 5121.00    1.27142   1.25947    0.019
 5122.00    1.25347   1.24734    0.019
 5123.00    1.27845   1.24377    0.019
 5124.00    1.29410   1.24579    0.019
 5125.00    1.30392   1.25067    0.019
 5126.00    1.32120   1.25795    0.019
 5127.00    1.34254   1.26814    0.019
 5128.00    1.33408   1.28120    0.019
 5129.00    1.31149   1.29545    0.019
 5130.00    1.30686   1.30773    0.019
 5131.00    1.30958   1.31529    0.019
 5132.00    1.32095   1.31665    0.019
 5133.00    1.33534   1.31107    0.019
 5134.00    1.31746   1.29850    0.019
 5135.00    1.29006   1.28275    0.019
 5136.00    1.33374   1.26957    0.019
 5137.00    1.39477   1.26165    0.019
 5138.00    1.36735   1.25925    0.019
 5139.00    1.32246   1.25940    0.019
 5140.00    1.29414   1.25882    0.019
 5141.00    1.26839   1.25889    0.019
 5142.00    1.20723   1.26011    0.019
 5143.00    1.14204   1.25985    0.019
 5144.00    1.19891   1.25834    0.019
 5145.00    1.26508   1.25779    0.019
 5146.00    1.26918   1.25851    0.019
 5147.00    1.27072   1.25907    0.018
 5148.00    1.28756   1.25788    0.019
 5149.00    1.30589   1.25639    0.019
 5150.00    1.38137   1.25869    0.019
 5151.00    1.44856   1.26754    0.019
 5152.00    1.37222   1.28326    0.019
 5153.00    1.30488   1.30384    0.018
 5154.00    1.33332   1.32458    0.018
 5155.00    1.35286   1.34041    0.018
 5156.00    1.30543   1.34774    0.018
 5157.00    1.27666   1.34503    0.018
 5158.00    1.35479   1.33232    0.018
 5159.00    1.42887   1.30853    0.018
 5160.00    1.48446   1.27238    0.018
 5161.00    1.48027   1.22514    0.018
 5162.00    1.25298   1.16973    0.018
 5163.00    1.06069   1.11227    0.018
 5164.00    0.97755   1.06329    0.018
 5165.00    0.93953   1.03194    0.018
 5166.00    1.02100   1.02029    0.018
 5167.00    1.07879   1.02192    0.018
 5168.00    1.08277   1.02811    0.018
 5169.00    1.10040   1.03690    0.018
 5170.00    1.14490   1.05656    0.018
 5171.00    1.18541   1.09623    0.018
 5172.00    1.21906   1.15165    0.018
 5173.00    1.22034   1.20600    0.018
 5174.00    1.17295   1.24438    0.018
 5175.00    1.18920   1.26091    0.018
 5176.00    1.28951   1.25438    0.018
 5177.00    1.32404   1.22576    0.018
 5178.00    1.28205   1.18091    0.018
 5179.00    1.18018   1.13177    0.018
 5180.00    1.01690   1.09387    0.018
 5181.00    0.97725   1.08229    0.018
 5182.00    1.04949   1.10489    0.018
 5183.00    1.11746   1.15309    0.018
 5184.00    1.18204   1.20545    0.018
 5185.00    1.25256   1.24429    0.018
 5186.00    1.32724   1.26325    0.018
 5187.00    1.31090   1.26497    0.018
 5188.00    1.23854   1.25516    0.018
 5189.00    1.24757   1.23990    0.018
 5190.00    1.30033   1.22897    0.000
 5191.00    1.28284   1.22998    0.000
 5192.00    1.23256   1.24105    0.000
 5193.00    1.27669   1.25693    0.000
 5194.00    1.35879   1.27587    0.000
 5195.00    1.32260   1.29549    0.000
 5196.00    1.24581   1.31134    0.000
 5197.00    1.20951   1.31956    0.000
 5198.00    1.18492   1.31698    0.000
 5199.00    1.18029   1.30224    0.000
 5200.00    1.18043   1.27712    0.000
 5201.00    1.30386   1.24580    0.000
 5202.00    1.45104   1.21355    0.000
 5203.00    1.38908   1.18741    0.000
 5204.00    1.29585   1.17452    0.000
 5205.00    1.22257   1.17694    0.000
 5206.00    1.15146   1.19296    0.000
 5207.00    1.24052   1.22104    0.000
 5208.00    1.34114   1.25569    0.000
 5209.00    1.35118   1.28752    0.000
 5210.00    1.35784   1.30925    0.000
 5211.00    1.34555   1.31812    0.019
 5212.00    1.33412   1.31730    0.019
 5213.00    1.35709   1.31466    0.019
 5214.00    1.37450   1.31821    0.019
 5215.00    1.30185   1.33032    0.018
 5216.00    1.24508   1.34644    0.018
 5217.00    1.34998   1.35861    0.018
 5218.00    1.44188   1.35978    0.018
 5219.00    1.43918   1.34643    0.018
 5220.00    1.42513   1.31866    0.018
 5221.00    1.34778   1.28104    0.018
 5222.00    1.29981   1.24298    0.018
 5223.00    1.38249   1.21595    0.018
 5224.00    1.41658   1.20861    0.018
 5225.00    1.27312   1.22322    0.018
 5226.00    1.15266   1.25268    0.018
 5227.00    1.10260   1.28195    0.018
 5228.00    1.09045   1.29991    0.018
 5229.00    1.17697   1.30566    0.018
 5230.00    1.24198   1.30465    0.018
 5231.00    1.25893   1.30583    0.018
 5232.00    1.24571   1.31598    0.018
 5233.00    1.17402   1.33437    0.018
 5234.00    1.16895   1.35578    0.018
 5235.00    1.27650   1.37433    0.018
 5236.00    1.37590   1.38666    0.018
 5237.00    1.46322   1.39312    0.018
 5238.00    1.50062   1.39592    0.018
 5239.00    1.47303   1.39646    0.018
 5240.00    1.44649   1.39429    0.018
 5241.00    1.42115   1.38838    0.018
 5242.00    1.40041   1.37759    0.017
 5243.00    1.38431   1.36086    0.017
 5244.00    1.38507   1.34014    0.017
 5245.00    1.40089   1.32139    0.018
 5246.00    1.36885   1.30955    0.018
 5247.00    1.29916   1.30443    0.018
 5248.00    1.29978   1.30450    0.018
 5249.00    1.34900   1.30969    0.018
 5250.00    1.37313   1.31855    0.018
 5251.00    1.38206   1.32931    0.018
 5252.00    1.36200   1.34246    0.018
 5253.00    1.32661   1.35919    0.019
 5254.00    1.32041   1.37725    0.018
 5255.00    1.32761   1.38872    0.018
 5256.00    1.30099   1.38501    0.018
 5257.00    1.26101   1.36262    0.019
 5258.00    1.27245   1.32375    0.019
 5259.00    1.30121   1.27513    0.019
 5260.00    1.24447   1.22588    0.019
 5261.00    1.16354   1.18449    0.019
 5262.00    1.24230   1.15569    0.019
 5263.00    1.35833   1.13929    0.019
 5264.00    1.27039   1.13231    0.019
 5265.00    1.14421   1.13117    0.019
 5266.00    1.13227   1.13354    0.019
 5267.00    1.13689   1.14287    0.019
 5268.00    1.25500   1.16524    0.019
 5269.00    1.38505   1.19852    0.020
 5270.00    1.29116   1.23253    0.019
 5271.00    1.18201   1.26129    0.019
 5272.00    1.23192   1.28638    0.019
 5273.00    1.28717   1.31090    0.019
 5274.00    1.24344   1.33545    0.019
 5275.00    1.20432   1.35538    0.018
 5276.00    1.31652   1.36364    0.018
 5277.00    1.41761   1.35858    0.018
 5278.00    1.34951   1.34565    0.018
 5279.00    1.28433   1.33381    0.018
 5280.00    1.24765   1.33115    0.018
 5281.00    1.24118   1.34180    0.018
 5282.00    1.44746   1.36505    0.018
 5283.00    1.61219   1.39490    0.018
 5284.00    1.55154   1.42235    0.018
 5285.00    1.49155   1.44155    0.018
 5286.00    1.43443   1.45238    0.017
 5287.00    1.39622   1.45681    0.017
 5288.00    1.42571   1.45543    0.017
 5289.00    1.43994   1.44726    0.018
 5290.00    1.40835   1.43169    0.018
 5291.00    1.38946   1.40930    0.018
 5292.00    1.40300   1.38165    0.018
 5293.00    1.40094   1.35176    0.017
 5294.00    1.36458   1.32526    0.017
 5295.00    1.32735   1.30947    0.018
 5296.00    1.28848   1.30902    0.017
 5297.00    1.27461   1.32217    0.017
 5298.00    1.30234   1.34265    0.018
 5299.00    1.32454   1.36594    0.018
 5300.00    1.33864   1.39026    0.018
 5301.00    1.34730   1.41315    0.018
 5302.00    1.34896   1.43102    0.018
 5303.00    1.34539   1.44204    0.017
 5304.00    1.33588   1.44771    0.017
 5305.00    1.34373   1.45134    0.017
 5306.00    1.36888   1.45493    0.017
 5307.00    1.37684   1.45736    0.018
 5308.00    1.36969   1.45621    0.018
 5309.00    1.41753   1.45036    0.018
 5310.00    1.50799   1.44046    0.018
 5311.00    1.54256   1.42837    0.018
 5312.00    1.53906   1.41630    0.018
 5313.00    1.51588   1.40614    0.018
 5314.00    1.48097   1.39965    0.018
 5315.00    1.43515   1.39747    0.018
 5316.00    1.38365   1.39722    0.018
 5317.00    1.31362   1.39479    0.018
 5318.00    1.23522   1.38717    0.018
 5319.00    1.29662   1.37302    0.018
 5320.00    1.41234   1.35222    0.018
 5321.00    1.42256   1.32591    0.018
 5322.00    1.39791   1.29658    0.018
 5323.00    1.29163   1.26716    0.018
 5324.00    1.16271   1.24120    0.018
 5325.00    1.28638   1.22591    0.018
 5326.00    1.46766   1.23040    0.018
 5327.00    1.31650   1.25643    0.018
 5328.00    1.10466   1.29445    0.018
 5329.00    1.08626   1.33193    0.018
 5330.00    1.09500   1.36211    0.017
 5331.00    1.14533   1.38352    0.017
 5332.00    1.19985   1.39567    0.017
 5333.00    1.29021   1.39750    0.017
 5334.00    1.38288   1.38956    0.017
 5335.00    1.40614   1.37500    0.017
 5336.00    1.42707   1.35843    0.017
 5337.00    1.34079   1.34537    0.017
 5338.00    1.26036   1.34142    0.017
 5339.00    1.34710   1.34798    0.017
 5340.00    1.43475   1.35974    0.016
 5341.00    1.53557   1.36937    0.017
 5342.00    1.61714   1.37303    0.017
 5343.00    1.51855   1.37145    0.017
 5344.00    1.43283   1.36825    0.017
 5345.00    1.43482   1.36706    0.017
 5346.00    1.44663   1.37082    0.017
 5347.00    1.51022   1.38199    0.017
 5348.00    1.55328   1.40014    0.016
 5349.00    1.50915   1.42161    0.017
 5350.00    1.47850   1.44263    0.017
 5351.00    1.49512   1.46155    0.017
 5352.00    1.51948   1.47739    0.017
 5353.00    1.56668   1.48846    0.017
 5354.00    1.60645   1.49350    0.017
 5355.00    1.62753   1.49217    0.017
 5356.00    1.63141   1.48451    0.017
 5357.00    1.59805   1.47102    0.017
 5358.00    1.56975   1.45307    0.017
 5359.00    1.55096   1.43320    0.017
 5360.00    1.52874   1.41437    0.017
 5361.00    1.50091   1.39804    0.017
 5362.00    1.44336   1.38373    0.017
 5363.00    1.34306   1.37020    0.017
 5364.00    1.27859   1.35537    0.017
 5365.00    1.25944   1.33796    0.017
 5366.00    1.26972   1.31977    0.017
 5367.00    1.31282   1.30628    0.018
 5368.00    1.25090   1.30502   -2.000
 5369.00    1.08573   1.32063   -2.000
 5370.00    1.05147   1.34983   -2.000
 5371.00    1.13074   1.38277   -2.000
 5372.00    1.22007   1.41010   -2.000
 5373.00    1.31711   1.42720   -2.000
 5374.00    1.34619   1.43428   -2.000
 5375.00    1.32963   1.43434   -2.000
 5376.00    1.34062   1.43004   -2.000
 5377.00    1.36781   1.42307   -2.000
 5378.00    1.31742   1.41563   -2.000
 5379.00    1.22725   1.41017   -2.000
 5380.00    1.22056   1.40807   -2.000
 5381.00    1.25095   1.40957   -2.000
 5382.00    1.28380   1.41261   -2.000
 5383.00    1.31759   1.41324    0.019
 5384.00    1.35336   1.40874    0.018
 5385.00    1.38978   1.39882    0.017
 5386.00    1.40573   1.38506    0.017
 5387.00    1.41611   1.37025    0.017
 5388.00    1.40339   1.35704    0.016
 5389.00    1.38553   1.34621    0.016
 5390.00    1.40571   1.33677    0.016
 5391.00    1.43266   1.32746    0.017
 5392.00    1.42616   1.31807    0.016
 5393.00    1.41512   1.30990    0.016
 5394.00    1.43471   1.30649    0.016
 5395.00    1.45725   1.31123    0.016
 5396.00    1.44706   1.32186    0.016
 5397.00    1.43491   1.33134    0.016
 5398.00    1.40001   1.33382    0.016
 5399.00    1.36472   1.32636    0.016
 5400.00    1.36285   1.30890    0.016
 5401.00    1.36015   1.28628    0.016
 5402.00    1.33604   1.26721    0.016
 5403.00    1.31397   1.25886    0.016
 5404.00    1.31957   1.26254    0.016
 5405.00    1.32386   1.27407    0.016
 5406.00    1.31644   1.28881    0.016
 5407.00    1.31152   1.30589    0.016
 5408.00    1.32316   1.32624    0.016
 5409.00    1.33706   1.34827    0.016
 5410.00    1.36260   1.36846    0.016
 5411.00    1.39421   1.38488    0.016
 5412.00    1.45104   1.39794    0.016
 5413.00    1.48157   1.40833    0.016
 5414.00    1.42174   1.41489    0.016
 5415.00    1.39625   1.41602    0.017
 5416.00    1.47010   1.41198    0.017
 5417.00    1.50020   1.40475    0.017
 5418.00    1.42221   1.39700    0.016
 5419.00    1.37175   1.39060    0.016
 5420.00    1.37991   1.38586    0.017
 5421.00    1.37081   1.38370    0.017
 5422.00    1.32981   1.38504    0.016
 5423.00    1.33487   1.38680    0.016
 5424.00    1.41436   1.38347    0.017
 5425.00    1.45727   1.37206    0.017
 5426.00    1.44832   1.35533    0.016
 5427.00    1.39537   1.34040    0.016
 5428.00    1.28753   1.33100    0.016
 5429.00    1.22078   1.32470    0.016
 5430.00    1.19921   1.32026    0.016
 5431.00    1.21171   1.32024    0.016
 5432.00    1.25724   1.32821    0.016
 5433.00    1.29018   1.34608    0.016
 5434.00    1.31236   1.37223    0.016
 5435.00    1.30334   1.40190    0.016
 5436.00    1.27084   1.42863    0.016
 5437.00    1.29738   1.44704    0.016
 5438.00    1.36298   1.45410    0.016
 5439.00    1.39483   1.44879    0.016
 5440.00    1.40712   1.43173    0.016
 5441.00    1.38557   1.40564    0.016
 5442.00    1.34693   1.37677    0.015
 5443.00    1.30968   1.35388    0.015
 5444.00    1.27304   1.34503    0.015
 5445.00    1.28661   1.35202    0.015
 5446.00    1.31901   1.36788    0.015
 5447.00    1.32697   1.38251    0.015
 5448.00    1.32715   1.38859    0.015
 5449.00    1.38310   1.38357    0.015
 5450.00    1.45387   1.36986    0.015
 5451.00    1.45977   1.35363    0.015
 5452.00    1.45157   1.34293    0.016
 5453.00    1.47132   1.34428    0.016
 5454.00    1.49589   1.35704    0.016
 5455.00    1.51244   1.37325    0.016
 5456.00    1.52794   1.38428    0.016
 5457.00    1.41457   1.38593    0.016
 5458.00    1.28929   1.37950    0.015
 5459.00    1.35402   1.36991    0.015
 5460.00    1.42943   1.36325    0.016
 5461.00    1.43028   1.36351    0.016
 5462.00    1.42964   1.36952    0.016
 5463.00    1.44556   1.37728    0.016
 5464.00    1.45790   1.38383    0.016
 5465.00    1.38628   1.38712    0.016
 5466.00    1.31955   1.38576    0.016
 5467.00    1.31544   1.37995    0.016
 5468.00    1.31787   1.37082    0.016
 5469.00    1.37684   1.35863    0.016
 5470.00    1.41847   1.34347    0.016
 5471.00    1.34896   1.32712    0.016
 5472.00    1.30058   1.31187    0.016
 5473.00    1.35813   1.30072    0.017
 5474.00    1.41328   1.29783    0.017
 5475.00    1.45867   1.30373    0.017
 5476.00    1.48139   1.31359    0.017
 5477.00    1.42779   1.32282    0.016
 5478.00    1.37617   1.33139   -2.000
 5479.00    1.33016   1.34186   -2.000
 5480.00    1.31195   1.35470   -2.000
 5481.00    1.36121   1.36738   -2.000
 5482.00    1.42213   1.37608   -2.000
 5483.00    1.50748   1.37843   -2.000
 5484.00    1.51026   1.37603   -2.000
 5485.00    1.36268   1.37323   -2.000
 5486.00    1.37373   1.37281   -2.000
 5487.00    1.63731   1.37478   -2.000
 5488.00    1.63881   1.37782   -2.000
 5489.00    1.27420   1.38006   -2.000
 5490.00    1.11310   1.38055   -2.000
 5491.00    1.20219   1.38012   -2.000
 5492.00    1.23399   1.37954   -2.000
 5493.00    1.20369   1.37887   -2.000
 5494.00    1.24760   1.37876   -2.000
 5495.00    1.36242   1.37959   -2.000
 5496.00    1.39556   1.37947   -2.000
 5497.00    1.35984   1.37594   -2.000
 5498.00    1.35940   1.36915   -2.000
 5499.00    1.38516   1.36151   -2.000
 5500.00    1.40149   1.35496   -2.000
 5501.00    1.41168   1.35001   -2.000
 5502.00    1.43355   1.34665    0.015
 5503.00    1.46208   1.34549    0.015
 5504.00    1.44808   1.34701    0.015
 5505.00    1.41294   1.34932    0.015
 5506.00    1.39557   1.34933    0.015
 5507.00    1.38582   1.34541    0.015
 5508.00    1.36649   1.33840    0.015
 5509.00    1.34363   1.33159    0.015
 5510.00    1.37463   1.32920    0.015
 5511.00    1.42244   1.33369    0.016
 5512.00    1.41924   1.34491    0.016
 5513.00    1.40277   1.36086    0.016
 5514.00    1.38900   1.37862    0.016
 5515.00    1.37579   1.39489    0.016
 5516.00    1.40007   1.40677    0.016
 5517.00    1.43066   1.41311    0.016
 5518.00    1.42398   1.41426    0.016
 5519.00    1.41258   1.41087    0.016
 5520.00    1.45613   1.40319    0.016
 5521.00    1.50453   1.39119    0.016
 5522.00    1.44971   1.37570    0.016
 5523.00    1.38950   1.35921    0.015
 5524.00    1.33394   1.34585    0.015
 5525.00    1.27963   1.34013    0.015
 5526.00    1.31278   1.34360    0.015
 5527.00    1.34667   1.35307    0.015
 5528.00    1.39636   1.36322    0.015
 5529.00    1.43623   1.37018    0.015
 5530.00    1.35628   1.37283    0.015
 5531.00    1.28531   1.37277    0.015
 5532.00    1.28913   1.37313    0.015
 5533.00    1.29793   1.37616    0.015
 5534.00    1.33775   1.38214    0.015
 5535.00    1.37548   1.39022    0.015
 5536.00    1.40295   1.39867    0.015
 5537.00    1.41882   1.40500    0.015
 5538.00    1.38869   1.40724    0.015
 5539.00    1.36828   1.40536    0.015
 5540.00    1.37991   1.40157    0.015
 5541.00    1.39440   1.39875    0.017
 5542.00    1.41684   1.39894    0.041
 5543.00    1.44173   1.40326   -1.000
 5544.00    1.47245   1.41126   -1.000
 5545.00    1.49870   1.42044   -1.000
 5546.00    1.51575   1.42776   -1.000
 5547.00    1.51725   1.43096   -1.000
 5548.00    1.49088   1.42912   -1.000
 5549.00    1.48297   1.42297   -1.000
 5550.00    1.50402   1.41486   -1.000
 5551.00    1.49176   1.40766   -1.000
 5552.00    1.43363   1.40297   -1.000
 5553.00    1.39203   1.40059    0.066
 5554.00    1.37046   1.39949    0.021
 5555.00    1.35673   1.39853    0.015
 5556.00    1.35138   1.39638    0.015
 5557.00    1.35120   1.39216    0.015
 5558.00    1.35588   1.38587    0.015
 5559.00    1.36478   1.37841    0.015
 5560.00    1.37720   1.37116    0.015
 5561.00    1.38985   1.36466    0.015
 5562.00    1.40268   1.35925    0.015
 5563.00    1.36375   1.35553    0.015
 5564.00    1.29157   1.35353    0.015
 5565.00    1.29233   1.35282    0.015
 5566.00    1.33406   1.35348    0.015
 5567.00    1.34859   1.35517    0.015
 5568.00    1.34982   1.35669    0.015
 5569.00    1.33763   1.35871    0.015
 5570.00    1.31976   1.36297    0.015
 5571.00    1.32798   1.36897    0.015
 5572.00    1.34563   1.37559    0.015
 5573.00    1.35139   1.38232    0.015
 5574.00    1.35351   1.38809    0.015
 5575.00    1.37231   1.39211    0.015
 5576.00    1.39534   1.39417    0.015
 5577.00    1.47344   1.39355    0.015
 5578.00    1.56294   1.38962    0.014
 5579.00    1.50009   1.38192    0.015
 5580.00    1.41240   1.36927    0.015
 5581.00    1.38484   1.35093    0.015
 5582.00    1.36463   1.32807    0.015
 5583.00    1.34588   1.30441    0.015
 5584.00    1.32725   1.28532    0.015
 5585.00    1.26170   1.27510    0.014
 5586.00    1.19388   1.27516    0.014
 5587.00    1.14519   1.28350    0.014
 5588.00    1.09928   1.29610    0.015
 5589.00    1.20130   1.30958    0.015
 5590.00    1.29949   1.32242    0.015
 5591.00    1.32164   1.33436    0.015
 5592.00    1.34162   1.34412    0.015
 5593.00    1.33641   1.34890    0.015
 5594.00    1.33616   1.34714    0.015
 5595.00    1.37584   1.33987    0.015
 5596.00    1.40211   1.32965    0.016
 5597.00    1.34742   1.32025    0.016
 5598.00    1.30558   1.31627    0.016
 5599.00    1.32506   1.32135    0.016
 5600.00    1.33699   1.33638    0.016
 5601.00    1.31960   1.35857    0.015
 5602.00    1.30950   1.38291    0.015
 5603.00    1.32301   1.40444    0.015
 5604.00    1.34038   1.42010    0.016
 5605.00    1.36828   1.42919    0.015
 5606.00    1.37643   1.43250    0.015
 5607.00    1.33824   1.43056    0.015
 5608.00    1.33640   1.42265    0.015
 5609.00    1.40829   1.40736    0.015
 5610.00    1.43715   1.38509    0.015
 5611.00    1.39003   1.36045    0.015
 5612.00    1.32278   1.34060    0.015
 5613.00    1.22442   1.33044    0.015
 5614.00    1.17877   1.33031    0.015
 5615.00    1.20463   1.33729    0.015
 5616.00    1.23614   1.34699    0.015
 5617.00    1.27441   1.35500    0.014
 5618.00    1.31605   1.35802    0.014
 5619.00    1.36125   1.35490    0.014
 5620.00    1.38349   1.34779    0.014
 5621.00    1.38440   1.34139    0.014
 5622.00    1.36231   1.34005    0.014
 5623.00    1.32138   1.34585    0.014
 5624.00    1.31040   1.35819    0.014
 5625.00    1.32099   1.37406    0.014
 5626.00    1.36312   1.38933    0.014
 5627.00    1.42519   1.40049    0.014
 5628.00    1.43590   1.40551    0.014
 5629.00    1.41818   1.40404    0.014
 5630.00    1.42295   1.39716    0.014
 5631.00    1.43854   1.38682    0.014
 5632.00    1.41831   1.37533    0.014
 5633.00    1.38321   1.36505    0.014
 5634.00    1.38295   1.35752    0.014
 5635.00    1.39508   1.35283    0.014
 5636.00    1.38489   1.35018    0.014
 5637.00    1.36799   1.34917    0.014
 5638.00    1.38206   1.34984    0.014
 5639.00    1.40383   1.35231    0.015
 5640.00    1.40446   1.35668    0.015
 5641.00    1.40082   1.36254    0.015
 5642.00    1.33762   1.36886    0.015
 5643.00    1.26500   1.37442    0.015
 5644.00    1.29327   1.37838    0.015
 5645.00    1.33342   1.38087    0.015
 5646.00    1.35600   1.38266    0.015
 5647.00    1.37717   1.38409    0.015
 5648.00    1.35327   1.38435    0.015
 5649.00    1.32737   1.38198    0.014
 5650.00    1.34353   1.37599    0.014
 5651.00    1.35912   1.36624    0.014
 5652.00    1.32397   1.35279    0.014
 5653.00    1.28971   1.33691    0.014
 5654.00    1.27214   1.32214    0.014
 5655.00    1.25667   1.31202    0.014
 5656.00    1.26445   1.30793    0.014
 5657.00    1.26878   1.30976    0.014
 5658.00    1.24641   1.31658    0.014
 5659.00    1.22874   1.32664    0.014
 5660.00    1.23876   1.33780    0.014
 5661.00    1.24813   1.34795    0.014
 5662.00    1.25445   1.35555    0.014
 5663.00    1.26191   1.36016    0.014
 5664.00    1.27369   1.36276    0.014
 5665.00    1.28648   1.36531    0.014
 5666.00    1.30248   1.36989    0.014
 5667.00    1.31434   1.37764    0.014
 5668.00    1.31506   1.38795    0.014
 5669.00    1.31765   1.39879    0.013
 5670.00    1.32458   1.40811    0.014
 5671.00    1.34482   1.41469    0.014
 5672.00    1.39165   1.41803    0.014
 5673.00    1.42024   1.41811    0.014
 5674.00    1.41708   1.41523    0.014
 5675.00    1.40287   1.40960    0.014
 5676.00    1.37181   1.40123    0.015
 5677.00    1.33676   1.39074    0.015
 5678.00    1.29636   1.37970    0.015
 5679.00    1.25324   1.36989    0.015
 5680.00    1.20694   1.36234    0.015
 5681.00    1.18109   1.35706    0.015
 5682.00    1.17649   1.35368    0.015
 5683.00    1.23247   1.35219    0.015
 5684.00    1.34395   1.35332    0.015
 5685.00    1.38472   1.35801    0.015
 5686.00    1.36841   1.36651    0.015
 5687.00    1.35253   1.37770    0.015
 5688.00    1.33695   1.38920    0.015
 5689.00    1.34276   1.39862    0.015
 5690.00    1.36190   1.40439    0.015
 5691.00    1.36159   1.40589    0.014
 5692.00    1.35069   1.40312    0.014
 5693.00    1.35950   1.39659    0.014
 5694.00    1.37765   1.38714    0.014
 5695.00    1.36113   1.37580    0.014
 5696.00    1.33045   1.36420    0.014
 5697.00    1.29933   1.35428    0.014
 5698.00    1.26805   1.34733    0.014
 5699.00    1.25443   1.34312    0.014
 5700.00    1.24601   1.33995    0.014
 5701.00    1.28983   1.33544    0.014
 5702.00    1.34638   1.32769    0.014
 5703.00    1.39572   1.31658    0.014
 5704.00    1.44364   1.30425    0.014
 5705.00    1.39244   1.29387    0.014
 5706.00    1.32602   1.28860    0.014
 5707.00    1.31862   1.29071    0.014
 5708.00    1.31791   1.30049    0.014
 5709.00    1.35427   1.31642    0.014
 5710.00    1.39344   1.33586    0.014
 5711.00    1.36940   1.35562    0.014
 5712.00    1.34278   1.37316    0.014
 5713.00    1.30941   1.38739    0.014
 5714.00    1.27763   1.39856    0.014
 5715.00    1.31411   1.40773    0.014
 5716.00    1.34802   1.41597    0.014
 5717.00    1.33773   1.42357    0.014
 5718.00    1.33289   1.42999    0.014
 5719.00    1.38577   1.43415    0.014
 5720.00    1.43074   1.43495    0.014
 5721.00    1.41637   1.43213    0.015
 5722.00    1.40586   1.42664    0.015
 5723.00    1.41732   1.42016    0.015
 5724.00    1.42159   1.41424    0.015
 5725.00    1.39314   1.40978    0.015
 5726.00    1.37327   1.40695    0.014
 5727.00    1.38530   1.40571    0.014
 5728.00    1.39655   1.40618    0.014
 5729.00    1.40537   1.40857    0.014
 5730.00    1.41289   1.41253    0.014
 5731.00    1.41701   1.41689    0.014
 5732.00    1.41788   1.42017    0.014
 5733.00    1.41141   1.42145    0.014
 5734.00    1.40603   1.42080    0.014
 5735.00    1.40278   1.41895    0.014
 5736.00    1.39401   1.41675    0.014
 5737.00    1.37577   1.41494    0.014
 5738.00    1.38095   1.41403    0.014
 5739.00    1.42123   1.41425    0.014
 5740.00    1.44737   1.41522    0.000
 5741.00    1.45485   1.41601    0.000
 5742.00    1.46820   1.41559    0.000
 5743.00    1.48837   1.41341    0.000
 5744.00    1.49908   1.40977    0.000
 5745.00    1.50009   1.40540    0.000
 5746.00    1.49299   1.40053    0.000
 5747.00    1.47855   1.39467    0.000
 5748.00    1.48090   1.38760    0.000
 5749.00    1.49661   1.38055    0.000
 5750.00    1.47494   1.37618    0.000
 5751.00    1.42711   1.37700    0.000
 5752.00    1.42805   1.38323    0.000
 5753.00    1.45895   1.39206    0.000
 5754.00    1.44874   1.39902    0.000
 5755.00    1.41647   1.40050    0.000
 5756.00    1.40931   1.39580    0.000
 5757.00    1.41386   1.38753    0.000
 5758.00    1.43309   1.38028    0.000
 5759.00    1.45820   1.37833    0.000
 5760.00    1.42071   1.38363    0.000
 5761.00    1.36178   1.39497    0.000
 5762.00    1.34377   1.40882    0.000
 5763.00    1.33756   1.42116    0.000
 5764.00    1.36371   1.42924    0.000
 5765.00    1.39757   1.43219    0.000
 5766.00    1.44868   1.43072    0.000
 5767.00    1.50310   1.42634    0.000
 5768.00    1.51599   1.42077    0.000
 5769.00    1.52269   1.41555    0.000
 5770.00    1.46291   1.41172    0.000
 5771.00    1.39589   1.40949    0.000
 5772.00    1.43631   1.40791    0.000
 5773.00    1.48444   1.40501    0.000
 5774.00    1.47597   1.39844    0.000
 5775.00    1.46541   1.38663    0.000
 5776.00    1.42019   1.36988    0.000
 5777.00    1.37540   1.35062    0.000
 5778.00    1.35117   1.33259    0.000
 5779.00    1.32846   1.31926    0.000
 5780.00    1.33034   1.31269    0.000
 5781.00    1.33597   1.31341    0.000
 5782.00    1.37970   1.32061    0.000
 5783.00    1.42116   1.33240    0.000
 5784.00    1.44619   1.34615    0.000
 5785.00    1.46657   1.35912    0.000
 5786.00    1.46112   1.36962    0.000
 5787.00    1.44379   1.37764    0.000
 5788.00    1.37372   1.38438    0.000
 5789.00    1.31740   1.39098    0.000
 5790.00    1.31114   1.39749    0.000
 5791.00    1.30714   1.40294   -2.000
 5792.00    1.31004   1.40645   -2.000
 5793.00    1.32140   1.40840   -2.000
 5794.00    1.35477   1.41048   -2.000
 5795.00    1.36484   1.41445   -2.000
 5796.00    1.32292   1.42056   -2.000
 5797.00    1.29382   1.42707   -2.000
 5798.00    1.28952   1.43118   -2.000
 5799.00    1.30921   1.43087   -2.000
 5800.00    1.36937   1.42621   -2.000
 5801.00    1.43416   1.41932   -2.000
 5802.00    1.50577   1.41311   -2.000
 5803.00    1.54065   1.40978   -2.000
 5804.00    1.52779   1.41001   -2.000
 5805.00    1.51716   1.41305   -2.000
 5806.00    1.50907   1.41727   -2.000
 5807.00    1.49857   1.42088   -2.000
 5808.00    1.48564   1.42239   -2.000
 5809.00    1.47491   1.42104   -2.000
 5810.00    1.46615   1.41719   -2.000
 5811.00    1.46981   1.41252    0.000
 5812.00    1.48324   1.40943    0.000
 5813.00    1.48128   1.41007    0.000
 5814.00    1.46872   1.41506    0.000
 5815.00    1.46834   1.42313    0.000
 5816.00    1.47535   1.43179    0.000
 5817.00    1.52151   1.43865    0.000
 5818.00    1.58836   1.44259    0.000
 5819.00    1.61253   1.44391    0.000
 5820.00    1.61713   1.44377    0.000
 5821.00    1.59572   1.44333    0.000
 5822.00    1.56404   1.44329    0.000
 5823.00    1.53579   1.44377    0.000
 5824.00    1.50871   1.44453    0.000
 5825.00    1.49471   1.44516    0.000
 5826.00    1.48441   1.44516    0.000
 5827.00    1.48888   1.44411    0.000
 5828.00    1.49679   1.44185    0.000
 5829.00    1.50298   1.43860    0.000
 5830.00    1.50886   1.43497    0.000
 5831.00    1.50495   1.43174    0.000
 5832.00    1.49963   1.42961    0.000
 5833.00    1.47291   1.42904    0.000
 5834.00    1.44395   1.43021    0.000
 5835.00    1.43334   1.43311    0.000
 5836.00    1.42397   1.43733    0.000
 5837.00    1.43696   1.44198    0.000
 5838.00    1.45068   1.44569    0.000
 5839.00    1.48759   1.44700    0.000
 5840.00    1.52305   1.44504    0.000
 5841.00    1.51250   1.43987    0.000
 5842.00    1.50044   1.43251    0.000
 5843.00    1.46558   1.42447    0.000
 5844.00    1.43391   1.41704    0.000
 5845.00    1.43323   1.41065    0.000
 5846.00    1.43442   1.40474    0.000
 5847.00    1.44864   1.39829    0.000
 5848.00    1.45738   1.39059    0.000
 5849.00    1.43645   1.38167    0.000
 5850.00    1.41119   1.37216    0.000
 5851.00    1.36722   1.36276    0.000
 5852.00    1.34419   1.35421    0.000
 5853.00    1.39588   1.34750    0.000
 5854.00    1.43809   1.34398    0.000
 5855.00    1.45192   1.34479    0.000
 5856.00    1.44561   1.34994    0.000
 5857.00    1.38794   1.35806    0.000
 5858.00    1.34701   1.36697    0.000
 5859.00    1.34285   1.37480    0.000
 5860.00    1.35125   1.38066    0.000
 5861.00    1.38356   1.38471    0.000
 5862.00    1.39927   1.38784    0.000
 5863.00    1.38738   1.39118    0.000
 5864.00    1.37894   1.39557    0.000
 5865.00    1.37553   1.40102    0.000
 5866.00    1.37469   1.40665    0.000
 5867.00    1.37714   1.41124    0.000
 5868.00    1.39443   1.41391    0.000
 5869.00    1.42845   1.41456    0.000
 5870.00    1.45380   1.41358    0.000
 5871.00    1.47050   1.41131    0.000
 5872.00    1.46787   1.40773    0.000
 5873.00    1.44825   1.40263    0.000
 5874.00    1.42114   1.39610    0.000
 5875.00    1.38824   1.38877    0.000
 5876.00    1.36452   1.38166    0.000
 5877.00    1.34703   1.37561    0.000
 5878.00    1.33312   1.37069    0.000
 5879.00    1.32135   1.36584    0.000
 5880.00    1.34171   1.35870    0.000
 5881.00    1.37876   1.34588    0.000
 5882.00    1.37571   1.32369    0.000
 5883.00    1.35459   1.28992    0.000
 5884.00    1.30420   1.24612    0.000
 5885.00    1.24246   1.19886    0.000
 5886.00    1.21408   1.15798    0.000
 5887.00    1.19670   1.13189    0.000
 5888.00    1.18562   1.12291    0.000
 5889.00    1.17629   1.12643    0.000
 5890.00    1.18072   1.13492    0.000
 5891.00    1.18827   1.14362    0.000
 5892.00    1.18612   1.15343    0.000
 5893.00    1.18221   1.16889    0.000
 5894.00    1.19635   1.19354    0.000
 5895.00    1.21302   1.22651    0.000
 5896.00    1.24152   1.26298    0.000
 5897.00    1.27121   1.29707    0.000
 5898.00    1.26395   1.32454    0.000
 5899.00    1.25435   1.34398    0.000
 5900.00    1.29130   1.35627    0.000
 5901.00    1.32943   1.36352    0.014
 5902.00    1.30033   1.36801    0.014
 5903.00    1.27249   1.37153    0.014
 5904.00    1.28012   1.37492    0.014
 5905.00    1.28939   1.37802    0.013
 5906.00    1.32201   1.37995    0.013
 5907.00    1.35344   1.37957    0.013
 5908.00    1.37384   1.37614    0.013
 5909.00    1.39118   1.36992    0.013
 5910.00    1.38778   1.36242    0.013
 5911.00    1.38452   1.35600    0.013
 5912.00    1.38195   1.35289    0.013
 5913.00    1.38015   1.35409    0.013
 5914.00    1.38158   1.35903    0.013
 5915.00    1.37689   1.36590    0.013
 5916.00    1.35077   1.37271    0.013
 5917.00    1.33035   1.37812    0.013
 5918.00    1.32665   1.38182    0.013
 5919.00    1.32668   1.38428    0.013
 5920.00    1.33603   1.38599    0.013
 5921.00    1.35028   1.38697    0.013
 5922.00    1.37508   1.38669    0.013
 5923.00    1.39313   1.38458    0.013
 5924.00    1.39852   1.38070    0.013
 5925.00    1.40150   1.37607    0.013
 5926.00    1.40052   1.37220    0.013
 5927.00    1.38944   1.37018    0.013
 5928.00    1.36384   1.37014    0.014
 5929.00    1.33792   1.37135    0.014
 5930.00    1.31160   1.37312    0.014
 5931.00    1.30591   1.37525    0.014
 5932.00    1.32319   1.37796    0.013
 5933.00    1.34899   1.38118    0.013
 5934.00    1.38316   1.38409    0.014
 5935.00    1.41150   1.38556    0.014
 5936.00    1.43480   1.38498    0.013
 5937.00    1.44142   1.38287    0.013
 5938.00    1.43533   1.38069    0.013
 5939.00    1.39095   1.37986    0.013
 5940.00    1.32091   1.38079    0.013
 5941.00    1.29595   1.38255    0.013
 5942.00    1.29746   1.38350    0.013
 5943.00    1.32603   1.38238    0.013
 5944.00    1.36843   1.37909    0.013
 5945.00    1.35767   1.37468    0.013
 5946.00    1.32334   1.37056    0.013
 5947.00    1.31106   1.36761    0.013
 5948.00    1.30717   1.36597    0.013
 5949.00    1.32976   1.36533    0.013
 5950.00    1.36090   1.36530    0.013
 5951.00    1.36800   1.36565    0.013
 5952.00    1.36859   1.36644    0.013
 5953.00    1.33224   1.36807    0.013
 5954.00    1.28768   1.37117    0.013
 5955.00    1.27355   1.37616    0.013
 5956.00    1.26482   1.38279    0.013
 5957.00    1.30655   1.38994    0.013
 5958.00    1.35510   1.39610    0.014
 5959.00    1.33587   1.40007    0.013
 5960.00    1.31013   1.40158    0.013
 5961.00    1.28345   1.40142    0.013
 5962.00    1.25670   1.40095    0.013
 5963.00    1.29624   1.40149    0.013
 5964.00    1.33751   1.40364    0.013
 5965.00    1.38236   1.40710    0.013
 5966.00    1.42600   1.41082    0.013
 5967.00    1.43868   1.41342    0.013
 5968.00    1.44929   1.41359    0.013
 5969.00    1.43208   1.41051    0.013
 5970.00    1.41280   1.40410    0.013
 5971.00    1.37491   1.39530    0.013
 5972.00    1.33841   1.38597    0.013
 5973.00    1.31106   1.37826    0.013
 5974.00    1.28759   1.37375    0.013
 5975.00    1.28400   1.37254    0.013
 5976.00    1.28155   1.37315    0.013
 5977.00    1.28381   1.37324    0.013
 5978.00    1.29157   1.37096    0.013
 5979.00    1.31811   1.36616    0.013
 5980.00    1.33375   1.36045    0.013
 5981.00    1.31790   1.35636    0.013
 5982.00    1.30002   1.35579    0.013
 5983.00    1.27714   1.35905    0.013
 5984.00    1.27787   1.36493    0.013
 5985.00    1.32879   1.37163    0.013
 5986.00    1.35811   1.37775    0.013
 5987.00    1.34757   1.38278    0.013
 5988.00    1.33377   1.38683    0.013
 5989.00    1.31471   1.38998    0.013
 5990.00    1.31543   1.39178    0.013
 5991.00    1.34414   1.39149    0.014
 5992.00    1.37005   1.38879    0.014
 5993.00    1.39248   1.38428    0.014
 5994.00    1.39986   1.37935    0.013
 5995.00    1.39073   1.37542    0.013
 5996.00    1.37614   1.37308    0.013
 5997.00    1.35625   1.37192    0.013
 5998.00    1.34322   1.37100    0.013
 5999.00    1.33604   1.36945    0.013
 6000.00    1.35832   1.36678    0.013
 6001.00    1.40273   1.36292    0.013
 6002.00    1.41937   1.35828    0.013
 6003.00    1.41766   1.35388    0.013
 6004.00    1.40363   1.35111    0.013
 6005.00    1.38248   1.35094    0.013
 6006.00    1.37422   1.35317    0.013
 6007.00    1.37246   1.35635    0.013
 6008.00    1.36422   1.35866    0.013
 6009.00    1.35315   1.35903    0.013
 6010.00    1.35763   1.35760    0.013
 6011.00    1.36793   1.35524    0.013
 6012.00    1.36887   1.35275    0.013
 6013.00    1.36684   1.35040    0.013
 6014.00    1.34004   1.34814    0.013
 6015.00    1.30667   1.34592    0.013
 6016.00    1.31254   1.34411    0.013
 6017.00    1.32691   1.34340    0.013
 6018.00    1.36068   1.34454    0.013
 6019.00    1.39779   1.34791    0.013
 6020.00    1.41671   1.35337    0.014
 6021.00    1.43326   1.36033    0.014
 6022.00    1.40253   1.36804    0.013
 6023.00    1.36745   1.37586    0.013
 6024.00    1.37439   1.38335    0.013
 6025.00    1.38366   1.39027    0.013
 6026.00    1.39030   1.39648    0.013
 6027.00    1.39689   1.40190    0.013
 6028.00    1.40344   1.40647    0.013
 6029.00    1.41026   1.41015    0.013
 6030.00    1.42320   1.41288    0.013
 6031.00    1.43651   1.41458    0.013
 6032.00    1.45453   1.41520    0.013
 6033.00    1.47000   1.41471    0.013
 6034.00    1.46348   1.41320    0.013
 6035.00    1.45030   1.41100    0.013
 6036.00    1.39449   1.40871    0.013
 6037.00    1.34628   1.40716    0.012
 6038.00    1.33602   1.40707    0.012
 6039.00    1.33292   1.40871    0.012
 6040.00    1.35884   1.41177    0.012
 6041.00    1.38363   1.41546    0.013
 6042.00    1.40465   1.41891    0.013
 6043.00    1.42231   1.42150    0.013
 6044.00    1.43046   1.42289    0.013
 6045.00    1.44100   1.42298    0.013
 6046.00    1.45736   1.42165    0.013
 6047.00    1.47438   1.41872    0.013
 6048.00    1.49278   1.41416    0.013
 6049.00    1.49058   1.40827    0.013
 6050.00    1.45097   1.40183    0.013
 6051.00    1.41569   1.39603    0.013
 6052.00    1.38731   1.39203    0.013
 6053.00    1.36939   1.39056    0.013
 6054.00    1.36606   1.39152    0.013
 6055.00    1.36375   1.39383    0.013
 6056.00    1.36269   1.39576    0.013
 6057.00    1.35716   1.39565    0.013
 6058.00    1.34680   1.39264    0.013
 6059.00    1.34708   1.38730    0.013
 6060.00    1.35750   1.38163    0.013
 6061.00    1.36701   1.37830    0.013
 6062.00    1.37573   1.37951    0.013
 6063.00    1.37462   1.38589    0.013
 6064.00    1.36622   1.39620    0.012
 6065.00    1.36404   1.40797    0.012
 6066.00    1.36592   1.41868    0.012
 6067.00    1.37486   1.42668    0.012
 6068.00    1.38781   1.43136    0.012
 6069.00    1.38247   1.43276    0.012
 6070.00    1.36806   1.43105    0.012
 6071.00    1.36400   1.42635    0.012
 6072.00    1.36437   1.41893    0.013
 6073.00    1.38052   1.40947    0.013
 6074.00    1.40245   1.39912    0.013
 6075.00    1.39157   1.38922    0.013
 6076.00    1.37048   1.38085    0.013
 6077.00    1.35845   1.37456    0.013
 6078.00    1.34877   1.37040    0.013
 6079.00    1.34033   1.36813    0.013
 6080.00    1.33214   1.36741    0.013
 6081.00    1.33904   1.36784    0.013
 6082.00    1.34846   1.36886    0.013
 6083.00    1.38673   1.36976    0.013
 6084.00    1.42863   1.36991    0.013
 6085.00    1.39200   1.36899    0.013
 6086.00    1.34849   1.36737    0.013
 6087.00    1.33204   1.36603    0.013
 6088.00    1.31700   1.36611    0.013
 6089.00    1.36210   1.36833    0.013
 6090.00    1.40766   1.37256    0.013
 6091.00    1.40555   1.37783    0.012
 6092.00    1.40317   1.38275    0.012
 6093.00    1.39488   1.38588    0.012
 6094.00    1.38538   1.38600    0.013
 6095.00    1.36133   1.38223    0.012
 6096.00    1.34025   1.37436    0.012
 6097.00    1.34393   1.36345    0.012
 6098.00    1.34697   1.35205    0.012
 6099.00    1.34609   1.34371    0.012
 6100.00    1.34612   1.34117    0.012
 6101.00    1.35056   1.34510    0.012
 6102.00    1.35980   1.35373    0.013
 6103.00    1.38806   1.36402    0.013
 6104.00    1.41503   1.37337    0.013
 6105.00    1.43775   1.38051    0.013
 6106.00    1.45394   1.38546    0.013
 6107.00    1.45196   1.38886    0.013
 6108.00    1.44237   1.39135    0.013
 6109.00    1.41468   1.39318    0.013
 6110.00    1.39309   1.39414    0.013
 6111.00    1.38408   1.39371    0.013
 6112.00    1.37809   1.39126    0.013
 6113.00    1.37751   1.38633    0.013
 6114.00    1.38106   1.37874    0.013
 6115.00    1.39107   1.36878    0.013
 6116.00    1.39545   1.35754    0.013
 6117.00    1.39212   1.34702    0.013
 6118.00    1.38532   1.33963    0.013
 6119.00    1.37435   1.33708    0.013
 6120.00    1.38491   1.33944    0.012
 6121.00    1.41842   1.34509    0.013
 6122.00    1.41686   1.35169    0.013
 6123.00    1.38229   1.35757    0.012
 6124.00    1.36671   1.36233    0.012
 6125.00    1.36689   1.36643    0.012
 6126.00    1.38896   1.37008    0.012
 6127.00    1.42703   1.37238    0.013
 6128.00    1.42667   1.37130    0.012
 6129.00    1.40166   1.36465    0.012
 6130.00    1.37133   1.35151    0.012
 6131.00    1.33802   1.33340    0.012
 6132.00    1.33946   1.31444    0.013
 6133.00    1.35786   1.29996    0.013
 6134.00    1.35548   1.29413    0.013
 6135.00    1.34432   1.29803    0.013
 6136.00    1.33486   1.30953    0.013
 6137.00    1.32601   1.32476    0.013
 6138.00    1.34292   1.34027    0.013
 6139.00    1.36770   1.35399    0.013
 6140.00    1.38997   1.36499    0.013
 6141.00    1.41160   1.37267    0.013
 6142.00    1.39285   1.37650    0.013
 6143.00    1.36577   1.37641    0.013
 6144.00    1.35376   1.37329    0.013
 6145.00    1.34421   1.36881    0.013
 6146.00    1.35235   1.36477    0.013
 6147.00    1.36265   1.36217    0.012
 6148.00    1.36730   1.36098    0.012
 6149.00    1.37147   1.36030    0.012
 6150.00    1.36806   1.35905    0.012
 6151.00    1.36428   1.35637    0.012
 6152.00    1.36440   1.35161    0.012
 6153.00    1.36425   1.34395    0.012
 6154.00    1.34542   1.33234    0.012
 6155.00    1.32618   1.31609    0.012
 6156.00    1.29917   1.29593    0.012
 6157.00    1.27453   1.27469    0.013
 6158.00    1.27735   1.25673    0.013
 6159.00    1.27947   1.24622    0.013
 6160.00    1.27603   1.24499    0.013
 6161.00    1.27135   1.25148    0.013
 6162.00    1.25922   1.26161    0.013
 6163.00    1.24729   1.27095    0.013
 6164.00    1.23629   1.27698    0.013
 6165.00    1.22657   1.28001    0.013
 6166.00    1.22179   1.28239    0.013
 6167.00    1.22311   1.28661    0.013
 6168.00    1.24414   1.29373    0.013
 6169.00    1.26007   1.30294    0.013
 6170.00    1.26206   1.31243    0.013
 6171.00    1.26762   1.32068    0.013
 6172.00    1.28153   1.32720    0.013
 6173.00    1.29678   1.33240    0.013
 6174.00    1.31474   1.33707    0.012
 6175.00    1.31456   1.34170    0.012
 6176.00    1.28241   1.34633    0.012
 6177.00    1.26013   1.35056    0.012
 6178.00    1.25307   1.35363    0.012
 6179.00    1.24729   1.35468    0.012
 6180.00    1.24327   1.35294    0.012
 6181.00    1.25288   1.34801    0.012
 6182.00    1.27877   1.34003    0.012
 6183.00    1.30880   1.32970    0.012
 6184.00    1.34320   1.31812    0.012
 6185.00    1.36698   1.30674    0.012
 6186.00    1.38091   1.29735    0.013
 6187.00    1.36750   1.29189    0.013
 6188.00    1.33175   1.29194    0.013
 6189.00    1.30674   1.29786    0.013
 6190.00    1.28947   1.30826    0.013
 6191.00    1.30780   1.32030    0.013
 6192.00    1.34862   1.33070    0.013
 6193.00    1.35594   1.33716    0.013
 6194.00    1.34474   1.33923    0.013
 6195.00    1.31200   1.33833    0.013
 6196.00    1.26890   1.33692   -2.000
 6197.00    1.36076   1.33725   -2.000
 6198.00    1.50858   1.34032   -2.000
 6199.00    1.56871   1.34565   -2.000
 6200.00    1.59776   1.35179   -2.000
 6201.00    1.42644   1.35718   -2.000
 6202.00    1.19516   1.36075   -2.000
 6203.00    1.02957   1.36192   -2.000
 6204.00    0.88029   1.36040   -2.000
 6205.00    0.90665   1.35586   -2.000
 6206.00    0.96837   1.34800   -2.000
 6207.00    1.09612   1.33681   -2.000
 6208.00    1.23430   1.32299    0.013
 6209.00    1.28038   1.30810    0.013
 6210.00    1.31566   1.29435    0.013
 6211.00    1.31292   1.28380    0.012
 6212.00    1.30716   1.27761    0.012
 6213.00    1.28501   1.27558    0.012
 6214.00    1.26214   1.27645    0.012
 6215.00    1.25079   1.27885    0.012
 6216.00    1.23934   1.28195    0.013
 6217.00    1.21762   1.28562    0.012
 6218.00    1.19715   1.28997    0.012
 6219.00    1.19962   1.29479    0.012
 6220.00    1.20583   1.29932    0.013
 6221.00    1.25316   1.30235    0.013
 6222.00    1.29610   1.30266    0.013
 6223.00    1.30524   1.29933    0.013
 6224.00    1.31168   1.29235    0.013
 6225.00    1.30232   1.28298    0.013
 6226.00    1.29318   1.27374    0.013
 6227.00    1.28510   1.26783    0.013
 6228.00    1.27432   1.26767    0.013
 6229.00    1.25335   1.27371    0.013
 6230.00    1.23069   1.28400    0.013
 6231.00    1.20275   1.29492    0.012
 6232.00    1.18938   1.30277    0.012
 6233.00    1.21515   1.30524    0.012
 6234.00    1.24009   1.30210    0.012
 6235.00    1.26311   1.29483    0.012
 6236.00    1.27676   1.28566    0.012
 6237.00    1.27174   1.27657    0.012
 6238.00    1.26180   1.26893    0.012
 6239.00    1.24332   1.26353    0.012
 6240.00    1.22881   1.26100    0.012
 6241.00    1.22031   1.26178    0.012
 6242.00    1.21492   1.26590    0.012
 6243.00    1.21369   1.27248    0.012
 6244.00    1.22055   1.27963    0.013
 6245.00    1.23693   1.28485    0.013
 6246.00    1.25174   1.28598    0.013
 6247.00    1.26494   1.28205    0.013
 6248.00    1.26589   1.27372    0.013
 6249.00    1.25564   1.26288    0.013
 6250.00    1.24456   1.25179    0.013
 6251.00    1.23280   1.24230    0.013
 6252.00    1.22614   1.23566    0.013
 6253.00    1.22311   1.23272    0.012
 6254.00    1.21928   1.23418    0.012
 6255.00    1.21496   1.24041    0.012
 6256.00    1.22059   1.25097    0.012
 6257.00    1.23164   1.26438    0.012
 6258.00    1.26795   1.27831    0.013
 6259.00    1.31619   1.29047    0.013
 6260.00    1.39590   1.29935    0.013
 6261.00    1.48845   1.30472    0.014
 6262.00    1.49921   1.30739    0.015
 6263.00    1.48151   1.30857    0.015
 6264.00    1.39262   1.30930    0.015
 6265.00    1.28286   1.31025    0.014
 6266.00    1.26411   1.31176    0.014
 6267.00    1.26747   1.31397    0.013
 6268.00    1.30716   1.31677    0.013
 6269.00    1.35398   1.31979    0.012
 6270.00    1.37351   1.32238    0.012
 6271.00    1.38887   1.32382    0.013
 6272.00    1.37653   1.32355    0.013
 6273.00    1.36107   1.32139    0.013
 6274.00    1.37366   1.31770    0.013
 6275.00    1.38836   1.31343    0.013
 6276.00    1.37754   1.30990    0.013
 6277.00    1.36570   1.30846    0.013
 6278.00    1.32744   1.30996    0.013
 6279.00    1.28998   1.31442    0.013
 6280.00    1.29228   1.32106    0.000
 6281.00    1.29604   1.32864    0.000
 6282.00    1.32450   1.33586    0.000
 6283.00    1.34944   1.34159    0.000
 6284.00    1.33736   1.34500    0.000
 6285.00    1.32150   1.34563    0.000
 6286.00    1.27752   1.34357    0.000
 6287.00    1.23968   1.33937    0.000
 6288.00    1.23682   1.33390    0.000
 6289.00    1.23503   1.32792    0.000
 6290.00    1.23810   1.32180    0.000
 6291.00    1.24006   1.31561    0.000
 6292.00    1.23790   1.30934    0.000
 6293.00    1.23774   1.30320    0.000
 6294.00    1.24383   1.29758    0.000
 6295.00    1.25272   1.29295    0.000
 6296.00    1.26901   1.28975    0.000
 6297.00    1.28418   1.28842    0.000
 6298.00    1.29682   1.28944    0.000
 6299.00    1.30658   1.29317    0.000
 6300.00    1.31070   1.29957    0.000
 6301.00    1.32617   1.30792    0.000
 6302.00    1.36103   1.31688    0.000
 6303.00    1.38004   1.32481    0.000
 6304.00    1.37531   1.33022    0.000
 6305.00    1.35967   1.33217    0.000
 6306.00    1.32967   1.33048    0.000
 6307.00    1.32053   1.32566    0.000
 6308.00    1.33560   1.31861    0.000
 6309.00    1.34506   1.31025    0.000
 6310.00    1.34882   1.30144    0.000
 6311.00    1.34588   1.29294    0.000
 6312.00    1.33691   1.28563    0.000
 6313.00    1.34188   1.28049    0.000
 6314.00    1.35792   1.27847    0.000
 6315.00    1.34858   1.28014    0.000
 6316.00    1.32149   1.28543    0.000
 6317.00    1.28210   1.29359    0.000
 6318.00    1.23515   1.30343    0.000
 6319.00    1.22668   1.31360    0.000
 6320.00    1.23882   1.32295    0.000
 6321.00    1.25067   1.33068    0.012
 6322.00    1.26238   1.33637    0.012
 6323.00    1.26485   1.34003    0.012
 6324.00    1.26360   1.34195    0.013
 6325.00    1.25382   1.34252    0.013
 6326.00    1.24112   1.34199    0.013
 6327.00    1.24326   1.34021    0.012
 6328.00    1.24967   1.33669    0.012
 6329.00    1.25827   1.33097    0.012
 6330.00    1.26740   1.32324    0.012
 6331.00    1.28210   1.31465    0.012
 6332.00    1.29788   1.30713    0.012
 6333.00    1.30189   1.30256    0.012
 6334.00    1.30415   1.30179    0.012
 6335.00    1.29629   1.30419    0.012
 6336.00    1.28734   1.30797    0.012
 6337.00    1.27954   1.31106    0.012
 6338.00    1.27183   1.31223    0.012
 6339.00    1.28576   1.31157    0.012
 6340.00    1.30047   1.31034    0.012
 6341.00    1.30122   1.31016    0.012
 6342.00    1.30186   1.31219    0.012
 6343.00    1.30098   1.31657    0.012
 6344.00    1.30121   1.32249    0.012
 6345.00    1.31926   1.32850    0.012
 6346.00    1.33465   1.33310    0.012
 6347.00    1.32314   1.33508    0.012
 6348.00    1.31233   1.33386    0.012
 6349.00    1.30648   1.32948    0.012
 6350.00    1.30404   1.32252    0.012
 6351.00    1.32050   1.31377    0.012
 6352.00    1.32691   1.30395    0.012
 6353.00    1.28892   1.29363    0.012
 6354.00    1.25856   1.28326    0.012
 6355.00    1.25596   1.27344    0.012
 6356.00    1.25577   1.26508    0.012
 6357.00    1.26289   1.25928    0.012
 6358.00    1.27433   1.25716    0.012
 6359.00    1.29693   1.25939    0.012
 6360.00    1.31030   1.26596    0.012
 6361.00    1.30314   1.27606    0.012
 6362.00    1.28968   1.28821    0.012
 6363.00    1.26406   1.30073    0.012
 6364.00    1.25909   1.31219    0.012
 6365.00    1.28890   1.32187    0.012
 6366.00    1.31970   1.32975    0.012
 6367.00    1.35194   1.33626    0.012
 6368.00    1.36529   1.34180    0.012
 6369.00    1.35411   1.34641    0.012
 6370.00    1.34055   1.34973    0.012
 6371.00    1.32425   1.35123    0.012
 6372.00    1.31054   1.35061    0.012
 6373.00    1.29946   1.34807    0.013
 6374.00    1.29422   1.34428    0.013
 6375.00    1.29418   1.34024    0.012
 6376.00    1.28180   1.33690    0.013
 6377.00    1.25975   1.33488    0.013
 6378.00    1.24591   1.33435    0.013
 6379.00    1.23772   1.33518    0.012
 6380.00    1.24217   1.33701    0.012
 6381.00    1.25426   1.33946    0.012
 6382.00    1.27657   1.34202    0.012
 6383.00    1.30428   1.34402    0.012
 6384.00    1.31397   1.34455    0.012
 6385.00    1.31543   1.34274    0.012
 6386.00    1.31204   1.33816    0.012
 6387.00    1.30674   1.33128    0.012
 6388.00    1.30333   1.32361    0.012
 6389.00    1.30056   1.31712    0.012
 6390.00    1.27420   1.31343    0.012
 6391.00    1.24119   1.31280    0.012
 6392.00    1.23238   1.31400    0.012
 6393.00    1.22919   1.31515    0.012
 6394.00    1.25587   1.31501    0.013
 6395.00    1.28812   1.31388    0.013
 6396.00    1.29835   1.31340    0.013
 6397.00    1.30541   1.31533    0.013
 6398.00    1.27909   1.32017    0.013
 6399.00    1.24929   1.32670    0.013
 6400.00    1.26222   1.33259    0.013
 6401.00    1.27801   1.33568    0.013
 6402.00    1.28173   1.33515    0.013
 6403.00    1.28507   1.33165    0.013
 6404.00    1.23709   1.32676    0.013
 6405.00    1.19020   1.32210    0.012
 6406.00    1.17737   1.31871    0.012
 6407.00    1.16795   1.31701    0.012
 6408.00    1.20943   1.31695    0.012
 6409.00    1.24790   1.31818    0.012
 6410.00    1.25734   1.32010    0.012
 6411.00    1.26223   1.32184    0.012
 6412.00    1.23522   1.32247    0.012
 6413.00    1.20901   1.32133    0.012
 6414.00    1.18710   1.31851    0.012
 6415.00    1.17194   1.31510    0.012
 6416.00    1.18594   1.31289    0.012
 6417.00    1.19584   1.31359    0.012
 6418.00    1.19116   1.31806    0.012
 6419.00    1.18078   1.32575    0.012
 6420.00    1.15338   1.33493    0.012
 6421.00    1.14408   1.34326    0.012
 6422.00    1.18085   1.34861    0.012
 6423.00    1.22397   1.34962    0.012
 6424.00    1.28100   1.34618    0.012
 6425.00    1.32553   1.33950    0.012
 6426.00    1.34632   1.33178    0.013
 6427.00    1.35158   1.32553    0.013
 6428.00    1.33109   1.32253    0.013
 6429.00    1.31444   1.32310    0.013
 6430.00    1.30338   1.32603    0.013
 6431.00    1.29399   1.32922    0.013
 6432.00    1.28675   1.33089    0.012
 6433.00    1.29437   1.33066    0.012
 6434.00    1.31874   1.32969    0.012
 6435.00    1.34491   1.32999    0.012
 6436.00    1.37286   1.33324    0.012
 6437.00    1.38970   1.33976    0.012
 6438.00    1.39679   1.34836    0.012
 6439.00    1.38209   1.35673    0.012
 6440.00    1.35056   1.36228    0.012
 6441.00    1.31813   1.36293    0.012
 6442.00    1.28509   1.35766    0.012
 6443.00    1.26232   1.34688    0.012
 6444.00    1.24564   1.33265    0.012
 6445.00    1.23923   1.31822    0.012
 6446.00    1.23813   1.30695    0.012
 6447.00    1.24342   1.30114    0.013
 6448.00    1.25157   1.30112    0.013
 6449.00    1.27024   1.30543    0.013
 6450.00    1.29298   1.31192    0.013
 6451.00    1.29768   1.31879    0.013
 6452.00    1.29644   1.32511    0.013
 6453.00    1.27942   1.33047    0.012
 6454.00    1.25804   1.33430    0.012
 6455.00    1.25190   1.33576    0.012
 6456.00    1.24921   1.33416    0.012
 6457.00    1.26390   1.32987    0.012
 6458.00    1.28174   1.32464    0.012
 6459.00    1.27676   1.32090    0.012
 6460.00    1.26860   1.32053    0.012
 6461.00    1.26258   1.32390    0.012
 6462.00    1.25676   1.32965    0.012
 6463.00    1.25057   1.33557    0.012
 6464.00    1.24434   1.33970    0.012
 6465.00    1.25847   1.34116    0.012
 6466.00    1.27316   1.34036    0.012
 6467.00    1.28165   1.33848    0.012
 6468.00    1.28990   1.33678    0.012
 6469.00    1.29119   1.33600    0.012
 6470.00    1.29493   1.33634    0.013
 6471.00    1.33326   1.33747    0.013
 6472.00    1.36785   1.33867    0.013
 6473.00    1.36787   1.33906    0.013
 6474.00    1.36136   1.33782    0.013
 6475.00    1.31066   1.33445    0.013
 6476.00    1.26656   1.32917    0.012
 6477.00    1.25715   1.32304    0.012
 6478.00    1.25600   1.31768    0.012
 6479.00    1.28975   1.31467    0.012
 6480.00    1.31400   1.31477    0.012
 6481.00    1.30515   1.31751    0.012
 6482.00    1.29595   1.32132    0.012
 6483.00    1.28568   1.32406    0.012
 6484.00    1.28484   1.32352    0.012
 6485.00    1.30759   1.31791    0.012
 6486.00    1.31940   1.30631    0.012
 6487.00    1.30764   1.28878    0.012
 6488.00    1.28797   1.26658    0.012
 6489.00    1.25352   1.24231    0.012
 6490.00    1.21958   1.21953    0.012
 6491.00    1.18651   1.20208    0.012
 6492.00    1.16501   1.19294    0.012
 6493.00    1.16007   1.19330    0.012
 6494.00    1.15570   1.20247    0.012
 6495.00    1.15204   1.21819    0.012
 6496.00    1.15679   1.23753    0.012
 6497.00    1.17088   1.25772    0.012
 6498.00    1.19688   1.27662    0.012
 6499.00    1.23454   1.29285    0.012
 6500.00    1.25603   1.30572    0.012
 6501.00    1.26355   1.31510    0.012
 6502.00    1.25123   1.32127    0.012
 6503.00    1.22382   1.32487    0.012
 6504.00    1.21535   1.32674    0.012
 6505.00    1.21954   1.32767    0.012
 6506.00    1.24487   1.32807    0.012
 6507.00    1.28258   1.32789    0.012
 6508.00    1.31607   1.32674    0.012
 6509.00    1.34741   1.32411    0.012
 6510.00    1.37006   1.31983    0.012
 6511.00    1.38887   1.31436    0.012
 6512.00    1.37855   1.30880    0.012
 6513.00    1.35717   1.30452    0.012
 6514.00    1.35314   1.30266    0.012
 6515.00    1.35470   1.30380    0.012
 6516.00    1.35250   1.30761    0.012
 6517.00    1.34929   1.31294    0.012
 6518.00    1.33748   1.31822    0.012
 6519.00    1.32378   1.32209    0.012
 6520.00    1.31102   1.32381    0.012
 6521.00    1.29843   1.32340    0.012
 6522.00    1.31277   1.32151    0.012
 6523.00    1.33074   1.31902    0.012
 6524.00    1.33942   1.31663    0.012
 6525.00    1.34721   1.31466    0.012
 6526.00    1.33149   1.31316    0.012
 6527.00    1.31437   1.31209    0.012
 6528.00    1.32280   1.31151    0.000
 6529.00    1.33191   1.31163    0.000
 6530.00    1.34659   1.31273    0.000
 6531.00    1.35976   1.31489    0.000
 6532.00    1.33511   1.31780    0.000
 6533.00    1.31072   1.32082    0.000
 6534.00    1.28982   1.32321    0.000
 6535.00    1.27053   1.32420    0.000
 6536.00    1.26569   1.32315    0.000
 6537.00    1.26234   1.31953    0.000
 6538.00    1.26885   1.31325    0.000
 6539.00    1.27289   1.30488    0.000
 6540.00    1.26432   1.29551    0.000
 6541.00    1.26805   1.28651    0.000
 6542.00    1.32257   1.27910    0.000
 6543.00    1.38258   1.27393    0.000
 6544.00    1.46138   1.27076    0.000
 6545.00    1.51641   1.26855    0.000
 6546.00    1.50294   1.26581    0.000
 6547.00    1.47777   1.26127    0.000
 6548.00    1.42382   1.25434    0.000
 6549.00    1.36800   1.24523    0.000
 6550.00    1.30820   1.23453    0.000
 6551.00    1.26608   1.22265    0.000
 6552.00    1.25651   1.20919    0.000
 6553.00    1.26781   1.19235    0.000
 6554.00    1.31271   1.16945    0.000
 6555.00    1.42052   1.13936    0.000
 6556.00    1.61719   1.10435    0.000
 6557.00    1.86667   1.06955    0.000
 6558.00    2.18178   1.04220    0.000
 6559.00    2.38581   1.02938    0.000
 6560.00    2.46818   1.03489    0.000
 6561.00    2.40516   1.05731    0.000
 6562.00    2.20168   1.09095    0.000
 6563.00    1.97053   1.12809    0.000
 6564.00    1.71581   1.16155    0.000
 6565.00    1.53685   1.18703    0.000
 6566.00    1.41472   1.20364    0.000
 6567.00    1.34513   1.21308    0.000
 6568.00    1.31017   1.21832    0.000
 6569.00    1.27921   1.22239    0.000
 6570.00    1.25056   1.22751    0.000
 6571.00    1.23038   1.23475    0.000
 6572.00    1.21445   1.24381    0.000
 6573.00    1.22214   1.25354    0.000
 6574.00    1.24012   1.26256    0.000
 6575.00    1.28824   1.26984    0.000
 6576.00    1.34763   1.27499    0.000
 6577.00    1.47029   1.27839    0.000
 6578.00    1.61299   1.28076    0.000
 6579.00    1.72757   1.28289    0.000
 6580.00    1.83470   1.28534    0.000
 6581.00    1.83388   1.28818    0.000
 6582.00    1.80972   1.29107    0.000
 6583.00    1.67096   1.29327    0.000
 6584.00    1.51254   1.29358    0.000
 6585.00    1.40188   1.29082    0.000
 6586.00    1.29744   1.28477    0.000
 6587.00    1.27541   1.27640    0.000
 6588.00    1.26091   1.26754    0.000
 6589.00    1.24737   1.26032    0.000
 6590.00    1.23388   1.25650    0.000
 6591.00    1.24254   1.25684    0.000
 6592.00    1.25166   1.26104    0.000
 6593.00    1.25941   1.26802    0.000
 6594.00    1.26720   1.27628    0.000
 6595.00    1.27587   1.28442    0.000
 6596.00    1.28456   1.29134    0.000
 6597.00    1.29353   1.29619    0.000
 6598.00    1.30143   1.29840    0.000
 6599.00    1.30016   1.29775    0.000
 6600.00    1.29789   1.29439    0.000
 6601.00    1.28925   1.28895    0.000
 6602.00    1.27551   1.28270    0.000
 6603.00    1.23641   1.27733    0.000
 6604.00    1.20204   1.27426    0.000
 6605.00    1.18679   1.27413    0.000
 6606.00    1.17881   1.27689    0.000
 6607.00    1.19520   1.28203    0.000
 6608.00    1.21311   1.28862    0.000
 6609.00    1.23531   1.29552    0.012
 6610.00    1.25803   1.30180    0.012
 6611.00    1.28200   1.30704    0.012
 6612.00    1.30548   1.31119    0.012
 6613.00    1.32793   1.31434    0.012
 6614.00    1.34548   1.31648    0.012
 6615.00    1.35412   1.31739    0.012
 6616.00    1.35641   1.31668    0.012
 6617.00    1.34865   1.31407    0.012
 6618.00    1.34363   1.30979    0.012
 6619.00    1.34243   1.30463    0.012
 6620.00    1.34632   1.29944    0.012
 6621.00    1.35645   1.29503    0.012
 6622.00    1.35563   1.29185    0.012
 6623.00    1.34299   1.28970    0.012
 6624.00    1.33776   1.28785    0.012
 6625.00    1.33959   1.28530    0.012
 6626.00    1.33271   1.28132    0.012
 6627.00    1.31851   1.27611    0.012
 6628.00    1.29697   1.27089    0.012
 6629.00    1.27002   1.26704    0.012
 6630.00    1.24065   1.26564    0.012
 6631.00    1.20972   1.26704    0.012
 6632.00    1.20992   1.27068    0.012
 6633.00    1.22781   1.27550    0.012
 6634.00    1.23766   1.28030    0.012
 6635.00    1.24354   1.28378    0.012
 6636.00    1.24736   1.28504    0.012
 6637.00    1.25031   1.28440    0.012
 6638.00    1.24695   1.28287    0.012
 6639.00    1.24128   1.28128    0.012
 6640.00    1.23682   1.28030    0.012
 6641.00    1.23275   1.28045    0.012
 6642.00    1.23771   1.28186    0.012
 6643.00    1.24500   1.28413    0.012
 6644.00    1.25912   1.28664    0.012
 6645.00    1.27467   1.28884    0.012
 6646.00    1.26323   1.29042    0.012
 6647.00    1.24729   1.29129    0.012
 6648.00    1.21564   1.29163    0.012
 6649.00    1.18203   1.29156    0.012
 6650.00    1.14385   1.29124    0.012
 6651.00    1.10528   1.29082    0.012
 6652.00    1.14576   1.29011    0.012
 6653.00    1.19029   1.28873    0.012
 6654.00    1.25182   1.28632    0.012
 6655.00    1.31225   1.28247    0.012
 6656.00    1.27329   1.27698    0.012
 6657.00    1.23483   1.27057    0.012
 6658.00    1.20709   1.26435    0.012
 6659.00    1.18308   1.25919    0.012
 6660.00    1.20395   1.25588    0.012
 6661.00    1.22308   1.25503    0.012
 6662.00    1.22776   1.25685    0.012
 6663.00    1.23217   1.26105    0.012
 6664.00    1.23487   1.26686    0.012
 6665.00    1.23853   1.27331    0.011
 6666.00    1.24679   1.27944    0.012
 6667.00    1.25119   1.28439    0.012
 6668.00    1.24036   1.28735    0.012
 6669.00    1.23116   1.28751    0.012
 6670.00    1.22735   1.28418    0.012
 6671.00    1.22410   1.27756    0.012
 6672.00    1.22241   1.26939    0.012
 6673.00    1.22985   1.26179    0.012
 6674.00    1.25901   1.25639    0.012
 6675.00    1.28071   1.25429    0.012
 6676.00    1.28711   1.25587    0.012
 6677.00    1.28434   1.26051    0.012
 6678.00    1.26520   1.26686    0.013
 6679.00    1.24572   1.27344    0.013
 6680.00    1.22572   1.27906    0.012
 6681.00    1.22177   1.28314    0.012
 6682.00    1.23985   1.28571    0.012
 6683.00    1.27158   1.28713    0.012
 6684.00    1.31980   1.28777    0.012
 6685.00    1.34862   1.28790    0.012
 6686.00    1.35679   1.28756    0.012
 6687.00    1.34575   1.28656    0.012
 6688.00    1.31668   1.28446    0.012
 6689.00    1.28582   1.28095    0.012
 6690.00    1.25349   1.27635    0.012
 6691.00    1.23372   1.27156    0.012
 6692.00    1.22310   1.26763    0.012
 6693.00    1.21202   1.26541    0.012
 6694.00    1.20063   1.26523    0.012
 6695.00    1.19173   1.26661    0.012
 6696.00    1.18421   1.26856    0.000
 6697.00    1.18698   1.27008    0.000
 6698.00    1.19477   1.27071    0.000
 6699.00    1.20663   1.27060    0.000
 6700.00    1.22019   1.27015    0.000
 6701.00    1.23540   1.26971    0.000
 6702.00    1.25119   1.26948    0.000
 6703.00    1.26338   1.26934    0.000
 6704.00    1.27446   1.26893    0.000
 6705.00    1.27865   1.26788    0.000
 6706.00    1.28108   1.26569    0.000
 6707.00    1.28319   1.26200    0.000
 6708.00    1.28523   1.25680    0.000
 6709.00    1.31143   1.25029    0.000
 6710.00    1.34155   1.24294    0.000
 6711.00    1.40224   1.23588    0.000
 6712.00    1.46662   1.23075    0.000
 6713.00    1.52289   1.22873    0.000
 6714.00    1.57849   1.22994    0.000
 6715.00    1.55084   1.23382    0.000
 6716.00    1.51925   1.23962    0.000
 6717.00    1.43108   1.24630    0.000
 6718.00    1.34297   1.25254    0.000
 6719.00    1.30289   1.25729    0.000
 6720.00    1.26412   1.26035    0.000
 6721.00    1.25075   1.26229    0.000
 6722.00    1.24118   1.26372    0.000
 6723.00    1.27519   1.26512    0.000
 6724.00    1.30886   1.26674    0.000
 6725.00    1.33985   1.26847    0.000
 6726.00    1.37206   1.26991    0.000
 6727.00    1.41158   1.27073    0.000
 6728.00    1.44206   1.27085    0.000
 6729.00    1.42965   1.27033    0.000
 6730.00    1.41175   1.26911    0.000
 6731.00    1.37262   1.26700    0.000
 6732.00    1.33819   1.26408    0.000
 6733.00    1.31890   1.26081    0.000
 6734.00    1.29675   1.25777    0.000
 6735.00    1.26677   1.25517    0.000
 6736.00    1.23243   1.25292    0.000
 6737.00    1.18788   1.25114    0.000
 6738.00    1.15636   1.25004    0.000
 6739.00    1.15121   1.24942    0.000
 6740.00    1.16159   1.24883    0.000
 6741.00    1.19931   1.24801    0.000
 6742.00    1.22919   1.24675    0.000
 6743.00    1.24703   1.24504    0.000
 6744.00    1.26613   1.24318    0.000
 6745.00    1.28694   1.24168    0.000
 6746.00    1.29335   1.24076    0.000
 6747.00    1.28263   1.24070    0.000
 6748.00    1.25100   1.24207    0.000
 6749.00    1.19743   1.24496    0.000
 6750.00    1.16631   1.24916    0.000
 6751.00    1.15599   1.25443    0.000
 6752.00    1.18799   1.26037    0.000
 6753.00    1.25455   1.26635    0.013
 6754.00    1.29014   1.27173    0.013
 6755.00    1.30349   1.27589    0.013
 6756.00    1.26513   1.27847    0.014
 6757.00    1.19418   1.27950    0.014
 6758.00    1.15830   1.27891    0.014
 6759.00    1.14175   1.27660    0.014
 6760.00    1.20692   1.27263    0.014
 6761.00    1.31126   1.26747    0.015
 6762.00    1.37067   1.26215    0.015
 6763.00    1.41150   1.25766    0.015
 6764.00    1.40179   1.25431    0.015
 6765.00    1.37422   1.25232    0.015
 6766.00    1.39808   1.25233    0.015
 6767.00    1.43730   1.25461    0.014
 6768.00    1.43984   1.25888    0.014
 6769.00    1.43330   1.26441    0.014
 6770.00    1.38764   1.27040    0.013
 6771.00    1.33413   1.27598    0.013
 6772.00    1.31644   1.28055    0.013
 6773.00    1.30438   1.28372    0.013
 6774.00    1.29670   1.28481    0.013
 6775.00    1.28953   1.28331    0.012
 6776.00    1.24080   1.27907    0.012
 6777.00    1.18879   1.27242    0.012
 6778.00    1.19754   1.26449    0.013
 6779.00    1.20893   1.25690    0.013
 6780.00    1.18773   1.25100    0.013
 6781.00    1.16694   1.24782    0.013
 6782.00    1.18074   1.24763    0.013
 6783.00    1.19522   1.24971    0.013
 6784.00    1.22203   1.25303    0.014
 6785.00    1.24850   1.25661    0.014
 6786.00    1.27133   1.25937    0.013
 6787.00    1.29844   1.26051    0.013
 6788.00    1.35857   1.26017    0.013
 6789.00    1.41452   1.25905    0.013
 6790.00    1.44610   1.25779    0.013
 6791.00    1.46101   1.25703    0.013
 6792.00    1.39886   1.25713    0.013
 6793.00    1.34884   1.25815    0.013
 6794.00    1.34468   1.25998    0.013
 6795.00    1.33663   1.26225    0.013
 6796.00    1.31630   1.26447    0.013
 6797.00    1.31043   1.26603    0.013
 6798.00    1.34329   1.26671    0.013
 6799.00    1.36656   1.26675    0.013
 6800.00    1.36775   1.26622    0.013
 6801.00    1.35845   1.26521    0.013
 6802.00    1.32829   1.26416    0.013
 6803.00    1.30108   1.26315    0.013
 6804.00    1.27900   1.26210    0.014
 6805.00    1.24462   1.26129    0.013
 6806.00    1.19159   1.26084    0.013
 6807.00    1.16321   1.26052    0.013
 6808.00    1.16766   1.26003    0.013
 6809.00    1.17364   1.25956    0.013
 6810.00    1.18141   1.25980    0.013
 6811.00    1.19260   1.26094    0.013
 6812.00    1.20732   1.26252    0.013
 6813.00    1.23769   1.26404    0.013
 6814.00    1.28236   1.26535    0.013
 6815.00    1.29501   1.26680    0.013
 6816.00    1.28190   1.26873    0.013
 6817.00    1.26830   1.27101    0.013
 6818.00    1.25435   1.27323    0.013
 6819.00    1.25365   1.27494    0.013
 6820.00    1.26118   1.27573    0.013
 6821.00    1.24270   1.27519    0.013
 6822.00    1.21010   1.27328    0.013
 6823.00    1.20476   1.27079    0.013
 6824.00    1.21228   1.26882    0.013
 6825.00    1.23383   1.26789    0.013
 6826.00    1.26108   1.26786    0.013
 6827.00    1.27467   1.26850    0.013
 6828.00    1.28352   1.26963    0.013
 6829.00    1.28790   1.27071    0.013
 6830.00    1.29098   1.27077    0.013
 6831.00    1.31171   1.26900    0.013
 6832.00    1.33671   1.26500    0.013
 6833.00    1.33591   1.25878    0.013
 6834.00    1.33006   1.25093    0.013
 6835.00    1.32666   1.24255    0.013
 6836.00    1.32363   1.23518    0.013
 6837.00    1.34707   1.23051    0.013
 6838.00    1.37348   1.22962    0.013
 6839.00    1.31579   1.23252    0.013
 6840.00    1.25182   1.23819    0.013
 6841.00    1.18517   1.24517    0.013
 6842.00    1.11842   1.25218    0.013
 6843.00    1.11748   1.25812    0.013
 6844.00    1.11914   1.26224    0.013
 6845.00    1.20554   1.26434    0.013
 6846.00    1.28506   1.26450    0.013
 6847.00    1.24845   1.26290    0.013
 6848.00    1.21592   1.25945    0.013
 6849.00    1.22599   1.25428    0.013
 6850.00    1.23698   1.24851    0.013
 6851.00    1.25484   1.24340    0.013
 6852.00    1.26518   1.23948    0.013
 6853.00    1.23295   1.23689    0.012
 6854.00    1.21186   1.23552    0.012
 6855.00    1.24106   1.23493    0.012
 6856.00    1.25611   1.23518    0.013
 6857.00    1.21881   1.23689    0.013
 6858.00    1.18755   1.24002    0.013
 6859.00    1.17504   1.24344    0.012
 6860.00    1.17690   1.24586    0.012
 6861.00    1.21659   1.24663    0.013
 6862.00    1.23152   1.24579    0.013
 6863.00    1.19051   1.24418    0.013
 6864.00    1.18221   1.24276    0.013
 6865.00    1.23793   1.24166    0.013
 6866.00    1.26733   1.24063    0.014
 6867.00    1.25179   1.24002    0.014
 6868.00    1.23279   1.24042    0.014
 6869.00    1.20861   1.24171    0.014
 6870.00    1.20472   1.24355    0.013
 6871.00    1.22748   1.24597    0.013
 6872.00    1.23171   1.24878    0.013
 6873.00    1.21450   1.25126    0.013
 6874.00    1.21727   1.25267    0.012
 6875.00    1.24044   1.25261    0.012
 6876.00    1.25554   1.25103    0.012
 6877.00    1.26338   1.24869    0.012
 6878.00    1.26615   1.24700    0.012
 6879.00    1.26489   1.24685    0.012
 6880.00    1.25305   1.24815    0.012
 6881.00    1.23381   1.25085    0.012
 6882.00    1.21668   1.25511    0.012
 6883.00    1.20082   1.26041    0.012
 6884.00    1.21893   1.26581    0.013
 6885.00    1.25518   1.27068    0.013
 6886.00    1.26496   1.27446    0.013
 6887.00    1.26245   1.27667    0.013
 6888.00    1.24929   1.27738    0.013
 6889.00    1.23188   1.27693    0.013
 6890.00    1.23228   1.27566    0.013
 6891.00    1.23875   1.27429    0.013
 6892.00    1.22405   1.27346    0.013
 6893.00    1.20328   1.27318    0.013
 6894.00    1.19526   1.27316    0.013
 6895.00    1.19026   1.27350    0.012
 6896.00    1.18710   1.27450    0.012
 6897.00    1.18429   1.27591    0.012
 6898.00    1.20565   1.27722    0.012
 6899.00    1.23059   1.27832    0.012
 6900.00    1.20831   1.27946    0.013
 6901.00    1.18094   1.28079    0.013
 6902.00    1.14575   1.28214    0.013
 6903.00    1.11000   1.28305    0.013
 6904.00    1.12750   1.28315    0.013
 6905.00    1.14690   1.28203    0.013
 6906.00    1.16963   1.27945    0.013
 6907.00    1.19258   1.27557    0.013
 6908.00    1.22272   1.27080    0.013
 6909.00    1.25041   1.26592    0.013
 6910.00    1.23921   1.26215    0.013
 6911.00    1.22672   1.26011    0.013
 6912.00    1.20132   1.25977    0.013
 6913.00    1.18030   1.26127    0.012
 6914.00    1.19071   1.26415    0.013
 6915.00    1.19814   1.26732    0.013
 6916.00    1.18906   1.26975    0.013
 6917.00    1.18307   1.27056    0.013
 6918.00    1.19070   1.26916    0.013
 6919.00    1.19635   1.26577    0.012
 6920.00    1.19487   1.26182    0.012
 6921.00    1.19018   1.25890    0.012
 6922.00    1.17572   1.25781    0.012
 6923.00    1.16490   1.25828    0.012
 6924.00    1.16346   1.25963    0.013
 6925.00    1.16430   1.26131    0.013
 6926.00    1.17020   1.26273    0.013
 6927.00    1.19018   1.26342    0.013
 6928.00    1.23725   1.26355    0.013
 6929.00    1.25088   1.26405    0.013
 6930.00    1.20827   1.26532    0.013
 6931.00    1.19110   1.26689    0.013
 6932.00    1.21139   1.26860    0.013
 6933.00    1.24660   1.27051    0.013
 6934.00    1.30113   1.27238    0.013
 6935.00    1.31466   1.27364    0.013
 6936.00    1.28142   1.27356    0.013
 6937.00    1.24433   1.27168    0.013
 6938.00    1.20337   1.26816    0.013
 6939.00    1.19650   1.26367    0.013
 6940.00    1.21988   1.25943    0.013
 6941.00    1.23628   1.25699    0.013
 6942.00    1.24720   1.25663    0.013
 6943.00    1.25186   1.25744    0.013
 6944.00    1.25221   1.25862    0.013
 6945.00    1.23764   1.25922    0.013
 6946.00    1.21408   1.25874    0.013
 6947.00    1.22031   1.25782    0.013
 6948.00    1.24222   1.25710    0.013
 6949.00    1.26636   1.25696    0.013
 6950.00    1.29151   1.25798    0.014
 6951.00    1.28030   1.26044    0.014
 6952.00    1.25481   1.26387    0.014
 6953.00    1.25762   1.26754    0.014
 6954.00    1.26990   1.27113    0.013
 6955.00    1.22816   1.27433    0.013
 6956.00    1.17125   1.27700    0.013
 6957.00    1.16382   1.27907    0.013
 6958.00    1.16784   1.28056    0.013
 6959.00    1.20813   1.28159    0.013
 6960.00    1.25515   1.28205    0.013
 6961.00    1.24876   1.28232    0.013
 6962.00    1.23473   1.28322    0.013
 6963.00    1.22788   1.28457    0.013
 6964.00    1.22177   1.28542    0.013
 6965.00    1.21165   1.28519    0.013
 6966.00    1.20126   1.28380    0.013
 6967.00    1.18479   1.28162    0.013
 6968.00    1.16814   1.27841    0.013
 6969.00    1.17930   1.27303    0.013
 6970.00    1.19094   1.26512    0.013
 6971.00    1.21730   1.25555    0.013
 6972.00    1.24173   1.24536    0.013
 6973.00    1.23742   1.23596    0.013
 6974.00    1.22932   1.23012    0.013
 6975.00    1.18471   1.23023    0.013
 6976.00    1.14767   1.23574    0.013
 6977.00    1.16328   1.24469    0.013
 6978.00    1.18129   1.25524    0.013
 6979.00    1.21230   1.26553    0.013
 6980.00    1.23873   1.27394    0.013
 6981.00    1.24549   1.27976    0.013
 6982.00    1.24725   1.28288    0.013
 6983.00    1.23125   1.28354    0.013
 6984.00    1.22354   1.28265    0.013
 6985.00    1.24055   1.28174    0.013
 6986.00    1.25101   1.28175    0.013
 6987.00    1.24483   1.28247    0.013
 6988.00    1.24552   1.28321    0.014
 6989.00    1.26122   1.28341    0.014
 6990.00    1.26390   1.28301    0.014
 6991.00    1.24188   1.28202    0.014
 6992.00    1.22957   1.28013    0.014
 6993.00    1.23336   1.27693    0.013
 6994.00    1.24373   1.27240    0.013
 6995.00    1.26364   1.26756    0.013
 6996.00    1.27298   1.26388    0.013
 6997.00    1.26883   1.26160    0.013
 6998.00    1.26091   1.25977    0.013
 6999.00    1.24875   1.25784    0.013
 7000.00    1.24492   1.25640    0.013
 7001.00    1.24935   1.25610    0.013
 7002.00    1.26156   1.25702    0.013
 7003.00    1.28057   1.25896    0.013
 7004.00    1.28171   1.26130    0.014
 7005.00    1.26905   1.26307    0.014
 7006.00    1.21704   1.26358    0.014
 7007.00    1.13836   1.26285    0.014
 7008.00    1.11731   1.26098    0.014
 7009.00    1.13048   1.25764    0.014
 7010.00    1.13959   1.25269    0.014
 7011.00    1.14659   1.24732    0.014
 7012.00    1.15338   1.24440    0.014
 7013.00    1.16006   1.24571    0.014
 7014.00    1.15639   1.24994    0.014
 7015.00    1.14871   1.25486    0.014
 7016.00    1.15148   1.25885    0.014
 7017.00    1.15769   1.26070    0.014
 7018.00    1.17587   1.25999    0.014
 7019.00    1.19733   1.25791    0.014
 7020.00    1.21901   1.25631    0.014
 7021.00    1.24073   1.25616    0.014
 7022.00    1.21749   1.25740    0.014
 7023.00    1.18611   1.25976    0.014
 7024.00    1.17692   1.26295    0.014
 7025.00    1.17080   1.26648    0.014
 7026.00    1.23116   1.26963    0.014
 7027.00    1.29811   1.27174    0.015
 7028.00    1.22684   1.27262    0.015
 7029.00    1.14690   1.27253    0.015
 7030.00    1.16166   1.27200    0.015
 7031.00    1.17915   1.27163    0.015
 7032.00    1.21002   1.27129    0.014
 7033.00    1.23928   1.27104    0.014
 7034.00    1.22475   1.27271    0.014
 7035.00    1.20944   1.27798    0.014
 7036.00    1.18324   1.28586    0.014
 7037.00    1.16200   1.29417    0.014
 7038.00    1.18639   1.30135    0.014
 7039.00    1.20753   1.30654    0.014
 7040.00    1.20677   1.30984    0.014
 7041.00    1.21079   1.31220    0.014
 7042.00    1.23985   1.31400    0.014
 7043.00    1.25917   1.31465    0.014
 7044.00    1.23745   1.31327    0.014
 7045.00    1.22113   1.30924    0.014
 7046.00    1.22361   1.30224    0.014
 7047.00    1.22461   1.29229    0.015
 7048.00    1.22131   1.28033    0.015
 7049.00    1.22231   1.26838    0.015
 7050.00    1.23405   1.25824   -2.000
 7051.00    1.23852   1.25069   -2.000
 7052.00    1.22733   1.24552   -2.000
 7053.00    1.22141   1.24175   -2.000
 7054.00    1.22534   1.23828   -2.000
 7055.00    1.24886   1.23496   -2.000
 7056.00    1.30432   1.23246   -2.000
 7057.00    1.31301   1.23104   -2.000
 7058.00    1.25480   1.23015   -2.000
 7059.00    1.20397   1.22932   -2.000
 7060.00    1.16243   1.22813   -2.000
 7061.00    1.15742   1.22601   -2.000
 7062.00    1.19291   1.22311   -2.000
 7063.00    1.25197   1.22050   -2.000
 7064.00    1.33410   1.21970   -2.000
 7065.00    1.34092   1.22191   -2.000
 7066.00    1.28278   1.22672   -2.000
 7067.00    1.25861   1.23256   -2.000
 7068.00    1.26024   1.23846   -2.000
 7069.00    1.28541   1.24407   -2.000
 7070.00    1.32630   1.24889   -2.000
 7071.00    1.37996   1.25252   -2.000
 7072.00    1.44109   1.25496   -2.000
 7073.00    1.41614   1.25623   -2.000
 7074.00    1.34732   1.25612   -2.000
 7075.00    1.33455   1.25432   -2.000
 7076.00    1.34654   1.25042   -2.000
 7077.00    1.31949   1.24381   -2.000
 7078.00    1.27762   1.23423   -2.000
 7079.00    1.26730   1.22244   -2.000
 7080.00    1.26714   1.21034   -2.000
 7081.00    1.27453   1.19996   -2.000
 7082.00    1.28395   1.19168   -2.000
 7083.00    1.28854   1.18490   -2.000
 7084.00    1.29207   1.17948   -2.000
 7085.00    1.25661   1.17546   -2.000
 7086.00    1.21430   1.17278   -2.000
 7087.00    1.18798   1.17147   -2.000
 7088.00    1.16379   1.17115   -2.000
 7089.00    1.21957   1.17154   -2.000
 7090.00    1.28295   1.17290   -2.000
 7091.00    1.26628   1.17524   -2.000
 7092.00    1.24491   1.17850   -2.000
 7093.00    1.22296   1.18267   -2.000
 7094.00    1.20108   1.18765   -2.000
 7095.00    1.19048   1.19264   -2.000
 7096.00    1.17870   1.19666   -2.000
 7097.00    1.13780   1.19951   -2.000
 7098.00    1.10522   1.20152   -2.000
 7099.00    1.18322   1.20321   -2.000
 7100.00    1.24530   1.20452   -2.000
 7101.00    1.16626   1.20473   -2.000
 7102.00    1.10038   1.20334   -2.000
 7103.00    1.12044   1.20108   -2.000
 7104.00    1.13390   1.19874   -2.000
 7105.00    1.11373   1.19631   -2.000
 7106.00    1.09725   1.19376   -2.000
 7107.00    1.09595   1.19197   -2.000
 7108.00    1.09709   1.19193   -2.000
 7109.00    1.10652   1.19360   -2.000
 7110.00    1.12726   1.19610   -2.000
 7111.00    1.18050   1.19859   -2.000
 7112.00    1.19055   1.20064   -2.000
 7113.00    1.09465   1.20189   -2.000
 7114.00    1.06140   1.20221   -2.000
 7115.00    1.16076   1.20163   -2.000
 7116.00    1.22691   1.20021   -2.000
 7117.00    1.23200   1.19814   -2.000
 7118.00    1.21391   1.19596   -2.000
 7119.00    1.15859   1.19409   -2.000
 7120.00    1.14222   1.19177   -2.000
 7121.00    1.18077   1.18825   -2.000
 7122.00    1.21223   1.18410   -2.000
 7123.00    1.23491   1.18020   -2.000
 7124.00    1.23914   1.17668   -2.000
 7125.00    1.22321   1.17336   -2.000
 7126.00    1.23148   1.17089   -2.000
 7127.00    1.26309   1.17085   -2.000
 7128.00    1.29399   1.17384   -2.000
 7129.00    1.32431   1.17888   -2.000
 7130.00    1.32250   1.18467   -2.000
 7131.00    1.29663   1.19016   -2.000
 7132.00    1.21924   1.19494   -2.000
 7133.00    1.10793   1.19871   -2.000
 7134.00    1.04407   1.20086   -2.000
 7135.00    1.00754   1.20166   -2.000
 7136.00    1.02160   1.20222   -2.000
 7137.00    1.06105   1.20252   -2.000
 7138.00    1.10083   1.20184   -2.000
 7139.00    1.14075   1.20017   -2.000
 7140.00    1.16634   1.19772   -2.000
 7141.00    1.18660   1.19466   -2.000
 7142.00    1.22181   1.19128   -2.000
 7143.00    1.26175   1.18774   -2.000
 7144.00    1.19802   1.18530   -2.000
 7145.00    1.10694   1.18577   -2.000
 7146.00    1.11916   1.18901   -2.000
 7147.00    1.15364   1.19385   -2.000
 7148.00    1.15681   1.19961   -2.000
 7149.00    1.15463   1.20516   -2.000
 7150.00    1.15443   1.20932   -2.000
 7151.00    1.15449   1.21217   -2.000
 7152.00    1.18051   1.21438   -2.000
 7153.00    1.20888   1.21553   -2.000
 7154.00    1.23818   1.21445   -2.000
 7155.00    1.26752   1.21125   -2.000
 7156.00    1.22649   1.20705   -2.000
 7157.00    1.18530   1.20273   -2.000
 7158.00    1.26372   1.19825   -2.000
 7159.00    1.33905   1.19314   -2.000
 7160.00    1.34454   1.18843   -2.000
 7161.00    1.35056   1.18672   -2.000
 7162.00    1.36328   1.18945   -2.000
 7163.00    1.37826   1.19530   -2.000
 7164.00    1.41267   1.20206   -2.000
 7165.00    1.40819   1.20835   -2.000
 7166.00    1.15722   1.21391   -2.000
 7167.00    0.97928   1.21875   -2.000
 7168.00    1.16392   1.22227   -2.000
 7169.00    1.29912   1.22350   -2.000
 7170.00    1.23529   1.22214   -2.000
 7171.00    1.17613   1.21869   -2.000
 7172.00    1.13263   1.21445   -2.000
 7173.00    1.09776   1.21081   -2.000
 7174.00    1.08724   1.20751   -2.000
 7175.00    1.09211   1.20338   -2.000
 7176.00    1.13408   1.19879   -2.000
 7177.00    1.17514   1.19551   -2.000
 7178.00    1.21429   1.19463   -2.000
 7179.00    1.25578   1.19512   -2.000
 7180.00    1.30149   1.19463   -2.000
 7181.00    1.28791   1.19228   -2.000
 7182.00    1.18048   1.18844   -2.000
 7183.00    1.10436   1.18401   -2.000
 7184.00    1.07173   1.18075   -2.000
 7185.00    1.04032   1.17961   -2.000
 7186.00    1.01041   1.18034   -2.000
 7187.00    1.05385   1.18229   -2.000
 7188.00    1.17635   1.18455   -2.000
 7189.00    1.20251   1.18720   -2.000
 7190.00    1.13708   1.19079   -2.000
 7191.00    1.12979   1.19466   -2.000
 7192.00    1.17125   1.19743   -2.000
 7193.00    1.18722   1.19929   -2.000
 7194.00    1.18439   1.20158   -2.000
 7195.00    1.16480   1.20420   -2.000
 7196.00    1.13435   1.20593   -2.000
 7197.00    1.10093   1.20618   -2.000
 7198.00    1.06584   1.20540   -2.000
 7199.00    1.14790   1.20443   -2.000
 7200.00    1.28783   1.20296   -2.000
 7201.00    1.34088   1.19987   -2.000
 7202.00    1.35682   1.19501   -2.000
 7203.00    1.24687   1.19035   -2.000
 7204.00    1.09086   1.18882   -2.000
 7205.00    0.98532   1.19075   -2.000
 7206.00    0.89541   1.19468   -2.000
 7207.00    0.93410   1.19919   -2.000
 7208.00    1.00599   1.20284   -2.000
 7209.00    1.02916   1.20550   -2.000
 7210.00    1.04207   1.20788   -2.000
 7211.00    1.05397   1.21020   -2.000
 7212.00    1.06570   1.21251   -2.000
 7213.00    1.14435   1.21492   -2.000
 7214.00    1.23135   1.21689   -2.000
 7215.00    1.13092   1.21787   -2.000
 7216.00    1.01426   1.21825   -2.000
 7217.00    0.97878   1.21869   -2.000
 7218.00    0.94742   1.21945   -2.000
