###################################################################
## OUTPUT of StarlightChains_v04.for    [Cid@UFSC - 01/Apr/2007] ##
###################################################################

## Some input info
KUG0210-078._24_40.txt                   [arq_obs]
Base.CB07.vall.4m                        [arq_base]
Masks.EmLines.NEW.gm                     [arq_masks]
StCv04.C11.config                        [arq_config]
   66                                    [N_base]
    0                                    [N_YAV_components = # of components with extra extinction!]
    0                                    [i_FitPowerLaw (1/0 = Yes/No)]
-9.99                                    [alpha_PowerLaw]
CCM                                      [red_law_option]
 1.458241                                [q_norm = A(l_norm)/A(V)]

## (Re)Sampling Parameters
 3741.00                                 [l_ini (A)]
 7218.00                                 [l_fin (A)]
    1.00                                 [dl    (A)]     (OBS: dl_cushion =    50.00 A)

## Normalization info
 4020.00                                 [l_norm (A) - for base]
 4010.00                                 [llow_norm (A) - window for f_obs]
 4060.00                                 [lupp_norm (A) - window for f_obs]
8.209507E-18                             [fobs_norm (in input units)]

## S/N
 3691.00                                 [llow_SN (A) - window for S/N]
 7268.00                                 [lupp_SN (A) - window for S/N]
   2.145                                 [S/N in S/N window]
   3.381                                 [S/N in norm. window]
   0.007                                 [S/N_err in S/N window]
   0.011                                 [S/N_err in norm. window]
  1.0000                                 [fscale_chi2]

## etc...
    -2007290                             [idum_orig]
  2385                                   [NOl_eff]
  2371                                   [Nl_eff]
    14    NSIGMA                         [Ntot_cliped & clip_method]
  1077300                                [Nglobal_steps]
   7                                     [N_chains]
  42                                     [NEX0s_base = N_base in EX0s-fits]
 0   0   1       14   2.0   1.282E+03    [Clip-Bug, RC-Crash & Burn-In warning-flags, n_censored_weights, wei_nsig_threshold & wei_limit]
    25     24.763     24.312      0.451  [idt_all, wdt_TotTime, wdt_UsrTime & wdt_SysTime (sec)]

## Synthesis Results - Best model ##

 4.39090E-05                             [chi2/Nl_eff]
    55.23270                             [adev (%)]

   107.96954                             [sum-of-x (%)]
 4.83639E-18                             [Flux_tot (units of input spectrum!)]
 1.36950E-13                             [Mini_tot (???)]
 6.81206E-14                             [Mcor_tot (???)]

 394.66                                  [v0_min  (km/s)]
   0.01                                  [vd_min  (km/s)]
-0.4511                                  [AV_min  (mag)]
 0.0000                                  [YAV_min (mag)]

# j     x_j(%)      Mini_j(%)     Mcor_j(%)     age_j(yr)     Z_j      (L/M)_j    YAV?  Mstars   component_j        a/Fe...       SSP_chi2r SSP_adev(%)   SSP_AV   SSP_x(%)
  1      8.0023     2.3925E-02    4.8099E-02    1.000000E+06  0.00400  1.094E-02    0   1.0000   age020_m42            0.0000     4.5138E-05    58.8456   1.1738   100.7309
  2      0.0000     0.0000E+00    0.0000E+00    3.160000E+06  0.00400  4.007E-02    0   0.9999   age045_m42            0.0000     4.8543E-05    59.9764   0.3564   108.8631
  3      0.0000     0.0000E+00    0.0000E+00    5.010000E+06  0.00400  2.539E-02    0   0.9488   age055_m42            0.0000     4.7308E-05    59.2881   0.7458   105.1180
  4      0.1112     1.3888E-04    2.5742E-04    6.610000E+06  0.00400  2.620E-02    0   0.9220   age061_m42            0.0000     4.9329E-05    59.7330   0.3142   108.3732
  5      0.0000     0.0000E+00    0.0000E+00    1.000000E+07  0.00400  1.322E-02    0   0.8862   age070_m42            0.0000     4.8428E-05    58.0191   0.1729   108.0686
  6      0.0000     0.0000E+00    0.0000E+00    1.445000E+07  0.00400  7.883E-03    0   0.8571   age078_m42            0.0000     4.7430E-05    57.9442   0.5078   105.3048
  7      0.0000     0.0000E+00    0.0000E+00    2.512000E+07  0.00400  5.251E-03    0   0.8174   age090_m42            0.0000     4.8629E-05    58.3601  -0.0004   108.8029
  8      0.4887     4.3808E-03    6.9145E-03    4.000000E+07  0.00400  3.649E-03    0   0.7851   age104_m42            0.0000     4.9216E-05    58.1690  -0.1960   109.8013
  9      0.0000     0.0000E+00    0.0000E+00    5.500000E+07  0.00400  3.098E-03    0   0.7629   age110_m42            0.0000     5.0848E-05    59.1132  -0.1153   111.0056
 10      2.5034     3.6752E-02    5.3250E-02    1.015200E+08  0.00400  2.228E-03    0   0.7207   age116_m42            0.0000     5.2415E-05    59.5744  -0.1327   111.7812
 11      0.9050     2.7082E-02    3.6195E-02    2.861200E+08  0.00400  1.093E-03    0   0.6648   age125_m42            0.0000     5.3385E-05    59.0793  -0.6738   114.4385
 12      0.0000     0.0000E+00    0.0000E+00    5.088000E+08  0.00400  6.597E-04    0   0.6365   age130_m42            0.0000     5.5463E-05    60.0433  -0.7732   116.9024
 13      0.0000     0.0000E+00    0.0000E+00    1.434000E+09  0.00400  2.132E-04    0   0.5798   age139_m42            0.0000     5.5859E-05    54.7805  -1.0000   110.9489
 14      1.6273     9.0290E-01    9.7603E-01    4.250000E+09  0.00400  5.895E-05    0   0.5377   age158_m42            0.0000     5.5757E-05    55.6166  -1.0000   100.1994
 15      0.0000     0.0000E+00    0.0000E+00    7.500000E+09  0.00400  3.510E-05    0   0.5212   age171_m42            0.0000     5.7900E-05    56.5044  -1.0000    95.7064
 16      2.2307     3.6390E+00    3.6828E+00    1.300000E+10  0.00400  2.005E-05    0   0.5034   age193_m42            0.0000     6.0111E-05    57.5497  -1.0000    91.4996
 17      0.0000     0.0000E+00    0.0000E+00    1.800000E+10  0.00400  1.525E-05    0   0.4967   age213_m42            0.0000     5.9958E-05    57.8111  -1.0000    90.6628
 18      0.0000     0.0000E+00    0.0000E+00    1.000000E+06  0.00800  1.238E-02    0   1.0000   age020_m52            0.0000     4.5040E-05    58.8267   1.1729   100.9282
 19     20.3820     2.1687E-02    4.3451E-02    3.160000E+06  0.00800  3.074E-02    0   0.9966   age045_m52            0.0000     4.5200E-05    58.9221   1.0925   101.7840
 20      0.0000     0.0000E+00    0.0000E+00    5.010000E+06  0.00800  2.668E-02    0   0.9443   age055_m52            0.0000     4.6618E-05    59.1150   0.8446   103.8951
 21      0.0000     0.0000E+00    0.0000E+00    6.610000E+06  0.00800  2.136E-02    0   0.9177   age061_m52            0.0000     4.6468E-05    58.2355  -0.3564   110.2267
 22      0.0003     9.0777E-07    1.6109E-06    1.000000E+07  0.00800  1.215E-02    0   0.8827   age070_m52            0.0000     4.7382E-05    57.3506   0.4000   107.0190
 23      0.0000     0.0000E+00    0.0000E+00    1.445000E+07  0.00800  8.717E-03    0   0.8552   age078_m52            0.0000     4.7689E-05    57.9609   0.4686   106.7909
 24      0.0000     0.0000E+00    0.0000E+00    2.512000E+07  0.00800  5.592E-03    0   0.8162   age090_m52            0.0000     4.8764E-05    57.7182   0.1300   109.4850
 25      0.0321     2.6945E-04    4.2475E-04    4.000000E+07  0.00800  3.896E-03    0   0.7841   age104_m52            0.0000     4.9835E-05    58.3243  -0.0049   111.1117
 26      2.6552     4.0431E-02    5.8735E-02    1.015200E+08  0.00800  2.148E-03    0   0.7226   age116_m52            0.0000     5.1487E-05    59.1420  -0.1339   112.0993
 27      0.6549     2.1581E-02    2.8996E-02    2.861200E+08  0.00800  9.925E-04    0   0.6683   age125_m52            0.0000     5.5527E-05    59.9344  -0.6946   117.7090
 28      0.3444     3.5863E-02    4.4255E-02    9.047900E+08  0.00800  3.141E-04    0   0.6138   age135_m52            0.0000     5.6932E-05    55.9242  -1.0000   118.2422
 29      0.0000     0.0000E+00    0.0000E+00    1.434000E+09  0.00800  1.719E-04    0   0.5853   age139_m52            0.0000     5.7025E-05    54.6594  -1.0000   106.4473
 30      0.0000     0.0000E+00    0.0000E+00    2.500000E+09  0.00800  7.872E-05    0   0.5600   age150_m52            0.0000     5.9574E-05    56.2094  -1.0000    98.4599
 31      0.4835     3.6469E-01    3.9782E-01    4.250000E+09  0.00800  4.336E-05    0   0.5426   age158_m52            0.0000     5.9228E-05    56.4085  -1.0000    97.3854
 32      0.0000     0.0000E+00    0.0000E+00    6.250000E+09  0.00800  3.159E-05    0   0.5319   age166_m52            0.0000     6.2889E-05    57.4275  -1.0000    92.4881
 33      0.0000     0.0000E+00    0.0000E+00    1.300000E+10  0.00800  1.361E-05    0   0.5073   age193_m52            0.0000     7.1141E-05    59.8128  -1.0000    79.5333
 34      0.0000     0.0000E+00    0.0000E+00    1.800000E+10  0.00800  9.886E-06    0   0.4990   age213_m52            0.0000     7.4533E-05    59.6300  -1.0000    75.8231
 35      0.0000     0.0000E+00    0.0000E+00    1.000000E+06  0.02000  1.544E-02    0   1.0000   age020_m62            0.0000     4.4837E-05    58.7881   1.1707   101.1120
 36      0.0000     0.0000E+00    0.0000E+00    3.160000E+06  0.02000  3.762E-02    0   0.9858   age045_m62            0.0000     4.5017E-05    58.8010   1.1162   101.8035
 37      0.0000     0.0000E+00    0.0000E+00    5.010000E+06  0.02000  3.296E-02    0   0.9342   age055_m62            0.0000     4.8225E-05    59.6618   0.6811   106.7534
 38      0.2820     7.9937E-04    1.4240E-03    8.710000E+06  0.02000  1.154E-02    0   0.8861   age067_m62            0.0000     4.4565E-05    53.8752   0.0953   105.4503
 39      0.7120     3.0390E-03    5.1761E-03    1.445000E+07  0.02000  7.663E-03    0   0.8472   age078_m62            0.0000     4.6479E-05    56.5013   0.1092   108.2962
 40      0.4028     2.9074E-03    4.7339E-03    2.512000E+07  0.02000  4.532E-03    0   0.8099   age090_m62            0.0000     4.7166E-05    56.3852   0.1186   107.5423
 41      2.0629     2.4688E-02    3.7696E-02    5.500000E+07  0.02000  2.733E-03    0   0.7595   age110_m62            0.0000     4.9578E-05    58.1922  -0.0041   109.9741
 42      0.0000     0.0000E+00    0.0000E+00    1.609000E+08  0.02000  1.369E-03    0   0.6985   age120_m62            0.0000     5.3961E-05    59.2260  -0.2581   114.4109
 43      0.0000     0.0000E+00    0.0000E+00    2.861200E+08  0.02000  9.013E-04    0   0.6714   age125_m62            0.0000     5.7205E-05    59.8820  -0.5774   118.6988
 44      0.0000     0.0000E+00    0.0000E+00    5.088000E+08  0.02000  5.028E-04    0   0.6449   age130_m62            0.0000     5.8555E-05    60.3718  -1.0000   124.1661
 45      0.0000     0.0000E+00    0.0000E+00    9.047900E+08  0.02000  2.428E-04    0   0.6179   age135_m62            0.0000     5.6383E-05    56.1429  -1.0000   117.3486
 46      0.0000     0.0000E+00    0.0000E+00    1.434000E+09  0.02000  1.263E-04    0   0.5908   age139_m62            0.0000     5.7070E-05    55.2075  -1.0000   108.3466
 47      0.0000     0.0000E+00    0.0000E+00    2.500000E+09  0.02000  5.985E-05    0   0.5673   age150_m62            0.0000     6.0914E-05    56.4555  -1.0000    99.1985
 48      0.0000     0.0000E+00    0.0000E+00    4.250000E+09  0.02000  3.271E-05    0   0.5468   age158_m62            0.0000     6.6762E-05    57.7745  -1.0000    90.4806
 49      0.0000     0.0000E+00    0.0000E+00    1.000000E+10  0.02000  1.360E-05    0   0.5167   age181_m62            0.0000     7.4833E-05    58.3361  -1.0000    80.0584
 50      0.0000     0.0000E+00    0.0000E+00    1.800000E+10  0.02000  7.124E-06    0   0.5013   age213_m62            0.0000     8.0516E-05    57.9019  -1.0000    72.9879
 51     39.3947     4.9712E-02    9.9921E-02    1.000000E+06  0.05000  2.592E-02    0   0.9998   age020_m72            0.0000     4.4234E-05    58.5573   1.1789   100.9158
 52      0.0000     0.0000E+00    0.0000E+00    3.160000E+06  0.05000  4.845E-02    0   0.9577   age045_m72            0.0000     4.6321E-05    59.3250   0.9674   103.5048
 53      0.0000     0.0000E+00    0.0000E+00    5.010000E+06  0.05000  3.072E-02    0   0.9147   age055_m72            0.0000     4.5919E-05    57.3770   0.6340   105.2664
 54      0.0000     0.0000E+00    0.0000E+00    6.610000E+06  0.05000  1.455E-02    0   0.8877   age061_m72            0.0000     4.3867E-05    52.8666   0.2231   104.5280
 55      8.5824     3.0936E-02    5.3014E-02    1.000000E+07  0.05000  9.074E-03    0   0.8524   age070_m72            0.0000     4.6305E-05    57.5395   0.8167   104.8219
 56      1.1698     9.0028E-03    1.4302E-02    2.512000E+07  0.05000  4.250E-03    0   0.7902   age090_m72            0.0000     4.8315E-05    57.7671   0.4996   106.9799
 57      0.0000     0.0000E+00    0.0000E+00    4.000000E+07  0.05000  3.087E-03    0   0.7618   age104_m72            0.0000     4.9236E-05    57.5681   0.2870   108.4342
 58      0.0000     0.0000E+00    0.0000E+00    1.015200E+08  0.05000  1.700E-03    0   0.7096   age116_m72            0.0000     5.3129E-05    58.6317  -0.0670   113.0390
 59      0.0000     0.0000E+00    0.0000E+00    2.861200E+08  0.05000  7.384E-04    0   0.6633   age125_m72            0.0000     5.8466E-05    60.7954  -0.7984   122.0516
 60      0.0000     0.0000E+00    0.0000E+00    5.088000E+08  0.05000  3.819E-04    0   0.6372   age130_m72            0.0000     5.7237E-05    58.3171  -1.0000   122.8438
 61      0.1235     2.4092E-02    2.9594E-02    9.047900E+08  0.05000  1.676E-04    0   0.6110   age135_m72            0.0000     5.7821E-05    55.7680  -1.0000   111.0712
 62      0.0000     0.0000E+00    0.0000E+00    1.434000E+09  0.05000  8.837E-05    0   0.5874   age139_m72            0.0000     6.1514E-05    56.3215  -1.0000   100.6115
 63      1.8915     1.4616E+00    1.6449E+00    2.500000E+09  0.05000  4.233E-05    0   0.5598   age150_m72            0.0000     6.7613E-05    57.6115  -1.0000    91.1137
 64      0.0254     5.7871E-02    6.1069E-02    6.250000E+09  0.05000  1.435E-05    0   0.5249   age166_m72            0.0000     7.6797E-05    58.5444  -1.0000    77.0108
 65      0.0000     0.0000E+00    0.0000E+00    1.300000E+10  0.05000  6.513E-06    0   0.5036   age193_m72            0.0000     8.4103E-05    57.7838  -1.0000    69.0649
 66     12.9017     9.3217E+01    9.2671E+01    1.800000E+10  0.05000  4.527E-06    0   0.4945   age213_m72            0.0000     8.8122E-05    57.0551  -1.0000    64.0852


## Synthesis Results - Average & Chains ##

# j      x_j: min, <> & last-chain-values for 1 ...  7 chains
  1      8.0023      1.0187      8.2082      0.3518      0.4162      0.8498      0.0000      1.3275      0.8633
  2      0.0000      0.7028      0.0000      0.4817      0.0000      1.0961      0.4114      0.1642      1.6118
  3      0.0000      1.2035      0.0000      0.9138      3.5818      0.8874      3.0508      1.4049      0.7213
  4      0.1112      1.0432      1.1485      0.0000      0.5381      0.2608      0.0000      0.8203      3.3792
  5      0.0000      0.7521      0.0467      1.3141      0.0000      1.0633      1.7130      0.5560      0.0000
  6      0.0000      1.0760      1.0167      1.6976      1.4324      1.5632      0.0000      0.0000      3.3389
  7      0.0000      1.2164      0.0000      1.1050      2.3158      3.3996      2.4067      3.9798      0.1660
  8      0.4887      1.0487      4.8110      1.8297      6.1123      1.4066      2.5451      0.7841      1.4966
  9      0.0000      0.9072      0.2806      1.9492      0.0000      1.8782      4.0606      1.3400      0.6352
 10      2.5034      1.0918      2.0876      0.5024      0.5620      1.6414      0.0000      0.0000      0.2129
 11      0.9050      1.2797      1.5530      0.0000      0.0000      0.1676      2.9992      0.0257      1.9123
 12      0.0000      0.9792      0.0000      0.3413      0.0000      0.5935      1.9328      2.5809      0.0000
 13      0.0000      1.1806      0.7279      0.9488      3.8709      2.7612      1.1151      0.5941      2.1828
 14      1.6273      0.8815      0.6126      0.3395      2.6004      0.0000      2.0528      0.8340      0.7768
 15      0.0000      1.0562      0.0000      1.2416      0.4665      0.0000      2.3549      0.0000      0.6704
 16      2.2307      1.2410      2.8582      0.0000      2.1783      0.1223      1.1543      1.0843      0.7709
 17      0.0000      0.9000      0.7696      0.1180      0.0000      0.0000      5.5363      0.0000      0.2329
 18      0.0000      1.2347      4.9430      0.0000      0.5093      1.2542      5.7734      1.7091      2.8804
 19     20.3820      1.4006      1.7950      1.9017      0.4181      3.9999      2.4903      0.1584      0.1121
 20      0.0000      0.8564      1.5071      0.4513      0.0000      4.4691      1.9619      2.3225      0.0291
 21      0.0000      0.9416      0.0000      0.1397      0.6127      1.1264      0.7880      1.5841      0.8854
 22      0.0003      1.1596      1.6939      2.9332      1.6374      1.9038      0.0171      0.0000      0.0000
 23      0.0000      0.8245      2.3789      2.5769      1.0282      0.6006      0.6335      0.4034      1.5189
 24      0.0000      1.7437      3.2349      2.7540      0.0000      5.7005      3.1385      0.9861      0.0000
 25      0.0321      1.2157      1.2322      0.2396      1.7606      2.7072      1.8943      0.2197      0.9594
 26      2.6552      0.6996      0.6622      0.7895      1.7577      0.0000      1.3457      0.0047      0.0296
 27      0.6549      0.8132      1.8716      0.5631      1.1055      0.0000      0.0161      0.9127      0.0690
 28      0.3444      1.1177      2.8369      2.3033      1.0607      0.0000      0.0454      1.1680      0.0000
 29      0.0000      1.5759      0.0000      0.0000      4.5876      0.2848      0.0000      2.9568      0.6570
 30      0.0000      1.0248      0.0000      1.3688      0.0000      0.0358      0.3984      1.0660      2.5212
 31      0.4835      1.2148      2.6452      3.2143      3.1654      0.0000      0.1532      2.4754      0.0000
 32      0.0000      0.8918      0.8086      0.7081      1.0384      0.0000      0.0000      0.3391      1.7091
 33      0.0000      0.8713      0.4759      0.1906      0.0260      0.1562      3.2208      0.0000      2.6419
 34      0.0000      0.8541      0.9783      0.0000      0.3754      2.5499      0.0000      0.0000      3.1956
 35      0.0000      0.8529      0.0000      0.1428      2.8170      2.4607      0.0000      0.0816      4.5584
 36      0.0000      1.0421      0.2822      1.9002      0.7423      1.7755      0.4528      2.5069      6.6624
 37      0.0000      1.1460      0.0000      5.7248      0.0000      0.7750      0.0000      1.8710      3.2150
 38      0.2820      1.2355      2.8584      4.0128      1.9904      2.9779      0.8507      1.5936      0.0000
 39      0.7120      0.8663      1.2562      0.9353      2.7280      2.5766      1.0709      1.5213      2.8871
 40      0.4028      0.7483      1.0130      1.1925      1.2789      0.0000      0.0000      0.4120      0.0000
 41      2.0629      0.7844      0.7034      0.0000      0.9742      0.9841      0.0000      0.4162      1.9839
 42      0.0000      0.8630      0.6372      0.9315      0.4020      2.2853      0.0000      0.3653      0.5102
 43      0.0000      1.1506      0.0000      0.3422      0.0000      0.4165      0.0000      1.5551      0.0000
 44      0.0000      0.8994      0.4011      1.3151      0.0000      0.0000      2.5017      1.2567      0.1613
 45      0.0000      0.9752      1.1845      0.0000      0.5427      0.0000      0.5420      0.7113      1.8650
 46      0.0000      1.0416      0.0211      2.1109      0.0000      0.3611      0.0000      1.1676      2.6084
 47      0.0000      0.9587      0.0000      1.1583      0.0000      0.0000      0.0000      0.0000      0.0000
 48      0.0000      0.8045      0.0446      0.0000      0.3976      0.0000      0.0000      0.5841      0.0000
 49      0.0000      1.2816      4.3716      0.2658      2.3859      0.3008      0.3260      2.2931      0.7968
 50      0.0000      1.1778      2.4207      0.0000      0.4987      4.9314      0.0618      0.0000      0.0754
 51     39.3947      0.7605      0.8915      0.0000      3.5454      1.1595      5.8988      2.4458      0.0000
 52      0.0000      0.7865      0.0000      1.5527     12.1825      0.0535      1.0482      1.4420      5.1842
 53      0.0000      1.1213      0.5839      2.7805      0.0000      4.0024      1.5220      1.7566      2.6814
 54      0.0000     12.5076     14.3773     14.0635      0.9188      0.3915      9.3373     13.2252      3.8336
 55      8.5824      2.5087      1.5944      1.3023      0.3478      1.9387      0.0000      5.1695      2.6736
 56      1.1698      1.1129      1.1709      0.8397      4.4738      2.9788      2.5899      1.7507      1.6418
 57      0.0000      1.2175      0.0858      0.0000      4.2549      3.3685      0.5180      0.0411      1.0702
 58      0.0000      0.8537      0.0000      0.0000      0.0000      0.7525      1.4196      1.4864      0.8318
 59      0.0000      1.0192      0.0118      1.3806      1.5068      0.0000      2.4577      0.6120      2.1216
 60      0.0000      1.0130      0.8391      0.7704      0.0000      0.8745      1.0282      0.1835      2.0146
 61      0.1235      0.9794      1.3859      0.0000      0.0000      2.5483      0.0000      0.6548      1.9170
 62      0.0000      0.6223      0.0000      1.3735      0.6661      0.2004      0.6571      0.0044      0.0000
 63      1.8915      1.1591      1.3622      1.6066      1.2635      0.9081      0.0000      0.3844      0.7349
 64      0.0254      0.8763      1.1817      0.0000      1.2010      1.9648      1.0326      2.0495      2.8530
 65      0.0000      1.4851      0.3637      3.3178      1.6890      7.6427      0.0000      1.4329      0.8736
 66     12.9017     11.4706      2.1217      9.5198      3.5938      2.0734      4.4287     11.0793      2.1937

# j      m_j: min, <> & last-chain-values for 1 ...  7 chains
  1  4.8099E-02  5.1594E-03  8.3251E-02  2.1882E-03  4.1268E-03  5.4344E-03  0.0000E+00  7.5250E-03  9.2704E-03
  2  0.0000E+00  9.7170E-04  0.0000E+00  8.1782E-04  0.0000E+00  1.9136E-03  1.0783E-03  2.5412E-04  4.7252E-03
  3  0.0000E+00  2.4919E-03  0.0000E+00  2.3234E-03  1.4520E-02  2.3201E-03  1.1973E-02  3.2557E-03  3.1666E-03
  4  2.5742E-04  2.0340E-03  4.4845E-03  0.0000E+00  2.0543E-03  6.4211E-04  0.0000E+00  1.7902E-03  1.3971E-02
  5  0.0000E+00  2.7936E-03  3.4734E-04  5.9934E-03  0.0000E+00  4.9867E-03  1.2060E-02  2.3114E-03  0.0000E+00
  6  0.0000E+00  6.4824E-03  1.2266E-02  1.2558E-02  1.6895E-02  1.1891E-02  0.0000E+00  0.0000E+00  4.2650E-02
  7  0.0000E+00  1.0492E-02  0.0000E+00  1.1703E-02  3.9107E-02  3.7024E-02  3.9345E-02  3.8418E-02  3.0353E-03
  8  6.9145E-03  1.2502E-02  1.1485E-01  2.6784E-02  1.4266E-01  2.1173E-02  5.7508E-02  1.0461E-02  3.7829E-02
  9  0.0000E+00  1.2378E-02  7.6658E-03  3.2658E-02  0.0000E+00  3.2360E-02  1.0502E-01  2.0464E-02  1.8377E-02
 10  5.3250E-02  1.9568E-02  7.4929E-02  1.1057E-02  1.9720E-02  3.7146E-02  0.0000E+00  0.0000E+00  8.0913E-03
 11  3.6195E-02  4.3127E-02  1.0481E-01  0.0000E+00  0.0000E+00  7.1325E-03  1.9158E-01  9.7016E-04  1.3665E-01
 12  0.0000E+00  5.2347E-02  0.0000E+00  2.2408E-02  0.0000E+00  4.0062E-02  1.9585E-01  1.5442E-01  0.0000E+00
 13  0.0000E+00  1.7790E-01  2.1964E-01  1.7556E-01  1.1420E+00  5.2536E-01  3.1848E-01  1.0019E-01  6.9741E-01
 14  9.7603E-01  4.4550E-01  6.2002E-01  2.1066E-01  2.5731E+00  0.0000E+00  1.9665E+00  4.7172E-01  8.3240E-01
 15  0.0000E+00  8.6898E-01  0.0000E+00  1.2544E+00  7.5138E-01  0.0000E+00  3.6723E+00  0.0000E+00  1.1694E+00
 16  3.6828E+00  1.7264E+00  7.9624E+00  0.0000E+00  5.9330E+00  2.1475E-01  3.0436E+00  1.6882E+00  2.2738E+00
 17  0.0000E+00  1.6242E+00  2.7812E+00  2.6153E-01  0.0000E+00  0.0000E+00  1.8937E+01  0.0000E+00  8.9109E-01
 18  0.0000E+00  5.5262E-03  4.4303E-02  0.0000E+00  4.4631E-03  7.0877E-03  4.8976E-02  8.5612E-03  2.7334E-02
 19  4.3451E-02  2.5159E-03  6.4572E-03  4.1948E-03  1.4704E-03  9.0726E-03  8.4791E-03  3.1842E-04  4.2692E-04
 20  0.0000E+00  1.6795E-03  5.9188E-03  1.0867E-03  0.0000E+00  1.1067E-02  7.2924E-03  5.0976E-03  1.2081E-04
 21  0.0000E+00  2.2414E-03  0.0000E+00  4.0846E-04  2.8554E-03  3.3858E-03  3.5554E-03  4.2206E-03  4.4690E-03
 22  1.6109E-06  4.6678E-03  1.3655E-02  1.4499E-02  1.2905E-02  9.6765E-03  1.3057E-04  0.0000E+00  0.0000E+00
 23  0.0000E+00  4.4819E-03  2.5896E-02  1.7201E-02  1.0943E-02  4.1226E-03  6.5268E-03  2.4540E-03  1.7506E-02
 24  0.0000E+00  1.4102E-02  5.2390E-02  2.7349E-02  0.0000E+00  5.8212E-02  4.8109E-02  8.9257E-03  0.0000E+00
 25  4.2475E-04  1.3557E-02  2.7516E-02  3.2814E-03  3.8438E-02  3.8119E-02  4.0039E-02  2.7419E-03  2.2684E-02
 26  5.8735E-02  1.3040E-02  2.4719E-02  1.8071E-02  6.4144E-02  0.0000E+00  4.7543E-02  9.7788E-05  1.1680E-03
 27  2.8996E-02  3.0338E-02  1.3983E-01  2.5799E-02  8.0752E-02  0.0000E+00  1.1374E-03  3.8112E-02  5.4575E-03
 28  4.4255E-02  1.2102E-01  6.1512E-01  3.0624E-01  2.2485E-01  0.0000E+00  9.3225E-03  1.4154E-01  0.0000E+00
 29  0.0000E+00  2.9731E-01  0.0000E+00  0.0000E+00  1.6945E+00  6.7835E-02  0.0000E+00  6.2431E-01  2.6282E-01
 30  0.0000E+00  4.0392E-01  0.0000E+00  6.6254E-01  0.0000E+00  1.7805E-02  2.9766E-01  4.7025E-01  2.1071E+00
 31  3.9782E-01  8.4227E-01  3.6728E+00  2.7367E+00  4.2970E+00  0.0000E+00  2.0128E-01  1.9209E+00  0.0000E+00
 32  0.0000E+00  8.3195E-01  1.5107E+00  8.1116E-01  1.8968E+00  0.0000E+00  0.0000E+00  3.5405E-01  3.3808E+00
 33  0.0000E+00  1.7996E+00  1.9682E+00  4.8349E-01  1.0510E-01  4.0744E-01  1.2608E+01  0.0000E+00  1.1569E+01
 34  0.0000E+00  2.3888E+00  5.4794E+00  0.0000E+00  2.0553E+00  9.0049E+00  0.0000E+00  0.0000E+00  1.8950E+01
 35  0.0000E+00  3.0607E-03  0.0000E+00  6.2945E-04  1.9792E-02  1.1150E-02  0.0000E+00  3.2787E-04  3.4684E-02
 36  0.0000E+00  1.5131E-03  8.2040E-04  3.3879E-03  2.1102E-03  3.2551E-03  1.2461E-03  4.0737E-03  2.0510E-02
 37  0.0000E+00  1.7998E-03  0.0000E+00  1.1040E-02  0.0000E+00  1.5367E-03  0.0000E+00  3.2887E-03  1.0705E-02
 38  1.4240E-03  5.2566E-03  2.4353E-02  2.0964E-02  1.6579E-02  1.5998E-02  6.8603E-03  7.5881E-03  0.0000E+00
 39  5.1761E-03  5.3066E-03  1.5410E-02  7.0355E-03  3.2718E-02  1.9930E-02  1.2433E-02  1.0430E-02  3.7499E-02
 40  4.7339E-03  7.4093E-03  2.0086E-02  1.4499E-02  2.4793E-02  0.0000E+00  0.0000E+00  4.5658E-03  0.0000E+00
 41  3.7696E-02  1.2079E-02  2.1688E-02  0.0000E+00  2.9368E-02  1.9134E-02  0.0000E+00  7.1727E-03  6.4772E-02
 42  0.0000E+00  2.4399E-02  3.6073E-02  3.2337E-02  2.2253E-02  8.1577E-02  0.0000E+00  1.1558E-02  3.0585E-02
 43  0.0000E+00  4.7491E-02  0.0000E+00  1.7341E-02  0.0000E+00  2.1709E-02  0.0000E+00  7.1838E-02  0.0000E+00
 44  0.0000E+00  6.3914E-02  5.7087E-02  1.1477E-01  0.0000E+00  0.0000E+00  3.3699E-01  9.9955E-02  2.4312E-02
 45  0.0000E+00  1.3750E-01  3.3448E-01  0.0000E+00  1.4983E-01  0.0000E+00  1.4485E-01  1.1225E-01  5.5759E-01
 46  0.0000E+00  2.6996E-01  1.0934E-02  6.7182E-01  0.0000E+00  1.1818E-01  0.0000E+00  3.3869E-01  1.4335E+00
 47  0.0000E+00  5.0350E-01  0.0000E+00  7.4698E-01  0.0000E+00  0.0000E+00  0.0000E+00  0.0000E+00  0.0000E+00
 48  0.0000E+00  7.4513E-01  8.2695E-02  0.0000E+00  7.2099E-01  0.0000E+00  0.0000E+00  6.0549E-01  0.0000E+00
 49  0.0000E+00  2.6978E+00  1.8429E+01  6.8716E-01  9.8335E+00  7.9961E-01  1.3007E+00  5.4027E+00  3.5565E+00
 50  0.0000E+00  4.5921E+00  1.8900E+01  0.0000E+00  3.8071E+00  2.4278E+01  4.5674E-01  0.0000E+00  6.2341E-01
 51  9.9921E-02  1.6253E-03  3.8154E-03  0.0000E+00  1.4835E-02  3.1292E-03  2.3895E-02  5.8503E-03  0.0000E+00
 52  0.0000E+00  8.6141E-04  0.0000E+00  2.0882E-03  2.6123E-02  7.4023E-05  2.1759E-03  1.7676E-03  1.2039E-02
 53  0.0000E+00  1.8500E-03  1.9290E-03  5.6330E-03  0.0000E+00  8.3378E-03  4.7592E-03  3.2435E-03  9.3798E-03
 54  0.0000E+00  4.2281E-02  9.7328E-02  5.8378E-02  6.0812E-03  1.6711E-03  5.9827E-02  5.0037E-02  2.7478E-02
 55  5.3014E-02  1.3058E-02  1.6619E-02  8.3233E-03  3.5443E-03  1.2741E-02  0.0000E+00  3.0115E-02  2.9506E-02
 56  1.4302E-02  1.1465E-02  2.4157E-02  1.0623E-02  9.0237E-02  3.8749E-02  5.0572E-02  2.0186E-02  3.5863E-02
 57  0.0000E+00  1.6648E-02  2.3504E-03  0.0000E+00  1.1391E-01  5.8158E-02  1.3424E-02  6.2856E-04  3.1028E-02
 58  0.0000E+00  1.9745E-02  0.0000E+00  0.0000E+00  0.0000E+00  2.1977E-02  6.2229E-02  3.8476E-02  4.0790E-02
 59  0.0000E+00  5.0726E-02  1.1810E-03  8.4381E-02  1.4683E-01  0.0000E+00  2.3186E-01  3.4090E-02  2.2390E-01
 60  0.0000E+00  9.3653E-02  1.5534E-01  8.7453E-02  0.0000E+00  1.0209E-01  1.8017E-01  1.8984E-02  3.9490E-01
 61  2.9594E-02  1.9783E-01  5.6060E-01  0.0000E+00  0.0000E+00  6.4996E-01  0.0000E+00  1.4803E-01  8.2104E-01
 62  0.0000E+00  2.2920E-01  0.0000E+00  6.2118E-01  4.8032E-01  9.3211E-02  4.5867E-01  1.8210E-03  0.0000E+00
 63  1.6449E+00  8.4935E-01  1.9989E+00  1.4456E+00  1.8126E+00  8.4022E-01  0.0000E+00  3.1524E-01  1.1417E+00
 64  6.1069E-02  1.7760E+00  4.7961E+00  0.0000E+00  4.7658E+00  5.0283E+00  3.9667E+00  4.6490E+00  1.2260E+01
 65  0.0000E+00  6.3625E+00  3.1203E+00  1.7454E+01  1.4167E+01  4.1345E+01  0.0000E+00  6.8708E+00  7.9361E+00
 66  9.2671E+01  6.9425E+01  2.5716E+01  7.0751E+01  4.2585E+01  1.5846E+01  5.0805E+01  7.5050E+01  2.8151E+01

# AV, chi2 & Mass for <> & i_chain = 1 ...  7 solutions
AV      -0.4511     -0.9701     -0.8719     -0.8992     -0.8805     -0.8224     -0.6102     -0.8776     -0.8831
chi2 4.3909E-05  5.1917E-05  4.9769E-05  5.0793E-05  5.0205E-05  5.0306E-05  5.0312E-05  5.0705E-05  5.0423E-05
Mass 6.8121E-14  4.0262E-14  2.2939E-14  3.6063E-14  2.3195E-14  3.8882E-14  3.4445E-14  4.0730E-14  2.1341E-14
 394.66                                  [v0_min (km/s) before EX0s...]
   0.01                                  [vd_min (km/s) before EX0s...]


## Synthetic spectrum (Best Model) ##l_obs f_obs f_syn wei
 3478    [Nl_obs]
 3741.00    2.33938   0.94115    0.000
 3742.00    2.41701   0.99376    0.000
 3743.00    0.50570   1.04720    0.000
 3744.00    0.57900   1.09331    0.000
 3745.00    1.80863   1.12368    0.042
 3746.00    2.69984   1.13599    0.041
 3747.00    3.41921   1.12932    0.040
 3748.00    2.48392   1.11135    0.038
 3749.00    0.82103   1.09016    0.037
 3750.00    1.10502   1.06342    0.037
 3751.00    2.12401   1.03254    0.037
 3752.00    1.88517   0.99748    0.036
 3753.00    1.24322   0.94145    0.034
 3754.00   -0.10443   0.87669    0.000
 3755.00   -1.64119   0.85451    0.000
 3756.00   -1.37063   0.89984    0.000
 3757.00   -0.70338   0.97217    0.000
 3758.00   -0.26371   1.02520    0.000
 3759.00    0.13622   1.05250    0.034
 3760.00   -0.81661   1.07832    0.000
 3761.00   -1.94914   1.09673    0.000
 3762.00   -0.69477   1.08421    0.000
 3763.00    0.78390   1.07189    0.035
 3764.00    0.60429   1.06442    0.034
 3765.00    0.32901   1.07021    0.033
 3766.00   -0.24227   1.10220    0.000
 3767.00   -0.82027   1.11696    0.000
 3768.00   -1.36220   1.10988    0.000
 3769.00   -1.78853   1.10387    0.000
 3770.00    0.59316   1.09390    0.035
 3771.00    2.69790   1.06395    0.035
 3772.00    1.17338   1.02251    0.033
 3773.00   -0.26185   0.98299    0.000
 3774.00   -0.91326   0.92957    0.000
 3775.00   -1.39483   0.86955    0.000
 3776.00   -0.77517   0.86282    0.000
 3777.00   -0.10313   0.92364    0.000
 3778.00    0.83401   0.98729    0.031
 3779.00    1.41244   1.02922    0.031
 3780.00    0.52266   1.07048    0.031
 3781.00    0.05348   1.10649    0.031
 3782.00    1.01089   1.12819    0.031
 3783.00    1.97884   1.14258    0.032
 3784.00    2.97691   1.15886    0.032
 3785.00    3.16852   1.17584    0.033
 3786.00    1.38975   1.18335    0.032
 3787.00    0.15805   1.18424    0.032
 3788.00    0.07940   1.18656    0.031
 3789.00    0.19819   1.18698    0.030
 3790.00    0.67862   1.17446    0.030
 3791.00    0.74816   1.15214    0.030
 3792.00    0.15999   1.13626    0.031
 3793.00    0.11056   1.12728    0.031
 3794.00    0.81789   1.11671    0.031
 3795.00    1.26406   1.09845    0.030
 3796.00    1.38744   1.07813    0.030
 3797.00    1.56302   1.06680    0.031
 3798.00    1.79547   1.04845    0.032
 3799.00    1.46899   1.00777    0.032
 3800.00    0.60537   0.95424    0.031
 3801.00   -0.45031   0.88724    0.000
 3802.00   -1.66874   0.80849    0.000
 3803.00   -1.28835   0.76894    0.000
 3804.00    0.28509   0.81514    0.032
 3805.00    1.88446   0.90668    0.032
 3806.00    3.50084   0.98486    0.033
 3807.00    3.49037   1.03734    0.033
 3808.00    2.54634   1.07648    0.032
 3809.00    1.95430   1.10261    0.031
 3810.00    1.53820   1.10974    0.031
 3811.00    0.82759   1.10357    0.030
 3812.00   -0.01038   1.10601    0.000
 3813.00    0.54067   1.12601    0.029
 3814.00    1.60684   1.14601    0.029
 3815.00    0.94891   1.15559    0.029
 3816.00   -0.25100   1.15607    0.000
 3817.00   -0.49606   1.14795    0.000
 3818.00   -0.49065   1.13260    0.000
 3819.00    0.37292   1.12007    0.029
 3820.00    1.42035   1.11232    0.029
 3821.00    1.54632   1.10764    0.028
 3822.00    1.51590   1.10567    0.028
 3823.00    1.87698   1.07920    0.029
 3824.00    2.28829   1.01749    0.031
 3825.00    1.45661   0.99154    0.029
 3826.00    0.51335   1.03479    0.028
 3827.00   -0.06305   1.08411    0.000
 3828.00   -0.61974   1.10062    0.000
 3829.00   -0.24254   1.08997    0.000
 3830.00    0.14462   1.07401    0.028
 3831.00   -0.20700   1.06484    0.000
 3832.00   -0.48918   1.05790    0.000
 3833.00    0.77162   1.04721    0.029
 3834.00    1.88320   1.03209    0.030
 3835.00    1.13915   1.01243    0.029
 3836.00    0.44324   0.97976    0.029
 3837.00    0.15416   0.92746    0.029
 3838.00   -0.16527   0.86026    0.000
 3839.00   -0.67557   0.78122    0.000
 3840.00   -0.96870   0.72186    0.000
 3841.00   -0.19028   0.73518    0.000
 3842.00    0.53726   0.80386    0.027
 3843.00    1.06115   0.87164    0.028
 3844.00    1.49178   0.92578    0.028
 3845.00    1.61237   0.96809    0.029
 3846.00    1.49885   1.00298    0.029
 3847.00    0.72792   1.03740    0.000
 3848.00    0.18451   1.06422    0.000
 3849.00    0.18755   1.08029    0.000
 3850.00    0.50780   1.08839    0.000
 3851.00    1.48588   1.09413    0.000
 3852.00    1.99698   1.10148    0.000
 3853.00    1.66578   1.10521    0.000
 3854.00    1.40043   1.09974    0.000
 3855.00    1.23894   1.09239    0.000
 3856.00    1.09959   1.09773    0.000
 3857.00    0.99091   1.10984    0.000
 3858.00    0.79539   1.11072    0.000
 3859.00    0.49405   1.10344    0.000
 3860.00    0.48291   1.09292    0.000
 3861.00    0.78349   1.08149    0.000
 3862.00    0.81234   1.08051    0.000
 3863.00    0.58373   1.08123    0.000
 3864.00    0.53682   1.07462    0.000
 3865.00    0.64170   1.07115    0.000
 3866.00    0.89727   1.08035    0.000
 3867.00    1.26367   1.09388    0.000
 3868.00    1.09256   1.10091    0.000
 3869.00    0.57424   1.09919    0.000
 3870.00    0.56596   1.09444    0.000
 3871.00    0.84591   1.08898    0.000
 3872.00    0.65706   1.07844    0.000
 3873.00    0.23760   1.07675    0.000
 3874.00    0.11717   1.08597    0.000
 3875.00    0.12391   1.08267    0.000
 3876.00    0.39330   1.06264    0.000
 3877.00    0.75836   1.04638    0.000
 3878.00    1.04530   1.05354    0.000
 3879.00    1.30815   1.07292    0.000
 3880.00    0.86775   1.07904    0.000
 3881.00    0.24681   1.06905    0.024
 3882.00    0.61314   1.05524    0.024
 3883.00    1.18588   1.04238    0.025
 3884.00    0.57020   1.03818    0.025
 3885.00   -0.24145   1.03970    0.000
 3886.00    0.68031   1.02753    0.025
 3887.00    1.81674   1.00464    0.025
 3888.00    1.27386   0.98981    0.025
 3889.00    0.58726   0.97804    0.024
 3890.00    0.58323   0.94032    0.024
 3891.00    0.61322   0.87634    0.024
 3892.00    1.18804   0.80676    0.024
 3893.00    1.75752   0.73135    0.024
 3894.00    1.40591   0.68777    0.024
 3895.00    1.08432   0.73021    0.024
 3896.00    1.37652   0.82498    0.023
 3897.00    1.64215   0.90704    0.023
 3898.00    1.59362   0.95952    0.022
 3899.00    1.47249   0.98973    0.022
 3900.00    0.75991   1.00646    0.021
 3901.00    0.15268   1.02434    0.021
 3902.00    0.18895   1.04477    0.020
 3903.00    0.23348   1.05187    0.019
 3904.00    0.31776   1.04904    0.019
 3905.00    0.38265   1.05459    0.019
 3906.00    0.37155   1.07099    0.019
 3907.00    0.38162   1.07902    0.019
 3908.00    0.46069   1.07590    0.020
 3909.00    0.52627   1.07620    0.021
 3910.00    0.55462   1.07288    0.021
 3911.00    0.51794   1.06830    0.021
 3912.00    0.32767   1.07759    0.022
 3913.00    0.13638   1.09529    0.022
 3914.00   -0.05702   1.10742    0.000
 3915.00   -0.25593   1.11005    0.000
 3916.00   -0.46463   1.10764    0.000
 3917.00   -0.42263   1.10654    0.000
 3918.00    0.00891   1.10716    0.023
 3919.00    0.02729   1.10759    0.023
 3920.00   -0.51806   1.10706    0.000
 3921.00   -0.81986   1.10145    0.000
 3922.00   -0.82910   1.09302    0.000
 3923.00   -0.27231   1.07948    0.000
 3924.00    0.88395   1.05676    0.024
 3925.00    1.43952   1.03503    0.024
 3926.00    1.43394   1.02663    0.024
 3927.00    1.55982   1.02886    0.024
 3928.00    1.79395   1.02794    0.024
 3929.00    1.28928   1.02858    0.023
 3930.00    0.24903   1.03019    0.023
 3931.00    0.23904   1.02196    0.023
 3932.00    0.88474   1.01372    0.023
 3933.00    0.77466   1.01161    0.023
 3934.00    0.24398   1.00858    0.022
 3935.00    0.41335   1.00303    0.022
 3936.00    0.92161   0.99327    0.023
 3937.00    1.19157   0.97867    0.023
 3938.00    1.36190   0.95985    0.023
 3939.00    0.79334   0.94751    0.022
 3940.00   -0.03954   0.95444    0.000
 3941.00    0.04083   0.97571    0.021
 3942.00    0.39723   0.99815    0.021
 3943.00    0.76875   1.01504    0.021
 3944.00    1.14405   1.02850    0.022
 3945.00    0.69790   1.03905    0.022
 3946.00    0.08422   1.04216    0.022
 3947.00    0.23664   1.04000    0.022
 3948.00    0.51172   1.03343    0.022
 3949.00    0.94609   1.02454    0.022
 3950.00    1.39948   1.02907    0.022
 3951.00    0.89621   1.04781    0.022
 3952.00    0.31504   1.05573    0.022
 3953.00    0.07211   1.05023    0.022
 3954.00   -0.15528   1.05276    0.000
 3955.00    0.47913   1.06546    0.022
 3956.00    1.11854   1.07230    0.022
 3957.00    1.44634   1.06402    0.022
 3958.00    1.71137   1.05466    0.023
 3959.00    0.78741   1.05570    0.022
 3960.00   -0.00811   1.05548    0.000
 3961.00    0.64386   1.04454    0.000
 3962.00    1.10617   1.03441    0.000
 3963.00    0.07767   1.03314    0.000
 3964.00   -0.71090   1.03146    0.000
 3965.00   -0.07575   1.01154    0.000
 3966.00    0.42445   0.96899    0.000
 3967.00    0.29096   0.93434    0.000
 3968.00    0.29770   0.92101    0.000
 3969.00    0.84177   0.90057    0.000
 3970.00    1.17398   0.86795    0.000
 3971.00    0.82899   0.83325    0.000
 3972.00    0.66937   0.78520    0.000
 3973.00    1.01182   0.71664    0.000
 3974.00    1.18987   0.63873    0.000
 3975.00    0.98621   0.59372    0.000
 3976.00    1.00640   0.62454    0.000
 3977.00    1.47621   0.70712    0.000
 3978.00    1.70804   0.78717    0.000
 3979.00    1.52359   0.84978    0.000
 3980.00    1.30099   0.90012    0.000
 3981.00    1.01998   0.93634    0.022
 3982.00    0.80586   0.96246    0.022
 3983.00    0.68171   0.98621    0.022
 3984.00    0.70776   1.00822    0.022
 3985.00    0.91168   1.02546    0.022
 3986.00    0.95070   1.03253    0.021
 3987.00    0.81752   1.02938    0.021
 3988.00    0.65163   1.02733    0.021
 3989.00    0.45560   1.03398    0.020
 3990.00    0.37794   1.04542    0.020
 3991.00    0.39639   1.05361    0.020
 3992.00    0.49068   1.05997    0.020
 3993.00    0.63916   1.06924    0.020
 3994.00    0.68251   1.07071    0.020
 3995.00    0.65994   1.06396    0.020
 3996.00    0.81925   1.06408    0.020
 3997.00    1.07823   1.07169    0.020
 3998.00    1.16405   1.07692    0.020
 3999.00    1.16739   1.07151    0.020
 4000.00    1.05578   1.06168    0.020
 4001.00    0.89692   1.05611    0.020
 4002.00    0.96762   1.05116    0.020
 4003.00    1.11894   1.04795    0.020
 4004.00    0.99935   1.05888    0.020
 4005.00    0.79949   1.07677    0.020
 4006.00    0.91994   1.08376    0.020
 4007.00    1.11908   1.08306    0.020
 4008.00    1.16213   1.08014    0.020
 4009.00    1.17413   1.06589    0.020
 4010.00    1.24252   1.04077    0.020
 4011.00    1.31966   1.02790    0.021
 4012.00    1.19653   1.03621    0.021
 4013.00    1.05038   1.04376    0.021
 4014.00    0.62958   1.03998    0.021
 4015.00    0.18756   1.04120    0.021
 4016.00    0.36049   1.05338    0.021
 4017.00    0.55932   1.06457    0.021
 4018.00    0.88058   1.07108    0.021
 4019.00    1.19939   1.07498    0.021
 4020.00    1.36183   1.07958    0.021
 4021.00    1.47622   1.08147    0.021
 4022.00    0.74322   1.07469    0.021
 4023.00    0.11192   1.07005    0.021
 4024.00    0.57479   1.07628    0.021
 4025.00    0.93824   1.07953    0.021
 4026.00    0.54698   1.07116    0.021
 4027.00    0.26660   1.05889    0.021
 4028.00    0.62578   1.04288    0.021
 4029.00    1.00000   1.00926    0.021
 4030.00    1.44313   0.95653    0.020
 4031.00    1.63197   0.91970    0.020
 4032.00    0.86693   0.94218    0.019
 4033.00    0.29347   1.00235    0.019
 4034.00    0.32062   1.03960    0.019
 4035.00    0.42903   1.03488    0.019
 4036.00    0.75366   1.01540    0.019
 4037.00    1.02998   1.00529    0.019
 4038.00    1.19596   1.00165    0.019
 4039.00    1.30175   1.00306    0.019
 4040.00    1.28855   1.01479    0.019
 4041.00    1.28938   1.03873    0.019
 4042.00    1.31439   1.06568    0.019
 4043.00    1.34134   1.08002    0.019
 4044.00    1.37122   1.07788    0.019
 4045.00    1.29028   1.06570    0.019
 4046.00    1.06241   1.05491    0.019
 4047.00    1.18239   1.05499    0.019
 4048.00    1.70848   1.05229    0.019
 4049.00    1.93885   1.02805    0.019
 4050.00    1.86478   0.99184    0.019
 4051.00    1.56103   0.97471    0.019
 4052.00    1.04872   0.99253    0.019
 4053.00    0.64414   1.02441    0.019
 4054.00    0.32579   1.04580    0.019
 4055.00    0.11984   1.05735    0.019
 4056.00   -0.00697   1.06269    0.000
 4057.00    0.10586   1.05898    0.019
 4058.00    0.36670   1.04919    0.019
 4059.00    0.46058   1.03699    0.019
 4060.00    0.46436   1.02567    0.019
 4061.00    0.48559   1.02050    0.019
 4062.00    0.51499   1.01670    0.019
 4063.00    0.66033   1.01111    0.019
 4064.00    0.85249   1.01337    0.019
 4065.00    0.69409   1.02425    0.019
 4066.00    0.41481   1.02990    0.019
 4067.00    0.25280   1.01657    0.019
 4068.00    0.12484   0.98825    0.019
 4069.00    0.46679   0.97314    0.019
 4070.00    0.92162   0.98742    0.020
 4071.00    0.46059   1.00455    0.019
 4072.00   -0.17790   0.99821    0.000
 4073.00    0.36407   0.98197    0.019
 4074.00    1.08391   0.97538    0.019
 4075.00    0.79495   0.97164    0.019
 4076.00    0.39442   0.96178    0.019
 4077.00    0.29623   0.95922    0.019
 4078.00    0.22019   0.97983    0.019
 4079.00    0.66877   1.00394    0.019
 4080.00    1.13742   1.00056    0.019
 4081.00    0.87485   0.97687    0.019
 4082.00    0.60925   0.96017    0.019
 4083.00    0.38261   0.96216    0.019
 4084.00    0.17134   0.97901    0.019
 4085.00    0.21343   1.00204    0.019
 4086.00    0.26817   1.02122    0.018
 4087.00    0.45308   1.02616    0.019
 4088.00    0.62164   1.01546    0.019
 4089.00    0.67009   1.00047    0.018
 4090.00    0.79363   0.99263    0.018
 4091.00    1.33845   0.99528    0.019
 4092.00    1.77912   1.00315    0.000
 4093.00    1.75378   1.00013    0.000
 4094.00    1.61410   0.98720    0.000
 4095.00    1.05445   0.98586    0.000
 4096.00    0.69887   0.99237    0.000
 4097.00    0.97090   0.98784    0.000
 4098.00    1.28547   0.97839    0.000
 4099.00    1.71124   0.97044    0.000
 4100.00    1.95042   0.94842    0.000
 4101.00    1.77056   0.90689    0.000
 4102.00    1.67061   0.86177    0.000
 4103.00    1.72619   0.82995    0.000
 4104.00    1.60750   0.80221    0.000
 4105.00    1.19313   0.74841    0.000
 4106.00    0.82262   0.67001    0.000
 4107.00    0.51729   0.62391    0.000
 4108.00    0.47532   0.65314    0.000
 4109.00    0.77744   0.72934    0.000
 4110.00    0.88900   0.80588    0.000
 4111.00    0.78122   0.86562    0.000
 4112.00    0.59598   0.90449    0.000
 4113.00    0.33210   0.92418    0.017
 4114.00    0.48826   0.93207    0.018
 4115.00    1.02050   0.93391    0.018
 4116.00    1.41250   0.93515    0.018
 4117.00    1.69387   0.94165    0.018
 4118.00    1.59560   0.95491    0.018
 4119.00    1.23389   0.96733    0.018
 4120.00    0.96929   0.96644    0.018
 4121.00    0.76379   0.95811    0.018
 4122.00    0.75266   0.96037    0.018
 4123.00    0.84478   0.96362    0.018
 4124.00    1.03645   0.95292    0.018
 4125.00    1.27403   0.93948    0.018
 4126.00    1.41803   0.93499    0.018
 4127.00    1.52486   0.94210    0.018
 4128.00    1.42571   0.95736    0.018
 4129.00    1.25684   0.97401    0.018
 4130.00    1.03962   0.98745    0.018
 4131.00    0.80863   0.99020    0.018
 4132.00    0.99637   0.97964    0.018
 4133.00    1.28241   0.96558    0.018
 4134.00    0.88200   0.95940    0.018
 4135.00    0.35201   0.95678    0.018
 4136.00    0.49682   0.94779    0.018
 4137.00    0.74016   0.93525    0.018
 4138.00    0.48566   0.93050    0.018
 4139.00    0.17825   0.93733    0.017
 4140.00    0.39801   0.95300    0.018
 4141.00    0.65423   0.97107    0.018
 4142.00    0.57665   0.97946    0.018
 4143.00    0.48755   0.97927    0.018
 4144.00    0.58208   0.97975    0.018
 4145.00    0.67769   0.98013    0.018
 4146.00    0.79680   0.97359    0.018
 4147.00    0.92070   0.94807    0.018
 4148.00    1.11867   0.90277    0.018
 4149.00    1.31168   0.87240    0.018
 4150.00    1.45573   0.88824    0.018
 4151.00    1.54629   0.92712    0.018
 4152.00    1.25712   0.95218    0.018
 4153.00    0.94986   0.95904    0.017
 4154.00    0.54381   0.95467    0.017
 4155.00    0.24652   0.94538    0.017
 4156.00    0.42467   0.94088    0.017
 4157.00    0.65277   0.93991    0.019
 4158.00    1.06055   0.93620    0.044
 4159.00    1.39610   0.93299   -1.000
 4160.00    1.51369   0.93340   -1.000
 4161.00    1.50765   0.93325   -1.000
 4162.00    1.18414   0.93328   -1.000
 4163.00    0.85959   0.94145   -1.000
 4164.00    0.53275   0.95532   -1.000
 4165.00    0.26182   0.96357   -1.000
 4166.00    0.09799   0.96354   -1.000
 4167.00    0.09563   0.96264   -1.000
 4168.00    0.36314   0.96366   -1.000
 4169.00    0.68434   0.96098   -1.000
 4170.00    1.08415   0.95472   -1.000
 4171.00    1.31203   0.94910    0.073
 4172.00    1.31846   0.94158    0.022
 4173.00    1.29367   0.93385    0.016
 4174.00    1.23345   0.93516    0.016
 4175.00    1.12749   0.94360    0.016
 4176.00    0.97576   0.94375    0.016
 4177.00    0.87966   0.92748    0.016
 4178.00    0.83267   0.90926    0.016
 4179.00    1.07024   0.90659    0.016
 4180.00    1.52914   0.91538    0.016
 4181.00    1.48377   0.92245    0.016
 4182.00    1.09354   0.92276    0.016
 4183.00    0.79451   0.92032    0.016
 4184.00    0.55015   0.92297    0.016
 4185.00    0.42379   0.92995    0.016
 4186.00    0.35916   0.93160    0.016
 4187.00    0.50992   0.92707    0.016
 4188.00    0.75837   0.92627    0.016
 4189.00    0.95290   0.93292    0.016
 4190.00    1.12638   0.94033    0.016
 4191.00    1.11542   0.93618    0.016
 4192.00    1.04321   0.91717    0.016
 4193.00    1.03407   0.90522    0.016
 4194.00    1.04251   0.91360    0.017
 4195.00    1.04341   0.92505    0.017
 4196.00    1.04258   0.92740    0.017
 4197.00    0.82381   0.92942    0.017
 4198.00    0.56497   0.93924    0.017
 4199.00    0.63581   0.94536    0.017
 4200.00    0.75327   0.93361    0.016
 4201.00    1.17118   0.91180    0.017
 4202.00    1.61973   0.89419    0.017
 4203.00    1.13997   0.87807    0.017
 4204.00    0.59974   0.85844    0.016
 4205.00    0.49338   0.84747    0.016
 4206.00    0.40066   0.85298    0.016
 4207.00    0.50864   0.86640    0.016
 4208.00    0.62117   0.88355    0.016
 4209.00    0.86693   0.90218    0.016
 4210.00    1.08402   0.91525    0.016
 4211.00    0.88368   0.92416    0.016
 4212.00    0.73485   0.93288    0.016
 4213.00    1.07311   0.93935    0.016
 4214.00    1.36674   0.93954    0.016
 4215.00    1.35356   0.93216    0.016
 4216.00    1.27995   0.92547    0.016
 4217.00    0.88517   0.92486    0.016
 4218.00    0.57698   0.92439    0.016
 4219.00    0.63854   0.91753    0.016
 4220.00    0.66207   0.90208    0.016
 4221.00    0.55158   0.89100    0.016
 4222.00    0.46833   0.90414    0.015
 4223.00    0.46575   0.93195    0.016
 4224.00    0.50283   0.94933    0.016
 4225.00    0.63999   0.95395    0.016
 4226.00    0.60768   0.95353    0.016
 4227.00    0.20711   0.94486    0.015
 4228.00    0.12496   0.92569    0.015
 4229.00    0.64328   0.90220    0.015
 4230.00    0.93453   0.87502    0.015
 4231.00    0.85193   0.84242    0.015
 4232.00    0.74106   0.81893    0.015
 4233.00    0.58939   0.82860    0.014
 4234.00    0.52082   0.86734    0.014
 4235.00    0.55776   0.90430    0.014
 4236.00    0.58611   0.92539    0.014
 4237.00    0.60484   0.92979    0.014
 4238.00    0.72684   0.91687    0.014
 4239.00    0.95076   0.90307    0.014
 4240.00    1.16455   0.90020    0.014
 4241.00    1.36954   0.89585    0.014
 4242.00    1.29590   0.89036    0.014
 4243.00    1.00865   0.89491    0.014
 4244.00    0.69154   0.90180    0.014
 4245.00    0.35430   0.90541    0.015
 4246.00    0.24989   0.91204    0.015
 4247.00    0.28295   0.91962    0.015
 4248.00    0.38890   0.92424    0.015
 4249.00    0.53238   0.93446    0.015
 4250.00    0.57818   0.94841    0.015
 4251.00    0.58039   0.94724    0.015
 4252.00    0.54053   0.92846    0.015
 4253.00    0.48453   0.90890    0.015
 4254.00    0.81295   0.89690    0.015
 4255.00    1.26665   0.88493    0.015
 4256.00    1.24722   0.87529    0.015
 4257.00    1.09863   0.88193    0.015
 4258.00    0.93773   0.89190    0.015
 4259.00    0.77406   0.88297    0.015
 4260.00    0.95300   0.86989    0.015
 4261.00    1.19322   0.87853    0.015
 4262.00    1.20890   0.90342    0.015
 4263.00    1.19386   0.91503    0.015
 4264.00    0.99295   0.90000    0.015
 4265.00    0.77387   0.87498    0.015
 4266.00    0.75443   0.86111    0.015
 4267.00    0.74720   0.87141    0.015
 4268.00    0.52458   0.90021    0.015
 4269.00    0.29802   0.92406    0.015
 4270.00    0.43714   0.93211    0.015
 4271.00    0.58220   0.92790    0.015
 4272.00    0.88454   0.91064    0.015
 4273.00    1.14678   0.89046    0.015
 4274.00    0.85781   0.88367    0.015
 4275.00    0.58297   0.87807    0.015
 4276.00    0.43666   0.85590    0.015
 4277.00    0.30157   0.83106    0.015
 4278.00    0.24118   0.82742    0.015
 4279.00    0.23154   0.83684    0.015
 4280.00    0.48467   0.83900    0.015
 4281.00    0.70944   0.84563    0.015
 4282.00    0.81583   0.86957   -2.000
 4283.00    0.90681   0.89645   -2.000
 4284.00    0.94457   0.90937   -2.000
 4285.00    1.00007   0.90134   -2.000
 4286.00    1.10716   0.88449   -2.000
 4287.00    1.13466   0.87765   -2.000
 4288.00    0.96479   0.87890   -2.000
 4289.00    0.67214   0.88136   -2.000
 4290.00    0.11705   0.87957   -2.000
 4291.00   -0.13350   0.87236   -2.000
 4292.00    0.18142   0.87084   -2.000
 4293.00    0.42798   0.87172   -2.000
 4294.00    0.56370   0.85711   -2.000
 4295.00    0.62612   0.83185   -2.000
 4296.00    0.58429   0.82293   -2.000
 4297.00    0.59703   0.84026   -2.000
 4298.00    0.67807   0.86506    0.016
 4299.00    0.73918   0.87296    0.016
 4300.00    0.77830   0.86410    0.016
 4301.00    0.77021   0.86090    0.016
 4302.00    0.71618   0.86205    0.015
 4303.00    0.58062   0.85207    0.015
 4304.00    0.37510   0.82974    0.015
 4305.00    0.31033   0.80577    0.015
 4306.00    0.35193   0.79888    0.015
 4307.00    0.37108   0.80688    0.015
 4308.00    0.37530   0.80976    0.015
 4309.00    0.41069   0.80915    0.015
 4310.00    0.46420   0.81305    0.015
 4311.00    0.45225   0.81218    0.015
 4312.00    0.40713   0.80150    0.014
 4313.00    0.60877   0.78566    0.014
 4314.00    0.91869   0.77611    0.014
 4315.00    1.13362   0.78322    0.014
 4316.00    1.31276   0.80141    0.015
 4317.00    1.20100   0.81919    0.015
 4318.00    0.99624   0.83170    0.015
 4319.00    0.92941   0.83927    0.015
 4320.00    0.89945   0.84956    0.014
 4321.00    0.86386   0.87563    0.014
 4322.00    0.82704   0.90865    0.014
 4323.00    0.75805   0.92192    0.014
 4324.00    0.68345   0.91499    0.015
 4325.00    0.55966   0.90389    0.015
 4326.00    0.42936   0.89428    0.014
 4327.00    0.78626   0.88656    0.015
 4328.00    1.18869   0.87538    0.015
 4329.00    1.11685   0.84718    0.015
 4330.00    1.01789   0.80673    0.000
 4331.00    1.01083   0.77760    0.000
 4332.00    1.00642   0.78468    0.000
 4333.00    1.06060   0.82652    0.000
 4334.00    1.10919   0.86719    0.000
 4335.00    1.02327   0.87891    0.000
 4336.00    0.94738   0.86744    0.000
 4337.00    1.00203   0.85641    0.000
 4338.00    1.04270   0.85386    0.000
 4339.00    0.96122   0.85158    0.000
 4340.00    0.85308   0.84803    0.000
 4341.00    0.57262   0.83553    0.000
 4342.00    0.33294   0.79260    0.000
 4343.00    0.29899   0.71936    0.000
 4344.00    0.29099   0.64508    0.000
 4345.00    0.38892   0.58279    0.000
 4346.00    0.48121   0.54927    0.000
 4347.00    0.55441   0.58395    0.000
 4348.00    0.58630   0.66586    0.000
 4349.00    0.50032   0.72867    0.000
 4350.00    0.50846   0.76326    0.000
 4351.00    0.74610   0.79309    0.014
 4352.00    0.94296   0.81343    0.014
 4353.00    1.05406   0.82565    0.014
 4354.00    1.01364   0.84576    0.014
 4355.00    0.69624   0.86236    0.014
 4356.00    0.53428   0.84648    0.014
 4357.00    0.62071   0.80806    0.014
 4358.00    0.68216   0.79417    0.014
 4359.00    0.70859   0.81640    0.014
 4360.00    0.71434   0.84124    0.014
 4361.00    0.69458   0.85474    0.014
 4362.00    0.75728   0.86786    0.014
 4363.00    0.90967   0.87586    0.014
 4364.00    0.97099   0.86661    0.014
 4365.00    0.94495   0.85417    0.014
 4366.00    0.69118   0.86070    0.014
 4367.00    0.24476   0.87846    0.014
 4368.00    0.12365   0.88690    0.014
 4369.00    0.24486   0.88804    0.014
 4370.00    0.48041   0.89610    0.014
 4371.00    0.79078   0.90212    0.014
 4372.00    0.79267   0.88740    0.014
 4373.00    0.61789   0.86295    0.014
 4374.00    0.67418   0.85355    0.014
 4375.00    0.84575   0.85972    0.014
 4376.00    0.86400   0.86449    0.014
 4377.00    0.81610   0.86481    0.014
 4378.00    0.77396   0.86124    0.014
 4379.00    0.73394   0.84705    0.014
 4380.00    0.67217   0.82550    0.014
 4381.00    0.60359   0.81632    0.014
 4382.00    0.50508   0.83237    0.014
 4383.00    0.39874   0.86005    0.014
 4384.00    0.55058   0.87243    0.014
 4385.00    0.75757   0.86507    0.014
 4386.00    0.66552   0.85320    0.014
 4387.00    0.52290   0.83759    0.014
 4388.00    0.53036   0.80161    0.014
 4389.00    0.55699   0.75514    0.014
 4390.00    0.54683   0.73962    0.014
 4391.00    0.53338   0.76764    0.014
 4392.00    0.45460   0.80051    0.014
 4393.00    0.37234   0.80242    0.014
 4394.00    0.77192   0.79408    0.014
 4395.00    1.17053   0.80130    0.014
 4396.00    0.72343   0.81377    0.014
 4397.00    0.30090   0.82698    0.014
 4398.00    0.41820   0.84163    0.014
 4399.00    0.53609   0.84507    0.014
 4400.00    0.66112   0.83514    0.014
 4401.00    0.76500   0.83139    0.015
 4402.00    0.69088   0.85053    0.015
 4403.00    0.60564   0.87494    0.014
 4404.00    0.45069   0.87650    0.014
 4405.00    0.33475   0.85674    0.014
 4406.00    0.41069   0.83542    0.014
 4407.00    0.46162   0.83502    0.014
 4408.00    0.41276   0.84829    0.014
 4409.00    0.41942   0.83299    0.014
 4410.00    0.61021   0.79057    0.014
 4411.00    0.72276   0.77376    0.014
 4412.00    0.61610   0.79360    0.014
 4413.00    0.54277   0.80965    0.014
 4414.00    0.54929   0.81298    0.014
 4415.00    0.50943   0.82912    0.014
 4416.00    0.37354   0.85507    0.014
 4417.00    0.28130   0.86979    0.015
 4418.00    0.26764   0.87506    0.014
 4419.00    0.29692   0.86501    0.014
 4420.00    0.39380   0.82765    0.014
 4421.00    0.43878   0.79447    0.014
 4422.00    0.41207   0.79921    0.014
 4423.00    0.46521   0.82447    0.014
 4424.00    0.61547   0.84900    0.014
 4425.00    0.66615   0.86781    0.014
 4426.00    0.61004   0.87133    0.014
 4427.00    0.51484   0.85572    0.014
 4428.00    0.38266   0.83386    0.014
 4429.00    0.34443   0.82837    0.014
 4430.00    0.38456   0.83803    0.014
 4431.00    0.42241   0.84145    0.014
 4432.00    0.45858   0.83699    0.015
 4433.00    0.56513   0.83715    0.015
 4434.00    0.71707   0.84486    0.015
 4435.00    0.69307   0.84370    0.015
 4436.00    0.56984   0.82938    0.015
 4437.00    0.47864   0.82914    0.014
 4438.00    0.40317   0.84023    0.014
 4439.00    0.42192   0.83244    0.014
 4440.00    0.48066   0.80791    0.015
 4441.00    0.57683   0.79129    0.015
 4442.00    0.68661   0.79972    0.015
 4443.00    0.67497   0.82666    0.015
 4444.00    0.62599   0.85437    0.014
 4445.00    0.37047   0.86830    0.015
 4446.00    0.06208   0.85634    0.016
 4447.00    0.08084   0.82693    0.016
 4448.00    0.16778   0.80473    0.016
 4449.00    0.26469   0.80393    0.016
 4450.00    0.36323   0.82460    0.016
 4451.00    0.56857   0.85267    0.015
 4452.00    0.78708   0.86203    0.014
 4453.00    0.48531   0.85312    0.014
 4454.00    0.13929   0.85276    0.014
 4455.00    0.39811   0.85630    0.014
 4456.00    0.68678   0.84879    0.014
 4457.00    0.62453   0.84437    0.014
 4458.00    0.55829   0.84365    0.014
 4459.00    0.59254   0.83140    0.014
 4460.00    0.62091   0.80785    0.014
 4461.00    0.53000   0.78946    0.000
 4462.00    0.44566   0.79285    0.000
 4463.00    0.43851   0.80381    0.000
 4464.00    0.45963   0.80317    0.000
 4465.00    0.71004   0.79670    0.000
 4466.00    0.92705   0.79254    0.000
 4467.00    0.94083   0.78471    0.000
 4468.00    0.89162   0.78571    0.000
 4469.00    0.54029   0.80999    0.000
 4470.00    0.26666   0.82927    0.000
 4471.00    0.29651   0.82571    0.000
 4472.00    0.35201   0.81831    0.000
 4473.00    0.49090   0.81612    0.000
 4474.00    0.58115   0.80898    0.000
 4475.00    0.53760   0.79101    0.000
 4476.00    0.49843   0.76511    0.000
 4477.00    0.46957   0.74290    0.000
 4478.00    0.49215   0.76024    0.000
 4479.00    0.61952   0.81136    0.000
 4480.00    0.63821   0.84183    0.000
 4481.00    0.46424   0.84356    0.000
 4482.00    0.27772   0.84893    0.013
 4483.00    0.07172   0.86412    0.014
 4484.00    0.08306   0.86687    0.014
 4485.00    0.39042   0.84273    0.013
 4486.00    0.58338   0.80235    0.013
 4487.00    0.63917   0.77653    0.013
 4488.00    0.58171   0.78418    0.013
 4489.00    0.40452   0.81697    0.013
 4490.00    0.42797   0.84650    0.014
 4491.00    0.63851   0.86230    0.013
 4492.00    0.64290   0.86714    0.013
 4493.00    0.47782   0.85751    0.013
 4494.00    0.34922   0.83390    0.013
 4495.00    0.24701   0.81057    0.013
 4496.00    0.42335   0.80546    0.013
 4497.00    0.77663   0.82105    0.013
 4498.00    0.85086   0.83816    0.013
 4499.00    0.77010   0.83492    0.013
 4500.00    0.68597   0.81107    0.013
 4501.00    0.60022   0.79477    0.013
 4502.00    0.47284   0.79918    0.013
 4503.00    0.32809   0.81567    0.013
 4504.00    0.49312   0.83519    0.013
 4505.00    0.76871   0.84691    0.013
 4506.00    0.89681   0.84283    0.013
 4507.00    0.98044   0.82794    0.013
 4508.00    0.99063   0.83032    0.013
 4509.00    0.98242   0.85779    0.013
 4510.00    0.91921   0.87729    0.013
 4511.00    0.84482   0.87479    0.013
 4512.00    0.75331   0.86175    0.013
 4513.00    0.65906   0.84964    0.013
 4514.00    0.59172   0.84583    0.013
 4515.00    0.52759   0.84980    0.013
 4516.00    0.48825   0.85323    0.013
 4517.00    0.45092   0.84883    0.013
 4518.00    0.55716   0.83614    0.013
 4519.00    0.66994   0.82236    0.013
 4520.00    0.57642   0.81094    0.013
 4521.00    0.48337   0.81081    0.013
 4522.00    0.54328   0.82203    0.013
 4523.00    0.60970   0.82335    0.013
 4524.00    0.79829   0.81711    0.013
 4525.00    0.96383   0.82579    0.013
 4526.00    0.87124   0.84242    0.013
 4527.00    0.78636   0.85114    0.013
 4528.00    0.76191   0.83881    0.013
 4529.00    0.73256   0.81874    0.013
 4530.00    0.67422   0.81255    0.013
 4531.00    0.61750   0.80615    0.013
 4532.00    0.56831   0.78988    0.013
 4533.00    0.57510   0.77246    0.013
 4534.00    0.79579   0.75848    0.013
 4535.00    0.91437   0.75535    0.013
 4536.00    0.70738   0.76463    0.013
 4537.00    0.56050   0.77750    0.013
 4538.00    0.57604   0.79209    0.013
 4539.00    0.61296   0.79076    0.013
 4540.00    0.69943   0.77133    0.013
 4541.00    0.73027   0.75914    0.013
 4542.00    0.64959   0.77718    0.013
 4543.00    0.50718   0.81618    0.013
 4544.00    0.25697   0.83139    0.013
 4545.00    0.11732   0.81247    0.013
 4546.00    0.14661   0.77747    0.013
 4547.00    0.21283   0.75037    0.013
 4548.00    0.32861   0.75896    0.013
 4549.00    0.47212   0.78908    0.013
 4550.00    0.64840   0.79787    0.000
 4551.00    0.71124   0.79058    0.000
 4552.00    0.65583   0.79466    0.000
 4553.00    0.62231   0.80376    0.000
 4554.00    0.60892   0.80004    0.000
 4555.00    0.67929   0.78511    0.000
 4556.00    0.81755   0.78531    0.000
 4557.00    0.93343   0.79879    0.000
 4558.00    1.03336   0.79426    0.000
 4559.00    0.98614   0.78261    0.000
 4560.00    0.84683   0.77810    0.000
 4561.00    0.75115   0.77860    0.000
 4562.00    0.67933   0.79214    0.000
 4563.00    0.62527   0.81564    0.000
 4564.00    0.57966   0.82972    0.000
 4565.00    0.65928   0.83144    0.000
 4566.00    0.79025   0.82741    0.000
 4567.00    0.89184   0.82704    0.000
 4568.00    0.98313   0.82796    0.000
 4569.00    0.92609   0.81362    0.000
 4570.00    0.82522   0.79138    0.000
 4571.00    0.60961   0.78248    0.000
 4572.00    0.36588   0.79315    0.000
 4573.00    0.44522   0.81446    0.000
 4574.00    0.58859   0.82470    0.000
 4575.00    0.73595   0.82215    0.000
 4576.00    0.88392   0.81342    0.000
 4577.00    0.88345   0.79370    0.000
 4578.00    0.86599   0.78837    0.000
 4579.00    1.00072   0.81149    0.000
 4580.00    1.14713   0.82283    0.000
 4581.00    1.00575   0.81453    0.000
 4582.00    0.85238   0.81277    0.000
 4583.00    0.66960   0.81472    0.000
 4584.00    0.49341   0.80743    0.000
 4585.00    0.61113   0.78933    0.000
 4586.00    0.71744   0.77218    0.000
 4587.00    0.62432   0.77164    0.000
 4588.00    0.53273   0.78570    0.000
 4589.00    0.45742   0.79334    0.000
 4590.00    0.38683   0.78864    0.000
 4591.00    0.35189   0.78167    0.000
 4592.00    0.36520   0.77780    0.000
 4593.00    0.65584   0.78613    0.000
 4594.00    0.89023   0.80435    0.000
 4595.00    0.86763   0.81639    0.000
 4596.00    0.84416   0.81026    0.000
 4597.00    0.81748   0.79180    0.000
 4598.00    0.77750   0.77948    0.000
 4599.00    0.69596   0.77991    0.000
 4600.00    0.69319   0.78002    0.000
 4601.00    0.89951   0.77317    0.000
 4602.00    1.04572   0.77045    0.000
 4603.00    1.05499   0.77419    0.000
 4604.00    1.03523   0.78113    0.000
 4605.00    0.95817   0.78773    0.000
 4606.00    0.93286   0.78155    0.000
 4607.00    0.99654   0.77243    0.000
 4608.00    1.05876   0.77618    0.000
 4609.00    1.11877   0.78125    0.000
 4610.00    1.10650   0.78070    0.000
 4611.00    0.99860   0.77544    0.000
 4612.00    0.99487   0.77488    0.000
 4613.00    1.11257   0.78802    0.000
 4614.00    1.12349   0.81049    0.000
 4615.00    1.02467   0.82438    0.000
 4616.00    0.80372   0.81749    0.000
 4617.00    0.47208   0.80385    0.000
 4618.00    0.44276   0.79664    0.000
 4619.00    0.65497   0.79140    0.000
 4620.00    0.72528   0.79458    0.000
 4621.00    0.69586   0.80611    0.000
 4622.00    0.64478   0.80872    0.000
 4623.00    0.58037   0.80968    0.000
 4624.00    0.64124   0.80706    0.000
 4625.00    0.76958   0.79400    0.000
 4626.00    0.80727   0.79223    0.000
 4627.00    0.80257   0.80432    0.000
 4628.00    0.83720   0.80648    0.000
 4629.00    0.88769   0.80370    0.000
 4630.00    0.82595   0.80498    0.000
 4631.00    0.72559   0.80031    0.000
 4632.00    0.72638   0.79339    0.000
 4633.00    0.75647   0.79583    0.000
 4634.00    0.80042   0.79831    0.000
 4635.00    0.84770   0.78925    0.000
 4636.00    0.73538   0.78227    0.000
 4637.00    0.59224   0.78952    0.000
 4638.00    0.54608   0.79395    0.000
 4639.00    0.51448   0.78445    0.000
 4640.00    0.63611   0.77643    0.000
 4641.00    0.77460   0.77766    0.000
 4642.00    0.89624   0.77919    0.000
 4643.00    1.01666   0.77131    0.000
 4644.00    1.02071   0.75947    0.000
 4645.00    1.02035   0.75149    0.000
 4646.00    0.82985   0.74843    0.000
 4647.00    0.64089   0.75671    0.000
 4648.00    0.54476   0.76880    0.000
 4649.00    0.46253   0.77045    0.000
 4650.00    0.60763   0.76502    0.000
 4651.00    0.72915   0.75308    0.000
 4652.00    0.60949   0.72530    0.000
 4653.00    0.49704   0.70155    0.000
 4654.00    0.43723   0.70442    0.000
 4655.00    0.43637   0.72013    0.000
 4656.00    0.76506   0.73073    0.000
 4657.00    1.03908   0.74088    0.000
 4658.00    1.06923   0.75716    0.000
 4659.00    1.08228   0.76679    0.000
 4660.00    1.03274   0.75519    0.000
 4661.00    0.96872   0.74191    0.000
 4662.00    0.86026   0.74276    0.000
 4663.00    0.80223   0.75391    0.000
 4664.00    0.87571   0.77506    0.000
 4665.00    0.97323   0.79633    0.000
 4666.00    1.12466   0.80390    0.000
 4667.00    1.07194   0.79342    0.000
 4668.00    0.62275   0.77369    0.000
 4669.00    0.36175   0.75716    0.000
 4670.00    0.41947   0.75100    0.000
 4671.00    0.45431   0.74744    0.000
 4672.00    0.45523   0.72971    0.000
 4673.00    0.57556   0.70305    0.000
 4674.00    0.85164   0.69468    0.000
 4675.00    0.98599   0.71358    0.000
 4676.00    0.95748   0.74231    0.000
 4677.00    0.86624   0.76266    0.000
 4678.00    0.71143   0.76474    0.000
 4679.00    0.73077   0.75354    0.000
 4680.00    0.90573   0.74542    0.000
 4681.00    0.95151   0.74871    0.000
 4682.00    0.89553   0.76085    0.000
 4683.00    0.77199   0.76647    0.000
 4684.00    0.60166   0.75811    0.000
 4685.00    0.63099   0.74582    0.000
 4686.00    0.78158   0.73724    0.000
 4687.00    0.84395   0.73131    0.000
 4688.00    0.85954   0.73072    0.000
 4689.00    0.83624   0.73766    0.000
 4690.00    0.79505   0.73308    0.000
 4691.00    0.79892   0.70908    0.000
 4692.00    0.82065   0.69669    0.000
 4693.00    0.77025   0.70949    0.000
 4694.00    0.69549   0.72718    0.000
 4695.00    0.61176   0.73925    0.000
 4696.00    0.52548   0.74399    0.000
 4697.00    0.57006   0.74017    0.000
 4698.00    0.64528   0.73904    0.000
 4699.00    0.45412   0.74319    0.000
 4700.00    0.21286   0.74868    0.000
 4701.00    0.41664   0.75739    0.000
 4702.00    0.68516   0.76469    0.000
 4703.00    0.69905   0.75923    0.000
 4704.00    0.68601   0.73831    0.000
 4705.00    0.71356   0.72157    0.000
 4706.00    0.74389   0.72288    0.000
 4707.00    0.64247   0.72778    0.000
 4708.00    0.53658   0.72333    0.000
 4709.00    0.52197   0.71724    0.000
 4710.00    0.51355   0.72224    0.000
 4711.00    0.70167   0.73260    0.000
 4712.00    0.86854   0.73474    0.000
 4713.00    0.70942   0.72807    0.000
 4714.00    0.55971   0.72150    0.000
 4715.00    0.50232   0.71890    0.000
 4716.00    0.46452   0.72513    0.000
 4717.00    0.56523   0.74014    0.000
 4718.00    0.65494   0.73866    0.000
 4719.00    0.68479   0.71918    0.000
 4720.00    0.71459   0.70587    0.000
 4721.00    0.74416   0.71298    0.000
 4722.00    0.75401   0.73254    0.000
 4723.00    0.69312   0.75046    0.000
 4724.00    0.66768   0.75956    0.000
 4725.00    0.74900   0.76701    0.000
 4726.00    0.80062   0.77293    0.000
 4727.00    0.77613   0.77133    0.000
 4728.00    0.74900   0.76218    0.000
 4729.00    0.71606   0.75640    0.000
 4730.00    0.70244   0.76268    0.000
 4731.00    0.72577   0.77180    0.000
 4732.00    0.74032   0.76690    0.000
 4733.00    0.74021   0.74208    0.000
 4734.00    0.71805   0.71525    0.000
 4735.00    0.66365   0.70575    0.000
 4736.00    0.58098   0.70949    0.000
 4737.00    0.46196   0.71687    0.000
 4738.00    0.39804   0.72670    0.000
 4739.00    0.39656   0.73478    0.000
 4740.00    0.39164   0.73855    0.000
 4741.00    0.38330   0.74159    0.000
 4742.00    0.48429   0.73576    0.000
 4743.00    0.68163   0.72775    0.000
 4744.00    0.79770   0.73764    0.000
 4745.00    0.85068   0.75160    0.000
 4746.00    0.73114   0.74951    0.000
 4747.00    0.49384   0.74056    0.000
 4748.00    0.43049   0.73940    0.000
 4749.00    0.47121   0.74589    0.000
 4750.00    0.45433   0.74853    0.000
 4751.00    0.40739   0.74471    0.000
 4752.00    0.47165   0.74747    0.000
 4753.00    0.58625   0.75549    0.000
 4754.00    0.59524   0.75625    0.000
 4755.00    0.56310   0.75350    0.000
 4756.00    0.54478   0.75390    0.000
 4757.00    0.53104   0.75237    0.000
 4758.00    0.63677   0.74459    0.000
 4759.00    0.77571   0.73626    0.000
 4760.00    0.61798   0.73057    0.000
 4761.00    0.39239   0.72876    0.013
 4762.00    0.52148   0.72962    0.013
 4763.00    0.71554   0.73105    0.013
 4764.00    0.70564   0.73272    0.012
 4765.00    0.66703   0.73623    0.012
 4766.00    0.63738   0.74045    0.012
 4767.00    0.60865   0.73550    0.013
 4768.00    0.68331   0.72124    0.013
 4769.00    0.76465   0.71164    0.012
 4770.00    0.72032   0.70773    0.012
 4771.00    0.67237   0.70026    0.013
 4772.00    0.71690   0.69259    0.013
 4773.00    0.75813   0.69627    0.013
 4774.00    0.70397   0.70941    0.012
 4775.00    0.66192   0.72465    0.012
 4776.00    0.79490   0.73441    0.012
 4777.00    0.89098   0.72994    0.012
 4778.00    0.63995   0.71930    0.012
 4779.00    0.45158   0.71958    0.012
 4780.00    0.69230   0.73235    0.012
 4781.00    0.90226   0.74228    0.012
 4782.00    0.94926   0.74109    0.012
 4783.00    0.97597   0.74061    0.012
 4784.00    0.91628   0.74307    0.012
 4785.00    0.85002   0.73964    0.012
 4786.00    0.76069   0.73374    0.012
 4787.00    0.68199   0.73067    0.012
 4788.00    0.63470   0.72417    0.012
 4789.00    0.58574   0.71220    0.012
 4790.00    0.53259   0.70860    0.012
 4791.00    0.52124   0.71381    0.012
 4792.00    0.60053   0.71083    0.012
 4793.00    0.67899   0.70613    0.012
 4794.00    0.75589   0.71016    0.012
 4795.00    0.81215   0.71158    0.012
 4796.00    0.83450   0.70967    0.012
 4797.00    0.75419   0.71240    0.012
 4798.00    0.52597   0.71869    0.012
 4799.00    0.41780   0.72936    0.012
 4800.00    0.46176   0.74429    0.013
 4801.00    0.50026   0.75403    0.013
 4802.00    0.53266   0.75120    0.013
 4803.00    0.52326   0.74032    0.013
 4804.00    0.47267   0.72721    0.013
 4805.00    0.52525   0.71464    0.013
 4806.00    0.66745   0.70937    0.013
 4807.00    0.70676   0.71727    0.013
 4808.00    0.66732   0.73238    0.013
 4809.00    0.68509   0.74124    0.013
 4810.00    0.74135   0.73695    0.013
 4811.00    0.76408   0.72427    0.013
 4812.00    0.76705   0.71545    0.013
 4813.00    0.75398   0.71070    0.013
 4814.00    0.73267   0.70576    0.013
 4815.00    0.58519   0.70698    0.013
 4816.00    0.38154   0.71488    0.013
 4817.00    0.45967   0.72067    0.013
 4818.00    0.64562   0.72030    0.013
 4819.00    0.76455   0.71731    0.013
 4820.00    0.86170   0.71611    0.013
 4821.00    0.78341   0.71770    0.013
 4822.00    0.65737   0.72210    0.013
 4823.00    0.62349   0.72873    0.013
 4824.00    0.61019   0.73377    0.013
 4825.00    0.69580   0.73616    0.013
 4826.00    0.79902   0.73609    0.013
 4827.00    0.72736   0.73354    0.013
 4828.00    0.63187   0.72520    0.013
 4829.00    0.66342   0.70654    0.013
 4830.00    0.70732   0.69233    0.013
 4831.00    0.64516   0.69881    0.013
 4832.00    0.57656   0.71375    0.013
 4833.00    0.57750   0.71817    0.013
 4834.00    0.57961   0.71081    0.013
 4835.00    0.46019   0.70428    0.013
 4836.00    0.35105   0.70610    0.013
 4837.00    0.51022   0.70499    0.013
 4838.00    0.65400   0.69493    0.013
 4839.00    0.58763   0.69250    0.013
 4840.00    0.52603   0.70344    0.013
 4841.00    0.50763   0.71263    0.012
 4842.00    0.50751   0.71283    0.012
 4843.00    0.62873   0.71122    0.012
 4844.00    0.70142   0.70843    0.013
 4845.00    0.52373   0.69880    0.013
 4846.00    0.42090   0.68847    0.013
 4847.00    0.62967   0.68794    0.013
 4848.00    0.73793   0.69186    0.000
 4849.00    0.50013   0.68858    0.000
 4850.00    0.39638   0.68637    0.000
 4851.00    0.68134   0.69598    0.000
 4852.00    0.91683   0.70662    0.000
 4853.00    1.02984   0.70428    0.000
 4854.00    0.97253   0.68894    0.000
 4855.00    0.55182   0.67617    0.000
 4856.00    0.35874   0.67834    0.000
 4857.00    0.58747   0.68405    0.000
 4858.00    0.71075   0.68197    0.000
 4859.00    0.66332   0.67651    0.000
 4860.00    0.65194   0.66306    0.000
 4861.00    0.69178   0.63715    0.000
 4862.00    0.59622   0.61731    0.000
 4863.00    0.33152   0.61387    0.000
 4864.00    0.24988   0.60460    0.000
 4865.00    0.36978   0.57025    0.000
 4866.00    0.48872   0.51444    0.000
 4867.00    0.60671   0.46146    0.000
 4868.00    0.57632   0.45251    0.000
 4869.00    0.41884   0.49704    0.000
 4870.00    0.39407   0.55098    0.000
 4871.00    0.46943   0.58688    0.000
 4872.00    0.54818   0.61119    0.000
 4873.00    0.62920   0.62718    0.000
 4874.00    0.65140   0.63639    0.000
 4875.00    0.63944   0.64546    0.013
 4876.00    0.62784   0.64578    0.013
 4877.00    0.61641   0.62804    0.013
 4878.00    0.61306   0.61434    0.012
 4879.00    0.61325   0.62662    0.012
 4880.00    0.59400   0.64890    0.012
 4881.00    0.56743   0.65907    0.012
 4882.00    0.62783   0.66292    0.012
 4883.00    0.71596   0.66986    0.013
 4884.00    0.59852   0.67703    0.012
 4885.00    0.42629   0.68769    0.012
 4886.00    0.42653   0.69579    0.012
 4887.00    0.46441   0.68652    0.012
 4888.00    0.43741   0.67328    0.012
 4889.00    0.39916   0.67513    0.012
 4890.00    0.40396   0.67932    0.012
 4891.00    0.41443   0.66931    0.012
 4892.00    0.52955   0.65474    0.012
 4893.00    0.65440   0.65203    0.012
 4894.00    0.65296   0.65971    0.012
 4895.00    0.64436   0.66387    0.013
 4896.00    0.50319   0.65363    0.012
 4897.00    0.36055   0.63444    0.012
 4898.00    0.38677   0.63448    0.012
 4899.00    0.41818   0.66275    0.012
 4900.00    0.57294   0.69410    0.012
 4901.00    0.70941   0.71310    0.012
 4902.00    0.60936   0.72032    0.012
 4903.00    0.52563   0.71944    0.012
 4904.00    0.58377   0.71572    0.012
 4905.00    0.67260   0.70660    0.012
 4906.00    0.95897   0.69289    0.012
 4907.00    1.14073   0.68811    0.012
 4908.00    0.79642   0.69067    0.012
 4909.00    0.53436   0.68592    0.012
 4910.00    0.60707   0.67964    0.012
 4911.00    0.68591   0.68698    0.012
 4912.00    0.78543   0.70264    0.012
 4913.00    0.82221   0.70830    0.012
 4914.00    0.68040   0.69850    0.012
 4915.00    0.54465   0.68161    0.012
 4916.00    0.42367   0.66618    0.012
 4917.00    0.34674   0.66088    0.012
 4918.00    0.36228   0.66833    0.012
 4919.00    0.47388   0.67935    0.012
 4920.00    0.76075   0.68748    0.012
 4921.00    0.88388   0.69584    0.012
 4922.00    0.74589   0.70196    0.012
 4923.00    0.66474   0.69540    0.012
 4924.00    0.66314   0.67056    0.012
 4925.00    0.63088   0.63484    0.012
 4926.00    0.56087   0.60516    0.012
 4927.00    0.55160   0.59485    0.012
 4928.00    0.60828   0.60847    0.012
 4929.00    0.64479   0.63267    0.012
 4930.00    0.66201   0.64570    0.012
 4931.00    0.56800   0.64822    0.012
 4932.00    0.38009   0.65946    0.012
 4933.00    0.46144   0.67864    0.012
 4934.00    0.74299   0.69163    0.012
 4935.00    0.93656   0.70065    0.012
 4936.00    1.07267   0.70704    0.012
 4937.00    1.00359   0.70742    0.012
 4938.00    0.81723   0.70171    0.012
 4939.00    0.63987   0.68487    0.012
 4940.00    0.46700   0.66602    0.000
 4941.00    0.39424   0.66657    0.000
 4942.00    0.36459   0.67794    0.000
 4943.00    0.53471   0.67297    0.000
 4944.00    0.77858   0.64998    0.000
 4945.00    0.88746   0.63189    0.000
 4946.00    0.95411   0.63821    0.000
 4947.00    0.91628   0.66264    0.000
 4948.00    0.85118   0.68138    0.000
 4949.00    0.86975   0.68936    0.000
 4950.00    0.90615   0.69574    0.000
 4951.00    0.72723   0.69583    0.000
 4952.00    0.51204   0.68815    0.000
 4953.00    0.45259   0.68629    0.000
 4954.00    0.41296   0.69307    0.000
 4955.00    0.47510   0.69798    0.000
 4956.00    0.54626   0.69945    0.000
 4957.00    0.42597   0.70239    0.000
 4958.00    0.29557   0.70315    0.000
 4959.00    0.36130   0.69604    0.000
 4960.00    0.43005   0.68647    0.000
 4961.00    0.44088   0.67961    0.000
 4962.00    0.45429   0.66598    0.000
 4963.00    0.52370   0.63422    0.000
 4964.00    0.58882   0.60667    0.000
 4965.00    0.60124   0.61909    0.000
 4966.00    0.59970   0.65643    0.000
 4967.00    0.48127   0.67840    0.000
 4968.00    0.42750   0.67955    0.000
 4969.00    0.77740   0.67778    0.000
 4970.00    1.02959   0.67653    0.000
 4971.00    0.80267   0.66531    0.000
 4972.00    0.61780   0.64912    0.000
 4973.00    0.60030   0.64306    0.000
 4974.00    0.58369   0.64563    0.000
 4975.00    0.57002   0.64969    0.000
 4976.00    0.50568   0.65455    0.000
 4977.00    0.29965   0.65984    0.000
 4978.00    0.23676   0.66685    0.000
 4979.00    0.51619   0.67361    0.000
 4980.00    0.69348   0.67776    0.000
 4981.00    0.65980   0.67925    0.000
 4982.00    0.61727   0.67622    0.000
 4983.00    0.55886   0.66959    0.000
 4984.00    0.42989   0.65938    0.000
 4985.00    0.19007   0.64801    0.000
 4986.00    0.13262   0.64333    0.000
 4987.00    0.32675   0.63944    0.000
 4988.00    0.46547   0.62289    0.000
 4989.00    0.53690   0.60212    0.000
 4990.00    0.57444   0.59805    0.000
 4991.00    0.57569   0.61011    0.000
 4992.00    0.62267   0.62473    0.000
 4993.00    0.71283   0.64023    0.000
 4994.00    0.73979   0.65391    0.000
 4995.00    0.71415   0.65711    0.000
 4996.00    0.67035   0.65145    0.000
 4997.00    0.61326   0.64404    0.000
 4998.00    0.65390   0.64329    0.000
 4999.00    0.75745   0.64872    0.000
 5000.00    0.66580   0.64821    0.000
 5001.00    0.46424   0.64642    0.000
 5002.00    0.48851   0.65164    0.000
 5003.00    0.62342   0.65527    0.000
 5004.00    0.64449   0.65264    0.000
 5005.00    0.61736   0.64322    0.000
 5006.00    0.54486   0.62731    0.000
 5007.00    0.45591   0.61545    0.000
 5008.00    0.46153   0.61362    0.000
 5009.00    0.49617   0.61737    0.000
 5010.00    0.53692   0.61991    0.000
 5011.00    0.57922   0.61275    0.000
 5012.00    0.39067   0.59768    0.000
 5013.00    0.15415   0.59201    0.000
 5014.00    0.26466   0.60779    0.000
 5015.00    0.43198   0.62962    0.000
 5016.00    0.55235   0.63722    0.000
 5017.00    0.66695   0.63175    0.000
 5018.00    0.60224   0.61916    0.000
 5019.00    0.52238   0.60169    0.000
 5020.00    0.60674   0.58604    0.000
 5021.00    0.69913   0.57703    0.000
 5022.00    0.60517   0.58039    0.000
 5023.00    0.51172   0.59306    0.000
 5024.00    0.62551   0.60072    0.000
 5025.00    0.72622   0.60434    0.000
 5026.00    0.56448   0.61147    0.000
 5027.00    0.40987   0.61654    0.000
 5028.00    0.33848   0.61162    0.000
 5029.00    0.32286   0.60671    0.012
 5030.00    0.75758   0.61428    0.012
 5031.00    1.12448   0.62588    0.012
 5032.00    1.08016   0.62878    0.012
 5033.00    1.03026   0.62226    0.012
 5034.00    0.95367   0.61293    0.012
 5035.00    0.85579   0.61577    0.012
 5036.00    0.67500   0.62921    0.012
 5037.00    0.55364   0.63757    0.012
 5038.00    0.62504   0.64293    0.012
 5039.00    0.65776   0.65186    0.012
 5040.00    0.58430   0.65755    0.012
 5041.00    0.50494   0.64728    0.012
 5042.00    0.41170   0.62386    0.012
 5043.00    0.36389   0.61110    0.012
 5044.00    0.40844   0.61602    0.012
 5045.00    0.37628   0.61408    0.012
 5046.00    0.20837   0.59320    0.012
 5047.00    0.25407   0.56686    0.012
 5048.00    0.63041   0.56046    0.012
 5049.00    0.71897   0.58621    0.012
 5050.00    0.41627   0.61957    0.012
 5051.00    0.27113   0.63918    0.012
 5052.00    0.31455   0.65156    0.012
 5053.00    0.43531   0.65403    0.012
 5054.00    0.63769   0.63783    0.012
 5055.00    0.63276   0.61413    0.012
 5056.00    0.43487   0.60253    0.012
 5057.00    0.39997   0.60403    0.012
 5058.00    0.49883   0.60742    0.012
 5059.00    0.58148   0.61283    0.012
 5060.00    0.65243   0.62382    0.012
 5061.00    0.63461   0.63411    0.012
 5062.00    0.56051   0.63631    0.012
 5063.00    0.53282   0.63513    0.012
 5064.00    0.53086   0.63841    0.012
 5065.00    0.51206   0.64383    0.012
 5066.00    0.48512   0.64549    0.012
 5067.00    0.53571   0.64897    0.012
 5068.00    0.61856   0.65458    0.012
 5069.00    0.61021   0.65280    0.012
 5070.00    0.56937   0.63638    0.012
 5071.00    0.60813   0.61163    0.012
 5072.00    0.67083   0.60090    0.012
 5073.00    0.62736   0.60890    0.012
 5074.00    0.55736   0.61309    0.012
 5075.00    0.36318   0.61001    0.012
 5076.00    0.14383   0.61504    0.012
 5077.00    0.39337   0.62371    0.012
 5078.00    0.71743   0.61932    0.012
 5079.00    0.59038   0.60966    0.012
 5080.00    0.40996   0.61301    0.012
 5081.00    0.35738   0.62043    0.012
 5082.00    0.31508   0.61814    0.012
 5083.00    0.48714   0.61608    0.012
 5084.00    0.66884   0.61840    0.012
 5085.00    0.64212   0.60709    0.012
 5086.00    0.61356   0.58046    0.011
 5087.00    0.61678   0.56867    0.011
 5088.00    0.61456   0.57955    0.011
 5089.00    0.51127   0.59089    0.011
 5090.00    0.41981   0.59387    0.011
 5091.00    0.46016   0.60024    0.011
 5092.00    0.49058   0.61077    0.011
 5093.00    0.44360   0.61571    0.011
 5094.00    0.42336   0.61534    0.011
 5095.00    0.56071   0.61658    0.011
 5096.00    0.64557   0.62035    0.011
 5097.00    0.48550   0.62172    0.011
 5098.00    0.36804   0.62288    0.011
 5099.00    0.41298   0.62922    0.011
 5100.00    0.46076   0.63569    0.011
 5101.00    0.51760   0.63260    0.011
 5102.00    0.54170   0.62156    0.011
 5103.00    0.47756   0.61013    0.011
 5104.00    0.44139   0.59818    0.011
 5105.00    0.46990   0.58388    0.011
 5106.00    0.49450   0.57763    0.011
 5107.00    0.51131   0.59071    0.011
 5108.00    0.57497   0.60965    0.011
 5109.00    0.72027   0.61603    0.011
 5110.00    0.84560   0.61086    0.012
 5111.00    0.94046   0.60461    0.012
 5112.00    0.98363   0.60210    0.012
 5113.00    0.95752   0.59779    0.012
 5114.00    0.84409   0.58967    0.012
 5115.00    0.62761   0.58634    0.012
 5116.00    0.51513   0.58641    0.012
 5117.00    0.51086   0.58598    0.012
 5118.00    0.50771   0.59389    0.012
 5119.00    0.50559   0.60432    0.012
 5120.00    0.57648   0.60802    0.012
 5121.00    0.70644   0.61176    0.012
 5122.00    0.63424   0.61624    0.012
 5123.00    0.41812   0.62061    0.012
 5124.00    0.27271   0.62735    0.012
 5125.00    0.17146   0.62979    0.012
 5126.00    0.29492   0.62391    0.012
 5127.00    0.54104   0.61347    0.012
 5128.00    0.52767   0.60239    0.012
 5129.00    0.39119   0.59029    0.012
 5130.00    0.52996   0.57535    0.012
 5131.00    0.78138   0.56807    0.012
 5132.00    0.90424   0.57352    0.012
 5133.00    0.98217   0.57825    0.012
 5134.00    0.84758   0.57648    0.012
 5135.00    0.65034   0.57447    0.012
 5136.00    0.62706   0.57581    0.012
 5137.00    0.64628   0.58220    0.012
 5138.00    0.71167   0.59267    0.012
 5139.00    0.78618   0.59837    0.012
 5140.00    0.52864   0.59831    0.012
 5141.00    0.21990   0.60243    0.012
 5142.00    0.52380   0.61022    0.012
 5143.00    0.89748   0.60576    0.012
 5144.00    0.70053   0.59112    0.012
 5145.00    0.46005   0.57858    0.012
 5146.00    0.55365   0.57367    0.012
 5147.00    0.66100   0.58361    0.012
 5148.00    0.53358   0.59012    0.012
 5149.00    0.40818   0.57739    0.012
 5150.00    0.44905   0.57223    0.012
 5151.00    0.48741   0.58150    0.012
 5152.00    0.48215   0.58193    0.012
 5153.00    0.47444   0.57363    0.012
 5154.00    0.44062   0.57017    0.012
 5155.00    0.39767   0.57409    0.012
 5156.00    0.28606   0.58075    0.012
 5157.00    0.21039   0.57891    0.012
 5158.00    0.34055   0.57131    0.011
 5159.00    0.46040   0.56744    0.011
 5160.00    0.53328   0.56750    0.011
 5161.00    0.59581   0.57109    0.012
 5162.00    0.61971   0.58085    0.012
 5163.00    0.63655   0.59422    0.012
 5164.00    0.63138   0.60559    0.012
 5165.00    0.62881   0.61009    0.011
 5166.00    0.63316   0.60706    0.011
 5167.00    0.57083   0.60658    0.011
 5168.00    0.35690   0.60395    0.011
 5169.00    0.20479   0.59255    0.011
 5170.00    0.17442   0.58326    0.011
 5171.00    0.23888   0.57325    0.011
 5172.00    0.46610   0.54746    0.012
 5173.00    0.62830   0.51018    0.012
 5174.00    0.69277   0.48154    0.012
 5175.00    0.71224   0.48183    0.012
 5176.00    0.67227   0.50822    0.011
 5177.00    0.65122   0.52798    0.011
 5178.00    0.65218   0.51111    0.011
 5179.00    0.65111   0.47649    0.011
 5180.00    0.64797   0.47487    0.011
 5181.00    0.63610   0.51468    0.011
 5182.00    0.61635   0.55360    0.011
 5183.00    0.54352   0.56720    0.011
 5184.00    0.42838   0.57086    0.011
 5185.00    0.33969   0.57469    0.011
 5186.00    0.26956   0.57219    0.011
 5187.00    0.29690   0.56191    0.011
 5188.00    0.38421   0.54303    0.011
 5189.00    0.42748   0.50955    0.011
 5190.00    0.44706   0.47348    0.000
 5191.00    0.62087   0.47279    0.000
 5192.00    0.86666   0.51494    0.000
 5193.00    0.83608   0.55921    0.000
 5194.00    0.69432   0.57838    0.000
 5195.00    0.64108   0.57991    0.000
 5196.00    0.61822   0.58414    0.000
 5197.00    0.41516   0.58741    0.000
 5198.00    0.16002   0.56631    0.000
 5199.00    0.30678   0.53934    0.000
 5200.00    0.54951   0.54070    0.000
 5201.00    0.54576   0.55601    0.000
 5202.00    0.49455   0.56056    0.000
 5203.00    0.42117   0.56531    0.000
 5204.00    0.34447   0.57660    0.000
 5205.00    0.36984   0.58537    0.000
 5206.00    0.40638   0.59075    0.000
 5207.00    0.48539   0.59102    0.000
 5208.00    0.56748   0.58628    0.000
 5209.00    0.46155   0.57994    0.000
 5210.00    0.34861   0.57222    0.000
 5211.00    0.35711   0.55215    0.012
 5212.00    0.36787   0.52765    0.012
 5213.00    0.44011   0.52019    0.012
 5214.00    0.51085   0.52345    0.012
 5215.00    0.55708   0.51894    0.012
 5216.00    0.58895   0.52112    0.012
 5217.00    0.47461   0.53934    0.012
 5218.00    0.37257   0.56197    0.012
 5219.00    0.35998   0.58219    0.012
 5220.00    0.35103   0.59362    0.012
 5221.00    0.36236   0.59046    0.012
 5222.00    0.35387   0.57491    0.012
 5223.00    0.25718   0.56377    0.012
 5224.00    0.21117   0.56907    0.011
 5225.00    0.35034   0.58421    0.011
 5226.00    0.47470   0.59629    0.011
 5227.00    0.55373   0.60055    0.011
 5228.00    0.55534   0.60232    0.011
 5229.00    0.35547   0.59879    0.011
 5230.00    0.21939   0.58500    0.011
 5231.00    0.22594   0.56374    0.011
 5232.00    0.24420   0.54031    0.011
 5233.00    0.28517   0.51955    0.011
 5234.00    0.30468   0.51663    0.011
 5235.00    0.28791   0.54520    0.011
 5236.00    0.28480   0.57853    0.011
 5237.00    0.30188   0.59182    0.011
 5238.00    0.32340   0.59321    0.011
 5239.00    0.35069   0.58118    0.011
 5240.00    0.36780   0.56332    0.011
 5241.00    0.37325   0.56097    0.011
 5242.00    0.56060   0.57246    0.011
 5243.00    0.93193   0.58952    0.011
 5244.00    0.97703   0.60324    0.011
 5245.00    0.73109   0.60576    0.011
 5246.00    0.50709   0.60074    0.011
 5247.00    0.30033   0.59733    0.011
 5248.00    0.33637   0.59812    0.011
 5249.00    0.54030   0.59724    0.011
 5250.00    0.55053   0.59643    0.012
 5251.00    0.44333   0.60385    0.012
 5252.00    0.44868   0.60708    0.012
 5253.00    0.51358   0.58658    0.012
 5254.00    0.54666   0.56091    0.012
 5255.00    0.56513   0.56013    0.012
 5256.00    0.59791   0.56765    0.012
 5257.00    0.63634   0.55957    0.012
 5258.00    0.51662   0.55648    0.012
 5259.00    0.34364   0.56858    0.012
 5260.00    0.28604   0.57782    0.012
 5261.00    0.26111   0.57254    0.012
 5262.00    0.23279   0.56402    0.012
 5263.00    0.20369   0.57582    0.012
 5264.00    0.23892   0.59973    0.012
 5265.00    0.28623   0.61240    0.012
 5266.00    0.39482   0.61035    0.012
 5267.00    0.51230   0.59761    0.013
 5268.00    0.50360   0.57845    0.013
 5269.00    0.48163   0.55544    0.013
 5270.00    0.54011   0.53342    0.013
 5271.00    0.60408   0.51813    0.013
 5272.00    0.29158   0.50790    0.013
 5273.00   -0.03354   0.50796    0.000
 5274.00    0.24637   0.52736    0.012
 5275.00    0.52000   0.53297    0.012
 5276.00    0.57099   0.49996    0.012
 5277.00    0.61587   0.48114    0.012
 5278.00    0.56773   0.51268    0.012
 5279.00    0.52280   0.55083    0.013
 5280.00    0.50914   0.56248    0.012
 5281.00    0.49368   0.56106    0.012
 5282.00    0.46547   0.55502    0.012
 5283.00    0.42303   0.55904    0.012
 5284.00    0.30345   0.58339    0.012
 5285.00    0.23077   0.60301    0.011
 5286.00    0.36187   0.60210    0.012
 5287.00    0.49387   0.58784    0.012
 5288.00    0.62910   0.57206    0.012
 5289.00    0.71096   0.56132    0.012
 5290.00    0.63254   0.55359    0.012
 5291.00    0.58144   0.55552    0.011
 5292.00    0.60023   0.57881    0.012
 5293.00    0.57733   0.60614    0.012
 5294.00    0.46276   0.61374    0.012
 5295.00    0.38435   0.60592    0.012
 5296.00    0.37492   0.60239    0.011
 5297.00    0.39256   0.60864    0.011
 5298.00    0.45527   0.61310    0.012
 5299.00    0.47628   0.60822    0.012
 5300.00    0.43643   0.59973    0.012
 5301.00    0.50135   0.59709    0.012
 5302.00    0.70071   0.59332    0.012
 5303.00    0.81148   0.57407    0.012
 5304.00    0.82208   0.54424    0.012
 5305.00    0.79497   0.53144    0.012
 5306.00    0.73025   0.54993    0.012
 5307.00    0.58409   0.57053    0.011
 5308.00    0.36630   0.56981    0.011
 5309.00    0.33342   0.56813    0.011
 5310.00    0.44384   0.58184    0.011
 5311.00    0.63129   0.60167    0.011
 5312.00    0.87123   0.61255    0.011
 5313.00    0.89048   0.60876    0.011
 5314.00    0.77795   0.59807    0.011
 5315.00    0.57720   0.59611    0.011
 5316.00    0.33049   0.60476    0.011
 5317.00    0.46948   0.61067    0.011
 5318.00    0.78270   0.60870    0.011
 5319.00    0.79990   0.60305    0.012
 5320.00    0.70210   0.59711    0.012
 5321.00    0.63911   0.59459    0.012
 5322.00    0.58763   0.59266    0.012
 5323.00    0.61337   0.58618    0.012
 5324.00    0.66052   0.58264    0.012
 5325.00    0.65427   0.58658    0.012
 5326.00    0.63583   0.58801    0.011
 5327.00    0.52341   0.58505    0.012
 5328.00    0.39384   0.58435    0.012
 5329.00    0.47354   0.58224    0.012
 5330.00    0.58260   0.57153    0.012
 5331.00    0.49505   0.55614    0.012
 5332.00    0.38767   0.55739    0.012
 5333.00    0.50768   0.56124    0.012
 5334.00    0.64227   0.53409    0.012
 5335.00    0.66893   0.49219    0.012
 5336.00    0.69203   0.49340    0.011
 5337.00    0.57185   0.53563    0.011
 5338.00    0.45981   0.56883    0.011
 5339.00    0.58065   0.57372    0.011
 5340.00    0.68647   0.57038    0.011
 5341.00    0.57689   0.58012    0.011
 5342.00    0.48015   0.59275    0.011
 5343.00    0.50350   0.59315    0.011
 5344.00    0.53393   0.58801    0.011
 5345.00    0.61256   0.58478    0.011
 5346.00    0.68159   0.57193    0.011
 5347.00    0.69992   0.54715    0.011
 5348.00    0.69489   0.53912    0.011
 5349.00    0.59063   0.55896    0.011
 5350.00    0.50840   0.57803    0.011
 5351.00    0.50338   0.58233    0.011
 5352.00    0.50403   0.57368    0.011
 5353.00    0.52138   0.56562    0.011
 5354.00    0.52572   0.56838    0.011
 5355.00    0.49741   0.56556    0.011
 5356.00    0.52931   0.55576    0.011
 5357.00    0.69151   0.56084    0.011
 5358.00    0.78219   0.57893    0.011
 5359.00    0.73849   0.59112    0.011
 5360.00    0.70422   0.59266    0.011
 5361.00    0.68541   0.59754    0.011
 5362.00    0.72574   0.60734    0.011
 5363.00    0.85112   0.61033    0.011
 5364.00    0.85544   0.60940    0.011
 5365.00    0.70658   0.60843    0.011
 5366.00    0.53136   0.60687    0.011
 5367.00    0.32676   0.60319    0.011
 5368.00    0.35966   0.59377   -2.000
 5369.00    0.62610   0.58332   -2.000
 5370.00    0.64230   0.58022   -2.000
 5371.00    0.44148   0.57760   -2.000
 5372.00    0.34729   0.57044   -2.000
 5373.00    0.33455   0.56821   -2.000
 5374.00    0.46725   0.56911   -2.000
 5375.00    0.69760   0.56802   -2.000
 5376.00    0.70673   0.55804   -2.000
 5377.00    0.58574   0.53447   -2.000
 5378.00    0.55853   0.51545   -2.000
 5379.00    0.57941   0.52556   -2.000
 5380.00    0.57823   0.55869   -2.000
 5381.00    0.56725   0.58392   -2.000
 5382.00    0.55395   0.59304   -2.000
 5383.00    0.53976   0.58970    0.012
 5384.00    0.47843   0.58207    0.012
 5385.00    0.40179   0.58342    0.012
 5386.00    0.39552   0.58885    0.012
 5387.00    0.40835   0.58663    0.012
 5388.00    0.37401   0.58034    0.011
 5389.00    0.32916   0.57493    0.011
 5390.00    0.37119   0.56931    0.011
 5391.00    0.42866   0.57091    0.011
 5392.00    0.35413   0.57965    0.011
 5393.00    0.26169   0.58311    0.011
 5394.00    0.29789   0.58041    0.011
 5395.00    0.34653   0.57564    0.011
 5396.00    0.36454   0.56671    0.011
 5397.00    0.38071   0.55658    0.011
 5398.00    0.42054   0.55185    0.011
 5399.00    0.46131   0.55185    0.011
 5400.00    0.55621   0.55236    0.011
 5401.00    0.64792   0.55218    0.011
 5402.00    0.65724   0.55133    0.011
 5403.00    0.65746   0.53899    0.011
 5404.00    0.53435   0.52055    0.011
 5405.00    0.42838   0.52711    0.011
 5406.00    0.47669   0.55055    0.011
 5407.00    0.50626   0.55942    0.011
 5408.00    0.41195   0.55900    0.011
 5409.00    0.35034   0.56334    0.011
 5410.00    0.45686   0.55896    0.011
 5411.00    0.57409   0.53586    0.011
 5412.00    0.73578   0.50963    0.011
 5413.00    0.85007   0.50233    0.011
 5414.00    0.80156   0.51892    0.011
 5415.00    0.74146   0.53506    0.011
 5416.00    0.64783   0.52810    0.011
 5417.00    0.59202   0.50921    0.011
 5418.00    0.62964   0.50943    0.011
 5419.00    0.63284   0.53033    0.011
 5420.00    0.56277   0.55033    0.011
 5421.00    0.58303   0.55754    0.011
 5422.00    0.77035   0.55921    0.011
 5423.00    0.75832   0.56850    0.011
 5424.00    0.42422   0.57979    0.011
 5425.00    0.27931   0.58160    0.011
 5426.00    0.40259   0.57432    0.011
 5427.00    0.38545   0.56429    0.011
 5428.00    0.19319   0.56145    0.011
 5429.00    0.22332   0.56767    0.011
 5430.00    0.49787   0.56545    0.012
 5431.00    0.56831   0.55240    0.012
 5432.00    0.44086   0.55251    0.012
 5433.00    0.39849   0.56884    0.011
 5434.00    0.42887   0.58209    0.011
 5435.00    0.51089   0.57288    0.011
 5436.00    0.63180   0.54062    0.011
 5437.00    0.56628   0.52388    0.011
 5438.00    0.37743   0.53959    0.011
 5439.00    0.34741   0.54981    0.011
 5440.00    0.40940   0.53988    0.011
 5441.00    0.48096   0.52745    0.011
 5442.00    0.55734   0.52395    0.011
 5443.00    0.63501   0.53081    0.011
 5444.00    0.71324   0.54453    0.011
 5445.00    0.61206   0.56258    0.011
 5446.00    0.44359   0.57797    0.011
 5447.00    0.41536   0.58542    0.011
 5448.00    0.43174   0.58685    0.011
 5449.00    0.48924   0.58612    0.011
 5450.00    0.55767   0.58530    0.011
 5451.00    0.64079   0.57842    0.011
 5452.00    0.72711   0.55940    0.011
 5453.00    0.61021   0.53104    0.011
 5454.00    0.45820   0.51354    0.011
 5455.00    0.40034   0.52575    0.011
 5456.00    0.35482   0.54987    0.011
 5457.00    0.54762   0.56308    0.011
 5458.00    0.76243   0.56402    0.011
 5459.00    0.64678   0.55958    0.011
 5460.00    0.51256   0.55206    0.011
 5461.00    0.40054   0.53784    0.011
 5462.00    0.29175   0.51756    0.011
 5463.00    0.46888   0.51197    0.011
 5464.00    0.63229   0.53104    0.011
 5465.00    0.47363   0.55518    0.011
 5466.00    0.33659   0.56521    0.011
 5467.00    0.47732   0.56038    0.011
 5468.00    0.60090   0.55092    0.011
 5469.00    0.57609   0.54100    0.011
 5470.00    0.57136   0.53137    0.011
 5471.00    0.69541   0.53425    0.011
 5472.00    0.76516   0.54635    0.011
 5473.00    0.56266   0.55058    0.011
 5474.00    0.42416   0.55035    0.011
 5475.00    0.54539   0.55379    0.011
 5476.00    0.59265   0.55339    0.011
 5477.00    0.39090   0.54576    0.011
 5478.00    0.27373   0.54214   -2.000
 5479.00    0.39678   0.54337   -2.000
 5480.00    0.45377   0.53794   -2.000
 5481.00    0.35038   0.53223   -2.000
 5482.00    0.18849   0.53045   -2.000
 5483.00   -0.09596   0.51736   -2.000
 5484.00   -0.34209   0.50430   -2.000
 5485.00   -0.51843   0.51667   -2.000
 5486.00   -0.64465   0.53963   -2.000
 5487.00   -0.69108   0.54306   -2.000
 5488.00   -0.56858   0.52769   -2.000
 5489.00   -0.21010   0.51971   -2.000
 5490.00    0.30706   0.52801   -2.000
 5491.00    1.01927   0.54316   -2.000
 5492.00    1.39142   0.55641   -2.000
 5493.00    1.39504   0.55684   -2.000
 5494.00    1.27312   0.54297   -2.000
 5495.00    1.03122   0.53287   -2.000
 5496.00    0.76423   0.53649   -2.000
 5497.00    0.47608   0.54122   -2.000
 5498.00    0.41775   0.54463   -2.000
 5499.00    0.52997   0.54856   -2.000
 5500.00    0.61261   0.54543   -2.000
 5501.00    0.67597   0.54076   -2.000
 5502.00    0.68083   0.54384   -1.000
 5503.00    0.65232   0.54496   -1.000
 5504.00    0.69396   0.53636    0.031
 5505.00    0.77046   0.53457    0.012
 5506.00    0.80488   0.54696    0.011
 5507.00    0.82123   0.55281    0.011
 5508.00    0.67537   0.54214    0.011
 5509.00    0.46975   0.53117    0.010
 5510.00    0.40642   0.53080    0.010
 5511.00    0.38748   0.53510    0.011
 5512.00    0.39376   0.53374    0.011
 5513.00    0.40661   0.52364    0.011
 5514.00    0.36022   0.51958    0.011
 5515.00    0.30125   0.53060    0.011
 5516.00    0.37184   0.54007    0.011
 5517.00    0.46418   0.53979    0.011
 5518.00    0.51198   0.53275    0.011
 5519.00    0.55413   0.52039    0.011
 5520.00    0.62099   0.51238    0.011
 5521.00    0.69004   0.51379    0.011
 5522.00    0.71835   0.51969    0.011
 5523.00    0.74454   0.52621    0.011
 5524.00    0.62605   0.53338    0.011
 5525.00    0.50523   0.54462    0.011
 5526.00    0.41113   0.55400    0.011
 5527.00    0.32700   0.55439    0.011
 5528.00    0.45734   0.55058    0.011
 5529.00    0.57575   0.54869    0.011
 5530.00    0.54868   0.54868    0.011
 5531.00    0.52646   0.54818    0.011
 5532.00    0.54465   0.54486    0.011
 5533.00    0.56142   0.53819    0.011
 5534.00    0.56934   0.52655    0.011
 5535.00    0.57479   0.51324    0.011
 5536.00    0.56818   0.51353    0.011
 5537.00    0.54760   0.52898    0.011
 5538.00    0.47153   0.54149    0.011
 5539.00    0.40725   0.54261    0.011
 5540.00    0.38186   0.53949    0.010
 5541.00    0.41815   0.53616    0.010
 5542.00    0.62648   0.53167    0.010
 5543.00    0.76131   0.53132    0.010
 5544.00    0.72071   0.53457    0.010
 5545.00    0.69802   0.53535    0.010
 5546.00    0.71225   0.53794    0.010
 5547.00    0.70796   0.54531    0.010
 5548.00    0.67045   0.55150    0.010
 5549.00    0.65732   0.54999    0.010
 5550.00    0.68241   0.54212    0.010
 5551.00    0.67043   0.53786    0.010
 5552.00    0.60738   0.53879    0.010
 5553.00    0.53163   0.53775    0.010
 5554.00    0.44048   0.53840    0.010
 5555.00    0.42539   0.54637    0.010
 5556.00    0.49155   0.55416    0.010
 5557.00    0.57692   0.55616    0.011
 5558.00    0.68038   0.55531    0.011
 5559.00    0.75369   0.55228    0.011
 5560.00    0.80194   0.54592    0.011
 5561.00    0.75900   0.53872    0.011
 5562.00    0.64935   0.53645    0.011
 5563.00    0.55814   0.53923    0.011
 5564.00    0.47875   0.54014    0.011
 5565.00    0.53888   0.53833    0.011
 5566.00    0.67741   0.53876    0.011
 5567.00    0.61241   0.54012    0.011
 5568.00    0.44790   0.53852    0.011
 5569.00    0.49893   0.53324    0.011
 5570.00    0.64105   0.52841    0.011
 5571.00    0.61021   0.52897    0.011
 5572.00    0.51680   0.52930    0.011
 5573.00    0.61159   0.52461    0.011
 5574.00    0.76396   0.52207    0.011
 5575.00    0.75709   0.52363    0.011
 5576.00    0.70967   0.52266    0.011
 5577.00    0.67413   0.52262    0.011
 5578.00    0.64104   0.52881    0.010
 5579.00    0.59165   0.52810    0.010
 5580.00    0.53959   0.51978    0.010
 5581.00    0.53503   0.52255    0.010
 5582.00    0.53626   0.53176    0.010
 5583.00    0.52640   0.53323    0.010
 5584.00    0.51560   0.53329    0.010
 5585.00    0.48355   0.53488    0.010
 5586.00    0.45046   0.53426    0.010
 5587.00    0.58788   0.53551    0.010
 5588.00    0.72349   0.53645    0.010
 5589.00    0.59980   0.53271    0.010
 5590.00    0.47312   0.53010    0.010
 5591.00    0.28712   0.52886    0.010
 5592.00    0.12007   0.52282    0.010
 5593.00    0.17310   0.51032    0.011
 5594.00    0.23291   0.49525    0.011
 5595.00    0.34727   0.48601    0.011
 5596.00    0.46482   0.48624    0.011
 5597.00    0.60163   0.49385    0.011
 5598.00    0.66113   0.50093    0.011
 5599.00    0.35207   0.50257    0.011
 5600.00    0.17111   0.50180    0.011
 5601.00    0.48771   0.50397    0.011
 5602.00    0.71125   0.51201    0.011
 5603.00    0.63369   0.52674    0.011
 5604.00    0.57576   0.53364    0.011
 5605.00    0.57155   0.52335    0.011
 5606.00    0.52821   0.51145    0.011
 5607.00    0.39301   0.50777    0.011
 5608.00    0.37149   0.50430    0.011
 5609.00    0.58059   0.49856    0.011
 5610.00    0.69938   0.49776    0.011
 5611.00    0.65873   0.50829    0.011
 5612.00    0.68358   0.52454    0.011
 5613.00    0.80967   0.53687    0.011
 5614.00    0.80195   0.54225    0.011
 5615.00    0.61268   0.54206    0.011
 5616.00    0.54676   0.53940    0.010
 5617.00    0.62823   0.53737    0.010
 5618.00    0.67988   0.53828    0.010
 5619.00    0.70012   0.54194    0.010
 5620.00    0.72272   0.54297    0.010
 5621.00    0.74752   0.53066    0.010
 5622.00    0.63844   0.50378    0.010
 5623.00    0.41969   0.48665    0.010
 5624.00    0.41690   0.49564    0.010
 5625.00    0.56981   0.51162    0.010
 5626.00    0.67284   0.51590    0.010
 5627.00    0.74432   0.51403    0.010
 5628.00    0.69388   0.51711    0.010
 5629.00    0.57600   0.52381    0.010
 5630.00    0.55220   0.52278    0.010
 5631.00    0.57368   0.50853    0.010
 5632.00    0.59155   0.49427    0.010
 5633.00    0.60793   0.49592    0.010
 5634.00    0.67597   0.50738    0.010
 5635.00    0.76237   0.51571    0.010
 5636.00    0.63245   0.52216    0.010
 5637.00    0.43763   0.52921    0.010
 5638.00    0.37783   0.53302    0.010
 5639.00    0.35165   0.53233    0.010
 5640.00    0.34599   0.52922    0.010
 5641.00    0.34446   0.52488    0.010
 5642.00    0.49905   0.51997    0.010
 5643.00    0.67835   0.51467    0.010
 5644.00    0.56999   0.50944    0.010
 5645.00    0.42776   0.50770    0.010
 5646.00    0.32293   0.51073    0.010
 5647.00    0.22109   0.51268    0.010
 5648.00    0.43514   0.50863    0.010
 5649.00    0.66325   0.50521    0.010
 5650.00    0.65276   0.50754    0.010
 5651.00    0.64217   0.51102    0.010
 5652.00    0.75930   0.51316    0.010
 5653.00    0.86381   0.51500    0.010
 5654.00    0.73547   0.51722    0.010
 5655.00    0.60621   0.51855    0.010
 5656.00    0.46661   0.51685    0.010
 5657.00    0.35622   0.51471    0.010
 5658.00    0.47227   0.51743    0.010
 5659.00    0.56764   0.52394    0.010
 5660.00    0.54157   0.52708    0.010
 5661.00    0.50952   0.52169    0.010
 5662.00    0.44959   0.51336    0.010
 5663.00    0.43005   0.51278    0.010
 5664.00    0.56404   0.51266    0.010
 5665.00    0.64405   0.49811    0.010
 5666.00    0.55278   0.48342    0.010
 5667.00    0.50985   0.48962    0.010
 5668.00    0.59694   0.50250    0.010
 5669.00    0.63676   0.50228    0.010
 5670.00    0.56752   0.49792    0.010
 5671.00    0.51313   0.50346    0.010
 5672.00    0.48839   0.51414    0.010
 5673.00    0.51415   0.51866    0.010
 5674.00    0.62772   0.51437    0.010
 5675.00    0.67167   0.50798    0.010
 5676.00    0.60962   0.50649    0.010
 5677.00    0.62154   0.50860    0.010
 5678.00    0.73240   0.51073    0.010
 5679.00    0.77671   0.51546    0.010
 5680.00    0.74262   0.52425    0.010
 5681.00    0.74448   0.52987    0.010
 5682.00    0.78369   0.52749    0.010
 5683.00    0.78212   0.52473    0.010
 5684.00    0.74321   0.52719    0.010
 5685.00    0.65477   0.52802    0.010
 5686.00    0.52634   0.52329    0.010
 5687.00    0.46322   0.51934    0.010
 5688.00    0.44650   0.51788    0.010
 5689.00    0.43199   0.51238    0.010
 5690.00    0.41885   0.50476    0.010
 5691.00    0.47281   0.50522    0.010
 5692.00    0.56332   0.51175    0.010
 5693.00    0.54634   0.51261    0.010
 5694.00    0.47848   0.50528    0.010
 5695.00    0.46171   0.49873    0.010
 5696.00    0.46581   0.50028    0.010
 5697.00    0.50521   0.50826    0.010
 5698.00    0.55692   0.51662    0.010
 5699.00    0.52733   0.52304    0.010
 5700.00    0.47383   0.52718    0.010
 5701.00    0.49827   0.52647    0.010
 5702.00    0.54170   0.52246    0.010
 5703.00    0.49785   0.52038    0.010
 5704.00    0.43682   0.51963    0.009
 5705.00    0.33157   0.51455    0.010
 5706.00    0.21953   0.50774    0.010
 5707.00    0.32592   0.50436    0.010
 5708.00    0.45706   0.49998    0.009
 5709.00    0.44438   0.49404    0.009
 5710.00    0.42079   0.49438    0.009
 5711.00    0.45869   0.50182    0.009
 5712.00    0.49908   0.50703    0.009
 5713.00    0.56380   0.50291    0.009
 5714.00    0.62652   0.49357    0.009
 5715.00    0.59893   0.48512    0.009
 5716.00    0.56881   0.47849    0.009
 5717.00    0.49528   0.47729    0.010
 5718.00    0.42769   0.48079    0.010
 5719.00    0.42302   0.48299    0.010
 5720.00    0.43167   0.48941    0.010
 5721.00    0.54022   0.50217    0.010
 5722.00    0.63041   0.51104    0.010
 5723.00    0.61583   0.51459    0.010
 5724.00    0.58969   0.51630    0.010
 5725.00    0.51100   0.51599    0.010
 5726.00    0.44312   0.51658    0.010
 5727.00    0.41544   0.51923    0.010
 5728.00    0.42295   0.52161    0.010
 5729.00    0.53996   0.52456    0.010
 5730.00    0.61140   0.52796    0.010
 5731.00    0.56242   0.52905    0.010
 5732.00    0.53502   0.52771    0.010
 5733.00    0.55662   0.52297    0.010
 5734.00    0.53879   0.51344    0.010
 5735.00    0.44347   0.50759    0.010
 5736.00    0.39766   0.51302    0.010
 5737.00    0.43662   0.51968    0.010
 5738.00    0.47908   0.51523    0.010
 5739.00    0.52680   0.50704    0.009
 5740.00    0.55958   0.50888    0.000
 5741.00    0.57267   0.51770    0.000
 5742.00    0.59024   0.52296    0.000
 5743.00    0.61301   0.52241    0.000
 5744.00    0.67172   0.51875    0.000
 5745.00    0.76723   0.51557    0.000
 5746.00    0.81392   0.51439    0.000
 5747.00    0.81652   0.51436    0.000
 5748.00    0.75737   0.51480    0.000
 5749.00    0.64907   0.51429    0.000
 5750.00    0.54636   0.51198    0.000
 5751.00    0.44755   0.51184    0.000
 5752.00    0.43510   0.51749    0.000
 5753.00    0.47568   0.52364    0.000
 5754.00    0.52686   0.52137    0.000
 5755.00    0.58372   0.51056    0.000
 5756.00    0.56028   0.50393    0.000
 5757.00    0.49944   0.51006    0.000
 5758.00    0.45041   0.51875    0.000
 5759.00    0.40612   0.51676    0.000
 5760.00    0.35859   0.50437    0.000
 5761.00    0.30996   0.49215    0.000
 5762.00    0.31822   0.49144    0.000
 5763.00    0.34288   0.50344    0.000
 5764.00    0.40013   0.51700    0.000
 5765.00    0.46515   0.52327    0.000
 5766.00    0.49888   0.52170    0.000
 5767.00    0.52660   0.51374    0.000
 5768.00    0.49081   0.50249    0.000
 5769.00    0.44556   0.49202    0.000
 5770.00    0.47773   0.48743    0.000
 5771.00    0.51834   0.49456    0.000
 5772.00    0.45496   0.50949    0.000
 5773.00    0.38412   0.51944    0.000
 5774.00    0.39245   0.52159    0.000
 5775.00    0.40370   0.52147    0.000
 5776.00    0.49826   0.52030    0.000
 5777.00    0.58868   0.51777    0.000
 5778.00    0.51892   0.51506    0.000
 5779.00    0.45700   0.51184    0.000
 5780.00    0.52118   0.50921    0.000
 5781.00    0.58438   0.50841    0.000
 5782.00    0.63765   0.50765    0.000
 5783.00    0.67197   0.50870    0.000
 5784.00    0.56887   0.51238    0.000
 5785.00    0.47396   0.51430    0.000
 5786.00    0.42450   0.51205    0.000
 5787.00    0.39272   0.50312    0.000
 5788.00    0.43934   0.48652    0.000
 5789.00    0.50220   0.47301    0.000
 5790.00    0.62424   0.47275    0.000
 5791.00    0.69837   0.47762   -2.000
 5792.00    0.62617   0.47537   -2.000
 5793.00    0.56897   0.47219   -2.000
 5794.00    0.55071   0.48046   -2.000
 5795.00    0.52871   0.49432   -2.000
 5796.00    0.49835   0.50268   -2.000
 5797.00    0.46681   0.50372   -2.000
 5798.00    0.43299   0.49821   -2.000
 5799.00    0.37584   0.49485   -2.000
 5800.00    0.27932   0.50037   -2.000
 5801.00    0.25354   0.50819   -2.000
 5802.00    0.33233   0.51393   -2.000
 5803.00    0.42765   0.51618   -2.000
 5804.00    0.54447   0.51014   -2.000
 5805.00    0.58248   0.49946   -2.000
 5806.00    0.53026   0.49763   -2.000
 5807.00    0.49543   0.50685   -2.000
 5808.00    0.47816   0.51390   -2.000
 5809.00    0.49924   0.51603   -2.000
 5810.00    0.55447   0.51726   -2.000
 5811.00    0.55515   0.51427    0.000
 5812.00    0.51302   0.50603    0.000
 5813.00    0.50425   0.50187    0.000
 5814.00    0.51851   0.50355    0.000
 5815.00    0.53364   0.50633    0.000
 5816.00    0.54930   0.50801    0.000
 5817.00    0.54395   0.50907    0.000
 5818.00    0.52751   0.50914    0.000
 5819.00    0.50854   0.50734    0.000
 5820.00    0.48842   0.50608    0.000
 5821.00    0.52751   0.50666    0.000
 5822.00    0.58995   0.50484    0.000
 5823.00    0.60305   0.49753    0.000
 5824.00    0.59955   0.49369    0.000
 5825.00    0.57256   0.49945    0.000
 5826.00    0.53893   0.51004    0.000
 5827.00    0.51213   0.51661    0.000
 5828.00    0.48691   0.51795    0.000
 5829.00    0.56839   0.51626    0.000
 5830.00    0.66981   0.51283    0.000
 5831.00    0.65231   0.51050    0.000
 5832.00    0.61766   0.51150    0.000
 5833.00    0.58296   0.51453    0.000
 5834.00    0.54826   0.51551    0.000
 5835.00    0.50091   0.51432    0.000
 5836.00    0.45271   0.51366    0.000
 5837.00    0.41088   0.51493    0.000
 5838.00    0.36927   0.51508    0.000
 5839.00    0.32877   0.51315    0.000
 5840.00    0.29007   0.51198    0.000
 5841.00    0.30820   0.50984    0.000
 5842.00    0.33158   0.50526    0.000
 5843.00    0.43427   0.50406    0.000
 5844.00    0.52797   0.50781    0.000
 5845.00    0.53456   0.50794    0.000
 5846.00    0.53199   0.50381    0.000
 5847.00    0.46531   0.50465    0.000
 5848.00    0.41487   0.51087    0.000
 5849.00    0.45223   0.51576    0.000
 5850.00    0.49551   0.51730    0.000
 5851.00    0.56440   0.51646    0.000
 5852.00    0.60601   0.51299    0.000
 5853.00    0.55027   0.50754    0.000
 5854.00    0.50390   0.50154    0.000
 5855.00    0.48563   0.49674    0.000
 5856.00    0.47350   0.49629    0.000
 5857.00    0.47705   0.49874    0.000
 5858.00    0.48490   0.49995    0.000
 5859.00    0.50216   0.49654    0.000
 5860.00    0.51826   0.48829    0.000
 5861.00    0.53213   0.48173    0.000
 5862.00    0.51947   0.48390    0.000
 5863.00    0.46275   0.48817    0.000
 5864.00    0.37002   0.48274    0.000
 5865.00    0.22483   0.47108    0.000
 5866.00    0.18447   0.46807    0.000
 5867.00    0.27843   0.47668    0.000
 5868.00    0.35698   0.48663    0.000
 5869.00    0.41814   0.49099    0.000
 5870.00    0.49089   0.48864    0.000
 5871.00    0.57518   0.48707    0.000
 5872.00    0.59950   0.49019    0.000
 5873.00    0.57116   0.49082    0.000
 5874.00    0.51897   0.48553    0.000
 5875.00    0.44831   0.48352    0.000
 5876.00    0.40984   0.49020    0.000
 5877.00    0.39325   0.49783    0.000
 5878.00    0.38743   0.50076    0.000
 5879.00    0.38802   0.49885    0.000
 5880.00    0.38953   0.49389    0.000
 5881.00    0.39153   0.48752    0.000
 5882.00    0.48843   0.47698    0.000
 5883.00    0.62811   0.46734    0.000
 5884.00    0.63153   0.46555    0.000
 5885.00    0.58212   0.47314    0.000
 5886.00    0.56063   0.48187    0.000
 5887.00    0.54835   0.47878    0.000
 5888.00    0.52911   0.47409    0.000
 5889.00    0.50795   0.47575    0.000
 5890.00    0.50046   0.48088    0.000
 5891.00    0.49608   0.48012    0.000
 5892.00    0.44898   0.47622    0.000
 5893.00    0.39411   0.47631    0.000
 5894.00    0.38720   0.47568    0.000
 5895.00    0.38699   0.46205    0.000
 5896.00    0.32999   0.42581    0.000
 5897.00    0.26730   0.37621    0.000
 5898.00    0.27870   0.35192    0.000
 5899.00    0.29482   0.37491    0.000
 5900.00    0.42912   0.41249    0.000
 5901.00    0.56663   0.43075    0.009
 5902.00    0.61692   0.42319    0.009
 5903.00    0.66515   0.39343    0.009
 5904.00    0.65501   0.37625    0.009
 5905.00    0.64569   0.40047    0.009
 5906.00    0.64790   0.43615    0.009
 5907.00    0.65269   0.45420    0.009
 5908.00    0.68144   0.46400    0.009
 5909.00    0.70581   0.47249    0.009
 5910.00    0.70044   0.47610    0.009
 5911.00    0.68027   0.47754    0.009
 5912.00    0.58214   0.47797    0.009
 5913.00    0.50568   0.47553    0.009
 5914.00    0.52093   0.47398    0.009
 5915.00    0.54219   0.47700    0.009
 5916.00    0.58442   0.48088    0.009
 5917.00    0.62196   0.48193    0.009
 5918.00    0.64572   0.48227    0.009
 5919.00    0.64218   0.48449    0.009
 5920.00    0.57016   0.48397    0.009
 5921.00    0.50015   0.47639    0.009
 5922.00    0.43446   0.46685    0.009
 5923.00    0.40050   0.46353    0.009
 5924.00    0.42604   0.46597    0.009
 5925.00    0.45172   0.47192    0.009
 5926.00    0.47765   0.47728    0.009
 5927.00    0.50864   0.48007    0.009
 5928.00    0.54690   0.48202    0.009
 5929.00    0.54398   0.48039    0.009
 5930.00    0.48907   0.47682    0.009
 5931.00    0.50303   0.47713    0.009
 5932.00    0.59362   0.48030    0.009
 5933.00    0.61263   0.48301    0.009
 5934.00    0.56135   0.48482    0.009
 5935.00    0.51543   0.48318    0.009
 5936.00    0.47414   0.47795    0.009
 5937.00    0.44796   0.47155    0.009
 5938.00    0.43331   0.46881    0.009
 5939.00    0.49750   0.47520    0.009
 5940.00    0.61452   0.48332    0.009
 5941.00    0.62836   0.48187    0.009
 5942.00    0.58163   0.47330    0.009
 5943.00    0.52495   0.46955    0.009
 5944.00    0.46318   0.47524    0.008
 5945.00    0.46055   0.48084    0.008
 5946.00    0.48413   0.48326    0.008
 5947.00    0.51381   0.48466    0.008
 5948.00    0.54582   0.48012    0.008
 5949.00    0.53769   0.47135    0.008
 5950.00    0.51658   0.46907    0.008
 5951.00    0.52011   0.47374    0.008
 5952.00    0.53031   0.47967    0.009
 5953.00    0.54317   0.48485    0.009
 5954.00    0.55662   0.48728    0.009
 5955.00    0.55623   0.48378    0.009
 5956.00    0.55339   0.47473    0.009
 5957.00    0.60378   0.46875    0.009
 5958.00    0.66135   0.47266    0.009
 5959.00    0.61988   0.47772    0.009
 5960.00    0.56889   0.47295    0.009
 5961.00    0.46732   0.46686    0.009
 5962.00    0.36274   0.47100    0.009
 5963.00    0.31995   0.47591    0.009
 5964.00    0.27925   0.47150    0.009
 5965.00    0.31693   0.46558    0.009
 5966.00    0.35459   0.46674    0.009
 5967.00    0.39172   0.47305    0.009
 5968.00    0.42631   0.48003    0.009
 5969.00    0.42673   0.48462    0.009
 5970.00    0.42690   0.48585    0.009
 5971.00    0.42480   0.48450    0.009
 5972.00    0.42900   0.48245    0.008
 5973.00    0.47460   0.47808    0.009
 5974.00    0.52910   0.47500    0.009
 5975.00    0.62924   0.47878    0.009
 5976.00    0.69985   0.48345    0.009
 5977.00    0.64828   0.48544    0.009
 5978.00    0.59563   0.48727    0.008
 5979.00    0.53932   0.48859    0.008
 5980.00    0.49868   0.48781    0.008
 5981.00    0.50331   0.48640    0.008
 5982.00    0.50485   0.48331    0.008
 5983.00    0.49880   0.47624    0.008
 5984.00    0.48621   0.46804    0.008
 5985.00    0.45972   0.46391    0.008
 5986.00    0.46393   0.46463    0.008
 5987.00    0.52482   0.46965    0.009
 5988.00    0.57219   0.47683    0.009
 5989.00    0.59778   0.48023    0.009
 5990.00    0.63672   0.47633    0.009
 5991.00    0.69456   0.46592    0.009
 5992.00    0.74788   0.45557    0.009
 5993.00    0.79558   0.45723    0.009
 5994.00    0.76354   0.46697    0.009
 5995.00    0.64399   0.47176    0.009
 5996.00    0.55243   0.47329    0.009
 5997.00    0.48797   0.47662    0.009
 5998.00    0.51689   0.47791    0.009
 5999.00    0.62552   0.47387    0.009
 6000.00    0.69412   0.47188    0.009
 6001.00    0.73264   0.47794    0.009
 6002.00    0.73611   0.48389    0.009
 6003.00    0.71643   0.48310    0.009
 6004.00    0.69593   0.47679    0.009
 6005.00    0.67495   0.46864    0.009
 6006.00    0.66001   0.46460    0.009
 6007.00    0.64811   0.46693    0.008
 6008.00    0.62025   0.47198    0.008
 6009.00    0.58543   0.47425    0.009
 6010.00    0.54139   0.46975    0.009
 6011.00    0.49390   0.46497    0.008
 6012.00    0.43634   0.46846    0.008
 6013.00    0.37557   0.47155    0.008
 6014.00    0.41482   0.46675    0.008
 6015.00    0.48060   0.45758    0.008
 6016.00    0.47091   0.45076    0.008
 6017.00    0.44486   0.45718    0.009
 6018.00    0.42893   0.47161    0.009
 6019.00    0.41473   0.47674    0.009
 6020.00    0.43143   0.46949    0.009
 6021.00    0.45217   0.46032    0.009
 6022.00    0.47684   0.46016    0.009
 6023.00    0.50186   0.46480    0.009
 6024.00    0.56499   0.46338    0.009
 6025.00    0.63025   0.46052    0.009
 6026.00    0.58735   0.46274    0.009
 6027.00    0.54296   0.46256    0.009
 6028.00    0.58538   0.45793    0.009
 6029.00    0.62570   0.45666    0.009
 6030.00    0.61734   0.45984    0.009
 6031.00    0.61409   0.46279    0.009
 6032.00    0.67606   0.46433    0.009
 6033.00    0.72406   0.46884    0.009
 6034.00    0.65177   0.47202    0.009
 6035.00    0.58577   0.47085    0.008
 6036.00    0.55994   0.47337    0.008
 6037.00    0.55549   0.47794    0.008
 6038.00    0.65783   0.47815    0.008
 6039.00    0.73766   0.47613    0.008
 6040.00    0.72635   0.47754    0.008
 6041.00    0.71433   0.48055    0.008
 6042.00    0.69991   0.48114    0.008
 6043.00    0.70594   0.48017    0.008
 6044.00    0.76992   0.47981    0.008
 6045.00    0.81187   0.48004    0.008
 6046.00    0.80044   0.47980    0.008
 6047.00    0.77753   0.47747    0.008
 6048.00    0.73062   0.47434    0.008
 6049.00    0.70142   0.47368    0.009
 6050.00    0.70444   0.47410    0.009
 6051.00    0.71298   0.47761    0.009
 6052.00    0.73030   0.48193    0.009
 6053.00    0.76401   0.48335    0.009
 6054.00    0.82058   0.48414    0.009
 6055.00    0.84393   0.48451    0.009
 6056.00    0.82650   0.48268    0.009
 6057.00    0.78520   0.47996    0.009
 6058.00    0.71808   0.48220    0.009
 6059.00    0.71833   0.48429    0.009
 6060.00    0.78287   0.48135    0.009
 6061.00    0.77271   0.47587    0.009
 6062.00    0.69970   0.47303    0.009
 6063.00    0.63975   0.47099    0.009
 6064.00    0.58949   0.46736    0.009
 6065.00    0.55412   0.46585    0.008
 6066.00    0.52843   0.46872    0.008
 6067.00    0.50454   0.47422    0.008
 6068.00    0.48165   0.47811    0.008
 6069.00    0.47850   0.47813    0.008
 6070.00    0.48512   0.47425    0.008
 6071.00    0.55049   0.46819    0.008
 6072.00    0.64106   0.46054    0.008
 6073.00    0.66142   0.45178    0.008
 6074.00    0.65599   0.45479    0.008
 6075.00    0.63060   0.47092    0.008
 6076.00    0.59901   0.48230    0.008
 6077.00    0.60659   0.48410    0.008
 6078.00    0.62433   0.48299    0.008
 6079.00    0.62230   0.48291    0.008
 6080.00    0.61607   0.48406    0.008
 6081.00    0.65876   0.48443    0.008
 6082.00    0.70962   0.48419    0.009
 6083.00    0.70528   0.48295    0.009
 6084.00    0.69397   0.47955    0.009
 6085.00    0.61451   0.47497    0.009
 6086.00    0.52907   0.46758    0.009
 6087.00    0.55093   0.46292    0.009
 6088.00    0.57834   0.46550    0.009
 6089.00    0.61247   0.46407    0.009
 6090.00    0.64535   0.45765    0.009
 6091.00    0.57774   0.45889    0.009
 6092.00    0.51377   0.46437    0.008
 6093.00    0.52742   0.46377    0.008
 6094.00    0.54471   0.46222    0.008
 6095.00    0.60620   0.46530    0.008
 6096.00    0.66784   0.46912    0.009
 6097.00    0.73071   0.46640    0.008
 6098.00    0.78500   0.45790    0.008
 6099.00    0.78615   0.45479    0.008
 6100.00    0.77000   0.45747    0.008
 6101.00    0.66948   0.45884    0.008
 6102.00    0.58231   0.46306    0.008
 6103.00    0.54795   0.47083    0.008
 6104.00    0.52200   0.47173    0.008
 6105.00    0.52374   0.46721    0.008
 6106.00    0.52178   0.46622    0.008
 6107.00    0.50953   0.47046    0.008
 6108.00    0.52232   0.47426    0.008
 6109.00    0.59477   0.46711    0.008
 6110.00    0.65759   0.44429    0.008
 6111.00    0.70058   0.42891    0.008
 6112.00    0.71766   0.44202    0.009
 6113.00    0.68836   0.46170    0.009
 6114.00    0.65549   0.46842    0.009
 6115.00    0.61700   0.46540    0.009
 6116.00    0.55738   0.46196    0.009
 6117.00    0.46874   0.46654    0.009
 6118.00    0.46009   0.47093    0.009
 6119.00    0.54823   0.46591    0.009
 6120.00    0.61324   0.46233    0.009
 6121.00    0.65358   0.46802    0.009
 6122.00    0.66082   0.47502    0.009
 6123.00    0.63691   0.47451    0.008
 6124.00    0.61114   0.46684    0.008
 6125.00    0.58381   0.46319    0.008
 6126.00    0.57093   0.46643    0.008
 6127.00    0.56860   0.46392    0.008
 6128.00    0.58267   0.45416    0.008
 6129.00    0.60724   0.44224    0.008
 6130.00    0.66834   0.43120    0.008
 6131.00    0.74991   0.43703    0.008
 6132.00    0.74832   0.45640    0.008
 6133.00    0.70616   0.46465    0.008
 6134.00    0.66160   0.46107    0.008
 6135.00    0.61604   0.45655    0.009
 6136.00    0.61534   0.45322    0.009
 6137.00    0.63083   0.45412    0.009
 6138.00    0.62601   0.46103    0.009
 6139.00    0.61499   0.46776    0.009
 6140.00    0.48107   0.46994    0.009
 6141.00    0.31594   0.46979    0.009
 6142.00    0.29583   0.46419    0.009
 6143.00    0.30567   0.44968    0.009
 6144.00    0.40892   0.42700    0.009
 6145.00    0.52736   0.40780    0.009
 6146.00    0.55931   0.41482    0.009
 6147.00    0.58076   0.44376    0.009
 6148.00    0.63125   0.46288    0.009
 6149.00    0.68416   0.45832    0.009
 6150.00    0.76193   0.44915    0.009
 6151.00    0.84088   0.45490    0.008
 6152.00    0.79012   0.46722    0.008
 6153.00    0.73737   0.47181    0.008
 6154.00    0.67855   0.46996    0.008
 6155.00    0.62140   0.46614    0.008
 6156.00    0.59707   0.46066    0.008
 6157.00    0.57707   0.45328    0.008
 6158.00    0.60705   0.44789    0.008
 6159.00    0.63289   0.44883    0.008
 6160.00    0.62559   0.45497    0.008
 6161.00    0.61416   0.45980    0.008
 6162.00    0.57781   0.45579    0.008
 6163.00    0.55365   0.44904    0.008
 6164.00    0.58738   0.44906    0.008
 6165.00    0.62017   0.45053    0.008
 6166.00    0.64931   0.44951    0.008
 6167.00    0.66698   0.44744    0.008
 6168.00    0.64760   0.43722    0.008
 6169.00    0.64833   0.41309    0.009
 6170.00    0.70403   0.39169    0.009
 6171.00    0.74019   0.39141    0.009
 6172.00    0.73063   0.40804    0.008
 6173.00    0.72455   0.42455    0.008
 6174.00    0.72555   0.43221    0.009
 6175.00    0.70724   0.43727    0.009
 6176.00    0.65488   0.43605    0.009
 6177.00    0.62221   0.42011    0.008
 6178.00    0.61990   0.40826    0.009
 6179.00    0.63401   0.41868    0.008
 6180.00    0.67037   0.43527    0.008
 6181.00    0.66702   0.43932    0.008
 6182.00    0.61631   0.43849    0.008
 6183.00    0.54742   0.44005    0.008
 6184.00    0.45942   0.43916    0.008
 6185.00    0.42057   0.43694    0.008
 6186.00    0.42732   0.44053    0.008
 6187.00    0.44486   0.44500    0.008
 6188.00    0.47122   0.44358    0.008
 6189.00    0.53950   0.44382    0.008
 6190.00    0.63795   0.44808    0.008
 6191.00    0.67110   0.44935    0.008
 6192.00    0.66301   0.44844    0.008
 6193.00    0.63600   0.44687    0.008
 6194.00    0.59856   0.44040    0.008
 6195.00    0.55118   0.43268    0.009
 6196.00    0.49904   0.42935   -2.000
 6197.00    0.33183   0.42970   -2.000
 6198.00    0.11692   0.42601   -2.000
 6199.00   -0.07946   0.41233   -2.000
 6200.00   -0.26928   0.40648   -2.000
 6201.00   -0.10639   0.42043   -2.000
 6202.00    0.16206   0.43565   -2.000
 6203.00    0.45739   0.44126   -2.000
 6204.00    0.75939   0.44383   -2.000
 6205.00    0.83694   0.44678   -2.000
 6206.00    0.86929   0.44447   -2.000
 6207.00    0.75362   0.43324   -2.000
 6208.00    0.61459   0.42343    0.009
 6209.00    0.51957   0.42704    0.009
 6210.00    0.42971   0.43838    0.008
 6211.00    0.42723   0.44539    0.008
 6212.00    0.43167   0.44553    0.008
 6213.00    0.45348   0.44369    0.008
 6214.00    0.47604   0.44392    0.008
 6215.00    0.47101   0.44477    0.008
 6216.00    0.46530   0.44466    0.008
 6217.00    0.44200   0.44418    0.008
 6218.00    0.42215   0.44171    0.008
 6219.00    0.46519   0.43798    0.008
 6220.00    0.50884   0.43374    0.008
 6221.00    0.55918   0.42371    0.008
 6222.00    0.60437   0.41166    0.008
 6223.00    0.60980   0.40628    0.008
 6224.00    0.61185   0.40834    0.008
 6225.00    0.59414   0.41650    0.008
 6226.00    0.57135   0.42319    0.009
 6227.00    0.52500   0.41999    0.009
 6228.00    0.49235   0.41331    0.009
 6229.00    0.51166   0.41314    0.009
 6230.00    0.53034   0.41944    0.009
 6231.00    0.54706   0.42453    0.009
 6232.00    0.58053   0.42352    0.008
 6233.00    0.65898   0.42277    0.008
 6234.00    0.68805   0.42587    0.008
 6235.00    0.60343   0.42826    0.008
 6236.00    0.53063   0.42795    0.008
 6237.00    0.48141   0.42131    0.008
 6238.00    0.45536   0.40598    0.008
 6239.00    0.46954   0.39486    0.008
 6240.00    0.47766   0.39843    0.008
 6241.00    0.47656   0.40876    0.008
 6242.00    0.48271   0.42152    0.008
 6243.00    0.49855   0.43342    0.008
 6244.00    0.50336   0.43744    0.008
 6245.00    0.49521   0.43381    0.008
 6246.00    0.51471   0.42699    0.008
 6247.00    0.56288   0.41869    0.008
 6248.00    0.60667   0.41099    0.008
 6249.00    0.64645   0.41125    0.008
 6250.00    0.62027   0.41316    0.008
 6251.00    0.54090   0.40667    0.008
 6252.00    0.48632   0.40300    0.008
 6253.00    0.44933   0.40666    0.008
 6254.00    0.44695   0.40915    0.008
 6255.00    0.46610   0.41471    0.009
 6256.00    0.49148   0.42509    0.009
 6257.00    0.52024   0.43051    0.009
 6258.00    0.44792   0.42926    0.009
 6259.00    0.32784   0.42339    0.009
 6260.00    0.23236   0.41221    0.009
 6261.00    0.14690   0.40364    0.010
 6262.00    0.13188   0.40345    0.010
 6263.00    0.14139   0.40647    0.010
 6264.00    0.26662   0.40485    0.010
 6265.00    0.42580   0.39780    0.010
 6266.00    0.58464   0.39048    0.010
 6267.00    0.74339   0.39147    0.009
 6268.00    0.71214   0.40294    0.009
 6269.00    0.64358   0.41341    0.008
 6270.00    0.58503   0.42095    0.008
 6271.00    0.52800   0.42955    0.008
 6272.00    0.55823   0.43111    0.008
 6273.00    0.59829   0.42259    0.008
 6274.00    0.62300   0.41754    0.008
 6275.00    0.64655   0.42190    0.008
 6276.00    0.57667   0.42538    0.008
 6277.00    0.50304   0.42294    0.008
 6278.00    0.51662   0.42062    0.008
 6279.00    0.53007   0.42189    0.008
 6280.00    0.51183   0.42563    0.000
 6281.00    0.49616   0.42897    0.000
 6282.00    0.52420   0.42859    0.000
 6283.00    0.55326   0.42673    0.000
 6284.00    0.59300   0.42697    0.000
 6285.00    0.62548   0.42795    0.000
 6286.00    0.60381   0.42824    0.000
 6287.00    0.59074   0.42608    0.000
 6288.00    0.62651   0.41943    0.000
 6289.00    0.64502   0.41461    0.000
 6290.00    0.58532   0.41672    0.000
 6291.00    0.52911   0.42289    0.000
 6292.00    0.48587   0.42848    0.000
 6293.00    0.45406   0.42896    0.000
 6294.00    0.45771   0.42826    0.000
 6295.00    0.47867   0.43160    0.000
 6296.00    0.54528   0.43660    0.000
 6297.00    0.60351   0.43993    0.000
 6298.00    0.64274   0.43800    0.000
 6299.00    0.65661   0.43179    0.000
 6300.00    0.62070   0.42657    0.000
 6301.00    0.58064   0.42430    0.000
 6302.00    0.53346   0.42630    0.000
 6303.00    0.51772   0.42844    0.000
 6304.00    0.54907   0.42319    0.000
 6305.00    0.59047   0.41453    0.000
 6306.00    0.64510   0.41245    0.000
 6307.00    0.67392   0.41775    0.000
 6308.00    0.67282   0.42153    0.000
 6309.00    0.64871   0.41731    0.000
 6310.00    0.60108   0.41116    0.000
 6311.00    0.58806   0.41256    0.000
 6312.00    0.60625   0.41895    0.000
 6313.00    0.63444   0.42183    0.000
 6314.00    0.67059   0.42240    0.000
 6315.00    0.66061   0.42781    0.000
 6316.00    0.61839   0.43536    0.000
 6317.00    0.56769   0.43728    0.000
 6318.00    0.51180   0.43224    0.000
 6319.00    0.52889   0.42468    0.000
 6320.00    0.58506   0.42047    0.000
 6321.00    0.63990   0.42171    0.008
 6322.00    0.69411   0.42152    0.008
 6323.00    0.72952   0.41607    0.008
 6324.00    0.75739   0.41392    0.008
 6325.00    0.73027   0.41465    0.008
 6326.00    0.68436   0.40918    0.008
 6327.00    0.64619   0.40531    0.008
 6328.00    0.61023   0.41189    0.008
 6329.00    0.59104   0.42028    0.008
 6330.00    0.57584   0.42254    0.008
 6331.00    0.60116   0.42298    0.008
 6332.00    0.63423   0.42690    0.008
 6333.00    0.66472   0.43080    0.008
 6334.00    0.69483   0.43170    0.008
 6335.00    0.70255   0.43008    0.008
 6336.00    0.70785   0.42993    0.008
 6337.00    0.79822   0.43259    0.008
 6338.00    0.89465   0.43170    0.008
 6339.00    0.76960   0.42889    0.008
 6340.00    0.63650   0.43064    0.008
 6341.00    0.58860   0.43474    0.008
 6342.00    0.54376   0.43307    0.008
 6343.00    0.59551   0.42104    0.008
 6344.00    0.64229   0.40822    0.008
 6345.00    0.60981   0.40756    0.008
 6346.00    0.57675   0.41548    0.008
 6347.00    0.53769   0.42089    0.008
 6348.00    0.51214   0.42451    0.008
 6349.00    0.58401   0.42907    0.008
 6350.00    0.64717   0.42918    0.008
 6351.00    0.66210   0.42215    0.008
 6352.00    0.66861   0.41365    0.008
 6353.00    0.63788   0.41259    0.008
 6354.00    0.61124   0.41776    0.008
 6355.00    0.59946   0.42215    0.008
 6356.00    0.58554   0.42504    0.008
 6357.00    0.56508   0.42850    0.008
 6358.00    0.53836   0.43036    0.008
 6359.00    0.49545   0.43064    0.008
 6360.00    0.46452   0.43133    0.008
 6361.00    0.46029   0.43004    0.008
 6362.00    0.48329   0.42361    0.008
 6363.00    0.55886   0.41600    0.009
 6364.00    0.60280   0.41489    0.009
 6365.00    0.59348   0.41708    0.009
 6366.00    0.57063   0.41246    0.008
 6367.00    0.52779   0.40369    0.008
 6368.00    0.53099   0.40012    0.008
 6369.00    0.59391   0.39972    0.008
 6370.00    0.62433   0.39711    0.008
 6371.00    0.61759   0.39587    0.008
 6372.00    0.58906   0.40000    0.008
 6373.00    0.53857   0.40683    0.008
 6374.00    0.55331   0.41272    0.008
 6375.00    0.62605   0.41809    0.008
 6376.00    0.66604   0.42436    0.008
 6377.00    0.68039   0.42819    0.008
 6378.00    0.63782   0.42626    0.008
 6379.00    0.55604   0.42384    0.008
 6380.00    0.53527   0.42682    0.008
 6381.00    0.55136   0.43266    0.008
 6382.00    0.59801   0.43511    0.008
 6383.00    0.66077   0.43332    0.008
 6384.00    0.68566   0.43251    0.008
 6385.00    0.69323   0.43297    0.008
 6386.00    0.69563   0.42978    0.008
 6387.00    0.69599   0.42419    0.008
 6388.00    0.70132   0.42160    0.008
 6389.00    0.70832   0.42202    0.008
 6390.00    0.68208   0.42434    0.008
 6391.00    0.64648   0.42699    0.008
 6392.00    0.62718   0.42622    0.008
 6393.00    0.61167   0.42418    0.008
 6394.00    0.67491   0.42599    0.008
 6395.00    0.75282   0.42972    0.008
 6396.00    0.75288   0.43077    0.008
 6397.00    0.74175   0.43035    0.008
 6398.00    0.68401   0.43132    0.008
 6399.00    0.62142   0.43132    0.008
 6400.00    0.55058   0.42485    0.008
 6401.00    0.47917   0.41184    0.008
 6402.00    0.50438   0.40422    0.008
 6403.00    0.53273   0.41100    0.008
 6404.00    0.59683   0.42377    0.008
 6405.00    0.65846   0.43180    0.008
 6406.00    0.64316   0.43233    0.008
 6407.00    0.62624   0.42249    0.008
 6408.00    0.58520   0.40597    0.008
 6409.00    0.55235   0.40177    0.008
 6410.00    0.59861   0.41564    0.008
 6411.00    0.64767   0.42968    0.008
 6412.00    0.71629   0.43421    0.008
 6413.00    0.76809   0.43344    0.008
 6414.00    0.72928   0.43024    0.008
 6415.00    0.68486   0.42378    0.008
 6416.00    0.61617   0.41639    0.008
 6417.00    0.55429   0.41690    0.008
 6418.00    0.51668   0.42341    0.008
 6419.00    0.51852   0.42263    0.008
 6420.00    0.63828   0.41672    0.008
 6421.00    0.73623   0.41645    0.008
 6422.00    0.77868   0.41960    0.008
 6423.00    0.80910   0.42178    0.008
 6424.00    0.81314   0.42497    0.008
 6425.00    0.79317   0.42779    0.008
 6426.00    0.72759   0.42667    0.008
 6427.00    0.67371   0.42114    0.008
 6428.00    0.63922   0.41222    0.008
 6429.00    0.63313   0.40493    0.008
 6430.00    0.66832   0.40775    0.008
 6431.00    0.69290   0.42035    0.008
 6432.00    0.70392   0.42997    0.008
 6433.00    0.72528   0.43008    0.008
 6434.00    0.75829   0.42858    0.008
 6435.00    0.75671   0.43145    0.008
 6436.00    0.72076   0.43486    0.008
 6437.00    0.70083   0.43229    0.008
 6438.00    0.69496   0.42110    0.008
 6439.00    0.74040   0.40809    0.008
 6440.00    0.82546   0.40575    0.008
 6441.00    0.83575   0.41469    0.008
 6442.00    0.79527   0.42405    0.008
 6443.00    0.74853   0.42867    0.008
 6444.00    0.69807   0.43007    0.008
 6445.00    0.65017   0.42854    0.008
 6446.00    0.60360   0.42048    0.008
 6447.00    0.58599   0.40906    0.008
 6448.00    0.58142   0.40810    0.008
 6449.00    0.57591   0.42029    0.008
 6450.00    0.57003   0.43197    0.008
 6451.00    0.58814   0.43555    0.008
 6452.00    0.61414   0.43476    0.008
 6453.00    0.65368   0.43451    0.008
 6454.00    0.69695   0.43653    0.008
 6455.00    0.67576   0.43801    0.008
 6456.00    0.63995   0.43228    0.008
 6457.00    0.63550   0.41415    0.008
 6458.00    0.63673   0.39299    0.008
 6459.00    0.62038   0.38889    0.008
 6460.00    0.60158   0.40334    0.009
 6461.00    0.56949   0.41949    0.008
 6462.00    0.53607   0.42688    0.008
 6463.00    0.50888   0.42384    0.008
 6464.00    0.48207   0.41666    0.008
 6465.00    0.49493   0.41641    0.008
 6466.00    0.50912   0.42444    0.008
 6467.00    0.57818   0.43301    0.008
 6468.00    0.64546   0.43704    0.008
 6469.00    0.66344   0.43347    0.008
 6470.00    0.68068   0.41933    0.008
 6471.00    0.68745   0.40379    0.008
 6472.00    0.69114   0.40319    0.008
 6473.00    0.66620   0.41486    0.008
 6474.00    0.63451   0.42449    0.008
 6475.00    0.55705   0.42930    0.008
 6476.00    0.49425   0.43164    0.008
 6477.00    0.50830   0.43040    0.008
 6478.00    0.52714   0.42589    0.008
 6479.00    0.56620   0.42079    0.008
 6480.00    0.59947   0.41845    0.008
 6481.00    0.61249   0.42184    0.008
 6482.00    0.63028   0.42583    0.008
 6483.00    0.66202   0.42354    0.008
 6484.00    0.68577   0.42046    0.008
 6485.00    0.68951   0.42297    0.008
 6486.00    0.69709   0.42623    0.008
 6487.00    0.71296   0.42583    0.008
 6488.00    0.72168   0.42417    0.008
 6489.00    0.71700   0.41956    0.008
 6490.00    0.68772   0.40960    0.008
 6491.00    0.61822   0.40212    0.008
 6492.00    0.58101   0.40451    0.008
 6493.00    0.59006   0.41233    0.008
 6494.00    0.58082   0.41797    0.008
 6495.00    0.54853   0.42053    0.008
 6496.00    0.54957   0.42233    0.008
 6497.00    0.58764   0.42227    0.008
 6498.00    0.59885   0.41830    0.008
 6499.00    0.58373   0.41309    0.008
 6500.00    0.54765   0.40950    0.008
 6501.00    0.49345   0.40263    0.008
 6502.00    0.51099   0.38573    0.008
 6503.00    0.58313   0.36691    0.008
 6504.00    0.61879   0.36124    0.008
 6505.00    0.63004   0.36811    0.008
 6506.00    0.61490   0.37786    0.008
 6507.00    0.58430   0.38470    0.008
 6508.00    0.61747   0.38976    0.008
 6509.00    0.68322   0.39761    0.008
 6510.00    0.73454   0.40548    0.008
 6511.00    0.77948   0.40992    0.008
 6512.00    0.77210   0.41277    0.008
 6513.00    0.74484   0.41547    0.008
 6514.00    0.72494   0.41814    0.008
 6515.00    0.70742   0.41908    0.008
 6516.00    0.70961   0.41605    0.008
 6517.00    0.71711   0.41185    0.008
 6518.00    0.71768   0.41193    0.008
 6519.00    0.71670   0.41586    0.008
 6520.00    0.71985   0.41845    0.008
 6521.00    0.72372   0.41855    0.008
 6522.00    0.72061   0.41821    0.008
 6523.00    0.71656   0.41622    0.008
 6524.00    0.76123   0.41213    0.008
 6525.00    0.81056   0.40886    0.008
 6526.00    0.79389   0.40635    0.008
 6527.00    0.77331   0.40402    0.008
 6528.00    0.70124   0.40628    0.000
 6529.00    0.62842   0.41317    0.000
 6530.00    0.63503   0.41792    0.000
 6531.00    0.64321   0.41830    0.000
 6532.00    0.69088   0.41783    0.000
 6533.00    0.73265   0.41883    0.000
 6534.00    0.69561   0.41745    0.000
 6535.00    0.66607   0.41154    0.000
 6536.00    0.70327   0.40762    0.000
 6537.00    0.74649   0.41023    0.000
 6538.00    0.82919   0.41516    0.000
 6539.00    0.88987   0.41670    0.000
 6540.00    0.83809   0.41300    0.000
 6541.00    0.78844   0.40756    0.000
 6542.00    0.74760   0.40675    0.000
 6543.00    0.73806   0.41209    0.000
 6544.00    0.83544   0.41792    0.000
 6545.00    0.90658   0.41834    0.000
 6546.00    0.90214   0.41555    0.000
 6547.00    0.89019   0.41614    0.000
 6548.00    0.85980   0.42057    0.000
 6549.00    0.82872   0.42237    0.000
 6550.00    0.79616   0.41880    0.000
 6551.00    0.74857   0.41343    0.000
 6552.00    0.67329   0.40951    0.000
 6553.00    0.63775   0.40568    0.000
 6554.00    0.66615   0.39882    0.000
 6555.00    0.72286   0.39294    0.000
 6556.00    0.81955   0.39540    0.000
 6557.00    0.90461   0.40275    0.000
 6558.00    0.97523   0.40638    0.000
 6559.00    1.01651   0.40391    0.000
 6560.00    1.02565   0.39913    0.000
 6561.00    1.01221   0.39572    0.000
 6562.00    0.97697   0.39165    0.000
 6563.00    0.98331   0.38489    0.000
 6564.00    1.02509   0.37926    0.000
 6565.00    0.99249   0.37851    0.000
 6566.00    0.90409   0.37987    0.000
 6567.00    0.81539   0.37784    0.000
 6568.00    0.72650   0.37124    0.000
 6569.00    0.67598   0.35689    0.000
 6570.00    0.64761   0.32520    0.000
 6571.00    0.59156   0.28458    0.000
 6572.00    0.52159   0.27510    0.000
 6573.00    0.45999   0.31113    0.000
 6574.00    0.40203   0.35397    0.000
 6575.00    0.39809   0.37767    0.000
 6576.00    0.41431   0.38770    0.000
 6577.00    0.45700   0.38844    0.000
 6578.00    0.50807   0.38483    0.000
 6579.00    0.56732   0.38534    0.000
 6580.00    0.62872   0.38793    0.000
 6581.00    0.68890   0.38573    0.000
 6582.00    0.74880   0.38075    0.000
 6583.00    0.78588   0.37874    0.000
 6584.00    0.81904   0.38274    0.000
 6585.00    0.84119   0.39214    0.000
 6586.00    0.86192   0.40094    0.000
 6587.00    0.82091   0.40445    0.000
 6588.00    0.77426   0.40243    0.000
 6589.00    0.74889   0.39700    0.000
 6590.00    0.72469   0.39329    0.000
 6591.00    0.67334   0.39561    0.000
 6592.00    0.62188   0.40058    0.000
 6593.00    0.61607   0.40312    0.000
 6594.00    0.61324   0.40267    0.000
 6595.00    0.67874   0.40176    0.000
 6596.00    0.73752   0.40499    0.000
 6597.00    0.71116   0.40938    0.000
 6598.00    0.68864   0.41055    0.000
 6599.00    0.69904   0.40880    0.000
 6600.00    0.71168   0.40070    0.000
 6601.00    0.73857   0.38553    0.000
 6602.00    0.75885   0.37485    0.000
 6603.00    0.74623   0.37991    0.000
 6604.00    0.73576   0.39272    0.000
 6605.00    0.73394   0.39914    0.000
 6606.00    0.72773   0.39799    0.000
 6607.00    0.70683   0.39510    0.000
 6608.00    0.68208   0.39649    0.000
 6609.00    0.64647   0.40292    0.008
 6610.00    0.62611   0.40821    0.008
 6611.00    0.64261   0.40843    0.008
 6612.00    0.64830   0.40547    0.008
 6613.00    0.63140   0.40131    0.008
 6614.00    0.63760   0.39738    0.008
 6615.00    0.68568   0.39493    0.008
 6616.00    0.70351   0.39211    0.008
 6617.00    0.67340   0.38703    0.008
 6618.00    0.63722   0.38428    0.008
 6619.00    0.59262   0.39085    0.008
 6620.00    0.59624   0.40157    0.008
 6621.00    0.65896   0.40518    0.008
 6622.00    0.67003   0.40186    0.008
 6623.00    0.62534   0.40093    0.008
 6624.00    0.59740   0.40516    0.008
 6625.00    0.58541   0.40708    0.008
 6626.00    0.63199   0.40477    0.008
 6627.00    0.72775   0.40352    0.008
 6628.00    0.78133   0.40527    0.008
 6629.00    0.80372   0.40764    0.008
 6630.00    0.73123   0.40809    0.008
 6631.00    0.59711   0.40503    0.008
 6632.00    0.47251   0.39806    0.008
 6633.00    0.35333   0.38991    0.008
 6634.00    0.37944   0.38778    0.008
 6635.00    0.47746   0.39332    0.008
 6636.00    0.62495   0.39795    0.008
 6637.00    0.79362   0.39804    0.008
 6638.00    0.82082   0.39644    0.008
 6639.00    0.79613   0.39451    0.008
 6640.00    0.81134   0.39208    0.008
 6641.00    0.83894   0.38742    0.008
 6642.00    0.82562   0.38143    0.008
 6643.00    0.80170   0.38027    0.008
 6644.00    0.74374   0.38642    0.008
 6645.00    0.67859   0.39397    0.008
 6646.00    0.65353   0.39788    0.008
 6647.00    0.63515   0.39734    0.008
 6648.00    0.66058   0.39399    0.008
 6649.00    0.69152   0.39308    0.008
 6650.00    0.76957   0.39603    0.008
 6651.00    0.85173   0.39471    0.008
 6652.00    0.83227   0.38754    0.009
 6653.00    0.80759   0.38568    0.009
 6654.00    0.74206   0.39124    0.008
 6655.00    0.67704   0.39446    0.008
 6656.00    0.69991   0.39298    0.008
 6657.00    0.72508   0.39244    0.008
 6658.00    0.79892   0.39446    0.008
 6659.00    0.86231   0.39474    0.008
 6660.00    0.79989   0.39218    0.008
 6661.00    0.73200   0.39030    0.008
 6662.00    0.61897   0.39028    0.008
 6663.00    0.52626   0.39126    0.008
 6664.00    0.55897   0.39231    0.008
 6665.00    0.59962   0.39146    0.008
 6666.00    0.67884   0.39066    0.008
 6667.00    0.73279   0.39163    0.008
 6668.00    0.68702   0.39123    0.008
 6669.00    0.64938   0.38861    0.008
 6670.00    0.63843   0.38586    0.008
 6671.00    0.63780   0.38151    0.008
 6672.00    0.66585   0.37572    0.008
 6673.00    0.69784   0.37580    0.008
 6674.00    0.73920   0.38066    0.008
 6675.00    0.74561   0.38241    0.008
 6676.00    0.68027   0.38177    0.008
 6677.00    0.64890   0.38319    0.008
 6678.00    0.67821   0.38796    0.008
 6679.00    0.68209   0.39264    0.008
 6680.00    0.64626   0.39406    0.008
 6681.00    0.60246   0.39314    0.008
 6682.00    0.54774   0.39246    0.008
 6683.00    0.55961   0.39285    0.008
 6684.00    0.65191   0.39250    0.008
 6685.00    0.73364   0.38606    0.008
 6686.00    0.80414   0.37161    0.008
 6687.00    0.80146   0.36147    0.008
 6688.00    0.73006   0.36745    0.008
 6689.00    0.66472   0.37925    0.008
 6690.00    0.60438   0.38266    0.008
 6691.00    0.60538   0.38228    0.008
 6692.00    0.65108   0.38438    0.008
 6693.00    0.68070   0.38708    0.008
 6694.00    0.70001   0.38819    0.008
 6695.00    0.71199   0.38786    0.008
 6696.00    0.71988   0.38663    0.000
 6697.00    0.77193   0.38555    0.000
 6698.00    0.84550   0.38656    0.000
 6699.00    0.82224   0.38834    0.000
 6700.00    0.75824   0.38878    0.000
 6701.00    0.72120   0.38834    0.000
 6702.00    0.69387   0.38785    0.000
 6703.00    0.76471   0.38642    0.000
 6704.00    0.86545   0.38158    0.000
 6705.00    0.85866   0.37521    0.000
 6706.00    0.82464   0.37357    0.000
 6707.00    0.73319   0.37663    0.000
 6708.00    0.62993   0.38181    0.000
 6709.00    0.60030   0.38732    0.000
 6710.00    0.58260   0.38908    0.000
 6711.00    0.63523   0.38642    0.000
 6712.00    0.69637   0.38172    0.000
 6713.00    0.71359   0.37822    0.000
 6714.00    0.72717   0.37947    0.000
 6715.00    0.69632   0.38338    0.000
 6716.00    0.66337   0.38533    0.000
 6717.00    0.66771   0.38534    0.000
 6718.00    0.67264   0.38425    0.000
 6719.00    0.68120   0.38143    0.000
 6720.00    0.68579   0.38047    0.000
 6721.00    0.61321   0.38092    0.000
 6722.00    0.54568   0.37860    0.000
 6723.00    0.53615   0.37430    0.000
 6724.00    0.52783   0.36929    0.000
 6725.00    0.52918   0.36378    0.000
 6726.00    0.53846   0.35982    0.000
 6727.00    0.59532   0.36282    0.000
 6728.00    0.66738   0.37233    0.000
 6729.00    0.81142   0.37819    0.000
 6730.00    0.92008   0.37745    0.000
 6731.00    0.89203   0.37634    0.000
 6732.00    0.83813   0.37933    0.000
 6733.00    0.70101   0.38205    0.000
 6734.00    0.58903   0.37937    0.000
 6735.00    0.54563   0.37509    0.000
 6736.00    0.54675   0.37528    0.000
 6737.00    0.65190   0.37820    0.000
 6738.00    0.73774   0.38016    0.000
 6739.00    0.78453   0.38194    0.000
 6740.00    0.78797   0.38263    0.000
 6741.00    0.71512   0.38117    0.000
 6742.00    0.69650   0.37862    0.000
 6743.00    0.76137   0.37791    0.000
 6744.00    0.77602   0.37973    0.000
 6745.00    0.72278   0.38156    0.000
 6746.00    0.70013   0.37911    0.000
 6747.00    0.71390   0.37369    0.000
 6748.00    0.68867   0.37128    0.000
 6749.00    0.62250   0.37370    0.000
 6750.00    0.53926   0.37628    0.000
 6751.00    0.44023   0.37404    0.000
 6752.00    0.42653   0.37035    0.000
 6753.00    0.48248   0.37195    0.009
 6754.00    0.48976   0.37491    0.009
 6755.00    0.46208   0.37414    0.009
 6756.00    0.44759   0.37198    0.009
 6757.00    0.44141   0.37058    0.009
 6758.00    0.48272   0.36958    0.009
 6759.00    0.55019   0.36875    0.009
 6760.00    0.56580   0.37055    0.009
 6761.00    0.55656   0.37088    0.009
 6762.00    0.61685   0.36859    0.010
 6763.00    0.70590   0.37054    0.010
 6764.00    0.78672   0.37406    0.010
 6765.00    0.86462   0.37677    0.010
 6766.00    0.74822   0.38049    0.010
 6767.00    0.57381   0.38333    0.010
 6768.00    0.61255   0.38428    0.010
 6769.00    0.70409   0.38448    0.010
 6770.00    0.73161   0.38281    0.010
 6771.00    0.74629   0.38013    0.009
 6772.00    0.73714   0.38028    0.009
 6773.00    0.72424   0.38165    0.009
 6774.00    0.74632   0.38029    0.009
 6775.00    0.77249   0.37499    0.009
 6776.00    0.59557   0.36952    0.009
 6777.00    0.40264   0.36957    0.009
 6778.00    0.48060   0.37339    0.009
 6779.00    0.57035   0.37335    0.009
 6780.00    0.70909   0.37041    0.009
 6781.00    0.84622   0.37179    0.009
 6782.00    0.88451   0.37741    0.009
 6783.00    0.91394   0.38235    0.009
 6784.00    0.78292   0.38456    0.009
 6785.00    0.65431   0.38492    0.009
 6786.00    0.55208   0.38381    0.009
 6787.00    0.46097   0.38387    0.009
 6788.00    0.45544   0.38570    0.009
 6789.00    0.44944   0.38559    0.009
 6790.00    0.44071   0.38221    0.010
 6791.00    0.42763   0.37550    0.010
 6792.00    0.39446   0.36703    0.009
 6793.00    0.38661   0.36112    0.009
 6794.00    0.47446   0.36093    0.009
 6795.00    0.55615   0.36475    0.009
 6796.00    0.61839   0.37060    0.009
 6797.00    0.63506   0.37569    0.009
 6798.00    0.52972   0.37585    0.009
 6799.00    0.47187   0.37443    0.009
 6800.00    0.52317   0.37576    0.009
 6801.00    0.56328   0.37574    0.009
 6802.00    0.58117   0.37193    0.009
 6803.00    0.57554   0.36954    0.009
 6804.00    0.52918   0.37020    0.009
 6805.00    0.50014   0.37080    0.009
 6806.00    0.49736   0.37266    0.009
 6807.00    0.45697   0.37436    0.009
 6808.00    0.36647   0.37438    0.009
 6809.00    0.30675   0.37514    0.009
 6810.00    0.28319   0.37695    0.009
 6811.00    0.28818   0.37812    0.009
 6812.00    0.32273   0.37642    0.009
 6813.00    0.47123   0.37410    0.010
 6814.00    0.72374   0.37502    0.010
 6815.00    0.80094   0.37509    0.010
 6816.00    0.73705   0.37303    0.010
 6817.00    0.71356   0.37375    0.010
 6818.00    0.71867   0.37403    0.010
 6819.00    0.65929   0.37210    0.009
 6820.00    0.55985   0.37298    0.009
 6821.00    0.51051   0.37519    0.009
 6822.00    0.48836   0.37466    0.009
 6823.00    0.52281   0.37089    0.009
 6824.00    0.58395   0.36783    0.009
 6825.00    0.55068   0.37134    0.009
 6826.00    0.47901   0.37744    0.008
 6827.00    0.43495   0.37867    0.009
 6828.00    0.40049   0.37507    0.009
 6829.00    0.47469   0.37117    0.009
 6830.00    0.58069   0.37181    0.009
 6831.00    0.59206   0.37636    0.009
 6832.00    0.58050   0.38007    0.009
 6833.00    0.56898   0.38082    0.010
 6834.00    0.55746   0.38026    0.010
 6835.00    0.42751   0.37946    0.010
 6836.00    0.27951   0.37593    0.010
 6837.00    0.30133   0.37029    0.010
 6838.00    0.34221   0.36874    0.010
 6839.00    0.50483   0.37282    0.010
 6840.00    0.67656   0.37726    0.010
 6841.00    0.66151   0.37730    0.010
 6842.00    0.63906   0.37516    0.010
 6843.00    0.61511   0.37636    0.009
 6844.00    0.59507   0.37958    0.009
 6845.00    0.73060   0.37936    0.009
 6846.00    0.85611   0.37601    0.009
 6847.00    0.81249   0.37252    0.009
 6848.00    0.76684   0.36774    0.009
 6849.00    0.70006   0.36198    0.009
 6850.00    0.64033   0.35720    0.009
 6851.00    0.63300   0.35613    0.009
 6852.00    0.62047   0.36095    0.009
 6853.00    0.57845   0.36885    0.009
 6854.00    0.55950   0.37429    0.009
 6855.00    0.64473   0.37514    0.009
 6856.00    0.67874   0.37491    0.009
 6857.00    0.52315   0.37584    0.009
 6858.00    0.45611   0.37540    0.009
 6859.00    0.66334   0.37382    0.010
 6860.00    0.75855   0.37321    0.010
 6861.00    0.55905   0.37382    0.010
 6862.00    0.41628   0.37397    0.009
 6863.00    0.40173   0.36914    0.009
 6864.00    0.37558   0.36088    0.009
 6865.00    0.32673   0.35943    0.009
 6866.00    0.34484   0.36337    0.009
 6867.00    0.47720   0.36583    0.009
 6868.00    0.54375   0.36757    0.009
 6869.00    0.51195   0.36560    0.009
 6870.00    0.51566   0.35935    0.009
 6871.00    0.56603   0.35815    0.009
 6872.00    0.58795   0.36615    0.009
 6873.00    0.57697   0.37442    0.009
 6874.00    0.55439   0.37548    0.009
 6875.00    0.51997   0.37163    0.009
 6876.00    0.49323   0.36469    0.009
 6877.00    0.47340   0.35836    0.009
 6878.00    0.45490   0.36089    0.009
 6879.00    0.43745   0.36824    0.009
 6880.00    0.48066   0.36862    0.009
 6881.00    0.56621   0.36364    0.010
 6882.00    0.64893   0.36253    0.010
 6883.00    0.72992   0.36562    0.010
 6884.00    0.77483   0.36697    0.010
 6885.00    0.80045   0.36702    0.010
 6886.00    0.76449   0.36991    0.010
 6887.00    0.69996   0.37396    0.009
 6888.00    0.70365   0.37461    0.009
 6889.00    0.73459   0.37256    0.009
 6890.00    0.78625   0.36830    0.009
 6891.00    0.84496   0.36289    0.009
 6892.00    0.77980   0.36108    0.009
 6893.00    0.67914   0.36540    0.009
 6894.00    0.68902   0.36990    0.009
 6895.00    0.72508   0.36955    0.009
 6896.00    0.64113   0.37021    0.010
 6897.00    0.53430   0.37362    0.010
 6898.00    0.50456   0.37509    0.010
 6899.00    0.48622   0.37563    0.010
 6900.00    0.51923   0.37710    0.010
 6901.00    0.55778   0.37603    0.010
 6902.00    0.62601   0.37405    0.010
 6903.00    0.69635   0.37434    0.010
 6904.00    0.59241   0.37348    0.010
 6905.00    0.48222   0.37172    0.010
 6906.00    0.59601   0.37297    0.010
 6907.00    0.70522   0.37614    0.010
 6908.00    0.63031   0.37600    0.010
 6909.00    0.55601   0.37251    0.010
 6910.00    0.49132   0.37241    0.010
 6911.00    0.43689   0.37670    0.009
 6912.00    0.48536   0.37868    0.009
 6913.00    0.51319   0.37676    0.009
 6914.00    0.39277   0.37490    0.010
 6915.00    0.31007   0.37585    0.010
 6916.00    0.43540   0.37848    0.010
 6917.00    0.54473   0.37950    0.010
 6918.00    0.58357   0.37977    0.010
 6919.00    0.63446   0.37982    0.010
 6920.00    0.72902   0.37815    0.010
 6921.00    0.77026   0.37535    0.011
 6922.00    0.64946   0.37165    0.010
 6923.00    0.57458   0.36764    0.010
 6924.00    0.61841   0.36816    0.010
 6925.00    0.66618   0.37086    0.010
 6926.00    0.72267   0.37081    0.010
 6927.00    0.74055   0.37167    0.010
 6928.00    0.68406   0.37439    0.010
 6929.00    0.69524   0.37703    0.010
 6930.00    0.82016   0.37889    0.010
 6931.00    0.79849   0.37910    0.010
 6932.00    0.56092   0.37600    0.010
 6933.00    0.44441   0.36861    0.010
 6934.00    0.48465   0.36227    0.010
 6935.00    0.55348   0.36153    0.010
 6936.00    0.65492   0.36599    0.010
 6937.00    0.63436   0.37080    0.010
 6938.00    0.49104   0.37304    0.010
 6939.00    0.50395   0.37373    0.010
 6940.00    0.65551   0.37332    0.010
 6941.00    0.68829   0.37074    0.010
 6942.00    0.62821   0.36665    0.010
 6943.00    0.59739   0.36731    0.011
 6944.00    0.58670   0.37222    0.011
 6945.00    0.62353   0.37438    0.011
 6946.00    0.68901   0.37292    0.011
 6947.00    0.61649   0.37172    0.011
 6948.00    0.47138   0.37332    0.010
 6949.00    0.42181   0.37687    0.010
 6950.00    0.41584   0.37924    0.010
 6951.00    0.50950   0.37706    0.010
 6952.00    0.64229   0.37171    0.010
 6953.00    0.68532   0.36557    0.010
 6954.00    0.69833   0.36070    0.010
 6955.00    0.69348   0.36230    0.010
 6956.00    0.68362   0.36946    0.010
 6957.00    0.49975   0.37486    0.010
 6958.00    0.27562   0.37691    0.010
 6959.00    0.27578   0.37586    0.010
 6960.00    0.31757   0.37086    0.010
 6961.00    0.50693   0.36663    0.010
 6962.00    0.71743   0.36524    0.010
 6963.00    0.68787   0.36448    0.010
 6964.00    0.63346   0.36630    0.010
 6965.00    0.48153   0.37089    0.010
 6966.00    0.32311   0.37428    0.011
 6967.00    0.30928   0.37472    0.010
 6968.00    0.30018   0.37421    0.010
 6969.00    0.61513   0.37449    0.011
 6970.00    0.91308   0.37579    0.011
 6971.00    0.68990   0.37677    0.011
 6972.00    0.48328   0.37755    0.010
 6973.00    0.52317   0.37828    0.010
 6974.00    0.55928   0.37642    0.010
 6975.00    0.55911   0.37308    0.010
 6976.00    0.55477   0.37432    0.010
 6977.00    0.52136   0.37967    0.010
 6978.00    0.49290   0.38216    0.010
 6979.00    0.49098   0.37920    0.010
 6980.00    0.48923   0.37446    0.010
 6981.00    0.48819   0.37428    0.010
 6982.00    0.47094   0.37896    0.010
 6983.00    0.39613   0.38003    0.010
 6984.00    0.40159   0.37502    0.010
 6985.00    0.64643   0.36972    0.010
 6986.00    0.77630   0.36360    0.010
 6987.00    0.61415   0.35284    0.010
 6988.00    0.51769   0.34640    0.010
 6989.00    0.56482   0.35350    0.011
 6990.00    0.56410   0.36560    0.011
 6991.00    0.47263   0.37403    0.010
 6992.00    0.46680   0.37900    0.010
 6993.00    0.60276   0.38108    0.010
 6994.00    0.68631   0.38098    0.010
 6995.00    0.69382   0.38040    0.010
 6996.00    0.63206   0.37967    0.010
 6997.00    0.48188   0.37750    0.010
 6998.00    0.38675   0.37283    0.010
 6999.00    0.35355   0.37000    0.010
 7000.00    0.41485   0.37265    0.010
 7001.00    0.56988   0.37745    0.010
 7002.00    0.57860   0.37948    0.010
 7003.00    0.45930   0.37748    0.010
 7004.00    0.49522   0.37497    0.010
 7005.00    0.65078   0.37534    0.010
 7006.00    0.63338   0.37712    0.011
 7007.00    0.49876   0.37650    0.011
 7008.00    0.47843   0.37095    0.011
 7009.00    0.52594   0.36485    0.010
 7010.00    0.53509   0.36551    0.010
 7011.00    0.52437   0.37147    0.011
 7012.00    0.54584   0.37442    0.010
 7013.00    0.58175   0.37103    0.010
 7014.00    0.60068   0.36676    0.010
 7015.00    0.61305   0.36600    0.010
 7016.00    0.61385   0.36775    0.010
 7017.00    0.61085   0.37044    0.010
 7018.00    0.66071   0.37369    0.010
 7019.00    0.72511   0.37503    0.010
 7020.00    0.63618   0.37280    0.010
 7021.00    0.51259   0.37172    0.010
 7022.00    0.54197   0.37406    0.010
 7023.00    0.59900   0.37447    0.010
 7024.00    0.48553   0.36707    0.010
 7025.00    0.34845   0.35474    0.010
 7026.00    0.40829   0.35115    0.010
 7027.00    0.48768   0.36143    0.010
 7028.00    0.50663   0.37335    0.011
 7029.00    0.52180   0.37890    0.011
 7030.00    0.44510   0.38012    0.011
 7031.00    0.36634   0.37744    0.011
 7032.00    0.43245   0.36975    0.011
 7033.00    0.49765   0.36187    0.011
 7034.00    0.53767   0.36079    0.011
 7035.00    0.57180   0.36593    0.011
 7036.00    0.52317   0.37045    0.010
 7037.00    0.48915   0.37221    0.010
 7038.00    0.58973   0.37389    0.010
 7039.00    0.67470   0.37580    0.010
 7040.00    0.65444   0.37626    0.010
 7041.00    0.62042   0.37484    0.010
 7042.00    0.51440   0.37320    0.010
 7043.00    0.43449   0.37316    0.010
 7044.00    0.46453   0.37498    0.010
 7045.00    0.47275   0.37805    0.010
 7046.00    0.40508   0.37625    0.010
 7047.00    0.40192   0.36604    0.010
 7048.00    0.58758   0.36026    0.011
 7049.00    0.67124   0.36903    0.011
 7050.00    0.50029   0.38272   -2.000
 7051.00    0.43286   0.39050   -2.000
 7052.00    0.58809   0.39126   -2.000
 7053.00    0.63705   0.38644   -2.000
 7054.00    0.48757   0.37926   -2.000
 7055.00    0.45408   0.37733   -2.000
 7056.00    0.60980   0.38201   -2.000
 7057.00    0.68397   0.38806   -2.000
 7058.00    0.64151   0.39111   -2.000
 7059.00    0.65097   0.39026   -2.000
 7060.00    0.72577   0.38623   -2.000
 7061.00    0.63897   0.37690   -2.000
 7062.00    0.37299   0.36372   -2.000
 7063.00    0.22303   0.35356   -2.000
 7064.00    0.18655   0.34968   -2.000
 7065.00    0.29757   0.35206   -2.000
 7066.00    0.53583   0.35737   -2.000
 7067.00    0.63272   0.35956   -2.000
 7068.00    0.62221   0.35485   -2.000
 7069.00    0.48650   0.34687   -2.000
 7070.00    0.26718   0.34357   -2.000
 7071.00    0.18194   0.34606   -2.000
 7072.00    0.17511   0.34937   -2.000
 7073.00    0.41140   0.35282   -2.000
 7074.00    0.77163   0.35492   -2.000
 7075.00    0.67460   0.35210   -2.000
 7076.00    0.37568   0.34534   -2.000
 7077.00    0.50456   0.33843   -2.000
 7078.00    0.79568   0.33711   -2.000
 7079.00    0.72621   0.34454   -2.000
 7080.00    0.54064   0.35445   -2.000
 7081.00    0.54744   0.35898   -2.000
 7082.00    0.60606   0.35898   -2.000
 7083.00    0.74260   0.35833   -2.000
 7084.00    0.89633   0.35754   -2.000
 7085.00    0.70320   0.35652   -2.000
 7086.00    0.44909   0.35654   -2.000
 7087.00    0.37716   0.35800   -2.000
 7088.00    0.32964   0.35951   -2.000
 7089.00    0.40888   0.36155   -2.000
 7090.00    0.50017   0.36389   -2.000
 7091.00    0.46336   0.36228   -2.000
 7092.00    0.41903   0.35448   -2.000
 7093.00    0.49869   0.34308   -2.000
 7094.00    0.57950   0.33539   -2.000
 7095.00    0.40172   0.33665   -2.000
 7096.00    0.23135   0.33971   -2.000
 7097.00    0.24520   0.33780   -2.000
 7098.00    0.27080   0.33398   -2.000
 7099.00    0.45237   0.33110   -2.000
 7100.00    0.59356   0.33060   -2.000
 7101.00    0.37683   0.33239   -2.000
 7102.00    0.18971   0.33292   -2.000
 7103.00    0.19605   0.33284   -2.000
 7104.00    0.22270   0.33337   -2.000
 7105.00    0.35286   0.33388   -2.000
 7106.00    0.48312   0.33480   -2.000
 7107.00    0.61377   0.33664   -2.000
 7108.00    0.67245   0.33990   -2.000
 7109.00    0.48583   0.34249   -2.000
 7110.00    0.34348   0.34208   -2.000
 7111.00    0.32830   0.33875   -2.000
 7112.00    0.33033   0.33591   -2.000
 7113.00    0.37455   0.33739   -2.000
 7114.00    0.43030   0.34187   -2.000
 7115.00    0.51045   0.34307   -2.000
 7116.00    0.55296   0.33950   -2.000
 7117.00    0.52628   0.33703   -2.000
 7118.00    0.49342   0.33805   -2.000
 7119.00    0.45064   0.33764   -2.000
 7120.00    0.46598   0.33360   -2.000
 7121.00    0.56324   0.33110   -2.000
 7122.00    0.43400   0.33374   -2.000
 7123.00    0.02381   0.33815   -2.000
 7124.00   -0.02767   0.34043   -2.000
 7125.00    0.31303   0.34146   -2.000
 7126.00    0.34368   0.34201   -2.000
 7127.00    0.07532   0.34128   -2.000
 7128.00    0.07718   0.34005   -2.000
 7129.00    0.30883   0.33923   -2.000
 7130.00    0.42841   0.33834   -2.000
 7131.00    0.46406   0.33627   -2.000
 7132.00    0.40751   0.33562   -2.000
 7133.00    0.29028   0.33778   -2.000
 7134.00    0.50084   0.33701   -2.000
 7135.00    0.90020   0.33132   -2.000
 7136.00    0.83818   0.32689   -2.000
 7137.00    0.54465   0.32760   -2.000
 7138.00    0.54142   0.32869   -2.000
 7139.00    0.66425   0.32462   -2.000
 7140.00    0.50332   0.31910   -2.000
 7141.00    0.23668   0.31935   -2.000
 7142.00    0.17402   0.32468   -2.000
 7143.00    0.17578   0.33059   -2.000
 7144.00    0.26204   0.33402   -2.000
 7145.00    0.37059   0.33476   -2.000
 7146.00    0.16821   0.33629   -2.000
 7147.00   -0.10120   0.33711   -2.000
 7148.00    0.22294   0.33319   -2.000
 7149.00    0.64853   0.32952   -2.000
 7150.00    0.75888   0.33227   -2.000
 7151.00    0.82843   0.33660   -2.000
 7152.00    0.69310   0.33694   -2.000
 7153.00    0.53917   0.33564   -2.000
 7154.00    0.32231   0.33511   -2.000
 7155.00    0.10200   0.33505   -2.000
 7156.00    0.31422   0.33276   -2.000
 7157.00    0.52920   0.32644   -2.000
 7158.00    0.16880   0.32250   -2.000
 7159.00   -0.19080   0.32519   -2.000
 7160.00   -0.53222   0.32986   -2.000
 7161.00   -0.85185   0.33459   -2.000
 7162.00   -0.89706   0.34012   -2.000
 7163.00   -0.84450   0.34272   -2.000
 7164.00    0.04222   0.33961   -2.000
 7165.00    0.84041   0.33666   -2.000
 7166.00    1.07749   0.34011   -2.000
 7167.00    1.17226   0.34391   -2.000
 7168.00    0.56040   0.34127   -2.000
 7169.00    0.12431   0.33607   -2.000
 7170.00    0.39573   0.33464   -2.000
 7171.00    0.64864   0.33772   -2.000
 7172.00    0.83975   0.33824   -2.000
 7173.00    0.92930   0.33112   -2.000
 7174.00    0.73234   0.32183   -2.000
 7175.00    0.57536   0.32035   -2.000
 7176.00    0.51479   0.32836   -2.000
 7177.00    0.39486   0.33787   -2.000
 7178.00    0.15131   0.34147   -2.000
 7179.00    0.09553   0.33954   -2.000
 7180.00    0.37970   0.33830   -2.000
 7181.00    0.48049   0.34117   -2.000
 7182.00    0.29099   0.34484   -2.000
 7183.00    0.31784   0.34514   -2.000
 7184.00    0.64529   0.34158   -2.000
 7185.00    0.71281   0.33636   -2.000
 7186.00    0.46251   0.33453   -2.000
 7187.00    0.22398   0.33880   -2.000
 7188.00   -0.00185   0.34183   -2.000
 7189.00    0.07893   0.33625   -2.000
 7190.00    0.45126   0.32685   -2.000
 7191.00    0.59457   0.32446   -2.000
 7192.00    0.54587   0.33250   -2.000
 7193.00    0.55761   0.34204   -2.000
 7194.00    0.61395   0.34468   -2.000
 7195.00    0.58406   0.34097   -2.000
 7196.00    0.49826   0.33299   -2.000
 7197.00    0.42706   0.32463   -2.000
 7198.00    0.36413   0.32188   -2.000
 7199.00    0.02899   0.32544   -2.000
 7200.00   -0.44060   0.33146   -2.000
 7201.00   -0.48334   0.33443   -2.000
 7202.00   -0.34382   0.33252   -2.000
 7203.00   -0.04124   0.33124   -2.000
 7204.00    0.32099   0.33452   -2.000
 7205.00    0.54716   0.33782   -2.000
 7206.00    0.73118   0.33592   -2.000
 7207.00    0.55960   0.33278   -2.000
 7208.00    0.29625   0.33370   -2.000
 7209.00    0.39866   0.33621   -2.000
 7210.00    0.57802   0.33611   -2.000
 7211.00    0.56668   0.33389   -2.000
 7212.00    0.52367   0.33426   -2.000
 7213.00    0.40216   0.33906   -2.000
 7214.00    0.27084   0.34324   -2.000
 7215.00    0.24905   0.34006   -2.000
 7216.00    0.23674   0.32883   -2.000
 7217.00    0.13376   0.31931   -2.000
 7218.00    0.02618   0.31969   -2.000
