###################################################################
## OUTPUT of StarlightChains_v04.for    [Cid@UFSC - 01/Apr/2007] ##
###################################################################

## Some input info
KUG0210-078._39_51.txt                   [arq_obs]
Base.CB07.vall.4m                        [arq_base]
Masks.EmLines.NEW.gm                     [arq_masks]
StCv04.C11.config                        [arq_config]
   66                                    [N_base]
    0                                    [N_YAV_components = # of components with extra extinction!]
    0                                    [i_FitPowerLaw (1/0 = Yes/No)]
-9.99                                    [alpha_PowerLaw]
CCM                                      [red_law_option]
 1.458241                                [q_norm = A(l_norm)/A(V)]

## (Re)Sampling Parameters
 3741.00                                 [l_ini (A)]
 7218.00                                 [l_fin (A)]
    1.00                                 [dl    (A)]     (OBS: dl_cushion =    50.00 A)

## Normalization info
 4020.00                                 [l_norm (A) - for base]
 4010.00                                 [llow_norm (A) - window for f_obs]
 4060.00                                 [lupp_norm (A) - window for f_obs]
7.249920E-18                             [fobs_norm (in input units)]

## S/N
 3691.00                                 [llow_SN (A) - window for S/N]
 7268.00                                 [lupp_SN (A) - window for S/N]
   2.949                                 [S/N in S/N window]
   3.923                                 [S/N in norm. window]
   0.006                                 [S/N_err in S/N window]
   0.008                                 [S/N_err in norm. window]
  1.0000                                 [fscale_chi2]

## etc...
    -2007705                             [idum_orig]
  2420                                   [NOl_eff]
  2392                                   [Nl_eff]
    28    NSIGMA                         [Ntot_cliped & clip_method]
  1345960                                [Nglobal_steps]
   7                                     [N_chains]
  43                                     [NEX0s_base = N_base in EX0s-fits]
 0   0   1       28   2.0   1.609E+03    [Clip-Bug, RC-Crash & Burn-In warning-flags, n_censored_weights, wei_nsig_threshold & wei_limit]
    33     31.231     30.381      0.851  [idt_all, wdt_TotTime, wdt_UsrTime & wdt_SysTime (sec)]

## Synthesis Results - Best model ##

 1.00092E-05                             [chi2/Nl_eff]
    26.51502                             [adev (%)]

   100.68542                             [sum-of-x (%)]
 4.86417E-17                             [Flux_tot (units of input spectrum!)]
 5.20203E-14                             [Mini_tot (???)]
 3.06262E-14                             [Mcor_tot (???)]

-137.49                                  [v0_min  (km/s)]
   0.00                                  [vd_min  (km/s)]
 1.4122                                  [AV_min  (mag)]
 0.0000                                  [YAV_min (mag)]

# j     x_j(%)      Mini_j(%)     Mcor_j(%)     age_j(yr)     Z_j      (L/M)_j    YAV?  Mstars   component_j        a/Fe...       SSP_chi2r SSP_adev(%)   SSP_AV   SSP_x(%)
  1     27.8435     2.3636E+00    4.0147E+00    1.000000E+06  0.00400  1.094E-02    0   1.0000   age020_m42            0.0000     9.8511E-06    26.5383   2.1272    95.6514
  2      0.0000     0.0000E+00    0.0000E+00    3.160000E+06  0.00400  4.007E-02    0   0.9999   age045_m42            0.0000     1.0177E-05    26.0658   1.3474   103.3513
  3      7.7482     2.8340E-01    4.5673E-01    5.010000E+06  0.00400  2.539E-02    0   0.9488   age055_m42            0.0000     1.0184E-05    26.3144   1.7037   100.0089
  4      0.0000     0.0000E+00    0.0000E+00    6.610000E+06  0.00400  2.620E-02    0   0.9220   age061_m42            0.0000     1.0441E-05    26.0037   1.2926   103.0302
  5      0.0000     0.0000E+00    0.0000E+00    1.000000E+07  0.00400  1.322E-02    0   0.8862   age070_m42            0.0000     1.0417E-05    25.9257   1.0834   103.1239
  6      4.6242     5.4477E-01    7.9309E-01    1.445000E+07  0.00400  7.883E-03    0   0.8571   age078_m42            0.0000     1.0313E-05    26.1134   1.4137   100.5436
  7      0.0000     0.0000E+00    0.0000E+00    2.512000E+07  0.00400  5.251E-03    0   0.8174   age090_m42            0.0000     1.0454E-05    25.9058   0.9641   103.4075
  8      0.2446     6.2242E-02    8.3003E-02    4.000000E+07  0.00400  3.649E-03    0   0.7851   age104_m42            0.0000     1.0495E-05    25.7459   0.7193   104.7189
  9      0.0000     0.0000E+00    0.0000E+00    5.500000E+07  0.00400  3.098E-03    0   0.7629   age110_m42            0.0000     1.0650E-05    25.5971   0.8313   105.8511
 10      0.0000     0.0000E+00    0.0000E+00    1.015200E+08  0.00400  2.228E-03    0   0.7207   age116_m42            0.0000     1.0918E-05    25.5201   0.8305   106.5851
 11      0.2241     1.9042E-01    2.1503E-01    2.861200E+08  0.00400  1.093E-03    0   0.6648   age125_m42            0.0000     1.1275E-05    25.3727   0.2749   108.9664
 12      0.0000     0.0000E+00    0.0000E+00    5.088000E+08  0.00400  6.597E-04    0   0.6365   age130_m42            0.0000     1.1570E-05    25.2111   0.2231   111.0982
 13      0.0000     0.0000E+00    0.0000E+00    1.434000E+09  0.00400  2.132E-04    0   0.5798   age139_m42            0.0000     1.1367E-05    24.9867  -0.7838   114.3393
 14      0.0231     3.6434E-01    3.3276E-01    4.250000E+09  0.00400  5.895E-05    0   0.5377   age158_m42            0.0000     1.1322E-05    25.3561  -1.0000   106.7588
 15      0.0000     0.0000E+00    0.0000E+00    7.500000E+09  0.00400  3.510E-05    0   0.5212   age171_m42            0.0000     1.1884E-05    27.4780  -1.0000   102.6959
 16      0.0000     0.0000E+00    0.0000E+00    1.300000E+10  0.00400  2.005E-05    0   0.5034   age193_m42            0.0000     1.2605E-05    30.1977  -1.0000    98.8320
 17      0.0000     0.0000E+00    0.0000E+00    1.800000E+10  0.00400  1.525E-05    0   0.4967   age213_m42            0.0000     1.2611E-05    30.6781  -1.0000    97.9255
 18      0.0000     0.0000E+00    0.0000E+00    1.000000E+06  0.00800  1.238E-02    0   1.0000   age020_m52            0.0000     9.8522E-06    26.5519   2.1235    95.8619
 19     11.4329     3.4540E-01    5.8469E-01    3.160000E+06  0.00800  3.074E-02    0   0.9966   age045_m52            0.0000     9.9560E-06    26.5806   2.0459    96.7705
 20      0.0000     0.0000E+00    0.0000E+00    5.010000E+06  0.00800  2.668E-02    0   0.9443   age055_m52            0.0000     1.0143E-05    26.3681   1.7969    98.9144
 21      0.0000     0.0000E+00    0.0000E+00    6.610000E+06  0.00800  2.136E-02    0   0.9177   age061_m52            0.0000     1.0197E-05    25.8701   0.5846   104.4120
 22      7.6784     5.8690E-01    8.7995E-01    1.000000E+07  0.00800  1.215E-02    0   0.8827   age070_m52            0.0000     1.0341E-05    26.1399   1.2830   102.3339
 23      0.0000     0.0000E+00    0.0000E+00    1.445000E+07  0.00800  8.717E-03    0   0.8552   age078_m52            0.0000     1.0334E-05    26.0498   1.3762   102.0038
 24      0.0000     0.0000E+00    0.0000E+00    2.512000E+07  0.00800  5.592E-03    0   0.8162   age090_m52            0.0000     1.0479E-05    25.8986   1.0236   104.6729
 25      0.0000     0.0000E+00    0.0000E+00    4.000000E+07  0.00800  3.896E-03    0   0.7841   age104_m52            0.0000     1.0583E-05    25.7277   0.9121   106.0933
 26      0.0000     0.0000E+00    0.0000E+00    1.015200E+08  0.00800  2.148E-03    0   0.7226   age116_m52            0.0000     1.0890E-05    25.5696   0.8153   106.8189
 27      0.0000     0.0000E+00    0.0000E+00    2.861200E+08  0.00800  9.925E-04    0   0.6683   age125_m52            0.0000     1.1542E-05    25.2109   0.2831   112.1707
 28      0.0000     0.0000E+00    0.0000E+00    9.047900E+08  0.00800  3.141E-04    0   0.6138   age135_m52            0.0000     1.1703E-05    25.2654  -0.5987   119.2579
 29      0.0000     0.0000E+00    0.0000E+00    1.434000E+09  0.00800  1.719E-04    0   0.5853   age139_m52            0.0000     1.1426E-05    24.8305  -1.0000   113.6763
 30      0.0000     0.0000E+00    0.0000E+00    2.500000E+09  0.00800  7.872E-05    0   0.5600   age150_m52            0.0000     1.2010E-05    27.1299  -1.0000   106.2474
 31      0.0000     0.0000E+00    0.0000E+00    4.250000E+09  0.00800  4.336E-05    0   0.5426   age158_m52            0.0000     1.2105E-05    27.3727  -1.0000   104.8969
 32      0.0000     0.0000E+00    0.0000E+00    6.250000E+09  0.00800  3.159E-05    0   0.5319   age166_m52            0.0000     1.3160E-05    30.6191  -1.0000   100.7500
 33      0.3547     2.4200E+01    2.0853E+01    1.300000E+10  0.00800  1.361E-05    0   0.5073   age193_m52            0.0000     1.6223E-05    38.8273  -1.0000    88.8945
 34      0.0000     3.5828E-04    3.0367E-04    1.800000E+10  0.00800  9.886E-06    0   0.4990   age213_m52            0.0000     1.7512E-05    40.2911  -1.0000    85.5864
 35      0.0000     0.0000E+00    0.0000E+00    1.000000E+06  0.02000  1.544E-02    0   1.0000   age020_m62            0.0000     9.8759E-06    26.5931   2.1204    96.0604
 36     10.6712     2.6343E-01    4.4109E-01    3.160000E+06  0.02000  3.762E-02    0   0.9858   age045_m62            0.0000     9.9878E-06    26.6412   2.0591    96.9576
 37      0.6623     1.8661E-02    2.9611E-02    5.010000E+06  0.02000  3.296E-02    0   0.9342   age055_m62            0.0000     1.0309E-05    26.2645   1.6475   101.6732
 38      0.0000     0.0000E+00    0.0000E+00    8.710000E+06  0.02000  1.154E-02    0   0.8861   age067_m62            0.0000     1.0459E-05    27.9656   0.8686   101.2350
 39      0.0000     0.0000E+00    0.0000E+00    1.445000E+07  0.02000  7.663E-03    0   0.8472   age078_m62            0.0000     1.0317E-05    26.4685   0.9637   103.5614
 40      0.0048     9.8302E-04    1.3523E-03    2.512000E+07  0.02000  4.532E-03    0   0.8099   age090_m62            0.0000     1.0486E-05    26.5950   0.9637   102.9446
 41      0.0000     0.0000E+00    0.0000E+00    5.500000E+07  0.02000  2.733E-03    0   0.7595   age110_m62            0.0000     1.0675E-05    25.8257   0.9067   104.9609
 42      0.0000     0.0000E+00    0.0000E+00    1.609000E+08  0.02000  1.369E-03    0   0.6985   age120_m62            0.0000     1.1318E-05    25.3763   0.6856   109.3724
 43      0.3380     3.4826E-01    3.9716E-01    2.861200E+08  0.02000  9.013E-04    0   0.6714   age125_m62            0.0000     1.1774E-05    25.0424   0.3955   113.6295
 44      0.0000     0.0000E+00    0.0000E+00    5.088000E+08  0.02000  5.028E-04    0   0.6449   age130_m62            0.0000     1.1914E-05    25.2281  -0.0688   119.2736
 45      0.8294     3.1723E+00    3.3295E+00    9.047900E+08  0.02000  2.428E-04    0   0.6179   age135_m62            0.0000     1.1599E-05    25.6689  -0.6919   119.5596
 46      6.8367     5.0270E+01    5.0447E+01    1.434000E+09  0.02000  1.263E-04    0   0.5908   age139_m62            0.0000     1.1507E-05    24.8384  -1.0000   115.6123
 47      0.9111     1.4137E+01    1.3622E+01    2.500000E+09  0.02000  5.985E-05    0   0.5673   age150_m62            0.0000     1.2422E-05    27.3047  -1.0000   107.3620
 48      0.0096     2.7145E-01    2.5211E-01    4.250000E+09  0.02000  3.271E-05    0   0.5468   age158_m62            0.0000     1.4204E-05    32.2243  -1.0000    99.7425
 49      0.0000     0.0000E+00    0.0000E+00    1.000000E+10  0.02000  1.360E-05    0   0.5167   age181_m62            0.0000     1.7086E-05    37.8663  -1.0000    90.5349
 50      0.0000     0.0000E+00    0.0000E+00    1.800000E+10  0.02000  7.124E-06    0   0.5013   age213_m62            0.0000     1.9312E-05    40.8223  -1.0000    84.0981
 51     18.8679     6.7602E-01    1.1480E+00    1.000000E+06  0.05000  2.592E-02    0   0.9998   age020_m72            0.0000     9.8862E-06    26.6661   2.1176    95.9466
 52      0.0000     0.0000E+00    0.0000E+00    3.160000E+06  0.05000  4.845E-02    0   0.9577   age045_m72            0.0000     1.0161E-05    26.5832   1.9239    98.5980
 53      0.0000     0.0000E+00    0.0000E+00    5.010000E+06  0.05000  3.072E-02    0   0.9147   age055_m72            0.0000     1.0286E-05    26.5654   1.5137   100.6065
 54      0.0000     0.0000E+00    0.0000E+00    6.610000E+06  0.05000  1.455E-02    0   0.8877   age061_m72            0.0000     1.0825E-05    29.6008   0.9282   100.6925
 55      0.0000     0.0000E+00    0.0000E+00    1.000000E+07  0.05000  9.074E-03    0   0.8524   age070_m72            0.0000     1.0352E-05    27.1144   1.6749   100.4217
 56      0.0000     0.0000E+00    0.0000E+00    2.512000E+07  0.05000  4.250E-03    0   0.7902   age090_m72            0.0000     1.0586E-05    26.5383   1.3748   102.4269
 57      0.0000     0.0000E+00    0.0000E+00    4.000000E+07  0.05000  3.087E-03    0   0.7618   age104_m72            0.0000     1.0765E-05    26.5141   1.1529   103.8750
 58      0.0000     0.0000E+00    0.0000E+00    1.015200E+08  0.05000  1.700E-03    0   0.7096   age116_m72            0.0000     1.1229E-05    25.5368   0.8517   108.2125
 59      1.3528     1.7014E+00    1.9169E+00    2.861200E+08  0.05000  7.384E-04    0   0.6633   age125_m72            0.0000     1.1878E-05    25.0901   0.2142   116.6435
 60      0.0000     0.0000E+00    0.0000E+00    5.088000E+08  0.05000  3.819E-04    0   0.6372   age130_m72            0.0000     1.1717E-05    25.6190  -0.3475   120.7162
 61      0.0194     1.0722E-01    1.1128E-01    9.047900E+08  0.05000  1.676E-04    0   0.6110   age135_m72            0.0000     1.1729E-05    25.6162  -1.0000   118.6214
 62      0.0087     9.1271E-02    9.1064E-02    1.434000E+09  0.05000  8.837E-05    0   0.5874   age139_m72            0.0000     1.2667E-05    27.4206  -1.0000   109.0001
 63      0.0000     0.0000E+00    0.0000E+00    2.500000E+09  0.05000  4.233E-05    0   0.5598   age150_m72            0.0000     1.4430E-05    32.1998  -1.0000   100.6826
 64      0.0000     0.0000E+00    0.0000E+00    6.250000E+09  0.05000  1.435E-05    0   0.5249   age166_m72            0.0000     1.7861E-05    39.4665  -1.0000    87.6759
 65      0.0000     0.0000E+00    0.0000E+00    1.300000E+10  0.05000  6.513E-06    0   0.5036   age193_m72            0.0000     2.0995E-05    43.1388  -1.0000    80.5045
 66      0.0000     0.0000E+00    0.0000E+00    1.800000E+10  0.05000  4.527E-06    0   0.4945   age213_m72            0.0000     2.2891E-05    45.0033  -1.0000    75.6771


## Synthesis Results - Average & Chains ##

# j      x_j: min, <> & last-chain-values for 1 ...  7 chains
  1     27.8435      0.9890      1.4319      3.3410      7.7140      1.4412      2.0221      4.5246      2.5648
  2      0.0000      0.5840      2.6214      1.2348      1.4375      0.2038      0.0000      0.7865      2.9735
  3      7.7482      0.7747      0.2947      0.8047      0.9807      0.1676      2.7557      0.4894      0.0000
  4      0.0000      0.9748      1.7616      4.6579      2.5228      0.8306      1.1068      2.5037      1.4165
  5      0.0000      0.9866      4.7345      1.8565      2.0087      0.7136      0.0000      0.6807      1.3282
  6      4.6242      0.5554      1.5789      0.0000      0.4999      0.0000      3.3784      2.4005      1.7024
  7      0.0000      0.5911      0.0041      1.6805      0.0000      0.0000      0.0000      0.0000      0.3100
  8      0.2446      1.0831      0.0000      1.3534      0.9871      0.7473      3.9135      5.6065      0.0000
  9      0.0000      0.9188      0.5841      0.0338      1.1945      0.0000      0.0000      0.1808      0.0000
 10      0.0000      0.7721      0.0000      0.8438      0.0000      1.4365      0.0000      0.0000      0.0000
 11      0.2241      0.7568      5.3615      4.0319      2.3726      0.1356      1.2481      0.3864      0.5387
 12      0.0000      0.8031      1.0875      0.6729      0.7022      0.0000      1.0855      0.0000      0.2077
 13      0.0000      0.5133      1.7583      0.0000      0.4441      1.9264      0.0000      1.6179      0.3607
 14      0.0231      0.8141      1.1511      0.8866      1.1662      0.0119      2.5996      0.0000      1.8010
 15      0.0000      0.8389      4.1771      1.9737      0.0000      0.6215      0.9421      0.0000      1.9715
 16      0.0000      0.8920      0.0000      7.2612      0.0000      1.1239      1.2235      0.1203      1.0315
 17      0.0000      0.5793      0.0000      0.0000      0.0000      0.0000      0.9420      2.1958      0.0000
 18      0.0000      0.5752      0.3871      0.0000      0.0000      0.3451      1.0539      0.0870      0.0000
 19     11.4329      0.7787      4.0414      0.6516      0.0000      2.0192      1.7172      3.6987      0.9791
 20      0.0000      0.6227      1.1472      0.2911      1.7275      2.1499      1.5498      2.2370      0.3785
 21      0.0000      0.6149      1.6765      0.9839      0.0000      0.0000      0.1452      1.6734      0.1090
 22      7.6784      0.6022      3.0114      0.6145      1.6606      0.0000      0.9887      0.2323      1.0615
 23      0.0000      0.7232      0.6832      0.0000      1.0693      2.2282      0.4196      0.3005      0.0000
 24      0.0000      0.5705      1.2374      0.0000      0.0000      0.0000      1.4285      0.0000      2.3749
 25      0.0000      0.5672      2.7825      1.3428      0.2419      1.2782      0.2447      0.2985      0.4945
 26      0.0000      0.7313      0.4514      0.0000      0.9664      0.0000      2.1077      2.3722      1.9050
 27      0.0000      0.9676      0.5864      0.3659      2.0649      2.0243      0.9580      1.8426      1.9998
 28      0.0000      0.7957      1.4857      1.9223      0.1194      1.2706      0.0719      0.0000      0.0000
 29      0.0000      0.5767      0.0000      1.4133      0.7276      0.8237      0.3115      0.0939      1.5912
 30      0.0000      0.6567      2.1269      0.3283      0.0000      2.3895      1.3111      1.5986      2.7550
 31      0.0000      0.9472      1.3078      0.1903      1.8041      0.8275      0.0000      3.8942      1.9732
 32      0.0000      0.6231      0.4573      1.8340      0.0997      2.4038      0.0000      0.8804      1.0545
 33      0.3547      0.6387      2.0348      0.5234      0.8463      0.0000      2.1962      0.7421      0.5419
 34      0.0000      0.7074      0.0000      3.2898      1.8637      1.5755      1.4681      0.0000      0.8431
 35      0.0000      0.6920      0.7696      1.9583      1.1328      0.0000      2.2118      1.4378      1.3391
 36     10.6712      0.8855      0.1338      0.6196      1.0407      0.0000      3.0221      0.3271      2.4839
 37      0.6623      0.9147      2.3889      4.5251      0.2082      0.6929      0.4909      0.0000      2.4025
 38      0.0000      0.7271      0.0000      1.3097      0.0000      0.0000      0.3017      2.1398      0.7539
 39      0.0000      0.6307      0.5688      1.1198      0.0071      3.5189      0.0000      0.0000      0.2697
 40      0.0048      0.5520      0.8469      0.0000      0.0810      0.8590      1.7937      0.0000      0.0946
 41      0.0000      0.6992      0.7306      0.6692      0.0000      2.5173      1.6819      0.4029      0.0000
 42      0.0000      0.5777      1.0282      0.3560      1.5191      0.0815      0.0000      1.3082      0.8323
 43      0.3380      0.8374      0.8332      1.1284      0.0000      0.0000      0.9878      3.1096      0.0000
 44      0.0000      1.0948      1.1923      0.0000      0.5008      0.7845      0.0000      0.3510      4.6529
 45      0.8294      0.7247      0.7759      0.0000      2.8729      0.5293      0.6439      0.2336      0.0000
 46      6.8367      0.7118      1.8233      3.7431      2.2054      0.3605      0.8236      1.7033      0.6544
 47      0.9111      0.6760      0.7741      0.5931      0.9592      0.0000      0.4918      0.4857      0.0000
 48      0.0096      0.8737      0.3786      1.9144      0.3847      1.6279      2.0262      1.2601      2.8479
 49      0.0000      0.6142      0.0000      2.0794      0.0000      0.0000      0.0000      2.7750      0.5604
 50      0.0000      0.5291      2.3104      2.5012      1.5907      0.0000      0.4792      2.1958      0.0000
 51     18.8679      0.5968      0.0000      0.1106      0.1278      0.6781      0.5463      1.7275      3.3659
 52      0.0000      0.7306      3.0761      0.0000      3.5497      3.6897      0.3711      1.5159      4.2171
 53      0.0000      0.7189      0.3791      0.6922      0.0000      3.2043      1.9077      0.5481      0.0000
 54      0.0000      0.6358      0.8353      7.4970      1.1899      2.2032      0.0000      0.4521      0.0000
 55      0.0000      0.8111      0.1891      1.3639      0.0000      1.3078      1.4658      0.0000      0.2496
 56      0.0000      0.6420      0.0000      0.0000      0.3849      0.0000      1.7227      0.0000      1.9685
 57      0.0000      0.9531      0.1578      0.3369      1.7893      0.8144      0.4776      1.3423      0.0000
 58      0.0000      0.6921      0.0000      1.5322      0.4877      1.9020      0.8690      0.0000      0.0000
 59      1.3528      1.1430      1.7615      0.9303      0.2316      1.4254      5.0359      0.8277      1.1115
 60      0.0000      0.6381      1.4019      1.5957      0.3837      0.0000      0.0000      1.0150      1.6822
 61      0.0194     60.4945     27.5243     29.6298     52.7372     48.7013     39.8525     36.5585     41.7290
 62      0.0087      1.3565      2.7456      0.0000      0.0000      0.1150      1.6658      2.7058      0.2727
 63      0.0000      0.6501      3.0115      2.1150      0.3393      0.3198      0.0000      2.1740      0.0000
 64      0.0000      0.9157      0.9323      0.0000      1.8839      1.6425      1.0631      0.1889      1.0956
 65      0.0000      1.5307      4.2669      2.0272      0.0056      2.7775      1.4389      0.5878      5.4454
 66      0.0000      9.4439      7.6793      4.0595      7.4831      9.7668      9.7708      9.9047      6.3488

# j      m_j: min, <> & last-chain-values for 1 ...  7 chains
  1  4.0147E+00  5.4124E-03  7.4469E-03  2.0258E-02  5.0294E-02  7.4939E-03  1.0686E-02  2.2954E-02  1.4669E-02
  2  0.0000E+00  8.7245E-04  3.7216E-03  2.0440E-03  2.5586E-03  2.8931E-04  0.0000E+00  1.0893E-03  4.6427E-03
  3  4.5673E-01  1.7333E-03  6.2655E-04  1.9949E-03  2.6140E-03  3.5633E-04  5.9534E-03  1.0150E-03  0.0000E+00
  4  0.0000E+00  2.0537E-03  3.5270E-03  1.0873E-02  6.3325E-03  1.6628E-03  2.2518E-03  4.8900E-03  3.1190E-03
  5  0.0000E+00  3.9593E-03  1.8057E-02  8.2554E-03  9.6046E-03  2.7211E-03  0.0000E+00  2.5325E-03  5.5711E-03
  6  7.9309E-01  3.6151E-03  9.7672E-03  0.0000E+00  3.8765E-03  0.0000E+00  2.1236E-02  1.4486E-02  1.1581E-02
  7  0.0000E+00  5.5091E-03  3.6339E-05  1.7353E-02  0.0000E+00  0.0000E+00  0.0000E+00  0.0000E+00  3.0193E-03
  8  8.3003E-02  1.3951E-02  0.0000E+00  1.9317E-02  1.5148E-02  9.1461E-03  4.8678E-02  6.6948E-02  0.0000E+00
  9  0.0000E+00  1.3546E-02  8.1830E-03  5.5292E-04  2.0980E-02  0.0000E+00  0.0000E+00  2.4713E-03  0.0000E+00
 10  0.0000E+00  1.4953E-02  0.0000E+00  1.8106E-02  0.0000E+00  2.6433E-02  0.0000E+00  0.0000E+00  0.0000E+00
 11  2.1503E-01  2.7557E-02  1.8554E-01  1.6268E-01  1.0293E-01  4.6903E-03  4.3886E-02  1.3045E-02  2.0500E-02
 12  0.0000E+00  4.6391E-02  5.9696E-02  4.3070E-02  4.8325E-02  0.0000E+00  6.0547E-02  0.0000E+00  1.2536E-02
 13  0.0000E+00  8.3576E-02  2.7205E-01  0.0000E+00  8.6151E-02  2.9803E-01  0.0000E+00  2.4420E-01  6.1372E-02
 14  3.3276E-01  4.4456E-01  5.9737E-01  5.3643E-01  7.5874E-01  6.1644E-03  1.3708E+00  0.0000E+00  1.0279E+00
 15  0.0000E+00  7.4573E-01  3.5289E+00  1.9441E+00  0.0000E+00  5.2494E-01  8.0871E-01  0.0000E+00  1.8317E+00
 16  0.0000E+00  1.3408E+00  0.0000E+00  1.2093E+01  0.0000E+00  1.6052E+00  1.7759E+00  1.6763E-01  1.6204E+00
 17  0.0000E+00  1.1297E+00  0.0000E+00  0.0000E+00  0.0000E+00  0.0000E+00  1.7738E+00  3.9693E+00  0.0000E+00
 18  0.0000E+00  2.7816E-03  1.7788E-03  0.0000E+00  0.0000E+00  1.5858E-03  4.9216E-03  3.9013E-04  0.0000E+00
 19  5.8469E-01  1.5114E-03  7.4544E-03  1.4014E-03  0.0000E+00  3.7239E-03  3.2184E-03  6.6552E-03  1.9861E-03
 20  0.0000E+00  1.3195E-03  2.3100E-03  6.8341E-04  4.3611E-03  4.3285E-03  3.1711E-03  4.3942E-03  8.3824E-04
 21  0.0000E+00  1.5815E-03  4.0980E-03  2.8042E-03  0.0000E+00  0.0000E+00  3.6060E-04  3.9902E-03  2.9308E-04
 22  8.7995E-01  2.6194E-03  1.2447E-02  2.9615E-03  8.6052E-03  0.0000E+00  4.1524E-03  9.3680E-04  4.8254E-03
 23  0.0000E+00  4.2479E-03  3.8135E-03  0.0000E+00  7.4825E-03  1.2436E-02  2.3800E-03  1.6361E-03  0.0000E+00
 24  0.0000E+00  4.9849E-03  1.0276E-02  0.0000E+00  0.0000E+00  0.0000E+00  1.2054E-02  0.0000E+00  2.1689E-02
 25  0.0000E+00  6.8344E-03  3.1860E-02  1.7928E-02  3.4722E-03  1.4633E-02  2.8467E-03  3.3345E-03  6.2275E-03
 26  0.0000E+00  1.4729E-02  8.6402E-03  0.0000E+00  2.3188E-02  0.0000E+00  4.0991E-02  4.4290E-02  4.0097E-02
 27  0.0000E+00  3.9007E-02  2.2463E-02  1.6344E-02  9.9173E-02  7.7540E-02  3.7294E-02  6.8859E-02  8.4254E-02
 28  0.0000E+00  9.3095E-02  1.6518E-01  2.4918E-01  1.6646E-02  1.4125E-01  8.1175E-03  0.0000E+00  0.0000E+00
 29  0.0000E+00  1.1756E-01  0.0000E+00  3.1922E-01  1.7670E-01  1.5955E-01  6.1325E-02  1.7747E-02  3.3900E-01
 30  0.0000E+00  2.7969E-01  8.6081E-01  1.5494E-01  0.0000E+00  9.6696E-01  5.3919E-01  6.3114E-01  1.2263E+00
 31  0.0000E+00  7.0959E-01  9.3112E-01  1.5797E-01  1.6103E+00  5.8905E-01  0.0000E+00  2.7046E+00  1.5450E+00
 32  0.0000E+00  6.2811E-01  4.3809E-01  2.0485E+00  1.1979E-01  2.3024E+00  0.0000E+00  8.2274E-01  1.1110E+00
 33  2.0853E+01  1.4252E+00  4.3152E+00  1.2942E+00  2.2501E+00  0.0000E+00  4.7325E+00  1.5352E+00  1.2638E+00
 34  3.0367E-04  2.1376E+00  0.0000E+00  1.1015E+01  6.7099E+00  4.5239E+00  4.2841E+00  0.0000E+00  2.6628E+00
 35  0.0000E+00  2.6833E-03  2.8358E-03  8.4135E-03  5.2330E-03  0.0000E+00  8.2816E-03  5.1684E-03  5.4266E-03
 36  4.4109E-01  1.3892E-03  1.9947E-04  1.0771E-03  1.9451E-03  0.0000E+00  4.5783E-03  4.7578E-04  4.0725E-03
 37  2.9611E-02  1.5522E-03  3.8523E-03  8.5078E-03  4.2101E-04  1.1171E-03  8.0440E-04  0.0000E+00  4.2607E-03
 38  0.0000E+00  3.3424E-03  0.0000E+00  6.6708E-03  0.0000E+00  0.0000E+00  1.3394E-03  9.1192E-03  3.6221E-03
 39  0.0000E+00  4.1748E-03  3.5777E-03  8.2123E-03  5.5764E-05  2.2131E-02  0.0000E+00  0.0000E+00  1.8657E-03
 40  1.3523E-03  5.9062E-03  8.6111E-03  0.0000E+00  1.0324E-03  8.7328E-03  1.8531E-02  0.0000E+00  1.0581E-03
 41  0.0000E+00  1.1633E-02  1.1551E-02  1.2336E-02  0.0000E+00  3.9795E-02  2.7022E-02  6.2146E-03  0.0000E+00
 42  0.0000E+00  1.7646E-02  2.9847E-02  1.2048E-02  5.5286E-02  2.3652E-03  0.0000E+00  3.7045E-02  2.6570E-02
 43  3.9716E-01  3.7344E-02  3.5312E-02  5.5760E-02  0.0000E+00  0.0000E+00  4.2540E-02  1.2856E-01  0.0000E+00
 44  0.0000E+00  8.4068E-02  8.7008E-02  0.0000E+00  4.5815E-02  5.7240E-02  0.0000E+00  2.4989E-02  3.7341E-01
 45  3.3295E+00  1.1041E-01  1.1234E-01  0.0000E+00  5.2148E-01  7.6622E-02  9.4738E-02  3.2988E-02  0.0000E+00
 46  5.0447E+01  1.9933E-01  4.8526E-01  1.1615E+00  7.3584E-01  9.5939E-02  2.2272E-01  4.4221E-01  1.9154E-01
 47  1.3622E+01  3.8362E-01  4.1744E-01  3.7294E-01  6.4850E-01  0.0000E+00  2.6950E-01  2.5552E-01  0.0000E+00
 48  2.5211E-01  8.7437E-01  3.6005E-01  2.1229E+00  4.5867E-01  1.5481E+00  1.9582E+00  1.1691E+00  2.9788E+00
 49  0.0000E+00  1.3971E+00  0.0000E+00  5.2407E+00  0.0000E+00  0.0000E+00  0.0000E+00  5.8514E+00  1.3322E+00
 50  0.0000E+00  2.2289E+00  9.2496E+00  1.1675E+01  7.9840E+00  0.0000E+00  1.9496E+00  8.5754E+00  0.0000E+00
 51  1.1480E+00  1.3782E-03  0.0000E+00  2.8304E-04  3.5156E-04  1.4880E-03  1.2182E-03  3.6983E-03  8.1234E-03
 52  0.0000E+00  8.6464E-04  3.4594E-03  0.0000E+00  5.0047E-03  4.1489E-03  4.2405E-04  1.6630E-03  5.2157E-03
 53  0.0000E+00  1.2815E-03  6.4224E-04  1.3672E-03  0.0000E+00  5.4275E-03  3.2838E-03  9.0581E-04  0.0000E+00
 54  0.0000E+00  2.3222E-03  2.8994E-03  3.0341E-02  5.1779E-03  7.6466E-03  0.0000E+00  1.5308E-03  0.0000E+00
 55  0.0000E+00  4.5617E-03  1.0107E-03  8.4990E-03  0.0000E+00  6.9884E-03  7.9604E-03  0.0000E+00  1.4671E-03
 56  0.0000E+00  7.1457E-03  0.0000E+00  0.0000E+00  5.1047E-03  0.0000E+00  1.8517E-02  0.0000E+00  2.2901E-02
 57  0.0000E+00  1.4081E-02  2.2162E-03  5.5151E-03  3.1495E-02  1.1433E-02  6.8137E-03  1.8384E-02  0.0000E+00
 58  0.0000E+00  1.7296E-02  0.0000E+00  4.2425E-02  1.4520E-02  4.5162E-02  2.0971E-02  0.0000E+00  0.0000E+00
 59  1.9169E+00  6.1468E-02  9.0024E-02  5.5438E-02  1.4837E-02  7.2838E-02  2.6153E-01  4.1263E-02  6.2471E-02
 60  0.0000E+00  6.3738E-02  1.3308E-01  1.7661E-01  4.5665E-02  0.0000E+00  0.0000E+00  9.3991E-02  1.7562E-01
 61  1.1128E-01  1.3203E+01  5.7089E+00  7.1654E+00  1.3713E+01  1.0100E+01  8.3993E+00  7.3969E+00  9.5185E+00
 62  9.1064E-02  5.3980E-01  1.0383E+00  0.0000E+00  0.0000E+00  4.3491E-02  6.4012E-01  9.9821E-01  1.1341E-01
 63  0.0000E+00  5.1467E-01  2.2659E+00  1.8554E+00  3.2001E-01  2.4058E-01  0.0000E+00  1.5957E+00  0.0000E+00
 64  0.0000E+00  2.0053E+00  1.9401E+00  0.0000E+00  4.9151E+00  3.4177E+00  2.2482E+00  3.8356E-01  2.5075E+00
 65  0.0000E+00  7.0857E+00  1.8771E+01  1.0398E+01  3.0933E-02  1.2217E+01  6.4320E+00  2.5224E+00  2.6345E+01
 66  0.0000E+00  6.1759E+01  4.7725E+01  2.9415E+01  5.8303E+01  6.0690E+01  6.1703E+01  6.0047E+01  4.3392E+01

# AV, chi2 & Mass for <> & i_chain = 1 ...  7 solutions
AV       1.4122     -0.9845     -0.9184     -0.8954     -0.8662     -0.9827     -0.9000     -0.9593     -0.9253
chi2 1.0009E-05  1.0981E-05  1.0714E-05  1.0719E-05  1.0719E-05  1.0758E-05  1.0679E-05  1.0694E-05  1.0707E-05
Mass 3.0626E-14  3.2275E-14  3.7115E-14  3.2833E-14  3.1757E-14  3.4050E-14  3.7441E-14  3.6016E-14  3.3441E-14
-137.49                                  [v0_min (km/s) before EX0s...]
   0.00                                  [vd_min (km/s) before EX0s...]


## Synthetic spectrum (Best Model) ##l_obs f_obs f_syn wei
 3478    [Nl_obs]
 3741.00    1.07135   0.98202    0.000
 3742.00    0.87376   0.97251    0.000
 3743.00    0.75892   0.95557    0.000
 3744.00    0.89199   0.93098    0.000
 3745.00    1.16950   0.90205    0.022
 3746.00    1.54938   0.86058    0.022
 3747.00    1.98123   0.80798    0.022
 3748.00    1.68482   0.77455    0.022
 3749.00    1.06817   0.78778    0.022
 3750.00    0.62550   0.83443    0.022
 3751.00    0.24851   0.88092    0.021
 3752.00    0.65064   0.91128    0.021
 3753.00    1.30247   0.93443    0.021
 3754.00    1.47689   0.95529    0.020
 3755.00    1.52338   0.96429    0.020
 3756.00    1.20951   0.96742    0.020
 3757.00    0.81653   0.96592    0.019
 3758.00    0.69858   0.96484    0.019
 3759.00    0.62863   0.97768    0.019
 3760.00    0.42017   0.99135    0.024
 3761.00    0.19331   0.99342    0.033
 3762.00    0.28526   0.98745    0.024
 3763.00    0.40717   0.97471    0.019
 3764.00    0.63820   0.95057    0.018
 3765.00    0.87552   0.91685    0.018
 3766.00    1.16367   0.87540    0.019
 3767.00    1.45145   0.82144    0.019
 3768.00    1.54884   0.76537    0.019
 3769.00    1.60861   0.74589    0.019
 3770.00    0.75465   0.78058    0.018
 3771.00   -0.03657   0.83649    0.000
 3772.00   -0.00570   0.88431    0.000
 3773.00    0.03561   0.92484    0.018
 3774.00    0.16849   0.95796    0.018
 3775.00    0.29426   0.98110    0.018
 3776.00    0.37389   0.99723    0.019
 3777.00    0.52075   1.01049    0.019
 3778.00    1.00792   1.02326    0.019
 3779.00    1.31166   1.03176    0.019
 3780.00    0.86459   1.03576    0.019
 3781.00    0.48691   1.03847    0.019
 3782.00    0.34462   1.03960    0.019
 3783.00    0.23866   1.03468    0.019
 3784.00    0.23664   1.02665    0.019
 3785.00    0.28926   1.02039    0.019
 3786.00    0.47537   1.01513    0.019
 3787.00    0.66550   1.00793    0.019
 3788.00    0.86412   0.99396    0.019
 3789.00    0.94712   0.97401    0.019
 3790.00    0.81835   0.95745    0.018
 3791.00    0.72481   0.93954    0.018
 3792.00    0.68768   0.90787    0.018
 3793.00    0.58987   0.86252    0.018
 3794.00    0.40682   0.80380    0.018
 3795.00    0.30803   0.73799    0.017
 3796.00    0.31340   0.70073    0.017
 3797.00    0.60342   0.72511    0.018
 3798.00    1.20355   0.79092    0.018
 3799.00    1.60961   0.85645    0.018
 3800.00    1.82916   0.90540    0.018
 3801.00    1.40348   0.94220    0.018
 3802.00    0.43106   0.96814    0.018
 3803.00    0.02057   0.98138    0.018
 3804.00    0.02941   0.98618    0.018
 3805.00    0.39064   0.99529    0.018
 3806.00    0.98287   1.01196    0.019
 3807.00    0.82210   1.02665    0.018
 3808.00    0.22921   1.03611    0.018
 3809.00    0.36531   1.03976    0.018
 3810.00    0.86578   1.03688    0.018
 3811.00    1.02107   1.02985    0.019
 3812.00    1.02709   1.02482    0.021
 3813.00    1.24587   1.02386    0.020
 3814.00    1.54354   1.02422    0.019
 3815.00    1.29886   1.02071    0.018
 3816.00    0.88369   0.99698    0.018
 3817.00    0.39039   0.94780    0.018
 3818.00   -0.12341   0.92273    0.000
 3819.00   -0.44523   0.95378    0.000
 3820.00   -0.72591   0.99622    0.000
 3821.00   -0.63473   1.01439    0.000
 3822.00   -0.48044   1.01180    0.000
 3823.00    0.06258   1.00248    0.018
 3824.00    0.65549   0.99450    0.018
 3825.00    1.34863   0.98533    0.018
 3826.00    2.05076   0.97226    0.018
 3827.00    2.15216   0.95507    0.019
 3828.00    2.22128   0.93404    0.019
 3829.00    1.75444   0.90430    0.018
 3830.00    1.27994   0.86008    0.018
 3831.00    1.06466   0.80197    0.018
 3832.00    0.86148   0.73148    0.018
 3833.00    0.92706   0.67134    0.017
 3834.00    0.98389   0.66737    0.017
 3835.00    0.93198   0.72087    0.017
 3836.00    0.90956   0.78891    0.017
 3837.00    1.13633   0.84735    0.018
 3838.00    1.38131   0.89171    0.018
 3839.00    1.74088   0.92508    0.018
 3840.00    1.86291   0.95219    0.018
 3841.00    0.81282   0.97364    0.017
 3842.00   -0.04675   0.98923    0.000
 3843.00   -0.14366   0.99945    0.000
 3844.00   -0.13543   1.00757    0.000
 3845.00    0.22233   1.01585    0.017
 3846.00    0.71603   1.02222    0.018
 3847.00    1.59151   1.02413    0.000
 3848.00    1.86452   1.02428    0.000
 3849.00    0.69051   1.02826    0.000
 3850.00    0.22277   1.03412    0.000
 3851.00    1.21982   1.03691    0.000
 3852.00    1.67837   1.03507    0.000
 3853.00    1.16568   1.02949    0.000
 3854.00    0.79816   1.02425    0.000
 3855.00    0.65960   1.02402    0.000
 3856.00    0.49866   1.02541    0.000
 3857.00    0.30675   1.02399    0.000
 3858.00    0.22787   1.02315    0.000
 3859.00    0.28674   1.02789    0.000
 3860.00    0.48132   1.03295    0.000
 3861.00    0.82168   1.03425    0.000
 3862.00    0.70261   1.03355    0.000
 3863.00    0.14823   1.03146    0.000
 3864.00   -0.17265   1.02592    0.000
 3865.00   -0.29847   1.01509    0.000
 3866.00   -0.01033   1.01377    0.000
 3867.00    0.58227   1.02448    0.000
 3868.00    0.74742   1.02636    0.000
 3869.00    0.63648   1.01116    0.000
 3870.00    0.48661   0.99547    0.000
 3871.00    0.31475   0.99664    0.000
 3872.00    0.26970   1.00652    0.000
 3873.00    0.28704   1.00938    0.000
 3874.00    0.39722   1.00427    0.000
 3875.00    0.54687   0.99708    0.000
 3876.00    0.76309   0.98845    0.000
 3877.00    1.00356   0.98287    0.000
 3878.00    1.20768   0.98021    0.000
 3879.00    1.40059   0.97026    0.000
 3880.00    1.32057   0.94974    0.000
 3881.00    1.17049   0.92683    0.016
 3882.00    1.00654   0.90449    0.016
 3883.00    0.83970   0.87122    0.016
 3884.00    0.92100   0.82115    0.016
 3885.00    1.04322   0.75616    0.016
 3886.00    0.92358   0.67923    0.017
 3887.00    0.77398   0.62947    0.017
 3888.00    0.71476   0.65428    0.017
 3889.00    0.66327   0.73074    0.016
 3890.00    0.69955   0.80505    0.016
 3891.00    0.74020   0.85843    0.016
 3892.00    0.85774   0.89609    0.016
 3893.00    0.97375   0.92262    0.016
 3894.00    0.91033   0.94290    0.016
 3895.00    0.85989   0.96058    0.016
 3896.00    1.07496   0.97141    0.016
 3897.00    1.23466   0.97621    0.015
 3898.00    0.73962   0.98487    0.015
 3899.00    0.27412   0.99694    0.015
 3900.00    0.04931   1.00368    0.015
 3901.00   -0.11544   1.00516    0.000
 3902.00    0.08665   1.00730    0.014
 3903.00    0.25894   1.00752    0.013
 3904.00    0.28787   1.00679    0.013
 3905.00    0.30548   1.01125    0.013
 3906.00    0.27882   1.01942    0.013
 3907.00    0.29911   1.02563    0.013
 3908.00    0.47246   1.02801    0.014
 3909.00    0.55304   1.02657    0.014
 3910.00    0.37781   1.02291    0.014
 3911.00    0.35217   1.02109    0.015
 3912.00    0.67974   1.02221    0.015
 3913.00    1.04850   1.02414    0.015
 3914.00    1.50132   1.02307    0.016
 3915.00    1.59848   1.01941    0.016
 3916.00    1.06396   1.01172    0.016
 3917.00    0.89146   0.99938    0.016
 3918.00    1.28149   0.98938    0.016
 3919.00    1.35293   0.98785    0.016
 3920.00    0.98970   0.99143    0.016
 3921.00    0.77250   0.98923    0.017
 3922.00    0.73072   0.98504    0.017
 3923.00    1.06404   0.98102    0.017
 3924.00    1.79461   0.97172    0.017
 3925.00    1.53908   0.96826    0.016
 3926.00    0.36234   0.97432    0.016
 3927.00    0.02967   0.97651    0.016
 3928.00    0.39216   0.97442    0.016
 3929.00    0.55385   0.96849    0.016
 3930.00    0.56998   0.95598    0.016
 3931.00    0.62106   0.94054    0.016
 3932.00    0.69439   0.93289    0.016
 3933.00    1.16991   0.93999    0.016
 3934.00    1.86928   0.95765    0.017
 3935.00    1.64713   0.97489    0.017
 3936.00    0.97890   0.98658    0.016
 3937.00    0.93515   0.99392    0.016
 3938.00    1.15249   0.99969    0.016
 3939.00    1.15575   1.00295    0.016
 3940.00    1.08243   1.00301    0.016
 3941.00    1.14392   1.00011    0.016
 3942.00    1.24616   0.99611    0.016
 3943.00    1.13115   0.99709    0.016
 3944.00    0.96157   1.00286    0.016
 3945.00    0.93856   1.00359    0.016
 3946.00    0.94544   1.00025    0.015
 3947.00    1.29408   1.00026    0.016
 3948.00    1.69744   1.00290    0.016
 3949.00    1.23511   1.00318    0.016
 3950.00    0.66943   0.99945    0.016
 3951.00    1.08672   0.99423    0.016
 3952.00    1.58405   0.99069    0.016
 3953.00    1.28714   0.98775    0.016
 3954.00    0.95372   0.98254    0.016
 3955.00    0.54268   0.97746    0.016
 3956.00    0.14761   0.97592    0.016
 3957.00    0.63899   0.97334    0.016
 3958.00    1.09002   0.96157    0.016
 3959.00    0.77657   0.93608    0.016
 3960.00    0.51515   0.91376    0.000
 3961.00    0.84000   0.89846    0.000
 3962.00    1.09333   0.87059    0.000
 3963.00    0.78442   0.83672    0.000
 3964.00    0.55027   0.80669    0.000
 3965.00    0.75968   0.76299    0.000
 3966.00    0.87155   0.69785    0.000
 3967.00    0.52538   0.62357    0.000
 3968.00    0.34242   0.58073    0.000
 3969.00    0.78494   0.61003    0.000
 3970.00    1.11904   0.68613    0.000
 3971.00    1.10664   0.75848    0.000
 3972.00    0.94138   0.81445    0.000
 3973.00    0.36214   0.85831    0.000
 3974.00   -0.72003   0.88939    0.000
 3975.00   -2.96997   0.91203    0.000
 3976.00   -3.61328   0.93135    0.000
 3977.00   -1.02960   0.94773    0.000
 3978.00    0.86390   0.96011    0.000
 3979.00    1.55016   0.96606    0.000
 3980.00    1.72087   0.96677    0.000
 3981.00    1.10228   0.96860    0.016
 3982.00    0.85910   0.97499    0.016
 3983.00    1.12080   0.98271    0.016
 3984.00    1.01252   0.98729    0.016
 3985.00    0.46610   0.99122    0.016
 3986.00    0.34532   0.99663    0.016
 3987.00    0.66898   0.99907    0.015
 3988.00    0.92791   0.99859    0.015
 3989.00    1.12721   1.00054    0.015
 3990.00    1.18351   1.00463    0.015
 3991.00    1.12370   1.00672    0.015
 3992.00    1.07922   1.00296    0.015
 3993.00    1.04569   0.99750    0.015
 3994.00    1.13014   0.99575    0.015
 3995.00    1.28855   0.99458    0.015
 3996.00    1.53668   0.99388    0.015
 3997.00    1.83397   0.99899    0.015
 3998.00    1.70592   1.00643    0.015
 3999.00    1.37527   1.00844    0.015
 4000.00    1.06690   1.00666    0.015
 4001.00    0.76769   1.00313    0.015
 4002.00    0.65730   0.99652    0.015
 4003.00    0.61323   0.98743    0.015
 4004.00    0.59910   0.98483    0.015
 4005.00    0.59383   0.98669    0.015
 4006.00    0.75689   0.98101    0.015
 4007.00    0.96130   0.97011    0.015
 4008.00    1.07695   0.97222    0.015
 4009.00    1.17495   0.98682    0.015
 4010.00    0.96638   0.99795    0.015
 4011.00    0.71017   1.00238    0.015
 4012.00    0.64841   1.00418    0.015
 4013.00    0.60900   1.00615    0.015
 4014.00    0.48173   1.00660    0.015
 4015.00    0.34766   1.00406    0.015
 4016.00    0.64953   1.00339    0.015
 4017.00    0.96975   1.00656    0.016
 4018.00    1.00000   1.00690    0.016
 4019.00    1.02743   0.99993    0.016
 4020.00    1.04756   0.98938    0.015
 4021.00    1.05168   0.97347    0.015
 4022.00    0.77364   0.94069    0.015
 4023.00    0.56457   0.88789    0.015
 4024.00    1.09761   0.85091    0.015
 4025.00    1.56065   0.87610    0.015
 4026.00    1.49230   0.93405    0.015
 4027.00    1.38646   0.96981    0.015
 4028.00    1.06441   0.97824    0.015
 4029.00    0.80995   0.97811    0.015
 4030.00    0.86524   0.97987    0.015
 4031.00    0.91763   0.98261    0.015
 4032.00    0.95913   0.98608    0.015
 4033.00    0.94710   0.99037    0.014
 4034.00    0.76726   0.99836    0.014
 4035.00    0.64193   1.00756    0.014
 4036.00    0.66163   1.01107    0.014
 4037.00    0.75499   1.00877    0.014
 4038.00    1.01659   1.00363    0.014
 4039.00    1.19650   0.99980    0.015
 4040.00    1.21493   1.00056    0.015
 4041.00    1.19807   1.00002    0.015
 4042.00    1.12043   0.99070    0.015
 4043.00    1.19193   0.97930    0.015
 4044.00    1.48844   0.97829    0.015
 4045.00    1.49470   0.98852    0.015
 4046.00    1.11624   0.99764    0.015
 4047.00    0.90970   1.00041    0.015
 4048.00    0.90390   1.00182    0.014
 4049.00    1.03876   1.00216    0.014
 4050.00    1.31843   0.99911    0.015
 4051.00    1.31959   0.99370    0.015
 4052.00    1.06784   0.98805    0.015
 4053.00    0.68747   0.98508    0.015
 4054.00    0.20416   0.98522    0.015
 4055.00    0.23480   0.98603    0.015
 4056.00    0.62735   0.98614    0.015
 4057.00    1.20750   0.98738    0.015
 4058.00    1.90352   0.98940    0.015
 4059.00    1.73245   0.98946    0.015
 4060.00    1.09350   0.98405    0.015
 4061.00    0.76492   0.97587    0.015
 4062.00    0.58181   0.97410    0.015
 4063.00    0.81109   0.98074    0.015
 4064.00    1.20699   0.98300    0.015
 4065.00    1.12634   0.97222    0.015
 4066.00    0.88137   0.95831    0.015
 4067.00    0.84509   0.94903    0.015
 4068.00    0.86941   0.94452    0.015
 4069.00    0.72659   0.94643    0.015
 4070.00    0.54363   0.95382    0.015
 4071.00    0.66208   0.96672    0.015
 4072.00    0.83895   0.97361    0.015
 4073.00    1.43354   0.96247    0.015
 4074.00    2.09108   0.94859    0.015
 4075.00    1.68001   0.94771    0.015
 4076.00    1.15074   0.95447    0.015
 4077.00    1.27860   0.96248    0.015
 4078.00    1.45459   0.97095    0.015
 4079.00    1.49397   0.97621    0.015
 4080.00    1.52811   0.97549    0.015
 4081.00    0.97661   0.96951    0.015
 4082.00    0.45124   0.96057    0.015
 4083.00    1.03306   0.95543    0.014
 4084.00    1.53162   0.95622    0.014
 4085.00    0.65793   0.95486    0.014
 4086.00   -0.10813   0.93912    0.000
 4087.00    0.23341   0.92364    0.014
 4088.00    0.58158   0.92992    0.014
 4089.00    0.97843   0.93893    0.014
 4090.00    1.31204   0.93297    0.014
 4091.00    1.29091   0.92215    0.014
 4092.00    1.20109   0.91073    0.000
 4093.00    0.80390   0.89071    0.000
 4094.00    0.50121   0.85812    0.000
 4095.00    0.54556   0.81909    0.000
 4096.00    0.61565   0.78496    0.000
 4097.00    0.76489   0.74541    0.000
 4098.00    0.94717   0.67923    0.000
 4099.00    1.21582   0.60144    0.000
 4100.00    1.41226   0.57317    0.000
 4101.00    1.44651   0.62349    0.000
 4102.00    1.41861   0.70554    0.000
 4103.00    1.26975   0.77435    0.000
 4104.00    1.17630   0.82280    0.000
 4105.00    1.17689   0.85510    0.000
 4106.00    1.05430   0.87707    0.000
 4107.00    0.74863   0.89286    0.000
 4108.00    0.56190   0.90366    0.000
 4109.00    0.53059   0.91261    0.000
 4110.00    0.41323   0.92341    0.000
 4111.00    0.19682   0.93388    0.000
 4112.00    0.29279   0.93966    0.000
 4113.00    0.70583   0.93557    0.014
 4114.00    1.02867   0.93038    0.014
 4115.00    1.27073   0.93750    0.014
 4116.00    1.23107   0.94319    0.014
 4117.00    0.96912   0.93471    0.014
 4118.00    0.83177   0.91956    0.019
 4119.00    0.78088   0.91527    0.071
 4120.00    0.67320   0.93099   -1.000
 4121.00    0.53096   0.95032   -1.000
 4122.00    0.73809   0.96127   -1.000
 4123.00    1.13084   0.96720   -1.000
 4124.00    1.26205   0.96649   -1.000
 4125.00    1.27267   0.95962   -1.000
 4126.00    1.14662   0.95298   -1.000
 4127.00    0.96630   0.95385   -1.000
 4128.00    0.77000   0.95423   -1.000
 4129.00    0.56828   0.95009   -1.000
 4130.00    0.92150   0.94641    0.035
 4131.00    1.43262   0.94788    0.015
 4132.00    1.44716   0.95456    0.014
 4133.00    1.34512   0.96334    0.014
 4134.00    1.20076   0.96960    0.014
 4135.00    1.04842   0.96957    0.014
 4136.00    0.73481   0.96933    0.014
 4137.00    0.39767   0.97121    0.014
 4138.00    0.78184   0.97075    0.014
 4139.00    1.24268   0.96466    0.014
 4140.00    0.87979   0.94349    0.014
 4141.00    0.45993   0.90886    0.014
 4142.00    0.33021   0.89648    0.014
 4143.00    0.21049   0.92199    0.014
 4144.00    0.62604   0.94974    0.014
 4145.00    1.04001   0.96110    0.014
 4146.00    1.36670   0.96395    0.014
 4147.00    1.65253   0.96163    0.014
 4148.00    1.30641   0.95901    0.014
 4149.00    0.99450   0.95963    0.014
 4150.00    1.01985   0.95763    0.014
 4151.00    1.06178   0.95228    0.014
 4152.00    1.22143   0.95124    0.014
 4153.00    1.29001   0.95305    0.014
 4154.00    0.86143   0.95263    0.014
 4155.00    0.53706   0.95360    0.013
 4156.00    0.66823   0.95976    0.013
 4157.00    0.81678   0.96519    0.013
 4158.00    1.02781   0.96598    0.013
 4159.00    1.18335   0.96425    0.013
 4160.00    1.17142   0.96265    0.013
 4161.00    1.05687   0.96256    0.013
 4162.00    0.67875   0.96383    0.013
 4163.00    0.53234   0.96459    0.013
 4164.00    0.89775   0.96300    0.013
 4165.00    1.10759   0.95859    0.013
 4166.00    1.01945   0.95297    0.013
 4167.00    0.89644   0.95194    0.013
 4168.00    0.71516   0.95488    0.013
 4169.00    0.71858   0.95212    0.013
 4170.00    0.99254   0.94247    0.013
 4171.00    1.14539   0.93846    0.013
 4172.00    1.14226   0.94240    0.013
 4173.00    0.97257   0.94818    0.013
 4174.00    0.61388   0.95084    0.013
 4175.00    0.56358   0.94865    0.013
 4176.00    0.82193   0.94564    0.013
 4177.00    1.06053   0.94853    0.013
 4178.00    1.28169   0.95498    0.013
 4179.00    1.21512   0.95630    0.013
 4180.00    0.92476   0.95298    0.013
 4181.00    0.69079   0.95170    0.013
 4182.00    0.49538   0.95231    0.013
 4183.00    0.54267   0.95173    0.013
 4184.00    0.73542   0.94698    0.013
 4185.00    0.80913   0.94040    0.013
 4186.00    0.82058   0.94162    0.013
 4187.00    1.02433   0.94574    0.013
 4188.00    1.31531   0.94779    0.013
 4189.00    1.26439   0.95083    0.013
 4190.00    1.08004   0.95482    0.013
 4191.00    0.87961   0.95931    0.013
 4192.00    0.67383   0.95867    0.013
 4193.00    0.61674   0.94933    0.013
 4194.00    0.60110   0.93870    0.013
 4195.00    0.56701   0.92859    0.013
 4196.00    0.52869   0.91080    0.013
 4197.00    0.83370   0.89128    0.013
 4198.00    1.20180   0.88787    0.013
 4199.00    1.05773   0.90026    0.013
 4200.00    0.84123   0.91614    0.013
 4201.00    0.84219   0.92925    0.013
 4202.00    0.86533   0.93790    0.013
 4203.00    0.73934   0.94256    0.013
 4204.00    0.60363   0.94796    0.013
 4205.00    0.72763   0.95230    0.013
 4206.00    0.85959   0.95422    0.013
 4207.00    0.97589   0.95358    0.013
 4208.00    1.08678   0.95211    0.013
 4209.00    1.03864   0.95148    0.013
 4210.00    0.99234   0.95046    0.013
 4211.00    0.97293   0.95069    0.013
 4212.00    0.94106   0.94941    0.013
 4213.00    0.79135   0.94168    0.013
 4214.00    0.68900   0.93864    0.013
 4215.00    0.91226   0.94645    0.013
 4216.00    1.07097   0.95459    0.013
 4217.00    0.88658   0.95823    0.013
 4218.00    0.74078   0.95902    0.013
 4219.00    0.75979   0.95861    0.013
 4220.00    0.78100   0.95504    0.013
 4221.00    0.80994   0.94949    0.013
 4222.00    0.82281   0.94132    0.013
 4223.00    0.78806   0.92899    0.013
 4224.00    0.74361   0.91615    0.013
 4225.00    0.67469   0.91330    0.013
 4226.00    0.64935   0.92698    0.013
 4227.00    0.71870   0.94389    0.012
 4228.00    0.83586   0.95241    0.012
 4229.00    1.04314   0.95493    0.012
 4230.00    1.14903   0.94976    0.012
 4231.00    1.08796   0.94011    0.012
 4232.00    1.03834   0.93791    0.012
 4233.00    1.00527   0.94003    0.012
 4234.00    1.08298   0.93711    0.012
 4235.00    1.30135   0.93639    0.012
 4236.00    1.25269   0.93862    0.012
 4237.00    0.90529   0.93915    0.012
 4238.00    0.85221   0.94150    0.012
 4239.00    1.08956   0.94416    0.012
 4240.00    1.12584   0.94417    0.012
 4241.00    0.98711   0.94678    0.012
 4242.00    0.89343   0.95255    0.012
 4243.00    0.83429   0.95299    0.012
 4244.00    0.86496   0.94501    0.012
 4245.00    0.95616   0.93794    0.012
 4246.00    1.18845   0.93781    0.012
 4247.00    1.50404   0.93751    0.012
 4248.00    1.46034   0.93313    0.012
 4249.00    1.23163   0.93359    0.012
 4250.00    1.10763   0.93854    0.012
 4251.00    1.03033   0.93670    0.013
 4252.00    0.76010   0.93176    0.012
 4253.00    0.41591   0.93353    0.012
 4254.00    0.47005   0.94029    0.012
 4255.00    0.65399   0.94475    0.012
 4256.00    0.83863   0.94163    0.012
 4257.00    1.02346   0.93437    0.012
 4258.00    1.30357   0.92810    0.012
 4259.00    1.60503   0.92736    0.012
 4260.00    1.49330   0.93531    0.012
 4261.00    1.30768   0.94537    0.012
 4262.00    1.31403   0.95016    0.012
 4263.00    1.34666   0.94915    0.013
 4264.00    1.16840   0.93765    0.013
 4265.00    0.96954   0.92215    0.013
 4266.00    0.78821   0.92236    0.012
 4267.00    0.60796   0.93138    0.012
 4268.00    0.67152   0.92990    0.012
 4269.00    0.74122   0.91983    0.012
 4270.00    0.72473   0.91554    0.012
 4271.00    0.71438   0.92034    0.012
 4272.00    0.86626   0.92152    0.012
 4273.00    0.99396   0.91846    0.012
 4274.00    0.78935   0.92152    0.012
 4275.00    0.62520   0.92974    0.012
 4276.00    0.82860   0.93672    0.012
 4277.00    1.00938   0.93861    0.012
 4278.00    1.03950   0.93580    0.013
 4279.00    1.03757   0.93205    0.013
 4280.00    0.86972   0.92739    0.012
 4281.00    0.73257   0.92507    0.012
 4282.00    0.72362   0.92523   -2.000
 4283.00    0.67480   0.92361   -2.000
 4284.00    0.48832   0.92420   -2.000
 4285.00    0.38971   0.92611   -2.000
 4286.00    0.54654   0.92147   -2.000
 4287.00    0.65677   0.91037   -2.000
 4288.00    0.65143   0.90349   -2.000
 4289.00    0.72976   0.90997   -2.000
 4290.00    0.98695   0.92283   -2.000
 4291.00    1.14604   0.92821   -2.000
 4292.00    1.12299   0.92228   -2.000
 4293.00    1.11803   0.91794   -2.000
 4294.00    1.14238   0.91952   -2.000
 4295.00    1.13372   0.91969   -2.000
 4296.00    1.07807   0.91385   -2.000
 4297.00    1.14039   0.90194   -2.000
 4298.00    1.35035   0.89497    0.013
 4299.00    1.40349   0.89801    0.013
 4300.00    1.28364   0.89874    0.013
 4301.00    1.02387   0.89624    0.013
 4302.00    0.62796   0.89962    0.013
 4303.00    0.54394   0.90406    0.013
 4304.00    0.72749   0.90362    0.013
 4305.00    0.81821   0.89786    0.013
 4306.00    0.83876   0.89121    0.012
 4307.00    0.78232   0.89203    0.012
 4308.00    0.67476   0.89973    0.012
 4309.00    0.57149   0.90706    0.012
 4310.00    0.47072   0.90836    0.012
 4311.00    0.42098   0.90395    0.012
 4312.00    0.39710   0.90111    0.012
 4313.00    0.71020   0.90750    0.012
 4314.00    1.17116   0.91869    0.012
 4315.00    1.20664   0.92426    0.012
 4316.00    1.08184   0.92358    0.012
 4317.00    1.01155   0.91910    0.012
 4318.00    0.95867   0.91416    0.012
 4319.00    0.88278   0.91323    0.012
 4320.00    0.80074   0.91502    0.012
 4321.00    0.67475   0.91018    0.012
 4322.00    0.53915   0.89550    0.012
 4323.00    0.54396   0.87726    0.012
 4324.00    0.57320   0.87021    0.012
 4325.00    0.63348   0.87948    0.012
 4326.00    0.69787   0.89079    0.012
 4327.00    0.83464   0.89258    0.012
 4328.00    0.97817   0.88499    0.012
 4329.00    0.76243   0.87454    0.012
 4330.00    0.52613   0.86480    0.000
 4331.00    0.89462   0.85402    0.000
 4332.00    1.27212   0.84163    0.000
 4333.00    1.06948   0.82431    0.000
 4334.00    0.87161   0.79260    0.000
 4335.00    0.78811   0.74081    0.000
 4336.00    0.71376   0.67728    0.000
 4337.00    0.75835   0.60529    0.000
 4338.00    0.81790   0.54367    0.000
 4339.00    1.00817   0.55059    0.000
 4340.00    1.15631   0.62762    0.000
 4341.00    1.03240   0.70563    0.000
 4342.00    0.92066   0.75421    0.000
 4343.00    0.87031   0.78851    0.000
 4344.00    0.81335   0.81522    0.000
 4345.00    0.72944   0.83400    0.000
 4346.00    0.71875   0.84983    0.000
 4347.00    0.95583   0.86245    0.000
 4348.00    1.15423   0.86499    0.000
 4349.00    1.24225   0.85823    0.000
 4350.00    1.27938   0.85808    0.000
 4351.00    1.19243   0.87284    0.012
 4352.00    1.11365   0.88850    0.012
 4353.00    1.05202   0.89788    0.011
 4354.00    0.97573   0.90521    0.014
 4355.00    0.87263   0.90941    0.036
 4356.00    0.82313   0.90748   -1.000
 4357.00    0.85926   0.90462   -1.000
 4358.00    1.01144   0.90783   -1.000
 4359.00    1.32632   0.91395   -1.000
 4360.00    1.47135   0.91858   -1.000
 4361.00    1.40682   0.92131   -1.000
 4362.00    1.39561   0.92447   -1.000
 4363.00    1.44240   0.92709   -1.000
 4364.00    1.41212   0.92130   -1.000
 4365.00    1.30789   0.91072   -1.000
 4366.00    1.28353   0.90688    0.042
 4367.00    1.32675   0.91025    0.015
 4368.00    1.26868   0.91402    0.012
 4369.00    1.13515   0.91643    0.012
 4370.00    0.98467   0.91609    0.012
 4371.00    0.82309   0.91213    0.012
 4372.00    1.01178   0.90360    0.012
 4373.00    1.40108   0.89891    0.012
 4374.00    1.39315   0.90609    0.012
 4375.00    1.18708   0.91858    0.012
 4376.00    1.05228   0.92358    0.012
 4377.00    0.94823   0.92042    0.012
 4378.00    0.93169   0.91879    0.012
 4379.00    0.94753   0.91808    0.012
 4380.00    0.83991   0.90678    0.012
 4381.00    0.69358   0.88601    0.012
 4382.00    0.54361   0.87319    0.012
 4383.00    0.39269   0.87730    0.012
 4384.00    0.55559   0.88152    0.012
 4385.00    0.78551   0.86387    0.012
 4386.00    0.79350   0.84969    0.011
 4387.00    0.76395   0.86724    0.011
 4388.00    0.71778   0.89214    0.011
 4389.00    0.66949   0.90500    0.011
 4390.00    0.93984   0.91390    0.012
 4391.00    1.23862   0.91579    0.012
 4392.00    0.89520   0.90882    0.012
 4393.00    0.51757   0.90271    0.011
 4394.00    0.86008   0.90881    0.011
 4395.00    1.21016   0.92122    0.012
 4396.00    1.03022   0.92440    0.012
 4397.00    0.87619   0.91725    0.012
 4398.00    1.29184   0.90783    0.012
 4399.00    1.65294   0.90708    0.012
 4400.00    1.34029   0.91534    0.012
 4401.00    1.07044   0.91523    0.012
 4402.00    1.16070   0.90238    0.012
 4403.00    1.24331   0.89612    0.012
 4404.00    1.27806   0.90355    0.012
 4405.00    1.26955   0.90844    0.012
 4406.00    1.04831   0.90635    0.012
 4407.00    0.89073   0.90901    0.012
 4408.00    0.98725   0.91606    0.012
 4409.00    1.11318   0.91961    0.012
 4410.00    1.33666   0.92372    0.012
 4411.00    1.45401   0.92297    0.012
 4412.00    1.27403   0.90635    0.012
 4413.00    1.16394   0.88906    0.012
 4414.00    1.22135   0.88734    0.012
 4415.00    1.20681   0.89443    0.012
 4416.00    1.04334   0.90450    0.012
 4417.00    0.97074   0.91660    0.012
 4418.00    1.06174   0.92279    0.012
 4419.00    1.05976   0.92051    0.012
 4420.00    0.91139   0.91267    0.012
 4421.00    0.84675   0.91017    0.012
 4422.00    0.89778   0.91436    0.012
 4423.00    1.01942   0.91618    0.012
 4424.00    1.22695   0.91369    0.012
 4425.00    1.31290   0.91166    0.012
 4426.00    1.26847   0.91419    0.012
 4427.00    1.11007   0.91547    0.012
 4428.00    0.84386   0.90946    0.012
 4429.00    0.79928   0.90700    0.012
 4430.00    0.93950   0.91018    0.012
 4431.00    0.99193   0.90771    0.012
 4432.00    0.97992   0.90000    0.012
 4433.00    0.99858   0.89431    0.012
 4434.00    1.03702   0.89435    0.012
 4435.00    1.18885   0.89833    0.012
 4436.00    1.40464   0.90808    0.012
 4437.00    1.44678   0.91840    0.012
 4438.00    1.40369   0.91709    0.012
 4439.00    1.38422   0.90526    0.012
 4440.00    1.37478   0.89472    0.012
 4441.00    1.24444   0.89188    0.012
 4442.00    1.07017   0.89916    0.012
 4443.00    1.26742   0.91194    0.012
 4444.00    1.57891   0.91608    0.012
 4445.00    1.62642   0.91115    0.012
 4446.00    1.60635   0.91026    0.012
 4447.00    1.37730   0.91304    0.012
 4448.00    1.10470   0.91144    0.012
 4449.00    1.07653   0.90987    0.012
 4450.00    1.08851   0.91060    0.012
 4451.00    1.05239   0.90808    0.012
 4452.00    1.01034   0.90014    0.012
 4453.00    0.90781   0.89243    0.012
 4454.00    0.80013   0.89436    0.012
 4455.00    0.93440   0.89959    0.011
 4456.00    1.08060   0.89957    0.011
 4457.00    1.08132   0.89737    0.011
 4458.00    1.07759   0.89653    0.011
 4459.00    0.94067   0.89315    0.011
 4460.00    0.81450   0.89155    0.011
 4461.00    0.90605   0.89826    0.000
 4462.00    0.99496   0.90415    0.000
 4463.00    1.05292   0.90294    0.000
 4464.00    1.10537   0.89915    0.000
 4465.00    1.11321   0.89418    0.000
 4466.00    1.09090   0.88464    0.000
 4467.00    0.88521   0.86801    0.000
 4468.00    0.73971   0.83389    0.000
 4469.00    0.88295   0.79341    0.000
 4470.00    0.96014   0.80235    0.000
 4471.00    0.77936   0.85837    0.000
 4472.00    0.67983   0.89774    0.000
 4473.00    0.84446   0.90749    0.000
 4474.00    0.94562   0.91127    0.000
 4475.00    0.87217   0.91625    0.000
 4476.00    0.82478   0.91644    0.000
 4477.00    0.83882   0.90530    0.000
 4478.00    0.93340   0.88189    0.000
 4479.00    1.19205   0.86462    0.000
 4480.00    1.31904   0.87331    0.000
 4481.00    1.21263   0.89611    0.000
 4482.00    1.16906   0.91113    0.011
 4483.00    1.22294   0.91740    0.011
 4484.00    1.15877   0.91888    0.011
 4485.00    0.93380   0.91572    0.011
 4486.00    0.84805   0.90643    0.011
 4487.00    0.92923   0.89776    0.011
 4488.00    1.04091   0.89637    0.011
 4489.00    1.18483   0.90194    0.011
 4490.00    1.14056   0.90863    0.011
 4491.00    0.92080   0.90940    0.011
 4492.00    0.98508   0.90329    0.011
 4493.00    1.28286   0.89919    0.011
 4494.00    1.32337   0.90058    0.011
 4495.00    1.17771   0.90498    0.011
 4496.00    1.14777   0.91073    0.011
 4497.00    1.19134   0.91391    0.012
 4498.00    1.30325   0.91020    0.012
 4499.00    1.45312   0.90379    0.012
 4500.00    1.55678   0.90574    0.012
 4501.00    1.63812   0.91659    0.012
 4502.00    1.59018   0.92376    0.012
 4503.00    1.48831   0.92314    0.011
 4504.00    1.36583   0.91888    0.011
 4505.00    1.23600   0.91366    0.011
 4506.00    1.16347   0.91066    0.011
 4507.00    1.10822   0.91175    0.011
 4508.00    0.99744   0.91287    0.010
 4509.00    0.87274   0.91110    0.010
 4510.00    0.89369   0.90769    0.010
 4511.00    0.94424   0.90413    0.011
 4512.00    0.91478   0.89719    0.011
 4513.00    0.87256   0.89357    0.010
 4514.00    0.80071   0.89867    0.010
 4515.00    0.72534   0.90251    0.010
 4516.00    0.58951   0.90164    0.010
 4517.00    0.44878   0.90393    0.010
 4518.00    0.81819   0.90797    0.010
 4519.00    1.21081   0.90919    0.010
 4520.00    1.22832   0.90348    0.010
 4521.00    1.23794   0.89642    0.010
 4522.00    1.08051   0.89589    0.010
 4523.00    0.92381   0.89562    0.010
 4524.00    0.78109   0.89219    0.010
 4525.00    0.63609   0.88757    0.010
 4526.00    0.46551   0.88076    0.010
 4527.00    0.34975   0.87665    0.010
 4528.00    0.66294   0.88005    0.010
 4529.00    0.91439   0.88689    0.010
 4530.00    0.80085   0.89168    0.010
 4531.00    0.72481   0.88749    0.010
 4532.00    0.82432   0.87802    0.010
 4533.00    0.91838   0.87666    0.010
 4534.00    0.99161   0.88638    0.010
 4535.00    0.98655   0.89791    0.010
 4536.00    0.73190   0.89804    0.010
 4537.00    0.57303   0.88374    0.010
 4538.00    0.67304   0.85807    0.010
 4539.00    0.72373   0.83560    0.010
 4540.00    0.66015   0.83971    0.010
 4541.00    0.63337   0.86346    0.010
 4542.00    0.68034   0.87869    0.010
 4543.00    0.76497   0.88402    0.010
 4544.00    0.91536   0.89026    0.010
 4545.00    0.99055   0.89378    0.010
 4546.00    0.95085   0.88934    0.010
 4547.00    0.90472   0.88063    0.010
 4548.00    0.84997   0.88160    0.010
 4549.00    0.82305   0.88867    0.010
 4550.00    0.82903   0.88523    0.000
 4551.00    0.88957   0.88006    0.000
 4552.00    1.00698   0.88073    0.000
 4553.00    1.04739   0.88210    0.000
 4554.00    1.01698   0.88744    0.000
 4555.00    0.90258   0.89680    0.000
 4556.00    0.72010   0.90091    0.000
 4557.00    0.68711   0.90199    0.000
 4558.00    0.76073   0.90463    0.000
 4559.00    0.85615   0.90645    0.000
 4560.00    0.96522   0.90453    0.000
 4561.00    0.98253   0.89637    0.000
 4562.00    0.94967   0.88815    0.000
 4563.00    0.81589   0.88795    0.000
 4564.00    0.63415   0.89236    0.000
 4565.00    0.69438   0.89512    0.000
 4566.00    0.85383   0.89567    0.000
 4567.00    0.85864   0.89705    0.000
 4568.00    0.80926   0.89685    0.000
 4569.00    0.79952   0.89101    0.000
 4570.00    0.80149   0.88903    0.000
 4571.00    1.02603   0.89648    0.000
 4572.00    1.30508   0.89951    0.000
 4573.00    1.27664   0.89717    0.000
 4574.00    1.18725   0.89840    0.000
 4575.00    1.11311   0.90055    0.000
 4576.00    1.04134   0.89818    0.000
 4577.00    1.02137   0.89187    0.000
 4578.00    1.00733   0.88655    0.000
 4579.00    0.99753   0.88567    0.000
 4580.00    0.98806   0.88686    0.000
 4581.00    0.81528   0.88555    0.000
 4582.00    0.63570   0.88426    0.000
 4583.00    0.75986   0.88651    0.000
 4584.00    0.88570   0.88908    0.000
 4585.00    0.97064   0.89088    0.000
 4586.00    1.04552   0.89319    0.000
 4587.00    0.94447   0.89497    0.000
 4588.00    0.86304   0.89053    0.000
 4589.00    0.99160   0.88333    0.000
 4590.00    1.11523   0.88237    0.000
 4591.00    1.20157   0.88697    0.000
 4592.00    1.26576   0.88914    0.000
 4593.00    1.20259   0.88466    0.000
 4594.00    1.10038   0.88120    0.000
 4595.00    0.81975   0.88465    0.000
 4596.00    0.67307   0.89010    0.000
 4597.00    1.02755   0.89203    0.000
 4598.00    1.31631   0.88858    0.000
 4599.00    1.39958   0.88399    0.000
 4600.00    1.40297   0.88473    0.000
 4601.00    1.19435   0.88816    0.000
 4602.00    1.04553   0.89010    0.000
 4603.00    1.03299   0.88930    0.000
 4604.00    1.00980   0.88953    0.000
 4605.00    0.96558   0.89318    0.000
 4606.00    0.85654   0.89768    0.000
 4607.00    0.63603   0.89875    0.000
 4608.00    0.53271   0.89530    0.000
 4609.00    0.60585   0.89283    0.000
 4610.00    0.75193   0.89292    0.000
 4611.00    0.99452   0.89213    0.000
 4612.00    1.09362   0.89278    0.000
 4613.00    1.02547   0.89552    0.000
 4614.00    0.97689   0.89501    0.000
 4615.00    0.94842   0.89374    0.000
 4616.00    0.95782   0.88913    0.000
 4617.00    1.00153   0.88305    0.000
 4618.00    1.06149   0.88538    0.000
 4619.00    1.13442   0.89248    0.000
 4620.00    1.13785   0.89539    0.000
 4621.00    1.09242   0.89663    0.000
 4622.00    1.05801   0.89733    0.000
 4623.00    1.03039   0.89502    0.000
 4624.00    0.99232   0.89329    0.000
 4625.00    0.94863   0.89395    0.000
 4626.00    0.99617   0.89187    0.000
 4627.00    1.08639   0.88555    0.000
 4628.00    1.12006   0.88156    0.000
 4629.00    1.13093   0.88344    0.000
 4630.00    0.96798   0.88702    0.000
 4631.00    0.74523   0.88599    0.000
 4632.00    0.84649   0.88322    0.000
 4633.00    1.04161   0.88483    0.000
 4634.00    1.23345   0.88722    0.000
 4635.00    1.42450   0.88392    0.000
 4636.00    1.39669   0.87799    0.000
 4637.00    1.32660   0.87530    0.000
 4638.00    1.13298   0.87514    0.000
 4639.00    0.92082   0.87582    0.000
 4640.00    0.87161   0.87836    0.000
 4641.00    0.84033   0.88166    0.000
 4642.00    0.85081   0.88360    0.000
 4643.00    0.86432   0.87834    0.000
 4644.00    0.85206   0.86028    0.000
 4645.00    0.83883   0.84424    0.000
 4646.00    0.83491   0.84420    0.000
 4647.00    0.83149   0.84876    0.000
 4648.00    0.84428   0.84925    0.000
 4649.00    0.85448   0.85619    0.000
 4650.00    0.82215   0.87096    0.000
 4651.00    0.78895   0.87844    0.000
 4652.00    0.74687   0.87331    0.000
 4653.00    0.70058   0.87036    0.000
 4654.00    0.62349   0.87467    0.000
 4655.00    0.59057   0.88015    0.000
 4656.00    0.80459   0.88775    0.000
 4657.00    0.96958   0.89493    0.000
 4658.00    0.91583   0.89533    0.000
 4659.00    0.84993   0.88783    0.000
 4660.00    0.73957   0.88054    0.000
 4661.00    0.65729   0.87711    0.000
 4662.00    0.66115   0.87524    0.000
 4663.00    0.70846   0.87148    0.000
 4664.00    0.86908   0.86287    0.000
 4665.00    1.03332   0.85539    0.000
 4666.00    1.20569   0.85712    0.000
 4667.00    1.23690   0.86611    0.000
 4668.00    0.99398   0.87624    0.000
 4669.00    0.85046   0.88351    0.000
 4670.00    0.87530   0.88227    0.000
 4671.00    0.89336   0.87548    0.000
 4672.00    0.90138   0.87376    0.000
 4673.00    1.00008   0.87748    0.000
 4674.00    1.21704   0.88120    0.000
 4675.00    1.23535   0.88159    0.000
 4676.00    1.02541   0.87854    0.000
 4677.00    0.95760   0.87426    0.000
 4678.00    1.03383   0.87164    0.000
 4679.00    1.10744   0.86910    0.000
 4680.00    1.17870   0.86670    0.000
 4681.00    1.09970   0.86079    0.000
 4682.00    0.90236   0.83667    0.000
 4683.00    0.79654   0.80099    0.000
 4684.00    0.75409   0.79575    0.000
 4685.00    0.88373   0.82799    0.000
 4686.00    1.11789   0.85812    0.000
 4687.00    1.17287   0.86959    0.000
 4688.00    1.13285   0.87265    0.000
 4689.00    1.00583   0.87210    0.000
 4690.00    0.83876   0.87386    0.000
 4691.00    0.81064   0.87672    0.000
 4692.00    0.83757   0.87906    0.000
 4693.00    0.73683   0.88236    0.000
 4694.00    0.59298   0.88408    0.000
 4695.00    0.71520   0.87976    0.000
 4696.00    0.91292   0.86886    0.000
 4697.00    0.94789   0.86220    0.000
 4698.00    0.94477   0.86472    0.000
 4699.00    0.89777   0.86731    0.000
 4700.00    0.84252   0.86425    0.000
 4701.00    0.77897   0.86188    0.000
 4702.00    0.71420   0.86407    0.000
 4703.00    0.86139   0.86729    0.000
 4704.00    1.03099   0.86815    0.000
 4705.00    1.01647   0.86697    0.000
 4706.00    0.98931   0.86453    0.000
 4707.00    0.89176   0.86360    0.000
 4708.00    0.79181   0.86735    0.000
 4709.00    0.88104   0.86947    0.000
 4710.00    0.96804   0.85201    0.000
 4711.00    0.97289   0.83360    0.000
 4712.00    0.97817   0.84029    0.000
 4713.00    0.98994   0.86163    0.000
 4714.00    1.00692   0.87300    0.000
 4715.00    1.07482   0.87850    0.000
 4716.00    1.13072   0.88071    0.000
 4717.00    1.10173   0.88304    0.000
 4718.00    1.05987   0.88507    0.000
 4719.00    0.94793   0.88380    0.000
 4720.00    0.85309   0.88119    0.000
 4721.00    0.83275   0.88162    0.000
 4722.00    0.81340   0.88454    0.000
 4723.00    0.79759   0.88557    0.000
 4724.00    0.82642   0.88066    0.000
 4725.00    0.98966   0.87035    0.000
 4726.00    1.08834   0.86275    0.000
 4727.00    1.02160   0.86216    0.000
 4728.00    0.98151   0.86340    0.000
 4729.00    1.00017   0.86482    0.000
 4730.00    1.01028   0.86866    0.000
 4731.00    1.00407   0.87270    0.000
 4732.00    1.07846   0.87500    0.000
 4733.00    1.28731   0.87512    0.000
 4734.00    1.31560   0.87064    0.000
 4735.00    1.07988   0.86844    0.000
 4736.00    0.91631   0.87355    0.000
 4737.00    0.84551   0.87670    0.000
 4738.00    0.81330   0.87401    0.000
 4739.00    0.82479   0.87147    0.000
 4740.00    0.80935   0.87303    0.000
 4741.00    0.76701   0.87646    0.000
 4742.00    0.80762   0.87623    0.000
 4743.00    0.92133   0.87469    0.000
 4744.00    0.84305   0.87660    0.000
 4745.00    0.61573   0.87846    0.000
 4746.00    0.59579   0.87758    0.000
 4747.00    0.71742   0.87728    0.000
 4748.00    0.94355   0.87785    0.000
 4749.00    1.23221   0.87644    0.000
 4750.00    1.27320   0.87308    0.000
 4751.00    1.18489   0.87051    0.000
 4752.00    1.08873   0.86843    0.000
 4753.00    0.98902   0.86730    0.000
 4754.00    1.04068   0.86659    0.000
 4755.00    1.15127   0.86746    0.000
 4756.00    1.11101   0.87031    0.000
 4757.00    1.02077   0.87274    0.000
 4758.00    0.88883   0.87248    0.000
 4759.00    0.74529   0.86771    0.000
 4760.00    0.87010   0.86069    0.000
 4761.00    1.05629   0.85695    0.010
 4762.00    0.92157   0.85556    0.010
 4763.00    0.72807   0.85428    0.009
 4764.00    0.60067   0.85508    0.010
 4765.00    0.48258   0.85879    0.010
 4766.00    0.68774   0.86380    0.010
 4767.00    0.92568   0.86875    0.010
 4768.00    1.04117   0.86986    0.010
 4769.00    1.14875   0.86574    0.010
 4770.00    1.09814   0.86271    0.010
 4771.00    1.04321   0.86542    0.010
 4772.00    1.22208   0.87018    0.010
 4773.00    1.38627   0.87210    0.010
 4774.00    1.12501   0.87159    0.010
 4775.00    0.88143   0.87204    0.009
 4776.00    0.89333   0.87126    0.009
 4777.00    0.90942   0.86790    0.009
 4778.00    0.96494   0.86651    0.009
 4779.00    0.98789   0.86728    0.009
 4780.00    0.78795   0.86538    0.009
 4781.00    0.61775   0.86135    0.009
 4782.00    0.60507   0.86100    0.009
 4783.00    0.62320   0.86095    0.009
 4784.00    0.77251   0.85782    0.009
 4785.00    0.94216   0.85759    0.009
 4786.00    1.18326   0.85983    0.009
 4787.00    1.32226   0.85943    0.009
 4788.00    1.15965   0.86010    0.009
 4789.00    1.01747   0.86250    0.009
 4790.00    0.92675   0.86472    0.009
 4791.00    0.90450   0.86905    0.009
 4792.00    1.03073   0.87393    0.009
 4793.00    1.10946   0.87563    0.009
 4794.00    1.09876   0.87358    0.009
 4795.00    1.10642   0.86889    0.009
 4796.00    1.14422   0.86331    0.009
 4797.00    1.14627   0.85898    0.009
 4798.00    1.09677   0.85891    0.010
 4799.00    1.05570   0.86331    0.010
 4800.00    1.02529   0.86743    0.010
 4801.00    0.92713   0.86716    0.009
 4802.00    0.75331   0.86334    0.009
 4803.00    0.73546   0.85946    0.009
 4804.00    0.87124   0.85930    0.009
 4805.00    0.86390   0.85968    0.009
 4806.00    0.73222   0.85823    0.009
 4807.00    0.69938   0.85827    0.009
 4808.00    0.74219   0.85991    0.009
 4809.00    0.72834   0.86032    0.009
 4810.00    0.67638   0.85863    0.009
 4811.00    0.72239   0.85791    0.009
 4812.00    0.82614   0.85932    0.009
 4813.00    0.85472   0.86159    0.009
 4814.00    0.84468   0.86378    0.010
 4815.00    0.85155   0.86572    0.010
 4816.00    0.86594   0.86570    0.010
 4817.00    0.96743   0.86351    0.009
 4818.00    1.10222   0.86243    0.009
 4819.00    1.11987   0.86287    0.009
 4820.00    1.09943   0.85823    0.009
 4821.00    1.02527   0.84841    0.010
 4822.00    0.93648   0.84543    0.010
 4823.00    0.96890   0.85194    0.010
 4824.00    1.02840   0.85747    0.010
 4825.00    1.07671   0.85687    0.010
 4826.00    1.12304   0.85187    0.010
 4827.00    0.84946   0.84930    0.010
 4828.00    0.53229   0.85126    0.010
 4829.00    0.78048   0.85103    0.010
 4830.00    1.08360   0.84825    0.010
 4831.00    0.96369   0.84981    0.009
 4832.00    0.81812   0.85259    0.009
 4833.00    0.89795   0.85217    0.010
 4834.00    0.98271   0.85059    0.010
 4835.00    0.88080   0.84940    0.010
 4836.00    0.78105   0.84657    0.010
 4837.00    0.73769   0.84105    0.009
 4838.00    0.69981   0.83770    0.009
 4839.00    0.73681   0.83824    0.009
 4840.00    0.77012   0.83783    0.009
 4841.00    0.77016   0.83528    0.009
 4842.00    0.79016   0.83543    0.009
 4843.00    0.94256   0.83747    0.009
 4844.00    1.04984   0.83526    0.009
 4845.00    0.92429   0.82738    0.009
 4846.00    0.80331   0.81807    0.009
 4847.00    0.70133   0.81391    0.009
 4848.00    0.64971   0.81355    0.000
 4849.00    0.77153   0.80958    0.000
 4850.00    0.89039   0.80094    0.000
 4851.00    1.00067   0.78960    0.000
 4852.00    1.04266   0.77145    0.000
 4853.00    0.91565   0.74853    0.000
 4854.00    0.78812   0.72892    0.000
 4855.00    0.65948   0.70654    0.000
 4856.00    0.66665   0.66702    0.000
 4857.00    0.92551   0.60864    0.000
 4858.00    1.10680   0.54172    0.000
 4859.00    1.16251   0.50443    0.000
 4860.00    1.12416   0.53342    0.000
 4861.00    0.95223   0.60504    0.000
 4862.00    0.89781   0.66591    0.000
 4863.00    0.99019   0.70576    0.000
 4864.00    0.96685   0.73276    0.000
 4865.00    0.81609   0.75216    0.000
 4866.00    0.75418   0.76862    0.000
 4867.00    0.77857   0.78163    0.000
 4868.00    0.82731   0.78410    0.000
 4869.00    0.89690   0.78138    0.000
 4870.00    0.72988   0.78636    0.000
 4871.00    0.38438   0.79864    0.000
 4872.00    0.26660   0.80863    0.000
 4873.00    0.29976   0.81373    0.000
 4874.00    0.50208   0.81785    0.000
 4875.00    0.80258   0.82262    0.009
 4876.00    0.90263   0.82795    0.009
 4877.00    0.90129   0.83435    0.009
 4878.00    0.94060   0.83619    0.009
 4879.00    0.99772   0.83277    0.009
 4880.00    0.99487   0.83111    0.009
 4881.00    0.96948   0.83173    0.009
 4882.00    1.03236   0.83045    0.010
 4883.00    1.12340   0.82726    0.010
 4884.00    1.12535   0.82678    0.010
 4885.00    1.10355   0.82965    0.010
 4886.00    0.97697   0.83250    0.010
 4887.00    0.82753   0.83044    0.010
 4888.00    0.77913   0.82298    0.010
 4889.00    0.74824   0.81894    0.010
 4890.00    0.80237   0.82811    0.010
 4891.00    0.86770   0.84182    0.010
 4892.00    0.79678   0.85084    0.010
 4893.00    0.71321   0.85616    0.010
 4894.00    0.83122   0.85710    0.010
 4895.00    0.96067   0.85563    0.010
 4896.00    0.78675   0.85253    0.010
 4897.00    0.60740   0.84650    0.010
 4898.00    0.59109   0.84324    0.010
 4899.00    0.58515   0.84563    0.010
 4900.00    0.82569   0.84603    0.010
 4901.00    1.03305   0.84265    0.010
 4902.00    0.81139   0.84322    0.010
 4903.00    0.62163   0.84874    0.010
 4904.00    0.70919   0.85196    0.010
 4905.00    0.79680   0.85036    0.010
 4906.00    0.88477   0.84503    0.010
 4907.00    0.93125   0.83823    0.010
 4908.00    0.76912   0.83283    0.010
 4909.00    0.69922   0.83373    0.010
 4910.00    1.00469   0.83979    0.010
 4911.00    1.21302   0.84491    0.010
 4912.00    1.09352   0.84798    0.010
 4913.00    0.99145   0.85067    0.010
 4914.00    0.93901   0.84888    0.010
 4915.00    0.84927   0.84014    0.010
 4916.00    0.66880   0.82497    0.010
 4917.00    0.55122   0.80765    0.009
 4918.00    0.56566   0.79047    0.010
 4919.00    0.64778   0.77541    0.010
 4920.00    0.85336   0.77813    0.009
 4921.00    0.97255   0.79433    0.009
 4922.00    0.95396   0.81075    0.009
 4923.00    0.89151   0.82306    0.009
 4924.00    0.76769   0.83705    0.009
 4925.00    0.72027   0.84543    0.009
 4926.00    0.76695   0.84894    0.009
 4927.00    0.83324   0.85172    0.009
 4928.00    0.92083   0.85240    0.009
 4929.00    1.00199   0.85036    0.009
 4930.00    1.07701   0.84375    0.009
 4931.00    1.07979   0.83394    0.009
 4932.00    1.02157   0.83141    0.009
 4933.00    0.99583   0.83776    0.009
 4934.00    0.99422   0.84002    0.009
 4935.00    0.96143   0.83235    0.009
 4936.00    0.90826   0.82340    0.009
 4937.00    0.86084   0.82259    0.009
 4938.00    0.81669   0.83098    0.009
 4939.00    0.82255   0.84003    0.009
 4940.00    0.85331   0.84290    0.000
 4941.00    0.92853   0.84539    0.000
 4942.00    1.02290   0.84721    0.000
 4943.00    0.94154   0.84537    0.000
 4944.00    0.79530   0.84374    0.000
 4945.00    0.68043   0.84567    0.000
 4946.00    0.57536   0.84809    0.000
 4947.00    0.70612   0.84874    0.000
 4948.00    0.89841   0.84920    0.000
 4949.00    1.00088   0.84942    0.000
 4950.00    1.08421   0.84663    0.000
 4951.00    1.15589   0.84335    0.000
 4952.00    1.22560   0.84263    0.000
 4953.00    1.22872   0.83952    0.000
 4954.00    1.22338   0.82818    0.000
 4955.00    0.93982   0.81380    0.000
 4956.00    0.63159   0.81514    0.000
 4957.00    0.61868   0.83196    0.000
 4958.00    0.62136   0.84323    0.000
 4959.00    0.74683   0.84390    0.000
 4960.00    0.87124   0.84300    0.000
 4961.00    0.72885   0.84317    0.000
 4962.00    0.59438   0.84016    0.000
 4963.00    0.63197   0.83326    0.000
 4964.00    0.66638   0.82924    0.000
 4965.00    0.66162   0.82941    0.000
 4966.00    0.65551   0.83006    0.000
 4967.00    0.63805   0.83144    0.000
 4968.00    0.62613   0.83349    0.000
 4969.00    0.64877   0.83618    0.000
 4970.00    0.69457   0.83912    0.000
 4971.00    0.85386   0.84106    0.000
 4972.00    1.00360   0.84269    0.000
 4973.00    1.11530   0.84261    0.000
 4974.00    1.16967   0.84031    0.000
 4975.00    1.03436   0.83666    0.000
 4976.00    0.95791   0.83187    0.000
 4977.00    1.04601   0.82923    0.000
 4978.00    1.05960   0.82700    0.000
 4979.00    0.89497   0.81922    0.000
 4980.00    0.75083   0.80818    0.000
 4981.00    0.64899   0.80350    0.000
 4982.00    0.63679   0.80757    0.000
 4983.00    0.78567   0.81488    0.000
 4984.00    0.85879   0.82328    0.000
 4985.00    0.81288   0.83127    0.000
 4986.00    0.88286   0.83369    0.000
 4987.00    1.11269   0.83105    0.000
 4988.00    1.12815   0.82690    0.000
 4989.00    0.88333   0.82434    0.000
 4990.00    0.71715   0.82540    0.000
 4991.00    0.63515   0.82567    0.000
 4992.00    0.63600   0.82627    0.000
 4993.00    0.71508   0.83009    0.000
 4994.00    0.71528   0.83271    0.000
 4995.00    0.64982   0.83220    0.000
 4996.00    0.57145   0.82861    0.000
 4997.00    0.48362   0.82112    0.000
 4998.00    0.58992   0.81299    0.000
 4999.00    0.82114   0.80928    0.000
 5000.00    0.92470   0.81131    0.000
 5001.00    0.95639   0.81572    0.000
 5002.00    0.92846   0.81347    0.000
 5003.00    0.87132   0.80539    0.000
 5004.00    0.89378   0.80173    0.000
 5005.00    0.94996   0.80883    0.000
 5006.00    0.84507   0.81920    0.000
 5007.00    0.68178   0.82328    0.000
 5008.00    0.63240   0.82071    0.000
 5009.00    0.61795   0.81518    0.000
 5010.00    0.69561   0.80783    0.000
 5011.00    0.79679   0.79881    0.000
 5012.00    0.92191   0.78472    0.000
 5013.00    1.05200   0.77158    0.000
 5014.00    0.84902   0.77695    0.000
 5015.00    0.59152   0.79050    0.000
 5016.00    0.64417   0.79760    0.000
 5017.00    0.73487   0.80286    0.000
 5018.00    0.95170   0.81073    0.000
 5019.00    1.17920   0.81228    0.000
 5020.00    0.89517   0.81071    0.000
 5021.00    0.58614   0.81370    0.000
 5022.00    0.74737   0.81859    0.000
 5023.00    0.91264   0.81965    0.000
 5024.00    0.88079   0.81647    0.000
 5025.00    0.84408   0.81161    0.000
 5026.00    0.70994   0.81241    0.000
 5027.00    0.60461   0.81803    0.000
 5028.00    0.83598   0.82088    0.000
 5029.00    1.04113   0.82216    0.009
 5030.00    1.03465   0.82602    0.009
 5031.00    1.00266   0.82929    0.009
 5032.00    0.81602   0.82562    0.009
 5033.00    0.67379   0.81596    0.009
 5034.00    0.74401   0.81062    0.009
 5035.00    0.82336   0.81284    0.009
 5036.00    0.93830   0.81179    0.009
 5037.00    1.00072   0.80219    0.009
 5038.00    0.89277   0.78904    0.009
 5039.00    0.81647   0.78455    0.009
 5040.00    0.82705   0.79626    0.009
 5041.00    0.79380   0.81296    0.009
 5042.00    0.65746   0.82178    0.009
 5043.00    0.64320   0.82557    0.009
 5044.00    0.87710   0.82234    0.009
 5045.00    1.00248   0.81072    0.009
 5046.00    0.93584   0.80203    0.009
 5047.00    0.88689   0.80299    0.009
 5048.00    0.86534   0.80737    0.009
 5049.00    0.83999   0.80797    0.009
 5050.00    0.80949   0.81076    0.009
 5051.00    0.73372   0.81680    0.009
 5052.00    0.60377   0.81968    0.009
 5053.00    0.57837   0.81657    0.009
 5054.00    0.66330   0.81525    0.009
 5055.00    0.74979   0.81892    0.009
 5056.00    0.83771   0.82347    0.009
 5057.00    0.85815   0.82470    0.009
 5058.00    0.82322   0.82610    0.009
 5059.00    0.77996   0.82808    0.009
 5060.00    0.73070   0.82724    0.009
 5061.00    0.71502   0.82039    0.009
 5062.00    0.72065   0.81014    0.009
 5063.00    0.70029   0.80578    0.009
 5064.00    0.66552   0.80895    0.009
 5065.00    0.66303   0.81077    0.009
 5066.00    0.67610   0.80938    0.009
 5067.00    0.66852   0.81102    0.009
 5068.00    0.65235   0.81419    0.009
 5069.00    0.61655   0.81195    0.009
 5070.00    0.57376   0.80778    0.009
 5071.00    0.62587   0.80858    0.009
 5072.00    0.70653   0.81065    0.009
 5073.00    0.69710   0.81014    0.009
 5074.00    0.66516   0.81083    0.009
 5075.00    0.68567   0.81187    0.009
 5076.00    0.71682   0.80607    0.009
 5077.00    0.69158   0.79454    0.009
 5078.00    0.65739   0.79031    0.009
 5079.00    0.62716   0.79544    0.009
 5080.00    0.59741   0.80066    0.008
 5081.00    0.63936   0.80256    0.008
 5082.00    0.68707   0.80585    0.008
 5083.00    0.55598   0.81008    0.008
 5084.00    0.41684   0.81119    0.008
 5085.00    0.43454   0.81038    0.008
 5086.00    0.45911   0.81113    0.008
 5087.00    0.73370   0.81309    0.008
 5088.00    0.99314   0.81315    0.008
 5089.00    0.97060   0.81337    0.008
 5090.00    0.94261   0.81614    0.008
 5091.00    0.85377   0.81885    0.008
 5092.00    0.77903   0.81822    0.008
 5093.00    0.81403   0.81408    0.009
 5094.00    0.83673   0.80773    0.009
 5095.00    0.78699   0.80015    0.009
 5096.00    0.74298   0.79309    0.009
 5097.00    0.72575   0.79102    0.009
 5098.00    0.67149   0.79697    0.009
 5099.00    0.47610   0.80539    0.009
 5100.00    0.36184   0.80910    0.009
 5101.00    0.50567   0.80791    0.008
 5102.00    0.67912   0.80629    0.008
 5103.00    0.93242   0.80581    0.009
 5104.00    1.01617   0.80288    0.009
 5105.00    0.70791   0.79825    0.009
 5106.00    0.55314   0.79691    0.009
 5107.00    0.70548   0.79707    0.009
 5108.00    0.76693   0.79742    0.009
 5109.00    0.67002   0.80180    0.009
 5110.00    0.65354   0.80641    0.009
 5111.00    0.75972   0.80744    0.009
 5112.00    0.81812   0.80794    0.009
 5113.00    0.81248   0.80931    0.009
 5114.00    0.82288   0.81206    0.009
 5115.00    0.85221   0.81500    0.009
 5116.00    0.78673   0.81505    0.009
 5117.00    0.62261   0.81232    0.009
 5118.00    0.56696   0.80804    0.009
 5119.00    0.61087   0.80277    0.009
 5120.00    0.67170   0.79703    0.009
 5121.00    0.74624   0.79148    0.009
 5122.00    0.85984   0.78960    0.009
 5123.00    1.00127   0.79125    0.009
 5124.00    1.03718   0.79183    0.009
 5125.00    1.00718   0.79091    0.009
 5126.00    0.90837   0.79051    0.009
 5127.00    0.77200   0.79143    0.009
 5128.00    0.64752   0.79428    0.009
 5129.00    0.52867   0.79732    0.009
 5130.00    0.59332   0.79708    0.009
 5131.00    0.73307   0.79661    0.009
 5132.00    0.71997   0.80024    0.009
 5133.00    0.65343   0.80415    0.009
 5134.00    0.66123   0.80127    0.009
 5135.00    0.69095   0.79481    0.009
 5136.00    0.57650   0.78952    0.009
 5137.00    0.42682   0.78764    0.009
 5138.00    0.52272   0.79192    0.009
 5139.00    0.66712   0.79344    0.009
 5140.00    0.61543   0.78776    0.009
 5141.00    0.53351   0.78679    0.008
 5142.00    0.53925   0.79106    0.008
 5143.00    0.55497   0.79141    0.009
 5144.00    0.62903   0.78888    0.008
 5145.00    0.70754   0.78786    0.008
 5146.00    0.67160   0.78939    0.008
 5147.00    0.63094   0.79235    0.008
 5148.00    0.59174   0.79138    0.008
 5149.00    0.55181   0.78800    0.008
 5150.00    0.48104   0.78628    0.008
 5151.00    0.42116   0.78536    0.008
 5152.00    0.55003   0.78549    0.008
 5153.00    0.68323   0.78929    0.008
 5154.00    0.86243   0.79576    0.008
 5155.00    0.99926   0.80168    0.009
 5156.00    0.81719   0.80416    0.008
 5157.00    0.66621   0.80310    0.008
 5158.00    0.69336   0.80200    0.008
 5159.00    0.73159   0.79918    0.008
 5160.00    0.82024   0.79547    0.008
 5161.00    0.90562   0.79395    0.008
 5162.00    0.97875   0.78967    0.009
 5163.00    0.98688   0.77684    0.009
 5164.00    0.79221   0.75847    0.009
 5165.00    0.65867   0.74413    0.008
 5166.00    0.68703   0.74372    0.008
 5167.00    0.68689   0.75584    0.008
 5168.00    0.62193   0.76463    0.008
 5169.00    0.58457   0.75683    0.008
 5170.00    0.60158   0.74422    0.008
 5171.00    0.63754   0.74953    0.009
 5172.00    0.70600   0.76977    0.009
 5173.00    0.79244   0.78427    0.009
 5174.00    0.90592   0.78838    0.009
 5175.00    0.87268   0.79037    0.009
 5176.00    0.64564   0.79186    0.008
 5177.00    0.51176   0.79017    0.008
 5178.00    0.48625   0.78607    0.009
 5179.00    0.54017   0.77731    0.009
 5180.00    0.67557   0.75925    0.009
 5181.00    0.67656   0.74185    0.008
 5182.00    0.55593   0.74435    0.009
 5183.00    0.52502   0.76432    0.009
 5184.00    0.56567   0.78097    0.008
 5185.00    0.58518   0.78583    0.008
 5186.00    0.58984   0.78549    0.009
 5187.00    0.70198   0.78758    0.009
 5188.00    0.88024   0.78709    0.009
 5189.00    0.84014   0.77706    0.009
 5190.00    0.68266   0.76937    0.000
 5191.00    0.63850   0.77274    0.000
 5192.00    0.64723   0.77752    0.000
 5193.00    0.61425   0.77775    0.000
 5194.00    0.56448   0.77895    0.000
 5195.00    0.78245   0.78227    0.000
 5196.00    1.09231   0.78597    0.000
 5197.00    1.06483   0.78921    0.000
 5198.00    0.93989   0.79002    0.000
 5199.00    0.73970   0.78889    0.000
 5200.00    0.52155   0.78652    0.000
 5201.00    0.56924   0.78158    0.000
 5202.00    0.66810   0.77182    0.000
 5203.00    0.73305   0.76350    0.000
 5204.00    0.79293   0.76223    0.000
 5205.00    0.84564   0.76301    0.000
 5206.00    0.89755   0.76213    0.000
 5207.00    0.82428   0.76545    0.000
 5208.00    0.74196   0.77305    0.000
 5209.00    0.78215   0.78035    0.000
 5210.00    0.82690   0.78698    0.000
 5211.00    0.78230   0.79103    0.009
 5212.00    0.73791   0.78835    0.009
 5213.00    0.71640   0.78082    0.008
 5214.00    0.69848   0.77697    0.008
 5215.00    0.73894   0.78070    0.008
 5216.00    0.76864   0.78784    0.008
 5217.00    0.68890   0.79333    0.008
 5218.00    0.62526   0.79619    0.008
 5219.00    0.67877   0.79707    0.008
 5220.00    0.74825   0.79440    0.008
 5221.00    0.90667   0.78801    0.008
 5222.00    1.02296   0.77843    0.009
 5223.00    0.95184   0.76540    0.008
 5224.00    0.87797   0.75393    0.008
 5225.00    0.79407   0.75500    0.008
 5226.00    0.71706   0.76923    0.008
 5227.00    0.66115   0.78236    0.008
 5228.00    0.61751   0.78803    0.008
 5229.00    0.60582   0.78797    0.008
 5230.00    0.62281   0.78080    0.008
 5231.00    0.70398   0.77288    0.008
 5232.00    0.77879   0.77206    0.008
 5233.00    0.84128   0.77790    0.008
 5234.00    0.86554   0.78603    0.008
 5235.00    0.82516   0.79117    0.008
 5236.00    0.78558   0.79231    0.008
 5237.00    0.74719   0.79184    0.008
 5238.00    0.74846   0.79186    0.008
 5239.00    0.80138   0.79200    0.008
 5240.00    0.79414   0.79065    0.008
 5241.00    0.71788   0.79038    0.008
 5242.00    0.67546   0.79350    0.009
 5243.00    0.66728   0.79318    0.008
 5244.00    0.68804   0.78496    0.008
 5245.00    0.73462   0.77830    0.008
 5246.00    0.77559   0.77828    0.008
 5247.00    0.81216   0.77768    0.008
 5248.00    0.76844   0.77482    0.008
 5249.00    0.66921   0.77652    0.009
 5250.00    0.68508   0.78094    0.009
 5251.00    0.77073   0.78114    0.009
 5252.00    0.70725   0.77741    0.009
 5253.00    0.56486   0.77757    0.009
 5254.00    0.63495   0.78480    0.009
 5255.00    0.80261   0.79277    0.009
 5256.00    0.90304   0.79603    0.009
 5257.00    0.97690   0.79372    0.009
 5258.00    0.94964   0.78672    0.009
 5259.00    0.88832   0.77655    0.009
 5260.00    0.90495   0.76529    0.009
 5261.00    0.94364   0.75552    0.009
 5262.00    0.89650   0.74836    0.009
 5263.00    0.82932   0.74546    0.009
 5264.00    0.75568   0.75082    0.009
 5265.00    0.68083   0.75923    0.009
 5266.00    0.71896   0.75500    0.009
 5267.00    0.77346   0.74139    0.009
 5268.00    0.80578   0.74116    0.009
 5269.00    0.83576   0.75570    0.009
 5270.00    0.95752   0.76686    0.009
 5271.00    1.08554   0.76876    0.009
 5272.00    1.00114   0.76612    0.009
 5273.00    0.90962   0.76398    0.009
 5274.00    0.82172   0.77013    0.009
 5275.00    0.73751   0.78258    0.009
 5276.00    0.77141   0.78902    0.009
 5277.00    0.80187   0.78650    0.009
 5278.00    0.77996   0.78041    0.009
 5279.00    0.77219   0.77495    0.009
 5280.00    0.90244   0.77015    0.009
 5281.00    0.99283   0.76629    0.009
 5282.00    0.80248   0.76974    0.008
 5283.00    0.64800   0.78188    0.008
 5284.00    0.68802   0.79184    0.008
 5285.00    0.70981   0.79323    0.008
 5286.00    0.65235   0.79114    0.008
 5287.00    0.62094   0.79140    0.008
 5288.00    0.68275   0.79320    0.008
 5289.00    0.71284   0.79287    0.008
 5290.00    0.64765   0.79014    0.008
 5291.00    0.62775   0.78822    0.008
 5292.00    0.72363   0.78725    0.008
 5293.00    0.78803   0.78258    0.008
 5294.00    0.78318   0.77222    0.008
 5295.00    0.76245   0.76212    0.008
 5296.00    0.71140   0.76154    0.009
 5297.00    0.67512   0.76930    0.009
 5298.00    0.66341   0.77459    0.008
 5299.00    0.71606   0.77449    0.008
 5300.00    0.86263   0.77612    0.008
 5301.00    0.90298   0.78235    0.008
 5302.00    0.80701   0.78862    0.008
 5303.00    0.79805   0.78985    0.008
 5304.00    0.88750   0.78618    0.008
 5305.00    0.92113   0.78295    0.008
 5306.00    0.89911   0.78438    0.008
 5307.00    0.79425   0.78825    0.008
 5308.00    0.61654   0.78982    0.008
 5309.00    0.55886   0.78841    0.009
 5310.00    0.59419   0.78590    0.009
 5311.00    0.64360   0.78385    0.009
 5312.00    0.70260   0.78181    0.008
 5313.00    0.70774   0.77685    0.008
 5314.00    0.68072   0.77142    0.008
 5315.00    0.69342   0.77259    0.009
 5316.00    0.72680   0.77815    0.009
 5317.00    0.62998   0.78027    0.009
 5318.00    0.47434   0.77909    0.009
 5319.00    0.53118   0.77840    0.008
 5320.00    0.67057   0.77611    0.008
 5321.00    0.68790   0.77024    0.008
 5322.00    0.66488   0.76584    0.008
 5323.00    0.68301   0.76596    0.008
 5324.00    0.71254   0.76121    0.008
 5325.00    0.70310   0.74603    0.008
 5326.00    0.68478   0.73552    0.008
 5327.00    0.70331   0.74461    0.008
 5328.00    0.72857   0.76204    0.008
 5329.00    0.73814   0.77132    0.008
 5330.00    0.74550   0.77195    0.008
 5331.00    0.89417   0.77268    0.008
 5332.00    1.05710   0.77671    0.008
 5333.00    0.87238   0.77896    0.008
 5334.00    0.66536   0.77709    0.008
 5335.00    0.75619   0.77475    0.008
 5336.00    0.85531   0.77185    0.008
 5337.00    0.71553   0.76453    0.008
 5338.00    0.58349   0.75768    0.008
 5339.00    0.67275   0.76057    0.008
 5340.00    0.75694   0.76932    0.008
 5341.00    0.76826   0.77442    0.008
 5342.00    0.77977   0.77317    0.008
 5343.00    0.79314   0.76908    0.008
 5344.00    0.81407   0.76804    0.008
 5345.00    0.88648   0.76867    0.008
 5346.00    0.92743   0.76669    0.008
 5347.00    0.80226   0.76587    0.008
 5348.00    0.70142   0.77102    0.008
 5349.00    0.70389   0.77737    0.008
 5350.00    0.71338   0.77929    0.008
 5351.00    0.74742   0.77994    0.008
 5352.00    0.76792   0.78320    0.008
 5353.00    0.74850   0.78620    0.008
 5354.00    0.72316   0.78677    0.008
 5355.00    0.68295   0.78646    0.008
 5356.00    0.65134   0.78628    0.008
 5357.00    0.63834   0.78541    0.008
 5358.00    0.61259   0.78171    0.008
 5359.00    0.56289   0.77564    0.008
 5360.00    0.57143   0.77128    0.008
 5361.00    0.67550   0.76979    0.008
 5362.00    0.72852   0.76810    0.008
 5363.00    0.70813   0.76635    0.008
 5364.00    0.75769   0.76619    0.008
 5365.00    0.89575   0.76616    0.008
 5366.00    0.86664   0.76373    0.008
 5367.00    0.65118   0.75657    0.008
 5368.00    0.61009   0.74755   -2.000
 5369.00    0.74046   0.74600   -2.000
 5370.00    0.85430   0.75578   -2.000
 5371.00    0.95381   0.76847   -2.000
 5372.00    1.13779   0.77618   -2.000
 5373.00    1.38628   0.77819   -2.000
 5374.00    1.36785   0.77628   -2.000
 5375.00    1.17020   0.77494   -2.000
 5376.00    0.95564   0.77521   -2.000
 5377.00    0.73114   0.77325   -2.000
 5378.00    0.70001   0.76960   -2.000
 5379.00    0.76804   0.76736   -2.000
 5380.00    0.74362   0.76597   -2.000
 5381.00    0.67812   0.76583   -2.000
 5382.00    0.75179   0.76886   -2.000
 5383.00    0.87858   0.77208    0.008
 5384.00    0.87109   0.77224    0.008
 5385.00    0.82005   0.77070    0.008
 5386.00    0.80376   0.76799    0.008
 5387.00    0.79690   0.76393    0.008
 5388.00    0.79355   0.76103    0.008
 5389.00    0.79099   0.75976    0.008
 5390.00    0.84912   0.75889    0.008
 5391.00    0.91803   0.75861    0.008
 5392.00    0.79240   0.75859    0.008
 5393.00    0.64038   0.75525    0.008
 5394.00    0.70796   0.74759    0.008
 5395.00    0.79675   0.74506    0.008
 5396.00    0.86041   0.75200    0.008
 5397.00    0.92255   0.75815    0.008
 5398.00    0.83800   0.75886    0.008
 5399.00    0.74978   0.75951    0.008
 5400.00    0.68741   0.75858    0.008
 5401.00    0.62784   0.75034    0.008
 5402.00    0.64027   0.73843    0.008
 5403.00    0.65790   0.73191    0.008
 5404.00    0.74583   0.73462    0.008
 5405.00    0.81828   0.73984    0.008
 5406.00    0.75148   0.73582    0.008
 5407.00    0.68817   0.71888    0.008
 5408.00    0.64785   0.70111    0.008
 5409.00    0.61760   0.70000    0.008
 5410.00    0.63912   0.71634    0.008
 5411.00    0.66544   0.73473    0.008
 5412.00    0.71172   0.74531    0.008
 5413.00    0.75662   0.75286    0.008
 5414.00    0.79680   0.76078    0.008
 5415.00    0.83125   0.76478    0.008
 5416.00    0.84913   0.76374    0.008
 5417.00    0.85561   0.76080    0.008
 5418.00    0.83396   0.75927    0.008
 5419.00    0.81643   0.76055    0.008
 5420.00    0.80766   0.76045    0.008
 5421.00    0.73876   0.75527    0.008
 5422.00    0.55865   0.75184    0.008
 5423.00    0.49368   0.75676    0.008
 5424.00    0.61473   0.76474    0.008
 5425.00    0.69225   0.76498    0.008
 5426.00    0.70805   0.75397    0.008
 5427.00    0.70286   0.74370    0.008
 5428.00    0.67150   0.74583    0.008
 5429.00    0.69882   0.75196    0.008
 5430.00    0.79063   0.75054    0.008
 5431.00    0.77168   0.74493    0.008
 5432.00    0.64535   0.74234    0.008
 5433.00    0.66116   0.74439    0.008
 5434.00    0.79849   0.74982    0.008
 5435.00    0.77650   0.75738    0.008
 5436.00    0.63456   0.76458    0.008
 5437.00    0.69427   0.76850    0.008
 5438.00    0.88741   0.76940    0.008
 5439.00    0.90814   0.76936    0.008
 5440.00    0.82901   0.76898    0.008
 5441.00    0.77954   0.76632    0.008
 5442.00    0.74504   0.75865    0.008
 5443.00    0.68476   0.74653    0.008
 5444.00    0.61323   0.73722    0.008
 5445.00    0.66495   0.73965    0.008
 5446.00    0.76288   0.75042    0.008
 5447.00    0.81540   0.75855    0.008
 5448.00    0.85348   0.76085    0.008
 5449.00    0.81887   0.75976    0.008
 5450.00    0.76495   0.75681    0.008
 5451.00    0.73671   0.75098    0.008
 5452.00    0.71406   0.74133    0.008
 5453.00    0.64011   0.73541    0.008
 5454.00    0.55729   0.74108    0.008
 5455.00    0.65029   0.75260    0.008
 5456.00    0.76634   0.75965    0.008
 5457.00    0.81414   0.75982    0.008
 5458.00    0.85564   0.75627    0.008
 5459.00    0.84019   0.75082    0.008
 5460.00    0.82154   0.74479    0.008
 5461.00    0.80546   0.74330    0.008
 5462.00    0.78943   0.74792    0.008
 5463.00    0.77249   0.75151    0.008
 5464.00    0.75668   0.75160    0.008
 5465.00    0.76747   0.75287    0.008
 5466.00    0.77907   0.75463    0.008
 5467.00    0.80103   0.75332    0.008
 5468.00    0.82347   0.75135    0.008
 5469.00    0.85013   0.75040    0.008
 5470.00    0.86424   0.74743    0.008
 5471.00    0.79785   0.74402    0.008
 5472.00    0.73645   0.74248    0.008
 5473.00    0.70010   0.73695    0.008
 5474.00    0.68682   0.72908    0.008
 5475.00    0.76720   0.73095    0.008
 5476.00    0.83203   0.74110    0.008
 5477.00    0.84453   0.74655    0.008
 5478.00    0.83684   0.74305   -2.000
 5479.00    0.77179   0.73894   -2.000
 5480.00    0.74692   0.74120   -2.000
 5481.00    0.81956   0.74719   -2.000
 5482.00    0.83168   0.75278   -2.000
 5483.00    0.71703   0.75412   -2.000
 5484.00    0.83317   0.74906   -2.000
 5485.00    1.36959   0.74352   -2.000
 5486.00    2.10124   0.74342   -2.000
 5487.00    3.14368   0.74590   -2.000
 5488.00    3.55690   0.74787   -2.000
 5489.00    3.09113   0.74951   -2.000
 5490.00    2.31930   0.74878   -2.000
 5491.00    1.17122   0.74663   -2.000
 5492.00    0.45405   0.74717   -2.000
 5493.00    0.20385   0.74798   -2.000
 5494.00    0.17699   0.74480   -2.000
 5495.00    0.36364   0.74267   -2.000
 5496.00    0.52368   0.74690   -2.000
 5497.00    0.66130   0.75067   -2.000
 5498.00    0.74657   0.74684   -2.000
 5499.00    0.79298   0.74062   -2.000
 5500.00    0.78044   0.73911   -2.000
 5501.00    0.72948   0.74170   -2.000
 5502.00    0.70881   0.74282    0.007
 5503.00    0.70544   0.73886    0.007
 5504.00    0.76078   0.73481    0.007
 5505.00    0.84530   0.73671    0.007
 5506.00    0.77271   0.74054    0.007
 5507.00    0.63262   0.74154    0.007
 5508.00    0.60839   0.74011    0.007
 5509.00    0.62685   0.73655    0.007
 5510.00    0.68070   0.73305    0.007
 5511.00    0.74561   0.73293    0.007
 5512.00    0.78585   0.73594    0.007
 5513.00    0.81967   0.73933    0.007
 5514.00    0.68451   0.74212    0.007
 5515.00    0.51348   0.74595    0.007
 5516.00    0.53513   0.74966    0.007
 5517.00    0.58913   0.75024    0.008
 5518.00    0.61336   0.74886    0.008
 5519.00    0.63381   0.74794    0.007
 5520.00    0.53781   0.74785    0.008
 5521.00    0.43154   0.74743    0.008
 5522.00    0.60463   0.74505    0.008
 5523.00    0.79232   0.74072    0.008
 5524.00    0.78376   0.73481    0.008
 5525.00    0.77007   0.72861    0.007
 5526.00    0.64468   0.72778    0.007
 5527.00    0.52973   0.73429    0.007
 5528.00    0.63949   0.74122    0.007
 5529.00    0.74032   0.74349    0.008
 5530.00    0.73228   0.74234    0.008
 5531.00    0.71754   0.73941    0.008
 5532.00    0.64698   0.73586    0.008
 5533.00    0.60163   0.73536    0.008
 5534.00    0.71315   0.73842    0.008
 5535.00    0.78493   0.74072    0.008
 5536.00    0.66253   0.74223    0.007
 5537.00    0.58150   0.74509    0.007
 5538.00    0.66475   0.74743    0.007
 5539.00    0.71479   0.74653    0.007
 5540.00    0.65520   0.74259    0.007
 5541.00    0.63945   0.73944    0.007
 5542.00    0.74597   0.73898    0.007
 5543.00    0.81305   0.73909    0.007
 5544.00    0.78599   0.74014    0.007
 5545.00    0.77272   0.74327    0.007
 5546.00    0.78790   0.74637    0.007
 5547.00    0.80577   0.74776    0.007
 5548.00    0.82846   0.74791    0.007
 5549.00    0.85792   0.74674    0.007
 5550.00    0.89800   0.74376    0.007
 5551.00    0.90253   0.74013    0.007
 5552.00    0.85814   0.73870    0.007
 5553.00    0.81458   0.73977    0.007
 5554.00    0.77205   0.74051    0.007
 5555.00    0.75285   0.74003    0.007
 5556.00    0.75857   0.74003    0.007
 5557.00    0.79084   0.74031    0.007
 5558.00    0.84814   0.73951    0.007
 5559.00    0.78882   0.73726    0.007
 5560.00    0.63259   0.73444    0.007
 5561.00    0.56052   0.73319    0.007
 5562.00    0.55002   0.73270    0.007
 5563.00    0.62685   0.73106    0.007
 5564.00    0.75977   0.73036    0.007
 5565.00    0.79333   0.73131    0.007
 5566.00    0.77105   0.73091    0.007
 5567.00    0.74509   0.73046    0.007
 5568.00    0.71732   0.73272    0.007
 5569.00    0.73446   0.73238    0.007
 5570.00    0.77056   0.72824    0.007
 5571.00    0.77137   0.72856    0.007
 5572.00    0.75942   0.73278    0.007
 5573.00    0.78607   0.73424    0.007
 5574.00    0.82454   0.73440    0.007
 5575.00    0.79402   0.73530    0.007
 5576.00    0.74593   0.73606    0.007
 5577.00    0.73026   0.73694    0.007
 5578.00    0.72131   0.73662    0.007
 5579.00    0.79589   0.73453    0.007
 5580.00    0.88410   0.73361    0.007
 5581.00    0.78084   0.73408    0.007
 5582.00    0.65420   0.73207    0.007
 5583.00    0.69428   0.72544    0.007
 5584.00    0.74837   0.71645    0.007
 5585.00    0.63286   0.71021    0.007
 5586.00    0.50915   0.70946    0.007
 5587.00    0.58272   0.71298    0.007
 5588.00    0.65863   0.71406    0.007
 5589.00    0.69786   0.71098    0.007
 5590.00    0.73494   0.70928    0.007
 5591.00    0.72929   0.71343    0.007
 5592.00    0.72769   0.72084    0.007
 5593.00    0.77302   0.72856    0.007
 5594.00    0.82137   0.73201    0.007
 5595.00    0.89407   0.72741    0.007
 5596.00    0.95343   0.72180    0.007
 5597.00    0.93222   0.72042    0.007
 5598.00    0.90481   0.71888    0.007
 5599.00    0.84789   0.71536    0.007
 5600.00    0.77539   0.71439    0.007
 5601.00    0.64241   0.71983    0.007
 5602.00    0.53082   0.72852    0.007
 5603.00    0.48843   0.73478    0.007
 5604.00    0.48003   0.73713    0.007
 5605.00    0.56473   0.73743    0.007
 5606.00    0.61917   0.73692    0.007
 5607.00    0.60257   0.73611    0.007
 5608.00    0.60839   0.73625    0.007
 5609.00    0.65969   0.73768    0.007
 5610.00    0.70120   0.73769    0.007
 5611.00    0.72540   0.73128    0.007
 5612.00    0.74192   0.71825    0.007
 5613.00    0.74660   0.71018    0.007
 5614.00    0.72970   0.71425    0.007
 5615.00    0.68354   0.72157    0.007
 5616.00    0.65177   0.72394    0.007
 5617.00    0.63722   0.72372    0.007
 5618.00    0.65185   0.72557    0.007
 5619.00    0.69724   0.72862    0.007
 5620.00    0.69481   0.72769    0.007
 5621.00    0.64797   0.72028    0.007
 5622.00    0.62448   0.71358    0.007
 5623.00    0.62013   0.71470    0.007
 5624.00    0.58610   0.71994    0.007
 5625.00    0.53067   0.72386    0.007
 5626.00    0.53345   0.72728    0.007
 5627.00    0.57307   0.73067    0.007
 5628.00    0.65682   0.73232    0.007
 5629.00    0.76499   0.73197    0.007
 5630.00    0.81413   0.73005    0.007
 5631.00    0.83487   0.72768    0.007
 5632.00    0.85866   0.72575    0.007
 5633.00    0.88371   0.72314    0.007
 5634.00    0.80703   0.71972    0.007
 5635.00    0.69420   0.71804    0.007
 5636.00    0.66407   0.71873    0.007
 5637.00    0.65875   0.71875    0.007
 5638.00    0.69043   0.71636    0.007
 5639.00    0.73132   0.71561    0.007
 5640.00    0.73475   0.71811    0.007
 5641.00    0.73061   0.72030    0.007
 5642.00    0.67752   0.72109    0.007
 5643.00    0.61667   0.72149    0.007
 5644.00    0.58476   0.72215    0.007
 5645.00    0.55625   0.72251    0.007
 5646.00    0.53017   0.72176    0.007
 5647.00    0.50427   0.72089    0.007
 5648.00    0.50944   0.72170    0.007
 5649.00    0.51599   0.72425    0.007
 5650.00    0.58609   0.72562    0.007
 5651.00    0.65709   0.72278    0.007
 5652.00    0.73698   0.71844    0.007
 5653.00    0.80815   0.71778    0.007
 5654.00    0.71848   0.71600    0.007
 5655.00    0.64136   0.70704    0.007
 5656.00    0.70325   0.70049    0.007
 5657.00    0.74656   0.70523    0.007
 5658.00    0.64571   0.71154    0.007
 5659.00    0.56155   0.71071    0.007
 5660.00    0.57538   0.70856    0.007
 5661.00    0.58129   0.71172    0.007
 5662.00    0.55043   0.71686    0.007
 5663.00    0.52720   0.71791    0.007
 5664.00    0.53300   0.71490    0.007
 5665.00    0.56516   0.71243    0.007
 5666.00    0.68099   0.71305    0.007
 5667.00    0.75398   0.71470    0.007
 5668.00    0.71172   0.71663    0.007
 5669.00    0.69049   0.71973    0.007
 5670.00    0.71779   0.72356    0.007
 5671.00    0.73433   0.72496    0.007
 5672.00    0.72936   0.72295    0.007
 5673.00    0.71416   0.72132    0.007
 5674.00    0.68117   0.72235    0.007
 5675.00    0.66034   0.72217    0.007
 5676.00    0.65804   0.71895    0.007
 5677.00    0.64258   0.71686    0.007
 5678.00    0.60955   0.71686    0.007
 5679.00    0.61023   0.71465    0.007
 5680.00    0.65061   0.71098    0.007
 5681.00    0.68671   0.71085    0.007
 5682.00    0.71835   0.71272    0.007
 5683.00    0.72290   0.71231    0.007
 5684.00    0.70262   0.70940    0.007
 5685.00    0.69961   0.70734    0.007
 5686.00    0.71054   0.70876    0.007
 5687.00    0.72576   0.71275    0.007
 5688.00    0.74404   0.71647    0.007
 5689.00    0.71975   0.71915    0.007
 5690.00    0.66894   0.72063    0.007
 5691.00    0.71325   0.71998    0.007
 5692.00    0.80938   0.71791    0.007
 5693.00    0.80708   0.71664    0.007
 5694.00    0.75817   0.71591    0.007
 5695.00    0.76033   0.71379    0.007
 5696.00    0.78334   0.71202    0.007
 5697.00    0.73375   0.71059    0.007
 5698.00    0.65882   0.70764    0.007
 5699.00    0.65128   0.70523    0.007
 5700.00    0.66357   0.70661    0.007
 5701.00    0.63333   0.71010    0.007
 5702.00    0.59272   0.71082    0.007
 5703.00    0.63370   0.70716    0.007
 5704.00    0.69075   0.70263    0.007
 5705.00    0.73047   0.69871    0.007
 5706.00    0.76754   0.69511    0.007
 5707.00    0.73135   0.69409    0.007
 5708.00    0.68685   0.69517    0.007
 5709.00    0.68718   0.69668    0.007
 5710.00    0.69090   0.70170    0.007
 5711.00    0.67316   0.70816    0.007
 5712.00    0.65455   0.71155    0.007
 5713.00    0.66674   0.71304    0.007
 5714.00    0.67946   0.71366    0.007
 5715.00    0.70420   0.71364    0.007
 5716.00    0.72304   0.71464    0.007
 5717.00    0.64060   0.71625    0.006
 5718.00    0.57026   0.71722    0.006
 5719.00    0.62803   0.71793    0.006
 5720.00    0.67827   0.71863    0.006
 5721.00    0.67210   0.71896    0.006
 5722.00    0.66882   0.71882    0.007
 5723.00    0.68206   0.71626    0.007
 5724.00    0.68496   0.71214    0.007
 5725.00    0.64090   0.71095    0.007
 5726.00    0.60647   0.71343    0.007
 5727.00    0.60789   0.71466    0.007
 5728.00    0.61260   0.71172    0.007
 5729.00    0.62756   0.70888    0.007
 5730.00    0.63877   0.71066    0.007
 5731.00    0.64007   0.71439    0.007
 5732.00    0.64662   0.71642    0.007
 5733.00    0.66508   0.71622    0.007
 5734.00    0.68091   0.71489    0.007
 5735.00    0.69159   0.71301    0.007
 5736.00    0.70182   0.71068    0.007
 5737.00    0.71125   0.70936    0.007
 5738.00    0.72612   0.70971    0.007
 5739.00    0.74911   0.71066    0.007
 5740.00    0.75800   0.71037    0.000
 5741.00    0.74828   0.71123    0.000
 5742.00    0.72402   0.71394    0.000
 5743.00    0.68287   0.71519    0.000
 5744.00    0.68228   0.71203    0.000
 5745.00    0.72323   0.70719    0.000
 5746.00    0.72856   0.70704    0.000
 5747.00    0.70170   0.71133    0.000
 5748.00    0.71818   0.71345    0.000
 5749.00    0.76915   0.70983    0.000
 5750.00    0.80047   0.70279    0.000
 5751.00    0.81802   0.69798    0.000
 5752.00    0.79394   0.69987    0.000
 5753.00    0.74429   0.70640    0.000
 5754.00    0.69384   0.71182    0.000
 5755.00    0.64297   0.71392    0.000
 5756.00    0.67965   0.71250    0.000
 5757.00    0.75711   0.70869    0.000
 5758.00    0.78751   0.70391    0.000
 5759.00    0.79903   0.69901    0.000
 5760.00    0.72573   0.69705    0.000
 5761.00    0.62339   0.70155    0.000
 5762.00    0.60145   0.70834    0.000
 5763.00    0.60268   0.71183    0.000
 5764.00    0.66104   0.71260    0.000
 5765.00    0.73301   0.71227    0.000
 5766.00    0.65917   0.71127    0.000
 5767.00    0.55736   0.71036    0.000
 5768.00    0.55795   0.70908    0.000
 5769.00    0.57378   0.70714    0.000
 5770.00    0.67066   0.70595    0.000
 5771.00    0.77637   0.70510    0.000
 5772.00    0.82517   0.70424    0.000
 5773.00    0.86990   0.70502    0.000
 5774.00    0.82657   0.70698    0.000
 5775.00    0.78000   0.70785    0.000
 5776.00    0.76317   0.70577    0.000
 5777.00    0.74477   0.69957    0.000
 5778.00    0.66564   0.69145    0.000
 5779.00    0.59033   0.68754    0.000
 5780.00    0.57636   0.68904    0.000
 5781.00    0.56813   0.68998    0.000
 5782.00    0.61795   0.68799    0.000
 5783.00    0.66266   0.68844    0.000
 5784.00    0.67038   0.69363    0.000
 5785.00    0.66593   0.69880    0.000
 5786.00    0.59394   0.70148    0.000
 5787.00    0.53839   0.70077    0.000
 5788.00    0.55580   0.69778    0.000
 5789.00    0.58560   0.69748    0.000
 5790.00    0.66055   0.70026    0.000
 5791.00    0.73070   0.70338   -2.000
 5792.00    0.78623   0.70588   -2.000
 5793.00    0.83276   0.70588   -2.000
 5794.00    0.85591   0.70190   -2.000
 5795.00    0.85834   0.69794   -2.000
 5796.00    0.81451   0.69900   -2.000
 5797.00    0.78969   0.69986   -2.000
 5798.00    0.80163   0.69798   -2.000
 5799.00    0.82080   0.69816   -2.000
 5800.00    0.85216   0.70196   -2.000
 5801.00    0.85769   0.70228   -2.000
 5802.00    0.82506   0.69943   -2.000
 5803.00    0.76910   0.69854   -2.000
 5804.00    0.68283   0.69991   -2.000
 5805.00    0.64078   0.70140   -2.000
 5806.00    0.64934   0.70222   -2.000
 5807.00    0.65159   0.70190   -2.000
 5808.00    0.64747   0.69891   -2.000
 5809.00    0.65607   0.69604   -2.000
 5810.00    0.67600   0.69601   -2.000
 5811.00    0.70509   0.69918    0.000
 5812.00    0.74137   0.69898    0.000
 5813.00    0.73221   0.69598    0.000
 5814.00    0.69170   0.69602    0.000
 5815.00    0.65078   0.70042    0.000
 5816.00    0.60963   0.70457    0.000
 5817.00    0.63612   0.70623    0.000
 5818.00    0.69834   0.70637    0.000
 5819.00    0.76039   0.70544    0.000
 5820.00    0.82236   0.70399    0.000
 5821.00    0.80898   0.70334    0.000
 5822.00    0.76588   0.70510    0.000
 5823.00    0.70850   0.70709    0.000
 5824.00    0.64632   0.70696    0.000
 5825.00    0.70493   0.70547    0.000
 5826.00    0.79764   0.70481    0.000
 5827.00    0.87611   0.70469    0.000
 5828.00    0.95126   0.70399    0.000
 5829.00    0.93580   0.70338    0.000
 5830.00    0.90341   0.70268    0.000
 5831.00    0.84917   0.70081    0.000
 5832.00    0.79178   0.69929    0.000
 5833.00    0.80510   0.70033    0.000
 5834.00    0.82582   0.70150    0.000
 5835.00    0.78127   0.70032    0.000
 5836.00    0.73231   0.69927    0.000
 5837.00    0.70134   0.70076    0.000
 5838.00    0.67097   0.70304    0.000
 5839.00    0.74180   0.70428    0.000
 5840.00    0.80848   0.70422    0.000
 5841.00    0.74201   0.70314    0.000
 5842.00    0.67922   0.70111    0.000
 5843.00    0.67184   0.69848    0.000
 5844.00    0.66107   0.69588    0.000
 5845.00    0.61747   0.69475    0.000
 5846.00    0.57791   0.69538    0.000
 5847.00    0.56674   0.69631    0.000
 5848.00    0.56572   0.69573    0.000
 5849.00    0.61953   0.69231    0.000
 5850.00    0.67805   0.68721    0.000
 5851.00    0.75697   0.68534    0.000
 5852.00    0.81330   0.68782    0.000
 5853.00    0.78898   0.68826    0.000
 5854.00    0.77643   0.68337    0.000
 5855.00    0.79916   0.67872    0.000
 5856.00    0.81493   0.68034    0.000
 5857.00    0.81294   0.68558    0.000
 5858.00    0.78778   0.68931    0.000
 5859.00    0.71175   0.68954    0.000
 5860.00    0.63905   0.68893    0.000
 5861.00    0.57266   0.69043    0.000
 5862.00    0.54245   0.69177    0.000
 5863.00    0.57239   0.69048    0.000
 5864.00    0.61325   0.68822    0.000
 5865.00    0.67003   0.68874    0.000
 5866.00    0.69479   0.69165    0.000
 5867.00    0.67854   0.69416    0.000
 5868.00    0.67932   0.69485    0.000
 5869.00    0.69930   0.69256    0.000
 5870.00    0.71482   0.68962    0.000
 5871.00    0.72587   0.66977    0.000
 5872.00    0.75458   0.63535    0.000
 5873.00    0.79879   0.61799    0.000
 5874.00    0.80217   0.63264    0.000
 5875.00    0.77395   0.66710    0.000
 5876.00    0.72354   0.68241    0.000
 5877.00    0.65803   0.68272    0.000
 5878.00    0.64278   0.68245    0.000
 5879.00    0.65749   0.68443    0.000
 5880.00    0.69323   0.68495    0.000
 5881.00    0.73990   0.68333    0.000
 5882.00    0.77489   0.68293    0.000
 5883.00    0.80463   0.68400    0.000
 5884.00    0.78808   0.68220    0.000
 5885.00    0.75358   0.67120    0.000
 5886.00    0.72867   0.64668    0.000
 5887.00    0.70693   0.62325    0.000
 5888.00    0.66805   0.62384    0.000
 5889.00    0.62444   0.64267    0.000
 5890.00    0.59544   0.65794    0.000
 5891.00    0.56976   0.66177    0.000
 5892.00    0.60543   0.65038    0.000
 5893.00    0.65225   0.63479    0.000
 5894.00    0.68931   0.63733    0.000
 5895.00    0.72501   0.65385    0.000
 5896.00    0.73561   0.66607    0.000
 5897.00    0.74369   0.67207    0.000
 5898.00    0.72120   0.67692    0.000
 5899.00    0.69678   0.67983    0.000
 5900.00    0.68360   0.68123    0.000
 5901.00    0.67095   0.68223    0.006
 5902.00    0.72510   0.68158    0.006
 5903.00    0.77542   0.68026    0.006
 5904.00    0.71790   0.68108    0.006
 5905.00    0.65975   0.68330    0.006
 5906.00    0.59263   0.68415    0.006
 5907.00    0.53958   0.68365    0.006
 5908.00    0.61764   0.68436    0.006
 5909.00    0.68563   0.68486    0.006
 5910.00    0.68523   0.68160    0.006
 5911.00    0.68372   0.67588    0.006
 5912.00    0.67636   0.67324    0.006
 5913.00    0.67893   0.67420    0.006
 5914.00    0.72353   0.67678    0.006
 5915.00    0.75156   0.67903    0.006
 5916.00    0.72168   0.68028    0.006
 5917.00    0.70064   0.68177    0.006
 5918.00    0.70560   0.68205    0.006
 5919.00    0.69784   0.68064    0.006
 5920.00    0.65822   0.68003    0.006
 5921.00    0.64611   0.68100    0.006
 5922.00    0.69342   0.68244    0.006
 5923.00    0.71241   0.68356    0.006
 5924.00    0.67828   0.68325    0.006
 5925.00    0.65743   0.68065    0.006
 5926.00    0.65831   0.67690    0.006
 5927.00    0.65967   0.67410    0.006
 5928.00    0.66175   0.67535    0.006
 5929.00    0.66884   0.67942    0.006
 5930.00    0.68227   0.68085    0.006
 5931.00    0.69585   0.67801    0.006
 5932.00    0.70961   0.67568    0.006
 5933.00    0.71273   0.67760    0.006
 5934.00    0.70542   0.68051    0.006
 5935.00    0.70097   0.68212    0.006
 5936.00    0.69902   0.68231    0.006
 5937.00    0.68742   0.68001    0.006
 5938.00    0.66848   0.67513    0.006
 5939.00    0.65980   0.67301    0.006
 5940.00    0.65799   0.67488    0.006
 5941.00    0.65648   0.67724    0.006
 5942.00    0.65513   0.67902    0.006
 5943.00    0.66290   0.68032    0.006
 5944.00    0.67532   0.67965    0.006
 5945.00    0.66309   0.67568    0.006
 5946.00    0.63992   0.67186    0.006
 5947.00    0.58393   0.67288    0.006
 5948.00    0.51544   0.67606    0.006
 5949.00    0.52997   0.67501    0.006
 5950.00    0.57135   0.67154    0.006
 5951.00    0.58078   0.67257    0.006
 5952.00    0.58156   0.67563    0.006
 5953.00    0.56020   0.67458    0.006
 5954.00    0.53393   0.67111    0.006
 5955.00    0.56329   0.67027    0.006
 5956.00    0.60249   0.67257    0.006
 5957.00    0.69173   0.67627    0.006
 5958.00    0.78773   0.67893    0.006
 5959.00    0.76904   0.68015    0.006
 5960.00    0.73932   0.68026    0.006
 5961.00    0.74069   0.67952    0.006
 5962.00    0.74391   0.67749    0.006
 5963.00    0.74899   0.67551    0.006
 5964.00    0.75360   0.67604    0.006
 5965.00    0.67793   0.67773    0.006
 5966.00    0.60559   0.67897    0.006
 5967.00    0.61807   0.67996    0.006
 5968.00    0.63294   0.68092    0.006
 5969.00    0.67985   0.68102    0.006
 5970.00    0.72613   0.68044    0.006
 5971.00    0.76678   0.67885    0.006
 5972.00    0.79702   0.67557    0.006
 5973.00    0.75873   0.67131    0.006
 5974.00    0.71651   0.66813    0.006
 5975.00    0.65409   0.66676    0.006
 5976.00    0.61322   0.66808    0.006
 5977.00    0.66152   0.67188    0.006
 5978.00    0.70648   0.67518    0.006
 5979.00    0.73997   0.67490    0.006
 5980.00    0.76033   0.67050    0.006
 5981.00    0.74281   0.66439    0.006
 5982.00    0.70881   0.66287    0.006
 5983.00    0.63422   0.66641    0.006
 5984.00    0.58547   0.66932    0.006
 5985.00    0.59164   0.67025    0.006
 5986.00    0.61067   0.67178    0.006
 5987.00    0.65345   0.67271    0.006
 5988.00    0.69113   0.67113    0.006
 5989.00    0.72062   0.66995    0.006
 5990.00    0.73568   0.67257    0.006
 5991.00    0.73035   0.67589    0.006
 5992.00    0.70537   0.67636    0.006
 5993.00    0.65595   0.67385    0.006
 5994.00    0.60969   0.66985    0.006
 5995.00    0.56690   0.66716    0.006
 5996.00    0.58469   0.66743    0.006
 5997.00    0.66109   0.66960    0.006
 5998.00    0.70749   0.67097    0.006
 5999.00    0.72827   0.66917    0.006
 6000.00    0.75605   0.66667    0.006
 6001.00    0.78909   0.66719    0.006
 6002.00    0.78068   0.66893    0.006
 6003.00    0.74489   0.66806    0.006
 6004.00    0.68424   0.66395    0.006
 6005.00    0.60920   0.65915    0.006
 6006.00    0.60570   0.66007    0.006
 6007.00    0.63824   0.66651    0.006
 6008.00    0.67854   0.67057    0.006
 6009.00    0.72223   0.66852    0.006
 6010.00    0.74370   0.66405    0.006
 6011.00    0.75686   0.66294    0.006
 6012.00    0.75974   0.66505    0.006
 6013.00    0.75936   0.66483    0.006
 6014.00    0.77009   0.66345    0.006
 6015.00    0.78376   0.66432    0.006
 6016.00    0.74569   0.66402    0.006
 6017.00    0.69639   0.66086    0.006
 6018.00    0.67586   0.65902    0.006
 6019.00    0.66028   0.66009    0.006
 6020.00    0.69579   0.66167    0.006
 6021.00    0.73799   0.66215    0.006
 6022.00    0.74914   0.66395    0.006
 6023.00    0.75744   0.66595    0.006
 6024.00    0.75910   0.66555    0.006
 6025.00    0.76038   0.66618    0.006
 6026.00    0.78214   0.66822    0.006
 6027.00    0.80413   0.66884    0.006
 6028.00    0.80434   0.66820    0.006
 6029.00    0.80296   0.66860    0.006
 6030.00    0.76466   0.67021    0.006
 6031.00    0.72550   0.67066    0.006
 6032.00    0.67535   0.67003    0.006
 6033.00    0.62917   0.66956    0.006
 6034.00    0.61707   0.66986    0.006
 6035.00    0.60602   0.66994    0.006
 6036.00    0.60168   0.66883    0.006
 6037.00    0.60099   0.66730    0.006
 6038.00    0.61856   0.66621    0.006
 6039.00    0.63399   0.66556    0.006
 6040.00    0.64077   0.66679    0.006
 6041.00    0.65026   0.66907    0.006
 6042.00    0.66886   0.66998    0.006
 6043.00    0.68632   0.66989    0.006
 6044.00    0.70056   0.66985    0.006
 6045.00    0.70001   0.66969    0.006
 6046.00    0.66367   0.66933    0.006
 6047.00    0.63204   0.66999    0.006
 6048.00    0.61026   0.67056    0.006
 6049.00    0.59451   0.66919    0.006
 6050.00    0.58976   0.66642    0.006
 6051.00    0.57563   0.66470    0.006
 6052.00    0.54661   0.66350    0.006
 6053.00    0.55278   0.66163    0.006
 6054.00    0.60801   0.66118    0.006
 6055.00    0.65006   0.66275    0.006
 6056.00    0.67594   0.66533    0.006
 6057.00    0.67770   0.66711    0.006
 6058.00    0.65337   0.66697    0.006
 6059.00    0.63475   0.66540    0.006
 6060.00    0.62157   0.66315    0.006
 6061.00    0.62435   0.65943    0.006
 6062.00    0.64056   0.65402    0.006
 6063.00    0.64832   0.65352    0.006
 6064.00    0.64984   0.65995    0.006
 6065.00    0.63899   0.66566    0.006
 6066.00    0.62010   0.66761    0.006
 6067.00    0.61560   0.66787    0.006
 6068.00    0.61930   0.66784    0.006
 6069.00    0.62823   0.66815    0.006
 6070.00    0.63975   0.66802    0.006
 6071.00    0.63276   0.66772    0.006
 6072.00    0.61784   0.66736    0.006
 6073.00    0.62369   0.66618    0.006
 6074.00    0.63717   0.66374    0.006
 6075.00    0.65945   0.65936    0.006
 6076.00    0.68445   0.65677    0.006
 6077.00    0.68035   0.65817    0.006
 6078.00    0.66870   0.65841    0.006
 6079.00    0.66259   0.65618    0.006
 6080.00    0.65766   0.65557    0.006
 6081.00    0.67229   0.65686    0.006
 6082.00    0.69020   0.65682    0.006
 6083.00    0.67462   0.65654    0.006
 6084.00    0.65481   0.65790    0.006
 6085.00    0.62131   0.65979    0.006
 6086.00    0.58661   0.65893    0.006
 6087.00    0.59140   0.65553    0.006
 6088.00    0.59824   0.65384    0.006
 6089.00    0.59350   0.65405    0.006
 6090.00    0.58860   0.65461    0.006
 6091.00    0.58740   0.65654    0.006
 6092.00    0.58761   0.66006    0.006
 6093.00    0.61770   0.66107    0.006
 6094.00    0.64603   0.65950    0.006
 6095.00    0.65313   0.65914    0.006
 6096.00    0.65904   0.66100    0.006
 6097.00    0.65512   0.66243    0.006
 6098.00    0.65618   0.65838    0.006
 6099.00    0.68819   0.64657    0.006
 6100.00    0.71440   0.63801    0.006
 6101.00    0.71238   0.64320    0.006
 6102.00    0.71111   0.65334    0.006
 6103.00    0.71277   0.65779    0.006
 6104.00    0.70746   0.65689    0.006
 6105.00    0.67925   0.65538    0.006
 6106.00    0.65419   0.65712    0.006
 6107.00    0.63787   0.65888    0.006
 6108.00    0.63682   0.65710    0.006
 6109.00    0.67209   0.65514    0.006
 6110.00    0.70046   0.65672    0.006
 6111.00    0.71465   0.65931    0.006
 6112.00    0.70815   0.65931    0.006
 6113.00    0.66466   0.65596    0.006
 6114.00    0.64459   0.65438    0.006
 6115.00    0.66119   0.65595    0.006
 6116.00    0.68957   0.65533    0.006
 6117.00    0.73413   0.65145    0.006
 6118.00    0.75795   0.64522    0.006
 6119.00    0.75667   0.63872    0.006
 6120.00    0.72580   0.64031    0.006
 6121.00    0.66338   0.64846    0.006
 6122.00    0.61560   0.65253    0.006
 6123.00    0.58160   0.65191    0.006
 6124.00    0.60247   0.65038    0.006
 6125.00    0.66886   0.64888    0.006
 6126.00    0.73349   0.64922    0.006
 6127.00    0.79684   0.65228    0.006
 6128.00    0.78443   0.65520    0.006
 6129.00    0.72345   0.65627    0.006
 6130.00    0.65196   0.65656    0.006
 6131.00    0.57458   0.65479    0.006
 6132.00    0.56404   0.64805    0.006
 6133.00    0.58611   0.63541    0.006
 6134.00    0.60476   0.62365    0.006
 6135.00    0.62197   0.62596    0.006
 6136.00    0.64381   0.64016    0.006
 6137.00    0.66732   0.64946    0.006
 6138.00    0.69492   0.64620    0.006
 6139.00    0.72376   0.64104    0.006
 6140.00    0.70931   0.64479    0.006
 6141.00    0.68387   0.65224    0.006
 6142.00    0.66033   0.65527    0.006
 6143.00    0.63718   0.65455    0.006
 6144.00    0.61639   0.65215    0.006
 6145.00    0.59599   0.64805    0.006
 6146.00    0.58356   0.64441    0.006
 6147.00    0.57211   0.64315    0.006
 6148.00    0.53968   0.64486    0.006
 6149.00    0.50550   0.64818    0.006
 6150.00    0.49175   0.65047    0.006
 6151.00    0.47898   0.64880    0.006
 6152.00    0.51060   0.64528    0.006
 6153.00    0.54320   0.64458    0.006
 6154.00    0.59505   0.64479    0.006
 6155.00    0.64498   0.64474    0.006
 6156.00    0.65719   0.64466    0.006
 6157.00    0.66298   0.64041    0.006
 6158.00    0.59480   0.62831    0.006
 6159.00    0.53569   0.61649    0.006
 6160.00    0.54922   0.61527    0.006
 6161.00    0.56768   0.62284    0.006
 6162.00    0.61578   0.63085    0.006
 6163.00    0.66139   0.63491    0.006
 6164.00    0.69515   0.63770    0.006
 6165.00    0.72443   0.63661    0.006
 6166.00    0.73637   0.62718    0.006
 6167.00    0.74611   0.62084    0.006
 6168.00    0.74874   0.62683    0.006
 6169.00    0.73931   0.63575    0.006
 6170.00    0.69692   0.63814    0.006
 6171.00    0.64570   0.63831    0.006
 6172.00    0.57380   0.63890    0.006
 6173.00    0.52075   0.63822    0.006
 6174.00    0.50586   0.63782    0.006
 6175.00    0.50403   0.64008    0.006
 6176.00    0.52521   0.64184    0.006
 6177.00    0.55859   0.64093    0.006
 6178.00    0.61079   0.64154    0.006
 6179.00    0.63963   0.64384    0.006
 6180.00    0.63683   0.64465    0.006
 6181.00    0.63391   0.64415    0.006
 6182.00    0.63087   0.64330    0.006
 6183.00    0.62597   0.64015    0.006
 6184.00    0.61913   0.63671    0.006
 6185.00    0.62733   0.63539    0.006
 6186.00    0.64949   0.63570    0.006
 6187.00    0.65815   0.63309    0.006
 6188.00    0.65575   0.62519    0.006
 6189.00    0.63750   0.62265    0.006
 6190.00    0.60782   0.63037    0.006
 6191.00    0.57851   0.63774    0.006
 6192.00    0.54942   0.64020    0.006
 6193.00    0.65700   0.64178    0.006
 6194.00    0.84006   0.64362    0.006
 6195.00    1.23173   0.64202    0.006
 6196.00    1.72355   0.63584   -2.000
 6197.00    2.19669   0.63119   -2.000
 6198.00    2.66207   0.63353   -2.000
 6199.00    2.68658   0.63903   -2.000
 6200.00    2.55481   0.64214   -2.000
 6201.00    1.80187   0.64231   -2.000
 6202.00    0.86304   0.64148   -2.000
 6203.00    0.27937   0.64188   -2.000
 6204.00   -0.21609   0.64243   -2.000
 6205.00   -0.20516   0.64236   -2.000
 6206.00   -0.09227   0.64184   -2.000
 6207.00    0.11900   0.64048   -2.000
 6208.00    0.34579   0.63900    0.006
 6209.00    0.45186   0.63681    0.006
 6210.00    0.54379   0.63084    0.006
 6211.00    0.58143   0.62466    0.006
 6212.00    0.61477   0.62237    0.006
 6213.00    0.59477   0.62387    0.006
 6214.00    0.57243   0.62847    0.006
 6215.00    0.59360   0.63120    0.006
 6216.00    0.61424   0.62842    0.006
 6217.00    0.58740   0.62460    0.006
 6218.00    0.56343   0.62516    0.006
 6219.00    0.59209   0.62890    0.006
 6220.00    0.62159   0.63141    0.006
 6221.00    0.66019   0.63084    0.006
 6222.00    0.69406   0.63056    0.006
 6223.00    0.69128   0.63164    0.006
 6224.00    0.69104   0.63241    0.006
 6225.00    0.70564   0.63211    0.006
 6226.00    0.72293   0.62779    0.006
 6227.00    0.75260   0.61890    0.006
 6228.00    0.77245   0.61288    0.006
 6229.00    0.75503   0.61498    0.006
 6230.00    0.73479   0.62009    0.006
 6231.00    0.70558   0.62672    0.006
 6232.00    0.67529   0.63278    0.006
 6233.00    0.64209   0.63411    0.006
 6234.00    0.61648   0.63090    0.006
 6235.00    0.60831   0.62604    0.006
 6236.00    0.60664   0.62193    0.006
 6237.00    0.61792   0.61971    0.006
 6238.00    0.60849   0.62167    0.006
 6239.00    0.56311   0.62294    0.006
 6240.00    0.54077   0.61900    0.006
 6241.00    0.55343   0.61705    0.006
 6242.00    0.57788   0.61764    0.006
 6243.00    0.61810   0.61687    0.006
 6244.00    0.64614   0.61865    0.006
 6245.00    0.65985   0.62413    0.006
 6246.00    0.66382   0.62847    0.006
 6247.00    0.65770   0.62975    0.006
 6248.00    0.65228   0.62694    0.006
 6249.00    0.64750   0.61970    0.006
 6250.00    0.62910   0.61445    0.006
 6251.00    0.59974   0.61443    0.006
 6252.00    0.61126   0.61616    0.006
 6253.00    0.65177   0.61572    0.006
 6254.00    0.68721   0.61279    0.006
 6255.00    0.71948   0.60987    0.006
 6256.00    0.75615   0.61151    0.006
 6257.00    0.79521   0.61757    0.006
 6258.00    0.91051   0.62128    0.006
 6259.00    1.06184   0.62432    0.006
 6260.00    1.17532   0.62871    0.006
 6261.00    1.27338   0.62850    0.007
 6262.00    1.21041   0.62399    0.007
 6263.00    1.09140   0.62279    0.007
 6264.00    0.85789   0.62590    0.007
 6265.00    0.59079   0.62702    0.007
 6266.00    0.46677   0.62513    0.007
 6267.00    0.37751   0.62384    0.006
 6268.00    0.42405   0.62466    0.006
 6269.00    0.49725   0.62680    0.006
 6270.00    0.53363   0.62796    0.006
 6271.00    0.56437   0.62748    0.006
 6272.00    0.59740   0.62722    0.006
 6273.00    0.63068   0.62759    0.006
 6274.00    0.65398   0.62722    0.006
 6275.00    0.67653   0.62608    0.006
 6276.00    0.66290   0.62326    0.006
 6277.00    0.64781   0.61927    0.006
 6278.00    0.66979   0.61844    0.006
 6279.00    0.69209   0.62095    0.006
 6280.00    0.71598   0.62422    0.000
 6281.00    0.73705   0.62669    0.000
 6282.00    0.70995   0.62643    0.000
 6283.00    0.68422   0.62639    0.000
 6284.00    0.67295   0.62867    0.000
 6285.00    0.65803   0.63099    0.000
 6286.00    0.61592   0.63157    0.000
 6287.00    0.58006   0.62887    0.000
 6288.00    0.57978   0.62569    0.000
 6289.00    0.58134   0.62396    0.000
 6290.00    0.59125   0.62340    0.000
 6291.00    0.60094   0.62497    0.000
 6292.00    0.60979   0.62559    0.000
 6293.00    0.61928   0.62198    0.000
 6294.00    0.63076   0.61746    0.000
 6295.00    0.64346   0.61668    0.000
 6296.00    0.65937   0.61938    0.000
 6297.00    0.66895   0.62014    0.000
 6298.00    0.66420   0.61626    0.000
 6299.00    0.65196   0.61297    0.000
 6300.00    0.62506   0.61534    0.000
 6301.00    0.60141   0.61964    0.000
 6302.00    0.58329   0.62061    0.000
 6303.00    0.55943   0.62099    0.000
 6304.00    0.52695   0.62436    0.000
 6305.00    0.50338   0.62716    0.000
 6306.00    0.49153   0.62615    0.000
 6307.00    0.51292   0.62289    0.000
 6308.00    0.57282   0.61971    0.000
 6309.00    0.60215   0.61928    0.000
 6310.00    0.60024   0.62084    0.000
 6311.00    0.58868   0.61896    0.000
 6312.00    0.56842   0.61452    0.000
 6313.00    0.55588   0.61431    0.000
 6314.00    0.54947   0.61488    0.000
 6315.00    0.55600   0.61080    0.000
 6316.00    0.57159   0.61008    0.000
 6317.00    0.60603   0.61520    0.000
 6318.00    0.65203   0.61919    0.000
 6319.00    0.67674   0.61951    0.000
 6320.00    0.69004   0.62019    0.000
 6321.00    0.66260   0.62318    0.006
 6322.00    0.61622   0.62529    0.006
 6323.00    0.62040   0.62555    0.006
 6324.00    0.64483   0.62412    0.006
 6325.00    0.66748   0.62423    0.006
 6326.00    0.68952   0.62531    0.006
 6327.00    0.71067   0.62366    0.006
 6328.00    0.73156   0.62251    0.006
 6329.00    0.69816   0.62429    0.006
 6330.00    0.65186   0.62635    0.005
 6331.00    0.57953   0.62379    0.005
 6332.00    0.50222   0.61552    0.005
 6333.00    0.54618   0.60947    0.005
 6334.00    0.60813   0.61105    0.005
 6335.00    0.63971   0.61538    0.005
 6336.00    0.66801   0.61740    0.005
 6337.00    0.66570   0.62032    0.005
 6338.00    0.66121   0.62335    0.005
 6339.00    0.66969   0.62219    0.005
 6340.00    0.67863   0.61749    0.005
 6341.00    0.67511   0.61344    0.005
 6342.00    0.67176   0.61297    0.005
 6343.00    0.67650   0.61215    0.005
 6344.00    0.67783   0.61161    0.005
 6345.00    0.62496   0.61457    0.005
 6346.00    0.57491   0.62030    0.005
 6347.00    0.55326   0.62280    0.005
 6348.00    0.53396   0.62322    0.005
 6349.00    0.53153   0.62346    0.006
 6350.00    0.53190   0.62198    0.006
 6351.00    0.54770   0.61779    0.006
 6352.00    0.56234   0.61455    0.005
 6353.00    0.57183   0.61575    0.005
 6354.00    0.57860   0.61634    0.005
 6355.00    0.57547   0.61201    0.005
 6356.00    0.57323   0.60789    0.005
 6357.00    0.57371   0.60731    0.005
 6358.00    0.58295   0.60646    0.005
 6359.00    0.61490   0.60399    0.006
 6360.00    0.63792   0.60381    0.006
 6361.00    0.64105   0.60668    0.006
 6362.00    0.64819   0.61024    0.006
 6363.00    0.66307   0.61293    0.006
 6364.00    0.67284   0.61623    0.006
 6365.00    0.67402   0.61916    0.006
 6366.00    0.65536   0.61904    0.006
 6367.00    0.60742   0.61455    0.006
 6368.00    0.57293   0.61197    0.006
 6369.00    0.55589   0.61480    0.006
 6370.00    0.54938   0.61966    0.006
 6371.00    0.55493   0.62201    0.006
 6372.00    0.57058   0.62154    0.006
 6373.00    0.59639   0.62135    0.006
 6374.00    0.61028   0.62080    0.006
 6375.00    0.61355   0.61794    0.005
 6376.00    0.61084   0.61494    0.005
 6377.00    0.60344   0.61422    0.005
 6378.00    0.58898   0.61463    0.005
 6379.00    0.56967   0.61607    0.005
 6380.00    0.57545   0.61744    0.005
 6381.00    0.59639   0.61625    0.005
 6382.00    0.62128   0.61573    0.005
 6383.00    0.64824   0.61751    0.005
 6384.00    0.63991   0.61921    0.005
 6385.00    0.61544   0.61957    0.005
 6386.00    0.59654   0.61917    0.005
 6387.00    0.57982   0.61907    0.005
 6388.00    0.59191   0.61810    0.005
 6389.00    0.61365   0.61266    0.005
 6390.00    0.62887   0.60461    0.005
 6391.00    0.64226   0.60308    0.005
 6392.00    0.64156   0.60978    0.005
 6393.00    0.63758   0.61617    0.006
 6394.00    0.63595   0.61895    0.006
 6395.00    0.63475   0.61767    0.006
 6396.00    0.59456   0.60895    0.006
 6397.00    0.54876   0.59936    0.006
 6398.00    0.53917   0.60214    0.006
 6399.00    0.53334   0.61184    0.006
 6400.00    0.54461   0.61681    0.006
 6401.00    0.55702   0.61801    0.006
 6402.00    0.58996   0.61645    0.006
 6403.00    0.62357   0.61295    0.006
 6404.00    0.64196   0.60792    0.006
 6405.00    0.65964   0.60477    0.005
 6406.00    0.65539   0.60868    0.005
 6407.00    0.65024   0.61238    0.005
 6408.00    0.63153   0.60876    0.005
 6409.00    0.61295   0.60608    0.005
 6410.00    0.59560   0.60862    0.005
 6411.00    0.58262   0.61100    0.005
 6412.00    0.60014   0.61177    0.005
 6413.00    0.61887   0.61261    0.005
 6414.00    0.64412   0.61264    0.005
 6415.00    0.66248   0.61203    0.005
 6416.00    0.65106   0.60918    0.005
 6417.00    0.63317   0.60352    0.006
 6418.00    0.59222   0.60079    0.005
 6419.00    0.54982   0.60588    0.005
 6420.00    0.50310   0.61400    0.006
 6421.00    0.47555   0.61708    0.006
 6422.00    0.49681   0.61643    0.005
 6423.00    0.51930   0.61681    0.005
 6424.00    0.54450   0.61852    0.005
 6425.00    0.57430   0.61873    0.005
 6426.00    0.61288   0.61502    0.005
 6427.00    0.64838   0.60689    0.006
 6428.00    0.67879   0.60079    0.006
 6429.00    0.69618   0.60267    0.006
 6430.00    0.69464   0.60803    0.006
 6431.00    0.66410   0.61221    0.006
 6432.00    0.59645   0.61520    0.006
 6433.00    0.55136   0.61655    0.005
 6434.00    0.53168   0.61444    0.005
 6435.00    0.53520   0.60649    0.005
 6436.00    0.56177   0.59985    0.005
 6437.00    0.58577   0.60373    0.005
 6438.00    0.60750   0.61294    0.005
 6439.00    0.62475   0.61692    0.005
 6440.00    0.63855   0.61732    0.006
 6441.00    0.62768   0.61718    0.006
 6442.00    0.60006   0.61764    0.005
 6443.00    0.56903   0.61852    0.005
 6444.00    0.53597   0.61806    0.005
 6445.00    0.53252   0.61227    0.005
 6446.00    0.54444   0.59939    0.005
 6447.00    0.56850   0.59068    0.005
 6448.00    0.59802   0.59586    0.006
 6449.00    0.63301   0.60576    0.006
 6450.00    0.67013   0.61174    0.006
 6451.00    0.67774   0.61168    0.006
 6452.00    0.67564   0.60561    0.006
 6453.00    0.65963   0.59998    0.005
 6454.00    0.63978   0.60257    0.005
 6455.00    0.61669   0.61006    0.005
 6456.00    0.59287   0.61597    0.005
 6457.00    0.58778   0.61712    0.005
 6458.00    0.58607   0.61113    0.005
 6459.00    0.59608   0.59834    0.005
 6460.00    0.60772   0.59242    0.005
 6461.00    0.60123   0.59974    0.005
 6462.00    0.59293   0.60735    0.005
 6463.00    0.56244   0.61061    0.005
 6464.00    0.53056   0.61230    0.005
 6465.00    0.52518   0.61210    0.005
 6466.00    0.52062   0.60989    0.005
 6467.00    0.53311   0.60745    0.005
 6468.00    0.54572   0.60465    0.005
 6469.00    0.56152   0.60388    0.005
 6470.00    0.57737   0.60713    0.005
 6471.00    0.59392   0.60803    0.005
 6472.00    0.61100   0.60542    0.005
 6473.00    0.63297   0.60549    0.006
 6474.00    0.65000   0.60828    0.006
 6475.00    0.63356   0.60901    0.006
 6476.00    0.61292   0.60871    0.005
 6477.00    0.57028   0.60748    0.005
 6478.00    0.53601   0.60198    0.005
 6479.00    0.53709   0.59543    0.005
 6480.00    0.54380   0.59459    0.005
 6481.00    0.57016   0.59945    0.005
 6482.00    0.58837   0.60388    0.005
 6483.00    0.58272   0.60579    0.005
 6484.00    0.57647   0.60662    0.005
 6485.00    0.56875   0.60675    0.005
 6486.00    0.57203   0.60535    0.005
 6487.00    0.59900   0.60209    0.005
 6488.00    0.62390   0.59916    0.005
 6489.00    0.64492   0.59670    0.005
 6490.00    0.64289   0.58906    0.005
 6491.00    0.60321   0.57581    0.005
 6492.00    0.58106   0.56754    0.005
 6493.00    0.58405   0.56820    0.005
 6494.00    0.59654   0.57365    0.005
 6495.00    0.62100   0.58104    0.005
 6496.00    0.63758   0.58539    0.005
 6497.00    0.64541   0.58969    0.005
 6498.00    0.67009   0.59493    0.005
 6499.00    0.71127   0.59838    0.005
 6500.00    0.73025   0.60021    0.005
 6501.00    0.73004   0.60114    0.005
 6502.00    0.70765   0.60204    0.005
 6503.00    0.66837   0.60303    0.005
 6504.00    0.63775   0.60218    0.005
 6505.00    0.61292   0.59991    0.005
 6506.00    0.60246   0.59918    0.005
 6507.00    0.60042   0.60100    0.005
 6508.00    0.58686   0.60253    0.005
 6509.00    0.56742   0.60246    0.005
 6510.00    0.55974   0.60194    0.005
 6511.00    0.55725   0.60028    0.005
 6512.00    0.54845   0.59630    0.005
 6513.00    0.53725   0.59262    0.005
 6514.00    0.54023   0.59117    0.005
 6515.00    0.54779   0.59054    0.005
 6516.00    0.55325   0.59150    0.005
 6517.00    0.55815   0.59579    0.005
 6518.00    0.55321   0.59942    0.005
 6519.00    0.54610   0.59962    0.005
 6520.00    0.58239   0.59821    0.005
 6521.00    0.62633   0.59805    0.005
 6522.00    0.62454   0.59719    0.005
 6523.00    0.61661   0.59297    0.005
 6524.00    0.59252   0.58925    0.005
 6525.00    0.56690   0.59064    0.005
 6526.00    0.55118   0.59447    0.005
 6527.00    0.53606   0.59656    0.005
 6528.00    0.52912   0.59494    0.000
 6529.00    0.52270   0.59172    0.000
 6530.00    0.56254   0.59014    0.000
 6531.00    0.60082   0.59174    0.000
 6532.00    0.59977   0.59507    0.000
 6533.00    0.59877   0.59633    0.000
 6534.00    0.59850   0.59469    0.000
 6535.00    0.59962   0.59370    0.000
 6536.00    0.61310   0.59534    0.000
 6537.00    0.62673   0.59659    0.000
 6538.00    0.64137   0.59498    0.000
 6539.00    0.64534   0.59147    0.000
 6540.00    0.59471   0.58843    0.000
 6541.00    0.55047   0.58593    0.000
 6542.00    0.53259   0.58099    0.000
 6543.00    0.53447   0.57471    0.000
 6544.00    0.60385   0.57347    0.000
 6545.00    0.67092   0.57715    0.000
 6546.00    0.73133   0.57891    0.000
 6547.00    0.76011   0.57622    0.000
 6548.00    0.71112   0.57139    0.000
 6549.00    0.66914   0.56708    0.000
 6550.00    0.64206   0.56257    0.000
 6551.00    0.62252   0.55519    0.000
 6552.00    0.61690   0.54596    0.000
 6553.00    0.61584   0.53820    0.000
 6554.00    0.62212   0.53131    0.000
 6555.00    0.66990   0.51947    0.000
 6556.00    0.77629   0.50247    0.000
 6557.00    0.89682   0.47878    0.000
 6558.00    1.03493   0.43982    0.000
 6559.00    1.12928   0.38843    0.000
 6560.00    1.17569   0.36609    0.000
 6561.00    1.14415   0.40149    0.000
 6562.00    1.03729   0.45776    0.000
 6563.00    0.91801   0.49786    0.000
 6564.00    0.78812   0.52113    0.000
 6565.00    0.70007   0.53310    0.000
 6566.00    0.64340   0.53915    0.000
 6567.00    0.60890   0.54571    0.000
 6568.00    0.58901   0.55280    0.000
 6569.00    0.57944   0.55603    0.000
 6570.00    0.57582   0.55609    0.000
 6571.00    0.56750   0.55669    0.000
 6572.00    0.55681   0.56030    0.000
 6573.00    0.54939   0.56635    0.000
 6574.00    0.54339   0.57146    0.000
 6575.00    0.56712   0.57455    0.000
 6576.00    0.60194   0.57594    0.000
 6577.00    0.65605   0.57601    0.000
 6578.00    0.71627   0.57503    0.000
 6579.00    0.72642   0.57484    0.000
 6580.00    0.72334   0.57798    0.000
 6581.00    0.69453   0.57993    0.000
 6582.00    0.66015   0.58166    0.000
 6583.00    0.62245   0.58114    0.000
 6584.00    0.58417   0.58241    0.000
 6585.00    0.54054   0.58538    0.000
 6586.00    0.49621   0.58740    0.000
 6587.00    0.49965   0.58826    0.000
 6588.00    0.50745   0.58529    0.000
 6589.00    0.52108   0.57628    0.000
 6590.00    0.53504   0.56797    0.000
 6591.00    0.54111   0.56956    0.000
 6592.00    0.54673   0.57837    0.000
 6593.00    0.52562   0.58395    0.000
 6594.00    0.50586   0.58392    0.000
 6595.00    0.51719   0.58138    0.000
 6596.00    0.53166   0.58183    0.000
 6597.00    0.58592   0.58598    0.000
 6598.00    0.63306   0.58959    0.000
 6599.00    0.61919   0.59009    0.000
 6600.00    0.60000   0.58853    0.000
 6601.00    0.54704   0.58539    0.000
 6602.00    0.50562   0.58296    0.000
 6603.00    0.52164   0.58237    0.000
 6604.00    0.53697   0.58154    0.000
 6605.00    0.54949   0.57893    0.000
 6606.00    0.56091   0.57632    0.000
 6607.00    0.56861   0.57928    0.000
 6608.00    0.57308   0.58565    0.000
 6609.00    0.56843   0.58797    0.005
 6610.00    0.56436   0.58584    0.005
 6611.00    0.56166   0.58477    0.005
 6612.00    0.55708   0.58747    0.005
 6613.00    0.54857   0.58952    0.005
 6614.00    0.55652   0.58885    0.005
 6615.00    0.59429   0.58802    0.005
 6616.00    0.62829   0.58871    0.005
 6617.00    0.65630   0.58950    0.005
 6618.00    0.66156   0.58984    0.005
 6619.00    0.63516   0.58920    0.005
 6620.00    0.61342   0.58629    0.005
 6621.00    0.59738   0.58175    0.005
 6622.00    0.57904   0.57980    0.005
 6623.00    0.55822   0.58225    0.005
 6624.00    0.55082   0.58468    0.005
 6625.00    0.55620   0.58486    0.005
 6626.00    0.56207   0.58441    0.005
 6627.00    0.56838   0.58378    0.005
 6628.00    0.57420   0.58266    0.005
 6629.00    0.57966   0.57990    0.005
 6630.00    0.58874   0.57524    0.005
 6631.00    0.60017   0.57311    0.005
 6632.00    0.60195   0.57684    0.005
 6633.00    0.59825   0.58193    0.005
 6634.00    0.60001   0.58479    0.005
 6635.00    0.60448   0.58510    0.005
 6636.00    0.59874   0.58336    0.005
 6637.00    0.58864   0.58210    0.005
 6638.00    0.58723   0.58383    0.005
 6639.00    0.58900   0.58329    0.005
 6640.00    0.60104   0.57822    0.005
 6641.00    0.61626   0.57623    0.005
 6642.00    0.59704   0.57959    0.005
 6643.00    0.56891   0.58239    0.005
 6644.00    0.57484   0.58227    0.005
 6645.00    0.58795   0.58195    0.005
 6646.00    0.59682   0.58281    0.005
 6647.00    0.60497   0.58301    0.005
 6648.00    0.60874   0.58239    0.005
 6649.00    0.61196   0.58188    0.005
 6650.00    0.58288   0.58148    0.005
 6651.00    0.55099   0.58164    0.005
 6652.00    0.53313   0.58217    0.005
 6653.00    0.51600   0.58176    0.005
 6654.00    0.55274   0.58149    0.005
 6655.00    0.58963   0.58221    0.005
 6656.00    0.56902   0.58198    0.005
 6657.00    0.55026   0.58086    0.005
 6658.00    0.57044   0.57894    0.005
 6659.00    0.58868   0.57546    0.005
 6660.00    0.58347   0.57101    0.005
 6661.00    0.58070   0.57104    0.005
 6662.00    0.59816   0.57431    0.005
 6663.00    0.61273   0.57515    0.005
 6664.00    0.60941   0.57464    0.005
 6665.00    0.59928   0.57585    0.005
 6666.00    0.55610   0.57856    0.005
 6667.00    0.51987   0.58108    0.005
 6668.00    0.51113   0.58177    0.005
 6669.00    0.51604   0.58134    0.005
 6670.00    0.56574   0.58089    0.005
 6671.00    0.59427   0.58074    0.005
 6672.00    0.56402   0.58004    0.005
 6673.00    0.52790   0.57175    0.005
 6674.00    0.47786   0.55354    0.005
 6675.00    0.45471   0.54248    0.005
 6676.00    0.48676   0.54736    0.005
 6677.00    0.51956   0.56166    0.005
 6678.00    0.55370   0.57033    0.005
 6679.00    0.57318   0.57125    0.005
 6680.00    0.56975   0.57213    0.005
 6681.00    0.56335   0.57381    0.005
 6682.00    0.55287   0.57576    0.005
 6683.00    0.54472   0.57680    0.005
 6684.00    0.53939   0.57688    0.005
 6685.00    0.53835   0.57673    0.005
 6686.00    0.54188   0.57725    0.005
 6687.00    0.56417   0.57838    0.005
 6688.00    0.60410   0.57880    0.005
 6689.00    0.63393   0.57833    0.005
 6690.00    0.65541   0.57799    0.005
 6691.00    0.65801   0.57741    0.005
 6692.00    0.64684   0.57472    0.005
 6693.00    0.62663   0.57095    0.005
 6694.00    0.60063   0.57026    0.005
 6695.00    0.59593   0.57222    0.005
 6696.00    0.60315   0.57435    0.000
 6697.00    0.57048   0.57664    0.000
 6698.00    0.51837   0.57747    0.000
 6699.00    0.51942   0.57672    0.000
 6700.00    0.54283   0.57417    0.000
 6701.00    0.56704   0.57196    0.000
 6702.00    0.59155   0.57214    0.000
 6703.00    0.60880   0.57414    0.000
 6704.00    0.62384   0.57533    0.000
 6705.00    0.62886   0.57551    0.000
 6706.00    0.63134   0.57471    0.000
 6707.00    0.66704   0.57353    0.000
 6708.00    0.70958   0.57337    0.000
 6709.00    0.71950   0.57334    0.000
 6710.00    0.72415   0.57161    0.000
 6711.00    0.72109   0.56964    0.000
 6712.00    0.71709   0.56750    0.000
 6713.00    0.71561   0.56415    0.000
 6714.00    0.71433   0.56042    0.000
 6715.00    0.67204   0.56111    0.000
 6716.00    0.62780   0.56691    0.000
 6717.00    0.59924   0.57061    0.000
 6718.00    0.57095   0.57060    0.000
 6719.00    0.54573   0.57033    0.000
 6720.00    0.52079   0.57206    0.000
 6721.00    0.50121   0.57342    0.000
 6722.00    0.48290   0.57181    0.000
 6723.00    0.47923   0.56976    0.000
 6724.00    0.48124   0.56979    0.000
 6725.00    0.52852   0.57169    0.000
 6726.00    0.57577   0.57258    0.000
 6727.00    0.62279   0.57317    0.000
 6728.00    0.65469   0.57331    0.000
 6729.00    0.61489   0.57255    0.000
 6730.00    0.58110   0.57168    0.000
 6731.00    0.57055   0.57171    0.000
 6732.00    0.56886   0.57245    0.000
 6733.00    0.59571   0.57304    0.000
 6734.00    0.60706   0.57167    0.000
 6735.00    0.57615   0.56868    0.000
 6736.00    0.55036   0.56698    0.000
 6737.00    0.53653   0.56806    0.000
 6738.00    0.54119   0.56912    0.000
 6739.00    0.58320   0.56760    0.000
 6740.00    0.61585   0.56489    0.000
 6741.00    0.63206   0.56555    0.000
 6742.00    0.63882   0.56712    0.000
 6743.00    0.63102   0.56715    0.000
 6744.00    0.61632   0.56706    0.000
 6745.00    0.59229   0.56619    0.000
 6746.00    0.56335   0.56472    0.000
 6747.00    0.52856   0.56417    0.000
 6748.00    0.52580   0.56512    0.000
 6749.00    0.55665   0.56500    0.000
 6750.00    0.59093   0.56412    0.000
 6751.00    0.62839   0.56594    0.000
 6752.00    0.66039   0.56774    0.000
 6753.00    0.68793   0.56847    0.006
 6754.00    0.67195   0.56974    0.006
 6755.00    0.62471   0.57131    0.006
 6756.00    0.60135   0.57256    0.006
 6757.00    0.59306   0.57265    0.006
 6758.00    0.54051   0.57157    0.006
 6759.00    0.46356   0.57060    0.006
 6760.00    0.47754   0.57097    0.006
 6761.00    0.53509   0.57148    0.006
 6762.00    0.59232   0.57044    0.006
 6763.00    0.64941   0.56743    0.007
 6764.00    0.69677   0.56421    0.007
 6765.00    0.74068   0.56375    0.006
 6766.00    0.74226   0.56581    0.006
 6767.00    0.73119   0.56638    0.006
 6768.00    0.74619   0.56465    0.006
 6769.00    0.76764   0.56497    0.006
 6770.00    0.77072   0.56771    0.006
 6771.00    0.77011   0.57039    0.006
 6772.00    0.70942   0.57191    0.006
 6773.00    0.63930   0.57207    0.006
 6774.00    0.64952   0.57153    0.006
 6775.00    0.66912   0.57121    0.006
 6776.00    0.62912   0.57170    0.006
 6777.00    0.58441   0.57122    0.006
 6778.00    0.53978   0.56913    0.006
 6779.00    0.49515   0.56579    0.006
 6780.00    0.51828   0.56163    0.006
 6781.00    0.54156   0.55895    0.006
 6782.00    0.53878   0.55902    0.006
 6783.00    0.53555   0.56082    0.006
 6784.00    0.52407   0.56346    0.006
 6785.00    0.51866   0.56630    0.006
 6786.00    0.57961   0.56684    0.006
 6787.00    0.63079   0.56623    0.006
 6788.00    0.60686   0.56671    0.006
 6789.00    0.58946   0.56662    0.006
 6790.00    0.61015   0.56478    0.006
 6791.00    0.61748   0.56365    0.006
 6792.00    0.56309   0.56404    0.006
 6793.00    0.52129   0.56479    0.006
 6794.00    0.52714   0.56542    0.006
 6795.00    0.52849   0.56569    0.006
 6796.00    0.51563   0.56580    0.006
 6797.00    0.51688   0.56665    0.006
 6798.00    0.55590   0.56747    0.006
 6799.00    0.60275   0.56750    0.006
 6800.00    0.66761   0.56648    0.006
 6801.00    0.69984   0.56540    0.006
 6802.00    0.66714   0.56588    0.006
 6803.00    0.62889   0.56550    0.006
 6804.00    0.58101   0.56497    0.006
 6805.00    0.56376   0.56582    0.006
 6806.00    0.59297   0.56541    0.006
 6807.00    0.62111   0.56413    0.006
 6808.00    0.64780   0.56426    0.006
 6809.00    0.66086   0.56523    0.006
 6810.00    0.65790   0.56480    0.006
 6811.00    0.64850   0.56258    0.006
 6812.00    0.63242   0.56133    0.006
 6813.00    0.65128   0.56349    0.006
 6814.00    0.70204   0.56660    0.006
 6815.00    0.68351   0.56654    0.006
 6816.00    0.60923   0.56446    0.006
 6817.00    0.52738   0.56259    0.006
 6818.00    0.44016   0.56362    0.006
 6819.00    0.41741   0.56636    0.006
 6820.00    0.43470   0.56772    0.006
 6821.00    0.47188   0.56795    0.006
 6822.00    0.51984   0.56780    0.006
 6823.00    0.55102   0.56686    0.005
 6824.00    0.57428   0.56384    0.005
 6825.00    0.56123   0.56055    0.005
 6826.00    0.53342   0.56053    0.005
 6827.00    0.52464   0.56330    0.006
 6828.00    0.52248   0.56541    0.006
 6829.00    0.51066   0.56485    0.006
 6830.00    0.49603   0.56379    0.006
 6831.00    0.47146   0.56474    0.006
 6832.00    0.44448   0.56585    0.006
 6833.00    0.50355   0.56548    0.006
 6834.00    0.57945   0.56357    0.006
 6835.00    0.61186   0.56103    0.006
 6836.00    0.63763   0.55825    0.006
 6837.00    0.63600   0.55525    0.006
 6838.00    0.63128   0.55191    0.006
 6839.00    0.57584   0.55086    0.006
 6840.00    0.51661   0.55332    0.006
 6841.00    0.52371   0.55795    0.006
 6842.00    0.53345   0.56145    0.006
 6843.00    0.52956   0.56251    0.006
 6844.00    0.52850   0.56268    0.006
 6845.00    0.64374   0.56267    0.006
 6846.00    0.75023   0.56245    0.005
 6847.00    0.70908   0.56230    0.005
 6848.00    0.66813   0.56232    0.006
 6849.00    0.62935   0.56290    0.005
 6850.00    0.58861   0.56262    0.006
 6851.00    0.53330   0.55906    0.006
 6852.00    0.49384   0.55449    0.006
 6853.00    0.54425   0.55412    0.006
 6854.00    0.59498   0.55626    0.006
 6855.00    0.64715   0.55754    0.006
 6856.00    0.68470   0.55824    0.006
 6857.00    0.66815   0.55702    0.006
 6858.00    0.63910   0.55405    0.006
 6859.00    0.57137   0.55433    0.006
 6860.00    0.51052   0.55870    0.006
 6861.00    0.46777   0.56240    0.006
 6862.00    0.45542   0.56277    0.006
 6863.00    0.51174   0.56079    0.006
 6864.00    0.55312   0.55704    0.006
 6865.00    0.56525   0.55378    0.006
 6866.00    0.53961   0.55548    0.006
 6867.00    0.44952   0.55858    0.006
 6868.00    0.39823   0.55807    0.006
 6869.00    0.40493   0.55618    0.006
 6870.00    0.42808   0.55655    0.006
 6871.00    0.47283   0.55781    0.006
 6872.00    0.52005   0.55766    0.006
 6873.00    0.57012   0.55779    0.006
 6874.00    0.58119   0.55964    0.006
 6875.00    0.55245   0.56160    0.006
 6876.00    0.51062   0.56150    0.006
 6877.00    0.45702   0.55992    0.006
 6878.00    0.44141   0.55692    0.006
 6879.00    0.45595   0.55332    0.006
 6880.00    0.50641   0.55249    0.006
 6881.00    0.58195   0.55557    0.006
 6882.00    0.57718   0.55721    0.006
 6883.00    0.52328   0.55599    0.006
 6884.00    0.53209   0.55669    0.006
 6885.00    0.57442   0.55768    0.006
 6886.00    0.59172   0.55649    0.006
 6887.00    0.59740   0.55639    0.006
 6888.00    0.62007   0.55772    0.006
 6889.00    0.64954   0.55759    0.006
 6890.00    0.64190   0.55769    0.006
 6891.00    0.62163   0.55883    0.006
 6892.00    0.55972   0.55825    0.006
 6893.00    0.48589   0.55730    0.006
 6894.00    0.45498   0.55917    0.006
 6895.00    0.43422   0.56122    0.006
 6896.00    0.48908   0.56038    0.006
 6897.00    0.55834   0.55869    0.006
 6898.00    0.58390   0.56026    0.006
 6899.00    0.60300   0.56282    0.006
 6900.00    0.60027   0.56280    0.006
 6901.00    0.59518   0.56095    0.006
 6902.00    0.57052   0.56054    0.006
 6903.00    0.54447   0.56203    0.006
 6904.00    0.54325   0.56320    0.006
 6905.00    0.54292   0.56304    0.006
 6906.00    0.52568   0.56233    0.006
 6907.00    0.50874   0.56199    0.006
 6908.00    0.50404   0.56098    0.006
 6909.00    0.49987   0.55923    0.006
 6910.00    0.50401   0.55651    0.005
 6911.00    0.50754   0.55386    0.005
 6912.00    0.50499   0.55409    0.005
 6913.00    0.50225   0.55535    0.005
 6914.00    0.49819   0.55597    0.005
 6915.00    0.50299   0.55701    0.006
 6916.00    0.55665   0.55875    0.006
 6917.00    0.59266   0.56055    0.006
 6918.00    0.55085   0.56149    0.006
 6919.00    0.51203   0.56124    0.006
 6920.00    0.48404   0.55844    0.006
 6921.00    0.46391   0.55408    0.006
 6922.00    0.46769   0.55183    0.006
 6923.00    0.46621   0.55317    0.006
 6924.00    0.45113   0.55688    0.006
 6925.00    0.44448   0.55895    0.006
 6926.00    0.45654   0.55894    0.006
 6927.00    0.48653   0.55892    0.006
 6928.00    0.55104   0.55870    0.006
 6929.00    0.58705   0.55661    0.006
 6930.00    0.57515   0.55463    0.006
 6931.00    0.56402   0.55608    0.006
 6932.00    0.55402   0.55875    0.006
 6933.00    0.54243   0.55888    0.006
 6934.00    0.52878   0.55797    0.006
 6935.00    0.52937   0.55786    0.006
 6936.00    0.54619   0.55859    0.006
 6937.00    0.55588   0.55960    0.006
 6938.00    0.55841   0.55998    0.006
 6939.00    0.54761   0.55845    0.006
 6940.00    0.52500   0.55565    0.006
 6941.00    0.52435   0.55220    0.006
 6942.00    0.54088   0.55000    0.006
 6943.00    0.51983   0.55208    0.006
 6944.00    0.47296   0.55587    0.006
 6945.00    0.46189   0.55821    0.006
 6946.00    0.47240   0.55900    0.006
 6947.00    0.51635   0.55736    0.006
 6948.00    0.57789   0.55412    0.006
 6949.00    0.57813   0.55264    0.006
 6950.00    0.55038   0.55283    0.006
 6951.00    0.55145   0.55326    0.006
 6952.00    0.56385   0.55441    0.006
 6953.00    0.57981   0.55612    0.006
 6954.00    0.59697   0.55764    0.006
 6955.00    0.58942   0.55762    0.006
 6956.00    0.57493   0.55722    0.006
 6957.00    0.49057   0.55736    0.010
 6958.00    0.39003   0.55786    0.072
 6959.00    0.42207   0.55831   -1.000
 6960.00    0.47871   0.55865   -1.000
 6961.00    0.55054   0.55859   -1.000
 6962.00    0.62455   0.55744   -1.000
 6963.00    0.62859   0.55664   -1.000
 6964.00    0.62538   0.55798   -1.000
 6965.00    0.54583   0.55995   -1.000
 6966.00    0.46119   0.55990   -1.000
 6967.00    0.45518   0.55774    0.012
 6968.00    0.45170   0.55596    0.006
 6969.00    0.48552   0.55704    0.006
 6970.00    0.51827   0.55875    0.006
 6971.00    0.51832   0.55764    0.006
 6972.00    0.51704   0.55423    0.006
 6973.00    0.49598   0.55026    0.006
 6974.00    0.48296   0.54490    0.006
 6975.00    0.54724   0.53903    0.006
 6976.00    0.59909   0.53859    0.006
 6977.00    0.56454   0.54534    0.006
 6978.00    0.52664   0.55233    0.006
 6979.00    0.47081   0.55634    0.006
 6980.00    0.43450   0.55856    0.006
 6981.00    0.48224   0.55935    0.006
 6982.00    0.51984   0.55896    0.006
 6983.00    0.52151   0.55840    0.006
 6984.00    0.52633   0.55735    0.006
 6985.00    0.54054   0.55488    0.006
 6986.00    0.54886   0.55273    0.006
 6987.00    0.54218   0.55358    0.006
 6988.00    0.52737   0.55637    0.006
 6989.00    0.49474   0.55812    0.006
 6990.00    0.47115   0.55759    0.006
 6991.00    0.46468   0.55634    0.006
 6992.00    0.46571   0.55668    0.006
 6993.00    0.47915   0.55783    0.006
 6994.00    0.50619   0.55767    0.006
 6995.00    0.55298   0.55522    0.006
 6996.00    0.54714   0.55126    0.006
 6997.00    0.47414   0.54978    0.006
 6998.00    0.46051   0.55236    0.006
 6999.00    0.51368   0.55487    0.006
 7000.00    0.54239   0.55344    0.006
 7001.00    0.54685   0.54967    0.006
 7002.00    0.57182   0.54805    0.006
 7003.00    0.61476   0.54894    0.006
 7004.00    0.58570   0.55093    0.006
 7005.00    0.50114   0.55314    0.006
 7006.00    0.46396   0.55477    0.006
 7007.00    0.45890   0.55444    0.006
 7008.00    0.47658   0.55340    0.006
 7009.00    0.50778   0.55370    0.006
 7010.00    0.48319   0.55469    0.006
 7011.00    0.42971   0.55272    0.006
 7012.00    0.41670   0.54594    0.006
 7013.00    0.42187   0.53951    0.006
 7014.00    0.43445   0.54121    0.006
 7015.00    0.44990   0.54913    0.006
 7016.00    0.45264   0.55494    0.006
 7017.00    0.45121   0.55704    0.006
 7018.00    0.47322   0.55645    0.006
 7019.00    0.50167   0.55260    0.006
 7020.00    0.52845   0.54701    0.006
 7021.00    0.55485   0.54447    0.006
 7022.00    0.53714   0.54643    0.006
 7023.00    0.51146   0.54926    0.006
 7024.00    0.47786   0.55045    0.006
 7025.00    0.44316   0.55141    0.006
 7026.00    0.50662   0.55285    0.006
 7027.00    0.57981   0.55384    0.006
 7028.00    0.57344   0.55399    0.006
 7029.00    0.56208   0.55319    0.006
 7030.00    0.55524   0.55229    0.006
 7031.00    0.54865   0.55197    0.006
 7032.00    0.57286   0.55272    0.006
 7033.00    0.59721   0.55306    0.006
 7034.00    0.62559   0.54968    0.006
 7035.00    0.64581   0.54481    0.006
 7036.00    0.55145   0.54651    0.006
 7037.00    0.46554   0.55465    0.006
 7038.00    0.45757   0.56105    0.006
 7039.00    0.45896   0.56320    0.006
 7040.00    0.52340   0.56209    0.006
 7041.00    0.58245   0.55868    0.006
 7042.00    0.61337   0.55632    0.006
 7043.00    0.63685   0.55702    0.006
 7044.00    0.62899   0.55974    0.006
 7045.00    0.61167   0.56217    0.006
 7046.00    0.56144   0.56221    0.006
 7047.00    0.52657   0.56009    0.006
 7048.00    0.53671   0.55603    0.006
 7049.00    0.53188   0.54978    0.006
 7050.00    0.48970   0.54378   -2.000
 7051.00    0.46682   0.54125   -2.000
 7052.00    0.48543   0.54237   -2.000
 7053.00    0.50301   0.54532   -2.000
 7054.00    0.51866   0.54748   -2.000
 7055.00    0.53457   0.54677   -2.000
 7056.00    0.55088   0.54313   -2.000
 7057.00    0.54278   0.54013   -2.000
 7058.00    0.49974   0.54060   -2.000
 7059.00    0.45588   0.54269   -2.000
 7060.00    0.41101   0.54467   -2.000
 7061.00    0.40347   0.54640   -2.000
 7062.00    0.43732   0.54585   -2.000
 7063.00    0.43203   0.54231   -2.000
 7064.00    0.38846   0.53812   -2.000
 7065.00    0.40726   0.53526   -2.000
 7066.00    0.47985   0.53704   -2.000
 7067.00    0.58554   0.54226   -2.000
 7068.00    0.71637   0.54580   -2.000
 7069.00    0.71312   0.54649   -2.000
 7070.00    0.62033   0.54654   -2.000
 7071.00    0.58749   0.54652   -2.000
 7072.00    0.58969   0.54603   -2.000
 7073.00    0.56584   0.54536   -2.000
 7074.00    0.52870   0.54521   -2.000
 7075.00    0.52356   0.54579   -2.000
 7076.00    0.53256   0.54637   -2.000
 7077.00    0.52198   0.54704   -2.000
 7078.00    0.50396   0.54697   -2.000
 7079.00    0.50554   0.54396   -2.000
 7080.00    0.51343   0.53799   -2.000
 7081.00    0.54680   0.53206   -2.000
 7082.00    0.58703   0.53012   -2.000
 7083.00    0.59253   0.53154   -2.000
 7084.00    0.59036   0.53149   -2.000
 7085.00    0.58064   0.53010   -2.000
 7086.00    0.56960   0.52891   -2.000
 7087.00    0.59430   0.52787   -2.000
 7088.00    0.62379   0.52824   -2.000
 7089.00    0.59150   0.52897   -2.000
 7090.00    0.55334   0.52873   -2.000
 7091.00    0.57519   0.52883   -2.000
 7092.00    0.60055   0.52900   -2.000
 7093.00    0.57210   0.52907   -2.000
 7094.00    0.54251   0.52960   -2.000
 7095.00    0.53726   0.53184   -2.000
 7096.00    0.53242   0.53564   -2.000
 7097.00    0.53754   0.53663   -2.000
 7098.00    0.54354   0.53549   -2.000
 7099.00    0.56119   0.53382   -2.000
 7100.00    0.57317   0.53383   -2.000
 7101.00    0.53488   0.53588   -2.000
 7102.00    0.49480   0.53742   -2.000
 7103.00    0.44302   0.53635   -2.000
 7104.00    0.41879   0.53464   -2.000
 7105.00    0.53488   0.53477   -2.000
 7106.00    0.59809   0.53479   -2.000
 7107.00    0.44362   0.53229   -2.000
 7108.00    0.34758   0.52964   -2.000
 7109.00    0.45065   0.53004   -2.000
 7110.00    0.55559   0.53237   -2.000
 7111.00    0.66590   0.53426   -2.000
 7112.00    0.67913   0.53517   -2.000
 7113.00    0.45417   0.53616   -2.000
 7114.00    0.32964   0.53666   -2.000
 7115.00    0.41764   0.53643   -2.000
 7116.00    0.46893   0.53597   -2.000
 7117.00    0.45271   0.53546   -2.000
 7118.00    0.43654   0.53412   -2.000
 7119.00    0.42042   0.53270   -2.000
 7120.00    0.46694   0.53397   -2.000
 7121.00    0.60173   0.53520   -2.000
 7122.00    0.71606   0.53331   -2.000
 7123.00    0.80499   0.53115   -2.000
 7124.00    0.82503   0.53144   -2.000
 7125.00    0.76974   0.53218   -2.000
 7126.00    0.75937   0.53036   -2.000
 7127.00    0.79230   0.52636   -2.000
 7128.00    0.69732   0.52479   -2.000
 7129.00    0.49356   0.52772   -2.000
 7130.00    0.47665   0.53172   -2.000
 7131.00    0.59966   0.53449   -2.000
 7132.00    0.59131   0.53533   -2.000
 7133.00    0.49652   0.53568   -2.000
 7134.00    0.46786   0.53657   -2.000
 7135.00    0.47730   0.53561   -2.000
 7136.00    0.41983   0.53373   -2.000
 7137.00    0.32879   0.53425   -2.000
 7138.00    0.45116   0.53592   -2.000
 7139.00    0.66621   0.53601   -2.000
 7140.00    0.64267   0.53548   -2.000
 7141.00    0.53025   0.53545   -2.000
 7142.00    0.48237   0.53520   -2.000
 7143.00    0.45488   0.53385   -2.000
 7144.00    0.45952   0.52946   -2.000
 7145.00    0.47263   0.52493   -2.000
 7146.00    0.43812   0.52602   -2.000
 7147.00    0.39334   0.53020   -2.000
 7148.00    0.47619   0.53370   -2.000
 7149.00    0.58086   0.53709   -2.000
 7150.00    0.57233   0.53917   -2.000
 7151.00    0.54916   0.53791   -2.000
 7152.00    0.53998   0.53597   -2.000
 7153.00    0.53207   0.53723   -2.000
 7154.00    0.55206   0.53956   -2.000
 7155.00    0.57359   0.53864   -2.000
 7156.00    0.63845   0.53601   -2.000
 7157.00    0.70515   0.53483   -2.000
 7158.00    0.85665   0.53594   -2.000
 7159.00    0.99887   0.53663   -2.000
 7160.00    0.93060   0.53271   -2.000
 7161.00    0.85889   0.52583   -2.000
 7162.00    0.74385   0.52303   -2.000
 7163.00    0.62141   0.52739   -2.000
 7164.00    0.43567   0.53364   -2.000
 7165.00    0.28741   0.53691   -2.000
 7166.00    0.37657   0.53700   -2.000
 7167.00    0.46444   0.53640   -2.000
 7168.00    0.54584   0.53744   -2.000
 7169.00    0.61023   0.53918   -2.000
 7170.00    0.60612   0.53989   -2.000
 7171.00    0.59759   0.53897   -2.000
 7172.00    0.57429   0.53571   -2.000
 7173.00    0.53480   0.53264   -2.000
 7174.00    0.44962   0.53378   -2.000
 7175.00    0.39617   0.53630   -2.000
 7176.00    0.41924   0.53381   -2.000
 7177.00    0.43147   0.52760   -2.000
 7178.00    0.42113   0.52480   -2.000
 7179.00    0.49008   0.52871   -2.000
 7180.00    0.70258   0.53474   -2.000
 7181.00    0.77758   0.53701   -2.000
 7182.00    0.63493   0.53570   -2.000
 7183.00    0.53385   0.53127   -2.000
 7184.00    0.49053   0.52551   -2.000
 7185.00    0.47628   0.52318   -2.000
 7186.00    0.49758   0.52450   -2.000
 7187.00    0.54570   0.52743   -2.000
 7188.00    0.62276   0.53000   -2.000
 7189.00    0.65258   0.52994   -2.000
 7190.00    0.63748   0.52889   -2.000
 7191.00    0.61446   0.53004   -2.000
 7192.00    0.58480   0.53210   -2.000
 7193.00    0.50953   0.53107   -2.000
 7194.00    0.40060   0.52935   -2.000
 7195.00    0.41943   0.53123   -2.000
 7196.00    0.52107   0.53439   -2.000
 7197.00    0.60190   0.53481   -2.000
 7198.00    0.67092   0.53279   -2.000
 7199.00    0.70909   0.53156   -2.000
 7200.00    0.73202   0.53327   -2.000
 7201.00    0.73232   0.53659   -2.000
 7202.00    0.72295   0.53620   -2.000
 7203.00    0.56244   0.52970   -2.000
 7204.00    0.34663   0.52281   -2.000
 7205.00    0.27188   0.52230   -2.000
 7206.00    0.24084   0.52669   -2.000
 7207.00    0.27884   0.53256   -2.000
 7208.00    0.33466   0.53653   -2.000
 7209.00    0.45938   0.53587   -2.000
 7210.00    0.59859   0.53308   -2.000
 7211.00    0.62252   0.53119   -2.000
 7212.00    0.62730   0.53089   -2.000
 7213.00    0.58931   0.53259   -2.000
 7214.00    0.54597   0.53584   -2.000
 7215.00    0.51381   0.53785   -2.000
 7216.00    0.48262   0.53710   -2.000
 7217.00    0.49991   0.53547   -2.000
 7218.00    0.51967   0.53419   -2.000
