###################################################################
## OUTPUT of StarlightChains_v04.for    [Cid@UFSC - 01/Apr/2007] ##
###################################################################

## Some input info
KUG0210-078._34_44.txt                   [arq_obs]
Base.CB07.vall.4m                        [arq_base]
Masks.EmLines.NEW.gm                     [arq_masks]
StCv04.C11.config                        [arq_config]
   66                                    [N_base]
    0                                    [N_YAV_components = # of components with extra extinction!]
    0                                    [i_FitPowerLaw (1/0 = Yes/No)]
-9.99                                    [alpha_PowerLaw]
CCM                                      [red_law_option]
 1.458241                                [q_norm = A(l_norm)/A(V)]

## (Re)Sampling Parameters
 3741.00                                 [l_ini (A)]
 7218.00                                 [l_fin (A)]
    1.00                                 [dl    (A)]     (OBS: dl_cushion =    50.00 A)

## Normalization info
 4020.00                                 [l_norm (A) - for base]
 4010.00                                 [llow_norm (A) - window for f_obs]
 4060.00                                 [lupp_norm (A) - window for f_obs]
9.110292E-18                             [fobs_norm (in input units)]

## S/N
 3691.00                                 [llow_SN (A) - window for S/N]
 7268.00                                 [lupp_SN (A) - window for S/N]
   4.741                                 [S/N in S/N window]
   4.061                                 [S/N in norm. window]
   0.013                                 [S/N_err in S/N window]
   0.011                                 [S/N_err in norm. window]
  1.0000                                 [fscale_chi2]

## etc...
    -2007549                             [idum_orig]
  2429                                   [NOl_eff]
  2404                                   [Nl_eff]
    25    NSIGMA                         [Ntot_cliped & clip_method]
  1133580                                [Nglobal_steps]
   7                                     [N_chains]
  27                                     [NEX0s_base = N_base in EX0s-fits]
 0   0   1       25   2.0   1.903E+03    [Clip-Bug, RC-Crash & Burn-In warning-flags, n_censored_weights, wei_nsig_threshold & wei_limit]
    20     19.641     19.214      0.427  [idt_all, wdt_TotTime, wdt_UsrTime & wdt_SysTime (sec)]

## Synthesis Results - Best model ##

 6.22783E-06                             [chi2/Nl_eff]
    15.09436                             [adev (%)]

   111.00814                             [sum-of-x (%)]
 5.10187E-18                             [Flux_tot (units of input spectrum!)]
 6.44500E-13                             [Mini_tot (???)]
 3.20341E-13                             [Mcor_tot (???)]

-213.38                                  [v0_min  (km/s)]
 389.29                                  [vd_min  (km/s)]
-0.5094                                  [AV_min  (mag)]
 0.0000                                  [YAV_min (mag)]

# j     x_j(%)      Mini_j(%)     Mcor_j(%)     age_j(yr)     Z_j      (L/M)_j    YAV?  Mstars   component_j        a/Fe...       SSP_chi2r SSP_adev(%)   SSP_AV   SSP_x(%)
  1      0.0000     0.0000E+00    0.0000E+00    1.000000E+06  0.00400  1.094E-02    0   1.0000   age020_m42            0.0000     8.4175E-06    18.8120   3.5085    93.0657
  2      0.0157     2.8005E-06    5.6337E-06    3.160000E+06  0.00400  4.007E-02    0   0.9999   age045_m42            0.0000     8.0520E-06    18.0282   2.7790    99.4440
  3      0.0000     0.0000E+00    0.0000E+00    5.010000E+06  0.00400  2.539E-02    0   0.9488   age055_m42            0.0000     8.1891E-06    18.4157   3.1018    96.9732
  4      0.0000     0.0000E+00    0.0000E+00    6.610000E+06  0.00400  2.620E-02    0   0.9220   age061_m42            0.0000     8.0877E-06    18.0911   2.7059    99.6120
  5      0.0000     0.0000E+00    0.0000E+00    1.000000E+07  0.00400  1.322E-02    0   0.8862   age070_m42            0.0000     8.6790E-06    19.4467   2.4442   100.8715
  6      0.0000     0.0000E+00    0.0000E+00    1.445000E+07  0.00400  7.883E-03    0   0.8571   age078_m42            0.0000     8.6920E-06    19.5005   2.7671    98.5085
  7      0.0000     0.0000E+00    0.0000E+00    2.512000E+07  0.00400  5.251E-03    0   0.8174   age090_m42            0.0000     8.8037E-06    19.6821   2.3172   101.2999
  8      0.5287     1.0332E-03    1.6320E-03    4.000000E+07  0.00400  3.649E-03    0   0.7851   age104_m42            0.0000     8.6448E-06    19.3799   2.0856   102.2882
  9      0.0000     0.0000E+00    0.0000E+00    5.500000E+07  0.00400  3.098E-03    0   0.7629   age110_m42            0.0000     8.3867E-06    18.6216   2.2299   102.6849
 10      0.0000     0.0000E+00    0.0000E+00    1.015200E+08  0.00400  2.228E-03    0   0.7207   age116_m42            0.0000     8.2651E-06    18.1115   2.2432   103.1364
 11      0.0000     0.0000E+00    0.0000E+00    2.861200E+08  0.00400  1.093E-03    0   0.6648   age125_m42            0.0000     8.4546E-06    18.4764   1.6763   105.8509
 12      0.0000     0.0000E+00    0.0000E+00    5.088000E+08  0.00400  6.597E-04    0   0.6365   age130_m42            0.0000     8.2001E-06    17.6672   1.6585   107.1066
 13      0.0000     0.0000E+00    0.0000E+00    1.434000E+09  0.00400  2.132E-04    0   0.5798   age139_m42            0.0000     7.6329E-06    17.0461   0.6874   109.2136
 14      0.0000     0.0000E+00    0.0000E+00    4.250000E+09  0.00400  5.895E-05    0   0.5377   age158_m42            0.0000     6.8846E-06    16.2860   0.2371   105.4703
 15      0.0000     0.0000E+00    0.0000E+00    7.500000E+09  0.00400  3.510E-05    0   0.5212   age171_m42            0.0000     6.7589E-06    15.9912   0.0442   104.9351
 16      0.0000     0.0000E+00    0.0000E+00    1.300000E+10  0.00400  2.005E-05    0   0.5034   age193_m42            0.0000     6.6678E-06    15.7552  -0.1270   104.5607
 17      0.0000     0.0000E+00    0.0000E+00    1.800000E+10  0.00400  1.525E-05    0   0.4967   age213_m42            0.0000     6.6956E-06    15.8852  -0.1487   104.0449
 18      0.0000     0.0000E+00    0.0000E+00    1.000000E+06  0.00800  1.238E-02    0   1.0000   age020_m52            0.0000     8.4046E-06    18.8114   3.5048    93.2559
 19      0.0000     0.0000E+00    0.0000E+00    3.160000E+06  0.00800  3.074E-02    0   0.9966   age045_m52            0.0000     8.3392E-06    18.7129   3.4272    94.1248
 20      0.0000     0.0000E+00    0.0000E+00    5.010000E+06  0.00800  2.668E-02    0   0.9443   age055_m52            0.0000     8.2282E-06    18.5517   3.1840    96.1394
 21      0.0000     0.0000E+00    0.0000E+00    6.610000E+06  0.00800  2.136E-02    0   0.9177   age061_m52            0.0000     8.2714E-06    19.2333   1.9431   102.1081
 22      0.0000     0.0000E+00    0.0000E+00    1.000000E+07  0.00800  1.215E-02    0   0.8827   age070_m52            0.0000     8.9298E-06    20.0116   2.6246   100.5482
 23      0.0000     0.0000E+00    0.0000E+00    1.445000E+07  0.00800  8.717E-03    0   0.8552   age078_m52            0.0000     8.6554E-06    19.4873   2.7338    99.8409
 24      0.0000     0.0000E+00    0.0000E+00    2.512000E+07  0.00800  5.592E-03    0   0.8162   age090_m52            0.0000     8.8233E-06    19.7594   2.3784   102.5638
 25      0.0000     0.0000E+00    0.0000E+00    4.000000E+07  0.00800  3.896E-03    0   0.7841   age104_m52            0.0000     8.6166E-06    19.3045   2.2838   103.5897
 26      0.0000     0.0000E+00    0.0000E+00    1.015200E+08  0.00800  2.148E-03    0   0.7226   age116_m52            0.0000     8.2803E-06    18.4521   2.2135   103.7953
 27      0.0000     0.0000E+00    0.0000E+00    2.861200E+08  0.00800  9.925E-04    0   0.6683   age125_m52            0.0000     8.1600E-06    17.6535   1.7220   108.1862
 28      0.0000     0.0000E+00    0.0000E+00    9.047900E+08  0.00800  3.141E-04    0   0.6138   age135_m52            0.0000     7.4599E-06    16.5101   0.9076   113.2934
 29      0.0000     0.0000E+00    0.0000E+00    1.434000E+09  0.00800  1.719E-04    0   0.5853   age139_m52            0.0000     7.0401E-06    16.5357   0.3286   110.8541
 30      0.0000     0.0000E+00    0.0000E+00    2.500000E+09  0.00800  7.872E-05    0   0.5600   age150_m52            0.0000     6.6142E-06    15.6268   0.0528   108.3369
 31      8.2388     1.3550E+00    1.4792E+00    4.250000E+09  0.00800  4.336E-05    0   0.5426   age158_m52            0.0000     6.5957E-06    15.6297   0.0378   107.3195
 32      0.0000     0.0000E+00    0.0000E+00    6.250000E+09  0.00800  3.159E-05    0   0.5319   age166_m52            0.0000     6.5393E-06    15.2434  -0.1722   107.6023
 33      0.0000     0.0000E+00    0.0000E+00    1.300000E+10  0.00800  1.361E-05    0   0.5073   age193_m52            0.0000     6.5549E-06    14.9102  -0.6506   107.2647
 34      0.0000     0.0000E+00    0.0000E+00    1.800000E+10  0.00800  9.886E-06    0   0.4990   age213_m52            0.0000     6.6268E-06    14.6178  -0.7697   107.1599
 35      0.0000     0.0000E+00    0.0000E+00    1.000000E+06  0.02000  1.544E-02    0   1.0000   age020_m62            0.0000     8.4177E-06    18.8342   3.5003    93.4930
 36      0.0000     0.0000E+00    0.0000E+00    3.160000E+06  0.02000  3.762E-02    0   0.9858   age045_m62            0.0000     8.3796E-06    18.7829   3.4391    94.3385
 37      0.0000     0.0000E+00    0.0000E+00    5.010000E+06  0.02000  3.296E-02    0   0.9342   age055_m62            0.0000     8.0386E-06    18.0723   3.0557    98.3995
 38      8.5840     5.3044E-03    9.4564E-03    8.710000E+06  0.02000  1.154E-02    0   0.8861   age067_m62            0.0000     1.1001E-05    23.5764   2.1020   101.9577
 39      0.0000     0.0000E+00    0.0000E+00    1.445000E+07  0.02000  7.663E-03    0   0.8472   age078_m62            0.0000     9.3740E-06    20.9865   2.2756   102.4675
 40      0.0000     0.0000E+00    0.0000E+00    2.512000E+07  0.02000  4.532E-03    0   0.8099   age090_m62            0.0000     9.5168E-06    21.1622   2.2683   102.1045
 41      2.6500     6.9145E-03    1.0566E-02    5.500000E+07  0.02000  2.733E-03    0   0.7595   age110_m62            0.0000     8.5694E-06    19.3152   2.2683   102.8020
 42     11.5180     5.9996E-02    8.4314E-02    1.609000E+08  0.02000  1.369E-03    0   0.6985   age120_m62            0.0000     8.2837E-06    18.1086   2.0938   106.1681
 43      0.0000     0.0000E+00    0.0000E+00    2.861200E+08  0.02000  9.013E-04    0   0.6714   age125_m62            0.0000     8.2395E-06    17.4584   1.8353   109.5483
 44      0.0000     0.0000E+00    0.0000E+00    5.088000E+08  0.02000  5.028E-04    0   0.6449   age130_m62            0.0000     7.8061E-06    16.3159   1.4411   113.1483
 45      0.0000     0.0000E+00    0.0000E+00    9.047900E+08  0.02000  2.428E-04    0   0.6179   age135_m62            0.0000     7.0206E-06    15.7883   0.8469   112.7799
 46      0.0000     0.0000E+00    0.0000E+00    1.434000E+09  0.02000  1.263E-04    0   0.5908   age139_m62            0.0000     6.6741E-06    15.6085   0.4009   111.1838
 47      0.0000     0.0000E+00    0.0000E+00    2.500000E+09  0.02000  5.985E-05    0   0.5673   age150_m62            0.0000     6.4233E-06    15.1154   0.0247   110.0968
 48      0.0000     0.0000E+00    0.0000E+00    4.250000E+09  0.02000  3.271E-05    0   0.5468   age158_m62            0.0000     6.4217E-06    14.7140  -0.2908   109.5609
 49      0.0000     0.0000E+00    0.0000E+00    1.000000E+10  0.02000  1.360E-05    0   0.5167   age181_m62            0.0000     6.6076E-06    14.3461  -0.6570   109.7678
 50     16.0733     1.6089E+01    1.6227E+01    1.800000E+10  0.02000  7.124E-06    0   0.5013   age213_m62            0.0000     6.8107E-06    14.1507  -0.8843   109.5484
 51      0.0000     0.0000E+00    0.0000E+00    1.000000E+06  0.05000  2.592E-02    0   0.9998   age020_m72            0.0000     8.4839E-06    18.9777   3.4930    93.4884
 52      0.0000     0.0000E+00    0.0000E+00    3.160000E+06  0.05000  4.845E-02    0   0.9577   age045_m72            0.0000     8.1701E-06    18.4133   3.3171    95.7445
 53      0.0000     0.0000E+00    0.0000E+00    5.010000E+06  0.05000  3.072E-02    0   0.9147   age055_m72            0.0000     8.9501E-06    20.2005   2.8462    99.1792
 54      0.0000     0.0000E+00    0.0000E+00    6.610000E+06  0.05000  1.455E-02    0   0.8877   age061_m72            0.0000     1.2719E-05    26.0037   2.1331   102.5725
 55      0.0000     0.0000E+00    0.0000E+00    1.000000E+07  0.05000  9.074E-03    0   0.8524   age070_m72            0.0000     9.2590E-06    20.5302   3.0133    99.0732
 56      0.0000     0.0000E+00    0.0000E+00    2.512000E+07  0.05000  4.250E-03    0   0.7902   age090_m72            0.0000     9.0239E-06    20.1242   2.7214   100.8517
 57      5.5515     1.2824E-02    1.9655E-02    4.000000E+07  0.05000  3.087E-03    0   0.7618   age104_m72            0.0000     9.1589E-06    20.2969   2.4958   102.4050
 58      0.0000     0.0000E+00    0.0000E+00    1.015200E+08  0.05000  1.700E-03    0   0.7096   age116_m72            0.0000     8.5729E-06    18.7105   2.2387   105.5361
 59      2.7345     2.6408E-02    3.5242E-02    2.861200E+08  0.05000  7.384E-04    0   0.6633   age125_m72            0.0000     7.9841E-06    16.8759   1.6941   111.4523
 60      0.0000     0.0000E+00    0.0000E+00    5.088000E+08  0.05000  3.819E-04    0   0.6372   age130_m72            0.0000     7.2455E-06    15.9049   1.1876   113.9389
 61      0.0000     0.0000E+00    0.0000E+00    9.047900E+08  0.05000  1.676E-04    0   0.6110   age135_m72            0.0000     6.4651E-06    15.0176   0.4759   112.6135
 62      0.0000     0.0000E+00    0.0000E+00    1.434000E+09  0.05000  8.837E-05    0   0.5874   age139_m72            0.0000     6.4516E-06    15.0930   0.0177   111.9687
 63      1.9672     3.3141E-01    3.7325E-01    2.500000E+09  0.05000  4.233E-05    0   0.5598   age150_m72            0.0000     6.3771E-06    14.5639  -0.3030   110.9939
 64      0.0000     0.0000E+00    0.0000E+00    6.250000E+09  0.05000  1.435E-05    0   0.5249   age166_m72            0.0000     6.6082E-06    14.3374  -0.7620   109.6417
 65      3.3418     3.6589E+00    3.7072E+00    1.300000E+10  0.05000  6.513E-06    0   0.5036   age193_m72            0.0000     6.9130E-06    14.1501  -1.0000   109.4346
 66     49.8046     7.8453E+01    7.8053E+01    1.800000E+10  0.05000  4.527E-06    0   0.4945   age213_m72            0.0000     7.5486E-06    14.6985  -1.0000   103.9873


## Synthesis Results - Average & Chains ##

# j      x_j: min, <> & last-chain-values for 1 ...  7 chains
  1      0.0000      0.9294      0.0480      0.0109      0.3745      0.3192      0.6714      0.0126      0.4773
  2      0.0157      0.6021      0.0000      0.3427      0.5793      0.0494      0.1060      0.0000      0.0000
  3      0.0000      0.5794      0.0000      0.3578      0.0000      0.0321      0.3606      0.2782      0.0000
  4      0.0000      0.7498      0.4257      0.0000      0.0000      0.2329      0.0000      0.3025      0.0855
  5      0.0000      0.9501      0.1002      0.4596      0.0052      0.2658      0.0243      0.1148      0.1110
  6      0.0000      0.5575      0.0000      0.4463      0.0000      0.0000      0.0467      0.4121      0.0158
  7      0.0000      0.4565      0.0000      0.0000      0.0694      0.2224      0.2755      0.1603      0.0000
  8      0.5287      0.8505      0.0563      0.2027      0.2769      0.1332      0.2064      0.0973      0.1657
  9      0.0000      0.8537      0.2896      0.2791      0.3502      0.0000      0.5812      0.1462      0.2657
 10      0.0000      0.7288      0.0516      0.1729      0.0000      0.3231      0.2143      0.4984      1.0843
 11      0.0000      0.5823      0.0000      0.0016      0.0000      0.2333      0.1614      0.1788      0.1543
 12      0.0000      0.7918      0.0000      0.0453      0.1984      0.4519      0.0512      0.5195      0.0998
 13      0.0000      0.6304      0.0000      0.0000      0.1229      0.0000      0.0000      0.0951      0.7451
 14      0.0000      0.6825      0.0267      0.2950      0.0000      0.4668      0.0250      0.0000      0.0000
 15      0.0000      0.7945      0.0482      0.8876      0.1407      0.0000      0.1195      0.0000      0.3469
 16      0.0000      0.6026      0.3228      0.1849      0.0628      0.2287      0.0000      0.0000      0.4464
 17      0.0000      0.8839      0.0000      0.1238      0.0000      0.8968      0.2303      0.5243      0.0000
 18      0.0000      0.6176      0.1041      0.0161      0.4651      0.0000      0.0277      0.2685      0.3344
 19      0.0000      0.7725      0.7426      0.0000      0.6457      0.0000      0.0389      0.0572      0.0000
 20      0.0000      0.6047      0.1750      0.0875      0.0003      0.2208      0.0000      0.5820      0.0000
 21      0.0000      0.8156      0.0699      0.0000      0.0000      0.0000      0.1155      0.0000      0.1262
 22      0.0000      0.8321      0.2990      0.4112      0.5221      0.0000      0.0000      0.1106      0.0483
 23      0.0000      0.7222      0.0000      0.2491      0.2300      0.0000      0.0000      0.4795      0.1592
 24      0.0000      0.7281      0.4690      0.0848      0.0000      0.2441      0.4463      0.0000      0.1432
 25      0.0000      0.5492      0.0000      0.8612      0.1530      0.0000      0.0000      0.0451      0.0000
 26      0.0000      0.6987      0.0571      0.1822      0.0907      0.6072      0.0120      0.0000      0.1918
 27      0.0000      0.6890      0.1833      0.0000      0.2202      0.0000      0.3688      0.0000      0.3151
 28      0.0000      0.6930      0.0000      0.0357      0.5035      0.1349      0.1274      0.0601      0.3105
 29      0.0000      0.6283      0.5308      0.1192      0.0000      0.0000      0.0000      0.5883      0.2385
 30      0.0000      0.6817      0.1807      0.2350      0.2589      0.0000      0.5234      0.6742      0.1265
 31      8.2388      0.9012      0.5366      0.2999      1.1009      0.3202      0.2382      0.0000      0.0802
 32      0.0000      0.8997      0.8661      0.3865      0.0000      0.4682      0.8044      0.0310      0.4725
 33      0.0000      0.6026      0.6258      0.1372      0.0000      0.0000      0.5824      0.5068      0.2355
 34      0.0000      0.5981      0.1735      0.4392      0.0237      0.0456      0.0000      0.0000      0.0935
 35      0.0000      0.5091      0.2607      0.0468      0.1338      0.5617      0.5399      0.0130      0.0000
 36      0.0000      0.6265      0.0558      0.1952      0.0213      0.0000      0.2985      0.0000      0.4306
 37      0.0000      0.7638      0.4919      0.0000      0.6727      0.4333      0.5029      0.0000      0.1016
 38      8.5840      0.5572      0.3834      0.0000      0.2031      0.1512      0.5927      0.3877      0.0000
 39      0.0000      0.7340      0.2963      0.2530      0.1653      0.1854      0.0000      0.3203      0.0000
 40      0.0000      0.7835      0.0000      0.0000      0.1292      0.1809      0.2446      0.1972      0.0000
 41      2.6500      0.6378      0.0000      0.0000      0.7965      0.1552      0.2123      0.0021      0.0000
 42     11.5180      0.5054      0.0000      0.0000      0.2162      0.1225      0.3750      0.0852      0.0000
 43      0.0000      0.5236      0.2641      0.0188      0.0000      0.0170      0.0000      0.0133      0.0000
 44      0.0000      0.5345      0.0000      0.1062      0.0901      0.0209      0.0217      0.0667      0.0516
 45      0.0000      0.6058      0.1850      0.0403      0.3060      0.1239      0.0000      0.1973      0.0000
 46      0.0000      0.5910      0.0142      0.0002      0.0000      0.3412      0.0000      0.0730      0.0280
 47      0.0000      0.5152      0.0000      0.1144      0.0224      0.1967      0.0000      0.1043      0.0585
 48      0.0000      0.6152      0.0000      0.1856      0.3578      0.0000      0.0000      0.0000      0.6700
 49      0.0000      2.3792      3.4100      4.0436      3.8569      3.2248      3.7790      3.4628      3.9472
 50     16.0733     46.0441     71.3692     69.9349     69.9791     69.6633     68.8697     70.4278     70.2493
 51      0.0000      0.6878      0.0686      0.0000      0.0000      0.4139      0.3571      0.4665      0.0000
 52      0.0000      0.7013      0.1363      0.2156      0.1567      0.0037      0.0178      0.1456      0.1795
 53      0.0000      0.7621      0.2512      0.3063      0.0658      0.3420      0.1710      0.0168      0.1101
 54      0.0000      0.6046      0.0702      0.5151      0.0000      0.0978      0.0000      0.0000      0.3204
 55      0.0000      1.0046      0.3095      0.0000      0.0286      0.7856      0.0455      0.7542      0.1056
 56      0.0000      0.5617      0.2936      0.0000      0.1165      0.1974      0.1695      0.0000      0.5059
 57      5.5515      0.9247      0.0666      0.2113      0.3651      0.5765      0.8203      0.0535      0.5842
 58      0.0000      0.9139      0.4018      0.0960      0.1580      0.3452      0.5847      0.0000      0.3249
 59      2.7345      0.8522      0.0005      0.0000      0.2337      0.0000      0.5652      0.3476      0.4884
 60      0.0000      0.6624      0.0000      0.3403      0.0837      0.0952      0.0000      0.5729      0.0000
 61      0.0000      0.5804      0.0000      0.7299      0.0000      0.1164      0.0000      0.2038      0.0000
 62      0.0000      0.8436      0.0000      0.0000      0.6808      0.4033      0.0000      0.0232      0.0000
 63      1.9672      0.7933      0.0000      0.4738      0.3693      0.0000      0.0000      0.0000      0.8101
 64      0.0000      0.6452      0.2785      0.0605      0.1863      0.4104      0.2812      0.2101      0.0000
 65      3.3418      4.1702      5.2214      5.6250      6.5742      6.1090      6.0105      6.1305      5.6261
 66     49.8046     10.1265     15.3338     15.0959     14.6221     14.9970     15.3991     15.1897     14.6248

# j      m_j: min, <> & last-chain-values for 1 ...  7 chains
  1  0.0000E+00  1.7062E-03  6.0063E-05  1.3823E-05  4.7387E-04  4.0457E-04  8.5233E-04  1.5819E-05  6.0652E-04
  2  5.6337E-06  3.0176E-04  0.0000E+00  1.1813E-04  2.0014E-04  1.7076E-05  3.6742E-05  0.0000E+00  0.0000E+00
  3  0.0000E+00  4.3481E-04  0.0000E+00  1.8466E-04  0.0000E+00  1.6629E-05  1.8715E-04  1.4283E-04  0.0000E+00
  4  0.0000E+00  5.2994E-04  2.0501E-04  0.0000E+00  0.0000E+00  1.1365E-04  0.0000E+00  1.4630E-04  4.1816E-05
  5  0.0000E+00  1.2791E-03  9.1950E-05  4.2553E-04  4.8585E-06  2.4704E-04  2.2597E-05  1.0576E-04  1.0347E-04
  6  0.0000E+00  1.2175E-03  0.0000E+00  6.7022E-04  0.0000E+00  0.0000E+00  7.0587E-05  6.1563E-04  2.3822E-05
  7  0.0000E+00  1.4270E-03  0.0000E+00  0.0000E+00  1.4956E-04  4.8003E-04  5.9557E-04  3.4287E-04  0.0000E+00
  8  1.6320E-03  3.6752E-03  1.6579E-04  6.0252E-04  8.2470E-04  3.9728E-04  6.1664E-04  2.8774E-04  4.9562E-04
  9  0.0000E+00  4.2223E-03  9.7587E-04  9.4927E-04  1.1939E-03  0.0000E+00  1.9877E-03  4.9467E-04  9.0942E-04
 10  0.0000E+00  4.7347E-03  2.2836E-04  7.7257E-04  0.0000E+00  1.4489E-03  9.6261E-04  2.2152E-03  4.8756E-03
 11  0.0000E+00  7.1133E-03  0.0000E+00  1.3173E-05  0.0000E+00  1.9672E-03  1.3631E-03  1.4941E-03  1.3046E-03
 12  0.0000E+00  1.5342E-02  0.0000E+00  6.0425E-04  2.6505E-03  6.0454E-03  6.8564E-04  6.8875E-03  1.3382E-03
 13  0.0000E+00  3.4428E-02  0.0000E+00  0.0000E+00  4.6263E-03  0.0000E+00  0.0000E+00  3.5527E-03  2.8167E-02
 14  0.0000E+00  1.2502E-01  3.3343E-03  3.7166E-02  0.0000E+00  5.9033E-02  3.1628E-03  0.0000E+00  0.0000E+00
 15  0.0000E+00  2.3693E-01  9.7943E-03  1.8205E-01  2.8922E-02  0.0000E+00  2.4644E-02  0.0000E+00  7.1614E-02
 16  0.0000E+00  3.0384E-01  1.1092E-01  6.4125E-02  2.1831E-02  7.9595E-02  0.0000E+00  0.0000E+00  1.5580E-01
 17  0.0000E+00  5.7817E-01  0.0000E+00  5.5693E-02  0.0000E+00  4.0496E-01  1.0415E-01  2.3466E-01  0.0000E+00
 18  0.0000E+00  1.0019E-03  1.1509E-04  1.7936E-05  5.2007E-04  0.0000E+00  3.1035E-05  2.9798E-04  3.7547E-04
 19  0.0000E+00  5.0298E-04  3.2945E-04  0.0000E+00  2.8983E-04  0.0000E+00  1.7530E-05  2.5472E-05  0.0000E+00
 20  0.0000E+00  4.2985E-04  8.4737E-05  4.2783E-05  1.4977E-07  1.0834E-04  0.0000E+00  2.8303E-04  0.0000E+00
 21  0.0000E+00  7.0375E-04  4.1076E-05  0.0000E+00  0.0000E+00  0.0000E+00  6.8907E-05  0.0000E+00  7.5369E-05
 22  0.0000E+00  1.2140E-03  2.9730E-04  4.1260E-04  5.2513E-04  0.0000E+00  0.0000E+00  1.1037E-04  4.8742E-05
 23  0.0000E+00  1.4229E-03  0.0000E+00  3.3754E-04  3.1240E-04  0.0000E+00  0.0000E+00  6.4642E-04  2.1708E-04
 24  0.0000E+00  2.1343E-03  9.3669E-04  1.7095E-04  0.0000E+00  4.9399E-04  9.0465E-04  0.0000E+00  2.9047E-04
 25  0.0000E+00  2.2198E-03  0.0000E+00  2.3941E-03  4.2635E-04  0.0000E+00  0.0000E+00  1.2483E-04  0.0000E+00
 26  0.0000E+00  4.7203E-03  2.6298E-04  8.4638E-04  4.2235E-04  2.8322E-03  5.6111E-05  0.0000E+00  8.9708E-04
 27  0.0000E+00  9.3176E-03  1.6886E-03  0.0000E+00  2.0528E-03  0.0000E+00  3.4485E-03  0.0000E+00  2.9491E-03
 28  0.0000E+00  2.7196E-02  0.0000E+00  9.6469E-04  1.3621E-02  3.6557E-03  3.4562E-03  1.6149E-03  8.4355E-03
 29  0.0000E+00  4.2962E-02  2.4734E-02  5.6047E-03  0.0000E+00  0.0000E+00  0.0000E+00  2.7524E-02  1.1289E-02
 30  0.0000E+00  9.7397E-02  1.7587E-02  2.3092E-02  2.5503E-02  0.0000E+00  5.1708E-02  6.5903E-02  1.2513E-02
 31  1.4792E+00  2.2649E-01  9.1882E-02  5.1840E-02  1.9073E-01  5.5552E-02  4.1392E-02  0.0000E+00  1.3951E-02
 32  0.0000E+00  3.0424E-01  1.9956E-01  8.9892E-02  0.0000E+00  1.0929E-01  1.8809E-01  7.1734E-03  1.1060E-01
 33  0.0000E+00  4.5111E-01  3.1919E-01  7.0620E-02  0.0000E+00  0.0000E+00  3.0145E-01  2.5960E-01  1.2204E-01
 34  0.0000E+00  6.0631E-01  1.1981E-01  3.0622E-01  1.6550E-02  3.1893E-02  0.0000E+00  0.0000E+00  6.5591E-02
 35  0.0000E+00  6.6221E-04  2.3107E-04  4.1863E-05  1.1993E-04  5.0441E-04  4.8561E-04  1.1583E-05  0.0000E+00
 36  0.0000E+00  3.2971E-04  1.9997E-05  7.0658E-05  7.7246E-06  0.0000E+00  1.0861E-04  0.0000E+00  1.5684E-04
 37  0.0000E+00  4.3480E-04  1.9079E-04  0.0000E+00  2.6396E-04  1.7029E-04  1.9795E-04  0.0000E+00  4.0035E-05
 38  9.4564E-03  8.5925E-04  4.0288E-04  0.0000E+00  2.1587E-04  1.6094E-04  6.3197E-04  4.0904E-04  0.0000E+00
 39  0.0000E+00  1.6298E-03  4.4827E-04  3.8639E-04  2.5301E-04  2.8413E-04  0.0000E+00  4.8653E-04  0.0000E+00
 40  0.0000E+00  2.8121E-03  0.0000E+00  0.0000E+00  3.1966E-04  4.4815E-04  6.0713E-04  4.8425E-04  0.0000E+00
 41  1.0566E-02  3.5596E-03  0.0000E+00  0.0000E+00  3.0645E-03  5.9805E-04  8.1938E-04  7.8355E-06  0.0000E+00
 42  8.4314E-02  5.1785E-03  0.0000E+00  0.0000E+00  1.5273E-03  8.6667E-04  2.6572E-03  5.9753E-04  0.0000E+00
 43  0.0000E+00  7.8328E-03  2.6920E-03  1.9325E-04  0.0000E+00  1.7521E-04  0.0000E+00  1.3605E-04  0.0000E+00
 44  0.0000E+00  1.3769E-02  0.0000E+00  1.8812E-03  1.6004E-03  3.7205E-04  3.8661E-04  1.1758E-03  9.2038E-04
 45  0.0000E+00  3.0962E-02  6.4435E-03  1.4168E-03  1.0781E-02  4.3732E-03  0.0000E+00  6.9002E-03  0.0000E+00
 46  0.0000E+00  5.5525E-02  9.0870E-04  1.6064E-05  0.0000E+00  2.2128E-02  0.0000E+00  4.6922E-03  1.8207E-03
 47  0.0000E+00  9.8069E-02  0.0000E+00  1.4980E-02  2.9380E-03  2.5849E-02  0.0000E+00  1.3580E-02  7.7096E-03
 48  0.0000E+00  2.0653E-01  0.0000E+00  4.2851E-02  8.2796E-02  0.0000E+00  0.0000E+00  0.0000E+00  1.5569E-01
 49  0.0000E+00  1.8153E+00  1.7729E+00  2.1220E+00  2.0287E+00  1.6987E+00  1.9939E+00  1.8078E+00  2.0847E+00
 50  1.6227E+01  6.5070E+01  6.8724E+01  6.7973E+01  6.8174E+01  6.7965E+01  6.7300E+01  6.8099E+01  6.8719E+01
 51  0.0000E+00  5.3281E-04  3.6214E-05  0.0000E+00  0.0000E+00  2.2133E-04  1.9128E-04  2.4724E-04  0.0000E+00
 52  0.0000E+00  2.7840E-04  3.6860E-05  5.8859E-05  4.2875E-05  1.0213E-06  4.8730E-06  3.9547E-05  4.9337E-05
 53  0.0000E+00  4.5573E-04  1.0234E-04  1.2597E-04  2.7109E-05  1.4118E-04  7.0701E-05  6.8557E-06  4.5554E-05
 54  0.0000E+00  7.4082E-04  5.8585E-05  4.3404E-04  0.0000E+00  8.2764E-05  0.0000E+00  0.0000E+00  2.7171E-04
 55  0.0000E+00  1.8952E-03  3.9791E-04  0.0000E+00  3.7143E-05  1.0232E-03  5.9333E-05  9.7351E-04  1.3789E-04
 56  0.0000E+00  2.0973E-03  7.4697E-04  0.0000E+00  2.9979E-04  5.0879E-04  4.3770E-04  0.0000E+00  1.3076E-03
 57  1.9655E-02  4.5829E-03  2.2502E-04  7.2036E-04  1.2475E-03  1.9725E-03  2.8111E-03  1.8130E-04  2.0040E-03
 58  0.0000E+00  7.6615E-03  2.2950E-03  5.5372E-04  9.1311E-04  1.9976E-03  3.3894E-03  0.0000E+00  1.8855E-03
 59  3.5242E-02  1.5374E-02  6.3334E-06  0.0000E+00  2.9069E-03  0.0000E+00  7.0506E-03  4.2908E-03  6.0984E-03
 60  0.0000E+00  2.2198E-02  0.0000E+00  7.8430E-03  1.9343E-03  2.2024E-03  0.0000E+00  1.3134E-02  0.0000E+00
 61  0.0000E+00  4.2496E-02  0.0000E+00  3.6754E-02  0.0000E+00  5.8820E-03  0.0000E+00  1.0209E-02  0.0000E+00
 62  0.0000E+00  1.1262E-01  0.0000E+00  0.0000E+00  6.2654E-02  3.7165E-02  0.0000E+00  2.1220E-03  0.0000E+00
 63  3.7325E-01  2.1071E-01  0.0000E+00  8.6546E-02  6.7614E-02  0.0000E+00  0.0000E+00  0.0000E+00  1.4893E-01
 64  0.0000E+00  4.7400E-01  1.3940E-01  3.0549E-02  9.4360E-02  2.0815E-01  1.4286E-01  1.0560E-01  0.0000E+00
 65  3.7072E+00  6.4758E+00  5.5248E+00  6.0076E+00  7.0375E+00  6.5492E+00  6.4539E+00  6.5136E+00  6.0474E+00
 66  7.8053E+01  2.2215E+01  2.2921E+01  2.2776E+01  2.2113E+01  2.2713E+01  2.3360E+01  2.2800E+01  2.2208E+01

# AV, chi2 & Mass for <> & i_chain = 1 ...  7 solutions
AV      -0.5094     -0.7489     -0.7191     -0.7189     -0.7180     -0.7021     -0.6964     -0.7157     -0.7119
chi2 6.2278E-06  1.2015E-05  6.6535E-06  6.6338E-06  6.5574E-06  6.5786E-06  6.5634E-06  6.6062E-06  6.6223E-06
Mass 3.2034E-13  1.6590E-13  2.5343E-13  2.5113E-13  2.5086E-13  2.5592E-13  2.5745E-13  2.5355E-13  2.5190E-13
-213.38                                  [v0_min (km/s) before EX0s...]
 389.29                                  [vd_min (km/s) before EX0s...]


## Synthetic spectrum (Best Model) ##l_obs f_obs f_syn wei
 3478    [Nl_obs]
 3741.00    1.02377   0.50695    0.000
 3742.00    0.84026   0.50398    0.000
 3743.00    0.52485   0.50088    0.000
 3744.00    0.24465   0.49948    0.000
 3745.00   -0.01502   0.50013    0.000
 3746.00    0.23906   0.50399    0.021
 3747.00    0.75403   0.51075    0.020
 3748.00    0.84258   0.52045    0.021
 3749.00    0.74361   0.53205    0.022
 3750.00    0.78352   0.54474    0.021
 3751.00    0.87585   0.55727    0.020
 3752.00    0.70405   0.56869    0.020
 3753.00    0.44760   0.57829    0.019
 3754.00    0.40196   0.58555    0.019
 3755.00    0.41280   0.59049    0.019
 3756.00    0.56038   0.59321    0.019
 3757.00    0.73798   0.59424    0.019
 3758.00    0.67423   0.59407    0.019
 3759.00    0.56836   0.59329    0.019
 3760.00    0.81351   0.59254    0.022
 3761.00    1.10529   0.59221    0.026
 3762.00    1.00528   0.59296    0.022
 3763.00    0.86846   0.59493    0.018
 3764.00    0.78108   0.59874    0.018
 3765.00    0.69655   0.60425    0.018
 3766.00    0.55914   0.61190    0.017
 3767.00    0.42331   0.62133    0.017
 3768.00    0.63300   0.63268    0.018
 3769.00    0.84103   0.64536    0.018
 3770.00    1.00858   0.65925    0.018
 3771.00    1.14562   0.67366    0.018
 3772.00    0.88283   0.68822    0.017
 3773.00    0.64927   0.70219    0.017
 3774.00    0.67226   0.71511    0.017
 3775.00    0.71968   0.72624    0.017
 3776.00    0.92556   0.73507    0.017
 3777.00    1.11297   0.74099    0.018
 3778.00    1.20689   0.74363    0.018
 3779.00    1.30130   0.74265    0.018
 3780.00    1.39772   0.73807    0.018
 3781.00    1.41680   0.72990    0.018
 3782.00    1.17357   0.71869    0.018
 3783.00    0.87884   0.70467    0.018
 3784.00    0.43686   0.68882    0.018
 3785.00    0.10993   0.67143    0.018
 3786.00    0.06405   0.65357    0.018
 3787.00    0.05550   0.63547    0.018
 3788.00    0.12562   0.61810    0.019
 3789.00    0.19940   0.60173    0.019
 3790.00    0.27989   0.58716    0.018
 3791.00    0.44826   0.57484    0.017
 3792.00    0.75731   0.56543    0.018
 3793.00    0.88140   0.55942    0.018
 3794.00    0.74570   0.55721    0.018
 3795.00    0.53854   0.55899    0.018
 3796.00    0.24306   0.56464    0.017
 3797.00    0.06830   0.57374    0.017
 3798.00    0.02506   0.58567    0.018
 3799.00    0.08064   0.59942    0.018
 3800.00    0.23118   0.61408    0.018
 3801.00    0.25617   0.62850    0.018
 3802.00    0.17475   0.64179    0.018
 3803.00    0.29257   0.65311    0.018
 3804.00    0.55905   0.66184    0.018
 3805.00    0.63602   0.66764    0.018
 3806.00    0.58875   0.67016    0.018
 3807.00    0.64505   0.66961    0.017
 3808.00    0.76077   0.66589    0.017
 3809.00    0.91454   0.65956    0.018
 3810.00    1.08733   0.65077    0.019
 3811.00    0.85168   0.64029    0.019
 3812.00    0.43940   0.62844    0.019
 3813.00    0.47678   0.61594    0.018
 3814.00    0.68091   0.60316    0.017
 3815.00    0.93599   0.59056    0.017
 3816.00    1.20708   0.57842    0.017
 3817.00    1.07245   0.56683    0.018
 3818.00    0.83139   0.55593    0.018
 3819.00    0.70554   0.54552    0.018
 3820.00    0.60439   0.53563    0.017
 3821.00    0.61325   0.52592    0.017
 3822.00    0.64078   0.51642    0.017
 3823.00    0.79973   0.50680    0.017
 3824.00    0.97555   0.49723    0.017
 3825.00    0.60999   0.48753    0.017
 3826.00    0.19583   0.47808    0.017
 3827.00   -0.03399   0.46892    0.000
 3828.00   -0.25390   0.46069    0.000
 3829.00    0.09286   0.45363    0.018
 3830.00    0.44776   0.44847    0.018
 3831.00    0.53018   0.44558    0.018
 3832.00    0.61073   0.44551    0.018
 3833.00    0.64970   0.44854    0.018
 3834.00    0.67519   0.45478    0.018
 3835.00    0.53306   0.46424    0.018
 3836.00    0.42631   0.47643    0.018
 3837.00    0.61863   0.49106    0.019
 3838.00    0.75841   0.50716    0.019
 3839.00    0.56765   0.52422    0.019
 3840.00    0.39715   0.54112    0.018
 3841.00    0.32666   0.55735    0.018
 3842.00    0.32977   0.57201    0.018
 3843.00    0.62753   0.58480    0.018
 3844.00    0.86076   0.59525    0.018
 3845.00    0.87950   0.60333    0.018
 3846.00    0.88226   0.60903    0.018
 3847.00    0.84016   0.61253    0.000
 3848.00    0.78925   0.61416    0.000
 3849.00    0.71712   0.61415    0.000
 3850.00    0.67593   0.61310    0.000
 3851.00    0.69887   0.61118    0.000
 3852.00    0.70586   0.60911    0.000
 3853.00    0.68409   0.60699    0.000
 3854.00    0.74951   0.60549    0.000
 3855.00    0.95246   0.60456    0.000
 3856.00    0.97070   0.60463    0.000
 3857.00    0.73323   0.60543    0.000
 3858.00    0.50001   0.60704    0.000
 3859.00    0.27197   0.60904    0.000
 3860.00    0.28019   0.61131    0.000
 3861.00    0.54221   0.61329    0.000
 3862.00    0.66554   0.61502    0.000
 3863.00    0.65747   0.61598    0.000
 3864.00    0.63657   0.61650    0.000
 3865.00    0.60496   0.61615    0.000
 3866.00    0.71613   0.61555    0.000
 3867.00    0.93232   0.61426    0.000
 3868.00    0.97551   0.61295    0.000
 3869.00    0.90694   0.61110    0.000
 3870.00    0.77804   0.60924    0.000
 3871.00    0.61503   0.60676    0.000
 3872.00    0.44378   0.60401    0.000
 3873.00    0.26848   0.60047    0.000
 3874.00    0.32865   0.59642    0.000
 3875.00    0.48894   0.59157    0.000
 3876.00    0.70014   0.58622    0.000
 3877.00    0.92987   0.58045    0.000
 3878.00    0.83381   0.57461    0.000
 3879.00    0.63732   0.56911    0.000
 3880.00    0.62002   0.56436    0.000
 3881.00    0.64873   0.56099    0.017
 3882.00    0.71380   0.55936    0.017
 3883.00    0.78647   0.56011    0.017
 3884.00    0.80833   0.56330    0.017
 3885.00    0.82181   0.56936    0.017
 3886.00    0.49904   0.57791    0.018
 3887.00    0.13463   0.58890    0.018
 3888.00    0.48808   0.60160    0.018
 3889.00    0.90298   0.61551    0.017
 3890.00    0.71952   0.62992    0.017
 3891.00    0.50623   0.64405    0.017
 3892.00    0.40654   0.65769    0.017
 3893.00    0.30947   0.67002    0.017
 3894.00    0.26181   0.68142    0.017
 3895.00    0.22753   0.69131    0.017
 3896.00    0.46688   0.70041    0.017
 3897.00    0.69676   0.70852    0.016
 3898.00    0.81454   0.71632    0.016
 3899.00    0.90174   0.72394    0.016
 3900.00    0.73973   0.73181    0.015
 3901.00    0.62566   0.74004    0.015
 3902.00    0.80435   0.74881    0.015
 3903.00    0.94598   0.75790    0.015
 3904.00    0.90926   0.76729    0.015
 3905.00    0.85523   0.77625    0.014
 3906.00    0.73339   0.78471    0.014
 3907.00    0.67356   0.79156    0.014
 3908.00    0.81583   0.79682    0.015
 3909.00    0.88825   0.79941    0.015
 3910.00    0.76803   0.79955    0.015
 3911.00    0.67898   0.79657    0.015
 3912.00    0.66353   0.79086    0.016
 3913.00    0.70511   0.78241    0.016
 3914.00    0.86308   0.77159    0.017
 3915.00    0.91411   0.75894    0.017
 3916.00    0.77521   0.74461    0.017
 3917.00    0.73659   0.72936    0.017
 3918.00    0.85376   0.71300    0.018
 3919.00    0.77517   0.69619    0.018
 3920.00    0.42947   0.67862    0.018
 3921.00    0.33142   0.66068    0.018
 3922.00    0.53084   0.64226    0.018
 3923.00    0.69264   0.62366    0.018
 3924.00    0.81458   0.60523    0.018
 3925.00    0.73201   0.58740    0.018
 3926.00    0.45839   0.57089    0.018
 3927.00    0.38636   0.55639    0.018
 3928.00    0.48036   0.54461    0.018
 3929.00    0.61594   0.53632    0.018
 3930.00    0.78167   0.53181    0.018
 3931.00    0.62411   0.53159    0.018
 3932.00    0.26083   0.53536    0.018
 3933.00    0.14656   0.54314    0.018
 3934.00    0.17087   0.55429    0.018
 3935.00    0.35099   0.56838    0.018
 3936.00    0.60653   0.58448    0.018
 3937.00    0.53418   0.60211    0.018
 3938.00    0.32474   0.62062    0.018
 3939.00    0.36879   0.63951    0.018
 3940.00    0.50351   0.65846    0.018
 3941.00    0.60616   0.67694    0.018
 3942.00    0.69911   0.69495    0.018
 3943.00    0.81644   0.71181    0.018
 3944.00    0.93990   0.72760    0.018
 3945.00    0.98160   0.74159    0.018
 3946.00    1.00663   0.75366    0.018
 3947.00    1.10317   0.76295    0.018
 3948.00    1.21116   0.76949    0.018
 3949.00    1.12581   0.77247    0.018
 3950.00    1.01737   0.77182    0.018
 3951.00    0.57770   0.76691    0.018
 3952.00    0.11106   0.75773    0.018
 3953.00    0.22992   0.74423    0.018
 3954.00    0.37570   0.72674    0.018
 3955.00    0.77387   0.70529    0.018
 3956.00    1.16781   0.68055    0.018
 3957.00    1.17236   0.65303    0.018
 3958.00    1.16382   0.62383    0.018
 3959.00    0.90716   0.59385    0.018
 3960.00    0.66410   0.56450    0.000
 3961.00    0.57436   0.53694    0.000
 3962.00    0.49550   0.51271    0.000
 3963.00    0.50226   0.49292    0.000
 3964.00    0.50267   0.47884    0.000
 3965.00    0.46541   0.47126    0.000
 3966.00    0.40660   0.47091    0.000
 3967.00    0.24665   0.47780    0.000
 3968.00    0.09302   0.49194    0.000
 3969.00   -0.03642   0.51259    0.000
 3970.00   -0.06898   0.53887    0.000
 3971.00    0.20807   0.56964    0.000
 3972.00    0.41980   0.60335    0.000
 3973.00    0.45458   0.63879    0.000
 3974.00    0.63676   0.67442    0.000
 3975.00    1.16120   0.70923    0.000
 3976.00    1.38229   0.74236    0.000
 3977.00    0.99406   0.77307    0.000
 3978.00    0.67807   0.80116    0.000
 3979.00    0.48844   0.82632    0.000
 3980.00    0.38294   0.84854    0.000
 3981.00    0.40623   0.86829    0.019
 3982.00    0.55916   0.88533    0.019
 3983.00    0.88644   0.90009    0.019
 3984.00    1.25369   0.91313    0.019
 3985.00    1.66828   0.92415    0.019
 3986.00    1.73920   0.93398    0.019
 3987.00    1.45127   0.94175    0.019
 3988.00    1.44554   0.94896    0.019
 3989.00    1.69976   0.95442    0.019
 3990.00    1.54623   0.95981    0.019
 3991.00    1.06165   0.96394    0.018
 3992.00    0.93782   0.96861    0.018
 3993.00    1.07173   0.97254    0.018
 3994.00    1.08327   0.97626    0.018
 3995.00    1.01809   0.97981    0.018
 3996.00    0.84601   0.98300    0.018
 3997.00    0.61535   0.98577    0.018
 3998.00    0.79903   0.98754    0.017
 3999.00    1.18009   0.98961    0.018
 4000.00    1.18362   0.99144    0.017
 4001.00    1.03199   0.99363    0.017
 4002.00    1.14516   0.99604    0.017
 4003.00    1.35133   0.99909    0.018
 4004.00    1.19303   1.00307    0.017
 4005.00    0.92674   1.00771    0.017
 4006.00    0.83052   1.01369    0.017
 4007.00    0.77608   1.01988    0.017
 4008.00    0.84821   1.02711    0.017
 4009.00    0.94551   1.03402    0.017
 4010.00    0.97431   1.04083    0.017
 4011.00    0.99247   1.04694    0.017
 4012.00    1.00835   1.05236    0.018
 4013.00    1.02397   1.05638    0.018
 4014.00    1.04926   1.05940    0.018
 4015.00    1.07530   1.06068    0.018
 4016.00    1.06294   1.06078    0.018
 4017.00    1.04895   1.05903    0.018
 4018.00    1.00009   1.05635    0.018
 4019.00    0.95558   1.05201    0.018
 4020.00    1.11592   1.04675    0.018
 4021.00    1.26477   1.04043    0.018
 4022.00    1.21088   1.03314    0.018
 4023.00    1.13485   1.02489    0.018
 4024.00    0.82063   1.01603    0.018
 4025.00    0.57937   1.00709    0.018
 4026.00    0.89189   0.99834    0.018
 4027.00    1.09560   0.99165    0.018
 4028.00    0.67165   0.98592    0.018
 4029.00    0.36809   0.98312    0.018
 4030.00    0.61628   0.98207    0.018
 4031.00    0.84087   0.98365    0.018
 4032.00    0.97697   0.98634    0.018
 4033.00    1.09566   0.98988    0.018
 4034.00    1.15977   0.99300    0.018
 4035.00    1.13571   0.99557    0.018
 4036.00    0.87705   0.99650    0.018
 4037.00    0.70768   0.99620    0.018
 4038.00    0.74220   0.99396    0.018
 4039.00    0.79327   0.99004    0.018
 4040.00    0.87707   0.98574    0.018
 4041.00    0.92784   0.98184    0.019
 4042.00    0.92171   0.98001    0.019
 4043.00    1.00758   0.97933    0.019
 4044.00    1.23225   0.97999    0.019
 4045.00    1.24186   0.98196    0.019
 4046.00    0.96639   0.98476    0.018
 4047.00    0.95302   0.98759    0.018
 4048.00    1.24565   0.98984    0.018
 4049.00    1.42340   0.99133    0.018
 4050.00    1.48287   0.99069    0.018
 4051.00    1.34045   0.98933    0.018
 4052.00    1.01467   0.98543    0.018
 4053.00    0.92982   0.98031    0.018
 4054.00    1.03779   0.97442    0.018
 4055.00    1.01259   0.96810    0.018
 4056.00    0.89361   0.96147    0.018
 4057.00    0.90618   0.95424    0.018
 4058.00    1.00000   0.94772    0.018
 4059.00    0.85935   0.94242    0.018
 4060.00    0.59219   0.94008    0.018
 4061.00    0.61479   0.93809    0.018
 4062.00    0.77318   0.93751    0.018
 4063.00    1.02948   0.93822    0.017
 4064.00    1.32534   0.94027    0.017
 4065.00    1.31239   0.94219    0.017
 4066.00    1.19297   0.94380    0.017
 4067.00    1.05064   0.94569    0.017
 4068.00    0.90164   0.94906    0.017
 4069.00    0.86529   0.95193    0.017
 4070.00    0.85599   0.95502    0.017
 4071.00    0.80969   0.95815    0.017
 4072.00    0.75621   0.96205    0.017
 4073.00    0.86455   0.96758    0.017
 4074.00    0.99726   0.97462    0.017
 4075.00    1.06996   0.98321    0.017
 4076.00    1.13601   0.99300    0.017
 4077.00    1.08466   1.00327    0.017
 4078.00    1.02472   1.01349    0.017
 4079.00    0.89496   1.02405    0.017
 4080.00    0.76254   1.03387    0.017
 4081.00    0.91093   1.04301    0.017
 4082.00    1.05959   1.05092    0.017
 4083.00    1.15967   1.05666    0.017
 4084.00    1.24464   1.06002    0.017
 4085.00    1.08071   1.05973    0.017
 4086.00    0.92878   1.05666    0.017
 4087.00    0.90022   1.04955    0.017
 4088.00    0.86766   1.03955    0.017
 4089.00    0.80577   1.02666    0.017
 4090.00    0.76074   1.01034    0.017
 4091.00    0.81033   0.99254    0.018
 4092.00    0.88369   0.97335    0.000
 4093.00    1.06343   0.95434    0.000
 4094.00    1.13600   0.93629    0.000
 4095.00    0.81499   0.92002    0.000
 4096.00    0.63704   0.90613    0.000
 4097.00    0.89907   0.89613    0.000
 4098.00    1.03373   0.89012    0.000
 4099.00    0.83547   0.88828    0.000
 4100.00    0.70951   0.89045    0.000
 4101.00    0.74594   0.89617    0.000
 4102.00    0.72904   0.90406    0.000
 4103.00    0.60837   0.91416    0.000
 4104.00    0.64122   0.92496    0.000
 4105.00    0.93453   0.93609    0.000
 4106.00    1.19441   0.94727    0.000
 4107.00    1.40459   0.95756    0.000
 4108.00    1.30081   0.96760    0.000
 4109.00    0.78681   0.97611    0.000
 4110.00    0.69884   0.98379    0.000
 4111.00    1.10125   0.98995    0.000
 4112.00    1.24115   0.99478    0.000
 4113.00    1.11458   0.99824    0.018
 4114.00    0.95623   1.00030    0.018
 4115.00    0.76941   1.00199    0.017
 4116.00    0.83941   1.00205    0.017
 4117.00    1.11203   1.00237    0.018
 4118.00    0.96632   1.00134    0.018
 4119.00    0.53030   0.99993    0.017
 4120.00    0.49434   0.99788    0.025
 4121.00    0.70182   0.99477    0.098
 4122.00    0.89572   0.99161   -1.000
 4123.00    1.08241   0.98672   -1.000
 4124.00    1.16418   0.98245   -1.000
 4125.00    1.19756   0.97692   -1.000
 4126.00    1.28231   0.97288   -1.000
 4127.00    1.38746   0.96795   -1.000
 4128.00    1.18840   0.96506    0.045
 4129.00    0.88638   0.96199    0.019
 4130.00    0.90128   0.96095    0.017
 4131.00    1.00636   0.96070    0.017
 4132.00    0.98281   0.96034    0.017
 4133.00    0.92907   0.96098    0.017
 4134.00    1.00696   0.95981    0.017
 4135.00    1.10970   0.95876    0.017
 4136.00    0.97322   0.95633    0.017
 4137.00    0.80180   0.95298    0.017
 4138.00    0.73220   0.94855    0.017
 4139.00    0.67342   0.94372    0.017
 4140.00    0.79259   0.93895    0.017
 4141.00    0.92407   0.93522    0.017
 4142.00    0.91792   0.93298    0.017
 4143.00    0.90703   0.93121    0.017
 4144.00    0.99114   0.92994    0.017
 4145.00    1.06838   0.92925    0.017
 4146.00    0.91275   0.92981    0.017
 4147.00    0.76843   0.93044    0.017
 4148.00    0.79902   0.93312    0.017
 4149.00    0.83020   0.93555    0.017
 4150.00    0.86715   0.93981    0.017
 4151.00    0.90232   0.94402    0.017
 4152.00    0.92479   0.94951    0.017
 4153.00    0.96007   0.95573    0.017
 4154.00    1.06534   0.96192    0.017
 4155.00    1.11437   0.96912    0.017
 4156.00    0.91760   0.97507    0.016
 4157.00    0.75715   0.98077    0.016
 4158.00    0.72733   0.98448    0.016
 4159.00    0.64529   0.98732    0.016
 4160.00    0.40564   0.98829    0.016
 4161.00    0.32972   0.98693    0.017
 4162.00    0.67428   0.98384    0.017
 4163.00    0.97868   0.97960    0.017
 4164.00    1.19434   0.97387    0.017
 4165.00    1.25175   0.96736    0.017
 4166.00    1.00599   0.96112    0.017
 4167.00    0.81346   0.95392    0.016
 4168.00    0.70988   0.94718    0.017
 4169.00    0.51749   0.94048    0.017
 4170.00    0.19502   0.93518    0.017
 4171.00    0.19585   0.93214    0.017
 4172.00    0.61307   0.93016    0.017
 4173.00    0.87511   0.92978    0.017
 4174.00    0.96107   0.93046    0.017
 4175.00    0.94304   0.93229    0.017
 4176.00    0.82095   0.93585    0.017
 4177.00    0.86795   0.93966    0.017
 4178.00    1.06421   0.94406    0.018
 4179.00    1.04459   0.94820    0.018
 4180.00    0.85706   0.95323    0.017
 4181.00    0.85541   0.95762    0.017
 4182.00    0.98087   0.96150    0.017
 4183.00    1.04541   0.96453    0.017
 4184.00    1.07343   0.96525    0.017
 4185.00    1.04874   0.96685    0.017
 4186.00    0.99648   0.96768    0.017
 4187.00    1.01947   0.96726    0.017
 4188.00    1.07661   0.96513    0.017
 4189.00    0.84100   0.96225    0.017
 4190.00    0.49115   0.95972    0.017
 4191.00    0.49135   0.95515    0.017
 4192.00    0.60783   0.95038    0.017
 4193.00    0.69485   0.94560    0.017
 4194.00    0.77365   0.94243    0.017
 4195.00    0.75962   0.94033    0.017
 4196.00    0.72430   0.93986    0.017
 4197.00    0.81620   0.94210    0.017
 4198.00    0.93149   0.94535    0.017
 4199.00    0.83997   0.94999    0.017
 4200.00    0.71920   0.95721    0.017
 4201.00    0.95428   0.96527    0.017
 4202.00    1.22563   0.97333    0.017
 4203.00    1.08509   0.98214    0.016
 4204.00    0.91771   0.98995    0.016
 4205.00    0.91831   0.99733    0.016
 4206.00    0.92400   1.00316    0.016
 4207.00    0.88427   1.00769    0.016
 4208.00    0.85241   1.01163    0.016
 4209.00    1.05154   1.01523    0.017
 4210.00    1.23929   1.01658    0.017
 4211.00    1.26142   1.01688    0.017
 4212.00    1.27028   1.01536    0.017
 4213.00    1.15368   1.01323    0.017
 4214.00    1.05054   1.01237    0.017
 4215.00    1.04000   1.00819    0.017
 4216.00    1.06573   1.00202    0.016
 4217.00    1.28426   0.99334    0.016
 4218.00    1.44061   0.98377    0.016
 4219.00    1.33142   0.97191    0.016
 4220.00    1.21255   0.95991    0.016
 4221.00    1.05959   0.94882    0.016
 4222.00    0.90287   0.93870    0.016
 4223.00    0.73504   0.93142    0.016
 4224.00    0.61894   0.92738    0.016
 4225.00    0.63339   0.92971    0.016
 4226.00    0.76418   0.93480    0.016
 4227.00    1.14780   0.94176    0.016
 4228.00    1.31865   0.95086    0.016
 4229.00    1.08829   0.96062    0.015
 4230.00    0.96089   0.97041    0.015
 4231.00    1.00302   0.98198    0.015
 4232.00    1.00933   0.99438    0.015
 4233.00    0.96394   1.00501    0.015
 4234.00    0.91357   1.01730    0.015
 4235.00    0.85686   1.02840    0.015
 4236.00    0.89674   1.03859    0.015
 4237.00    1.04467   1.04769    0.015
 4238.00    1.09955   1.05541    0.015
 4239.00    1.06258   1.06124    0.015
 4240.00    1.06963   1.06360    0.015
 4241.00    1.11497   1.06543    0.015
 4242.00    1.01439   1.06383    0.015
 4243.00    0.80192   1.05931    0.015
 4244.00    0.77739   1.05263    0.015
 4245.00    0.87952   1.04459    0.016
 4246.00    1.06125   1.03664    0.016
 4247.00    1.28997   1.02736    0.016
 4248.00    1.26437   1.01985    0.016
 4249.00    1.10783   1.01506    0.016
 4250.00    1.10095   1.01093    0.016
 4251.00    1.16085   1.00761    0.016
 4252.00    1.11748   1.00735    0.016
 4253.00    1.03452   1.00983    0.016
 4254.00    0.84803   1.01467    0.016
 4255.00    0.62780   1.01841    0.016
 4256.00    0.50980   1.02271    0.016
 4257.00    0.41971   1.02709    0.016
 4258.00    0.66469   1.03124    0.016
 4259.00    0.98476   1.03616    0.016
 4260.00    1.01251   1.03906    0.016
 4261.00    0.98798   1.03983    0.016
 4262.00    0.94566   1.03680    0.016
 4263.00    0.90090   1.03226    0.016
 4264.00    0.99220   1.02454    0.016
 4265.00    1.09679   1.01558    0.016
 4266.00    0.98671   1.00632    0.016
 4267.00    0.86350   0.99650    0.016
 4268.00    0.87937   0.98752    0.016
 4269.00    0.89783   0.98099    0.016
 4270.00    0.69017   0.97924    0.016
 4271.00    0.49402   0.97871    0.016
 4272.00    0.60239   0.98072    0.033
 4273.00    0.69596   0.98585   -1.000
 4274.00    0.58608   0.99212   -1.000
 4275.00    0.49370   0.99859   -1.000
 4276.00    0.56027   1.00449   -1.000
 4277.00    0.62612   1.00663   -1.000
 4278.00    0.68713   1.00898   -1.000
 4279.00    0.76503   1.00971   -1.000
 4280.00    0.93032   1.00831   -1.000
 4281.00    1.03288   1.00675   -1.000
 4282.00    0.87355   1.00063   -2.000
 4283.00    0.64550   0.99510   -2.000
 4284.00    0.18022   0.98803   -2.000
 4285.00   -0.12419   0.98059   -2.000
 4286.00    0.03899   0.97114   -2.000
 4287.00    0.30266   0.96113   -2.000
 4288.00    0.81557   0.95317   -2.000
 4289.00    1.22201   0.94445   -2.000
 4290.00    1.40083   0.93714   -2.000
 4291.00    1.39102   0.92602   -2.000
 4292.00    1.03098   0.91583   -2.000
 4293.00    0.68025   0.90470   -2.000
 4294.00    0.34461   0.89172   -2.000
 4295.00    0.20709   0.87920   -2.000
 4296.00    0.35143   0.86490   -2.000
 4297.00    0.54261   0.85272   -2.000
 4298.00    0.79242   0.84280    0.017
 4299.00    0.90372   0.83504    0.017
 4300.00    0.86224   0.82907    0.017
 4301.00    0.86652   0.82760    0.017
 4302.00    0.91532   0.82825    0.016
 4303.00    1.02055   0.83334    0.016
 4304.00    1.17419   0.84349    0.016
 4305.00    1.05235   0.85684    0.016
 4306.00    0.72232   0.87647    0.016
 4307.00    0.60947   0.89944    0.016
 4308.00    0.64085   0.92660    0.016
 4309.00    0.85929   0.95461    0.016
 4310.00    1.18653   0.98432    0.016
 4311.00    1.37480   1.01186    0.016
 4312.00    1.49264   1.03735    0.016
 4313.00    1.36892   1.06115    0.016
 4314.00    1.13919   1.07897    0.016
 4315.00    0.96634   1.09298    0.016
 4316.00    0.81492   1.10149    0.016
 4317.00    1.12644   1.10687    0.016
 4318.00    1.58596   1.10700    0.016
 4319.00    1.43074   1.10680    0.016
 4320.00    1.11120   1.10321    0.016
 4321.00    0.92398   1.09940    0.016
 4322.00    0.76571   1.09710    0.016
 4323.00    0.91948   1.09566    0.016
 4324.00    1.12752   1.09904    0.016
 4325.00    1.01653   1.10241    0.016
 4326.00    0.86334   1.10721    0.016
 4327.00    0.83933   1.10876    0.016
 4328.00    0.82740   1.10921    0.016
 4329.00    1.13157   1.10866    0.016
 4330.00    1.45382   1.10528    0.000
 4331.00    1.26939   1.10132    0.000
 4332.00    1.07249   1.09535    0.000
 4333.00    0.79658   1.08902    0.000
 4334.00    0.53134   1.07935    0.000
 4335.00    0.52217   1.07122    0.000
 4336.00    0.52819   1.06474    0.000
 4337.00    0.73188   1.05992    0.000
 4338.00    0.91165   1.06022    0.000
 4339.00    0.88247   1.06388    0.000
 4340.00    0.86742   1.06957    0.000
 4341.00    0.94360   1.07567    0.000
 4342.00    1.03517   1.08466    0.000
 4343.00    1.20439   1.09326    0.000
 4344.00    1.30036   1.10225    0.000
 4345.00    1.09739   1.11208    0.000
 4346.00    0.90580   1.12125    0.000
 4347.00    0.75268   1.12953    0.000
 4348.00    0.70026   1.13526    0.000
 4349.00    0.93518   1.14061    0.000
 4350.00    1.15978   1.14731    0.000
 4351.00    1.35925   1.15531    0.016
 4352.00    1.48422   1.16430    0.016
 4353.00    1.45253   1.17328    0.016
 4354.00    1.40969   1.18304    0.019
 4355.00    1.34648   1.19218    0.049
 4356.00    1.23434   1.19960   -1.000
 4357.00    1.04402   1.20651   -1.000
 4358.00    1.03766   1.21269   -1.000
 4359.00    1.28920   1.21937   -1.000
 4360.00    1.44621   1.22310   -1.000
 4361.00    1.48659   1.22507   -1.000
 4362.00    1.37009   1.22486    0.063
 4363.00    1.08296   1.22111    0.021
 4364.00    0.97849   1.21475    0.015
 4365.00    1.04925   1.20569    0.015
 4366.00    1.09879   1.19727    0.015
 4367.00    1.13038   1.18819    0.015
 4368.00    1.16949   1.17838    0.015
 4369.00    1.21419   1.16757    0.015
 4370.00    1.20130   1.15473    0.015
 4371.00    1.15073   1.14175    0.015
 4372.00    1.07947   1.12717    0.015
 4373.00    0.99637   1.11169    0.015
 4374.00    1.00828   1.09833    0.015
 4375.00    1.06758   1.08603    0.015
 4376.00    1.09499   1.07518    0.015
 4377.00    1.10864   1.06266    0.015
 4378.00    1.05386   1.05105    0.015
 4379.00    0.97376   1.04069    0.015
 4380.00    1.01563   1.03066    0.015
 4381.00    1.09574   1.02557    0.015
 4382.00    1.06115   1.02473    0.015
 4383.00    0.99656   1.02939    0.015
 4384.00    1.05188   1.03605    0.015
 4385.00    1.13282   1.04428    0.015
 4386.00    1.14991   1.05505    0.015
 4387.00    1.15621   1.06636    0.015
 4388.00    1.09748   1.07864    0.015
 4389.00    1.03045   1.09058    0.015
 4390.00    0.96459   1.10132    0.015
 4391.00    0.89883   1.11180    0.015
 4392.00    0.92753   1.12124    0.015
 4393.00    0.96125   1.12728    0.015
 4394.00    1.03588   1.12911    0.015
 4395.00    1.11203   1.12872    0.015
 4396.00    1.24717   1.12850    0.015
 4397.00    1.36629   1.12450    0.015
 4398.00    1.13306   1.11913    0.015
 4399.00    0.94253   1.11612    0.015
 4400.00    1.27956   1.11294    0.015
 4401.00    1.57570   1.10997    0.015
 4402.00    1.52797   1.10904    0.015
 4403.00    1.46625   1.11110    0.015
 4404.00    1.31683   1.11345    0.015
 4405.00    1.20497   1.11724    0.015
 4406.00    1.27780   1.12506    0.015
 4407.00    1.34463   1.13362    0.015
 4408.00    1.38749   1.14389    0.015
 4409.00    1.34991   1.15444    0.015
 4410.00    1.04555   1.16309    0.015
 4411.00    0.85169   1.16984    0.015
 4412.00    0.96743   1.17493    0.015
 4413.00    1.03003   1.18107    0.015
 4414.00    0.96527   1.18582    0.015
 4415.00    0.94373   1.19124    0.015
 4416.00    1.01166   1.19705    0.015
 4417.00    1.21193   1.19959    0.015
 4418.00    1.65044   1.20143    0.015
 4419.00    1.80446   1.20115    0.015
 4420.00    1.51066   1.19919    0.015
 4421.00    1.28662   1.19877    0.015
 4422.00    1.15899   1.19813    0.015
 4423.00    1.05959   1.19821    0.015
 4424.00    0.99451   1.19637    0.015
 4425.00    1.05221   1.19349    0.015
 4426.00    1.24157   1.19205    0.015
 4427.00    1.32673   1.18943    0.015
 4428.00    1.31333   1.18973    0.015
 4429.00    1.26513   1.19094    0.015
 4430.00    1.18791   1.19187    0.015
 4431.00    1.05371   1.19411    0.015
 4432.00    0.87768   1.19458    0.015
 4433.00    0.88421   1.19702    0.015
 4434.00    1.00845   1.20177    0.015
 4435.00    1.06839   1.20834    0.015
 4436.00    1.09207   1.21658    0.015
 4437.00    1.23156   1.22228    0.015
 4438.00    1.42790   1.22845    0.016
 4439.00    1.34685   1.23237    0.016
 4440.00    1.14810   1.23511    0.016
 4441.00    1.10402   1.23949    0.016
 4442.00    1.11615   1.24275    0.016
 4443.00    1.13553   1.24575    0.016
 4444.00    1.15714   1.24441    0.016
 4445.00    1.15490   1.24076    0.016
 4446.00    1.14654   1.23481    0.015
 4447.00    1.24998   1.22559    0.016
 4448.00    1.37673   1.21793    0.016
 4449.00    1.63549   1.20751    0.016
 4450.00    1.91593   1.19694    0.016
 4451.00    1.70060   1.18557    0.016
 4452.00    1.42414   1.17319    0.015
 4453.00    1.29685   1.16444    0.015
 4454.00    1.18226   1.15591    0.015
 4455.00    1.43523   1.15232    0.015
 4456.00    1.70634   1.15027    0.015
 4457.00    1.60216   1.14973    0.015
 4458.00    1.49358   1.15201    0.015
 4459.00    1.48286   1.15512    0.015
 4460.00    1.47157   1.16351    0.015
 4461.00    1.44869   1.17163    0.000
 4462.00    1.41904   1.18294    0.000
 4463.00    1.30986   1.19572    0.000
 4464.00    1.19477   1.20670    0.000
 4465.00    1.03170   1.21921    0.000
 4466.00    0.91496   1.23064    0.000
 4467.00    1.08016   1.24332    0.000
 4468.00    1.23145   1.25506    0.000
 4469.00    1.31603   1.26650    0.000
 4470.00    1.39383   1.27751    0.000
 4471.00    1.44517   1.28530    0.000
 4472.00    1.45776   1.29107    0.000
 4473.00    1.34434   1.29648    0.000
 4474.00    1.23181   1.30048    0.000
 4475.00    1.12171   1.30445    0.000
 4476.00    1.04044   1.30768    0.000
 4477.00    1.02711   1.30831    0.000
 4478.00    1.00271   1.30791    0.000
 4479.00    0.95577   1.30489    0.000
 4480.00    1.02204   1.30373    0.000
 4481.00    1.28897   1.30264    0.000
 4482.00    1.51398   1.30223    0.015
 4483.00    1.67397   1.30282    0.015
 4484.00    1.67952   1.30030    0.015
 4485.00    1.47473   1.29793    0.015
 4486.00    1.43754   1.29305    0.015
 4487.00    1.60132   1.29033    0.015
 4488.00    1.57380   1.29055    0.015
 4489.00    1.34403   1.29187    0.015
 4490.00    1.24184   1.29637    0.015
 4491.00    1.25863   1.29860    0.015
 4492.00    1.36692   1.30331    0.015
 4493.00    1.55044   1.30791    0.015
 4494.00    1.46310   1.31551    0.015
 4495.00    1.17976   1.32863    0.015
 4496.00    1.12502   1.34037    0.015
 4497.00    1.21550   1.35308    0.015
 4498.00    1.25151   1.36260    0.015
 4499.00    1.25727   1.37189    0.015
 4500.00    1.33340   1.38168    0.015
 4501.00    1.44352   1.38968    0.015
 4502.00    1.41737   1.39836    0.015
 4503.00    1.33437   1.40284    0.015
 4504.00    1.27197   1.40353    0.015
 4505.00    1.21693   1.40243    0.015
 4506.00    1.14640   1.40002    0.015
 4507.00    1.07119   1.39742    0.015
 4508.00    1.15807   1.39404    0.015
 4509.00    1.28553   1.38879    0.015
 4510.00    1.38018   1.38169    0.015
 4511.00    1.46816   1.37474    0.015
 4512.00    1.40480   1.36694    0.015
 4513.00    1.31730   1.36067    0.015
 4514.00    1.28746   1.35248    0.015
 4515.00    1.26447   1.34287    0.015
 4516.00    1.29626   1.33440    0.015
 4517.00    1.33249   1.32269    0.015
 4518.00    1.27696   1.31198    0.015
 4519.00    1.21726   1.29926    0.015
 4520.00    1.21151   1.28562    0.015
 4521.00    1.20977   1.27293    0.015
 4522.00    1.37876   1.25985    0.015
 4523.00    1.52265   1.24855    0.015
 4524.00    1.19539   1.23935    0.015
 4525.00    0.89945   1.22970    0.015
 4526.00    0.95443   1.22236    0.015
 4527.00    1.01894   1.21817    0.015
 4528.00    1.15809   1.21726    0.015
 4529.00    1.25606   1.22348    0.014
 4530.00    1.11056   1.22703    0.014
 4531.00    1.00164   1.23279    0.015
 4532.00    1.06396   1.23870    0.015
 4533.00    1.12619   1.24451    0.015
 4534.00    1.18809   1.25502    0.015
 4535.00    1.25310   1.26402    0.015
 4536.00    1.32804   1.27393    0.015
 4537.00    1.36542   1.27892    0.015
 4538.00    1.30128   1.28251    0.015
 4539.00    1.28457   1.28614    0.015
 4540.00    1.37772   1.28891    0.015
 4541.00    1.36432   1.29112    0.015
 4542.00    1.13731   1.29271    0.015
 4543.00    0.99667   1.29491    0.015
 4544.00    1.00681   1.29358    0.015
 4545.00    1.06991   1.29429    0.015
 4546.00    1.21395   1.29519    0.015
 4547.00    1.36558   1.29718    0.015
 4548.00    1.52743   1.30079    0.015
 4549.00    1.45685   1.30499    0.015
 4550.00    1.11153   1.31154    0.000
 4551.00    1.09107   1.31653    0.000
 4552.00    1.40922   1.32156    0.000
 4553.00    1.58796   1.32804    0.000
 4554.00    1.63853   1.33599    0.000
 4555.00    1.64398   1.34257    0.000
 4556.00    1.61288   1.34787    0.000
 4557.00    1.46577   1.35208    0.000
 4558.00    1.23593   1.35610    0.000
 4559.00    1.22203   1.36144    0.000
 4560.00    1.34329   1.36459    0.000
 4561.00    1.36429   1.36723    0.000
 4562.00    1.33046   1.36848    0.000
 4563.00    1.25246   1.36625    0.000
 4564.00    1.15345   1.36660    0.000
 4565.00    1.08731   1.36962    0.000
 4566.00    1.03465   1.37074    0.000
 4567.00    1.29709   1.36969    0.000
 4568.00    1.66994   1.36637    0.000
 4569.00    1.46538   1.36416    0.000
 4570.00    1.09017   1.36146    0.000
 4571.00    1.11511   1.35673    0.000
 4572.00    1.23806   1.35399    0.000
 4573.00    1.13581   1.34932    0.000
 4574.00    0.98893   1.34493    0.000
 4575.00    0.97428   1.34057    0.000
 4576.00    0.98010   1.33517    0.000
 4577.00    0.92905   1.33182    0.000
 4578.00    0.87150   1.32671    0.000
 4579.00    1.24200   1.32428    0.000
 4580.00    1.64539   1.32398    0.000
 4581.00    1.57629   1.32449    0.000
 4582.00    1.48753   1.32453    0.000
 4583.00    1.38632   1.32183    0.000
 4584.00    1.28475   1.32116    0.000
 4585.00    1.17226   1.32080    0.000
 4586.00    1.06791   1.32173    0.000
 4587.00    1.10593   1.32156    0.000
 4588.00    1.15521   1.32006    0.000
 4589.00    1.32489   1.31823    0.000
 4590.00    1.46385   1.31486    0.000
 4591.00    1.37066   1.31441    0.000
 4592.00    1.29908   1.31245    0.000
 4593.00    1.35164   1.31224    0.000
 4594.00    1.40430   1.31299    0.000
 4595.00    1.45742   1.31325    0.000
 4596.00    1.47592   1.31742    0.000
 4597.00    1.36487   1.31921    0.000
 4598.00    1.26022   1.32479    0.000
 4599.00    1.17561   1.33114    0.000
 4600.00    1.12871   1.33800    0.000
 4601.00    1.18193   1.34915    0.000
 4602.00    1.23289   1.35698    0.000
 4603.00    1.27870   1.36575    0.000
 4604.00    1.25334   1.37441    0.000
 4605.00    1.08756   1.38213    0.000
 4606.00    1.05354   1.39224    0.000
 4607.00    1.24609   1.40158    0.000
 4608.00    1.30753   1.40840    0.000
 4609.00    1.17154   1.41434    0.000
 4610.00    1.08157   1.41792    0.000
 4611.00    1.05248   1.42135    0.000
 4612.00    1.14782   1.42561    0.000
 4613.00    1.38816   1.42844    0.000
 4614.00    1.59236   1.43103    0.000
 4615.00    1.75943   1.43130    0.000
 4616.00    1.69271   1.43088    0.000
 4617.00    1.41409   1.43061    0.000
 4618.00    1.28360   1.42919    0.000
 4619.00    1.27145   1.42828    0.000
 4620.00    1.24570   1.42725    0.000
 4621.00    1.21038   1.42360    0.000
 4622.00    1.18142   1.41973    0.000
 4623.00    1.15639   1.41685    0.000
 4624.00    1.21245   1.41168    0.000
 4625.00    1.31218   1.40624    0.000
 4626.00    1.35323   1.40016    0.000
 4627.00    1.36684   1.39266    0.000
 4628.00    1.53096   1.38631    0.000
 4629.00    1.75576   1.37771    0.000
 4630.00    1.72623   1.36957    0.000
 4631.00    1.60922   1.36112    0.000
 4632.00    1.41416   1.34958    0.000
 4633.00    1.19651   1.34074    0.000
 4634.00    1.29154   1.33172    0.000
 4635.00    1.46147   1.32369    0.000
 4636.00    1.27821   1.31563    0.000
 4637.00    1.02673   1.30573    0.000
 4638.00    0.97120   1.29825    0.000
 4639.00    0.94509   1.29176    0.000
 4640.00    1.05506   1.28764    0.000
 4641.00    1.18002   1.28461    0.000
 4642.00    1.33445   1.28196    0.000
 4643.00    1.49102   1.28033    0.000
 4644.00    1.42461   1.28101    0.000
 4645.00    1.34978   1.28395    0.000
 4646.00    1.38391   1.28734    0.000
 4647.00    1.41637   1.29342    0.000
 4648.00    1.36617   1.29823    0.000
 4649.00    1.33224   1.30415    0.000
 4650.00    1.56404   1.31106    0.000
 4651.00    1.74293   1.31667    0.000
 4652.00    1.38028   1.32452    0.000
 4653.00    1.07117   1.32744    0.000
 4654.00    1.15331   1.32816    0.000
 4655.00    1.23488   1.32875    0.000
 4656.00    1.31323   1.32782    0.000
 4657.00    1.36445   1.32790    0.000
 4658.00    1.29464   1.32390    0.000
 4659.00    1.22459   1.31704    0.000
 4660.00    1.15368   1.30916    0.000
 4661.00    1.03057   1.30145    0.000
 4662.00    0.74735   1.29636    0.000
 4663.00    0.62440   1.29348    0.000
 4664.00    0.91941   1.29004    0.000
 4665.00    1.13569   1.28579    0.000
 4666.00    1.17549   1.28186    0.000
 4667.00    1.28623   1.28104    0.000
 4668.00    1.53475   1.28529    0.000
 4669.00    1.64155   1.28884    0.000
 4670.00    1.50835   1.29198    0.000
 4671.00    1.36165   1.29333    0.000
 4672.00    1.19491   1.29420    0.000
 4673.00    1.12358   1.29807    0.000
 4674.00    1.17668   1.30034    0.000
 4675.00    1.20181   1.30365    0.000
 4676.00    1.19479   1.30503    0.000
 4677.00    1.21935   1.30437    0.000
 4678.00    1.27591   1.30512    0.000
 4679.00    1.26818   1.30475    0.000
 4680.00    1.20300   1.30588    0.000
 4681.00    1.18463   1.30658    0.000
 4682.00    1.20314   1.30692    0.000
 4683.00    1.28974   1.30804    0.000
 4684.00    1.42350   1.30772    0.000
 4685.00    1.52320   1.30714    0.000
 4686.00    1.60221   1.30695    0.000
 4687.00    1.58740   1.30707    0.000
 4688.00    1.52285   1.30733    0.000
 4689.00    1.58767   1.30666    0.000
 4690.00    1.71203   1.30352    0.000
 4691.00    1.62537   1.30082    0.000
 4692.00    1.45511   1.29793    0.000
 4693.00    1.42985   1.29500    0.000
 4694.00    1.45356   1.29316    0.000
 4695.00    1.53606   1.28870    0.000
 4696.00    1.63524   1.28428    0.000
 4697.00    1.44645   1.27997    0.000
 4698.00    1.19024   1.27732    0.000
 4699.00    1.15331   1.27723    0.000
 4700.00    1.15764   1.27643    0.000
 4701.00    1.16123   1.27448    0.000
 4702.00    1.16471   1.27383    0.000
 4703.00    1.26049   1.27702    0.000
 4704.00    1.36603   1.28155    0.000
 4705.00    1.41831   1.28761    0.000
 4706.00    1.46693   1.29116    0.000
 4707.00    1.43268   1.29623    0.000
 4708.00    1.39562   1.30498    0.000
 4709.00    1.51340   1.31290    0.000
 4710.00    1.61969   1.32428    0.000
 4711.00    1.34459   1.33232    0.000
 4712.00    1.08736   1.33925    0.000
 4713.00    1.10434   1.34817    0.000
 4714.00    1.12122   1.35449    0.000
 4715.00    1.13708   1.36290    0.000
 4716.00    1.15262   1.36748    0.000
 4717.00    1.16588   1.36843    0.000
 4718.00    1.17462   1.37055    0.000
 4719.00    1.15879   1.36961    0.000
 4720.00    1.15625   1.36767    0.000
 4721.00    1.21166   1.36272    0.000
 4722.00    1.23552   1.35628    0.000
 4723.00    1.14620   1.35225    0.000
 4724.00    1.12358   1.34812    0.000
 4725.00    1.30175   1.34277    0.000
 4726.00    1.42905   1.33638    0.000
 4727.00    1.42597   1.33299    0.000
 4728.00    1.39781   1.33174    0.000
 4729.00    1.31437   1.33311    0.000
 4730.00    1.27114   1.33446    0.000
 4731.00    1.30477   1.33479    0.000
 4732.00    1.33838   1.34009    0.000
 4733.00    1.37197   1.34487    0.000
 4734.00    1.37064   1.35005    0.000
 4735.00    1.31827   1.35593    0.000
 4736.00    1.31394   1.36008    0.000
 4737.00    1.37135   1.36804    0.000
 4738.00    1.40625   1.37426    0.000
 4739.00    1.41566   1.37722    0.000
 4740.00    1.47301   1.38147    0.000
 4741.00    1.57827   1.38413    0.000
 4742.00    1.58936   1.38785    0.000
 4743.00    1.51748   1.39017    0.000
 4744.00    1.39195   1.38874    0.000
 4745.00    1.22477   1.38844    0.000
 4746.00    1.22322   1.38674    0.000
 4747.00    1.33474   1.38442    0.000
 4748.00    1.33667   1.38070    0.000
 4749.00    1.27304   1.37608    0.000
 4750.00    1.37868   1.37162    0.000
 4751.00    1.57268   1.36532    0.000
 4752.00    1.69839   1.35990    0.000
 4753.00    1.79321   1.35331    0.000
 4754.00    1.64241   1.34773    0.000
 4755.00    1.39599   1.34151    0.000
 4756.00    1.38097   1.33434    0.000
 4757.00    1.44264   1.33006    0.000
 4758.00    1.44678   1.32557    0.000
 4759.00    1.43494   1.32259    0.000
 4760.00    1.28887   1.31861    0.000
 4761.00    1.11209   1.31647    0.013
 4762.00    1.12486   1.31805    0.013
 4763.00    1.17234   1.32026    0.013
 4764.00    1.31382   1.32412    0.013
 4765.00    1.46854   1.32515    0.013
 4766.00    1.45116   1.32982    0.013
 4767.00    1.41632   1.33714    0.013
 4768.00    1.55194   1.34371    0.013
 4769.00    1.69858   1.35109    0.013
 4770.00    1.63478   1.35270    0.013
 4771.00    1.56475   1.35715    0.013
 4772.00    1.56085   1.36226    0.013
 4773.00    1.56040   1.36474    0.013
 4774.00    1.65997   1.36813    0.013
 4775.00    1.74237   1.36493    0.013
 4776.00    1.57665   1.36375    0.013
 4777.00    1.42846   1.36344    0.013
 4778.00    1.44515   1.36047    0.013
 4779.00    1.43518   1.36083    0.013
 4780.00    1.24262   1.35662    0.013
 4781.00    1.09874   1.35443    0.012
 4782.00    1.21275   1.35569    0.012
 4783.00    1.31434   1.35484    0.013
 4784.00    1.36305   1.35829    0.013
 4785.00    1.39781   1.35977    0.013
 4786.00    1.38349   1.36191    0.013
 4787.00    1.37600   1.36801    0.013
 4788.00    1.38866   1.37187    0.013
 4789.00    1.43065   1.37700    0.013
 4790.00    1.54648   1.38153    0.013
 4791.00    1.58678   1.38494    0.013
 4792.00    1.46327   1.38938    0.013
 4793.00    1.40377   1.39193    0.013
 4794.00    1.46477   1.39304    0.013
 4795.00    1.49742   1.39480    0.013
 4796.00    1.48349   1.39538    0.013
 4797.00    1.40656   1.39454    0.013
 4798.00    1.23883   1.39360    0.013
 4799.00    1.17993   1.39103    0.013
 4800.00    1.25898   1.39082    0.013
 4801.00    1.34392   1.39046    0.013
 4802.00    1.43546   1.38773    0.013
 4803.00    1.57661   1.38747    0.013
 4804.00    1.76663   1.38646    0.013
 4805.00    1.78168   1.38751    0.013
 4806.00    1.64474   1.38950    0.013
 4807.00    1.46938   1.38866    0.013
 4808.00    1.26463   1.39133    0.013
 4809.00    1.24163   1.39390    0.013
 4810.00    1.34089   1.39609    0.013
 4811.00    1.43757   1.39936    0.013
 4812.00    1.53272   1.39829    0.013
 4813.00    1.36978   1.39996    0.013
 4814.00    1.07422   1.40246    0.013
 4815.00    1.20902   1.40174    0.013
 4816.00    1.53543   1.40160    0.013
 4817.00    1.50052   1.39654    0.013
 4818.00    1.32737   1.39345    0.013
 4819.00    1.30130   1.39418    0.013
 4820.00    1.32304   1.39005    0.013
 4821.00    1.43580   1.38553    0.013
 4822.00    1.57333   1.37965    0.013
 4823.00    1.50013   1.37504    0.013
 4824.00    1.37985   1.37568    0.013
 4825.00    1.40077   1.37214    0.013
 4826.00    1.44684   1.36682    0.013
 4827.00    1.47798   1.36406    0.013
 4828.00    1.50709   1.36163    0.014
 4829.00    1.46034   1.36188    0.013
 4830.00    1.40622   1.36020    0.013
 4831.00    1.49791   1.35705    0.013
 4832.00    1.59845   1.35519    0.014
 4833.00    1.53905   1.35359    0.013
 4834.00    1.47560   1.35344    0.013
 4835.00    1.44615   1.35249    0.013
 4836.00    1.41655   1.35132    0.013
 4837.00    1.38322   1.34760    0.013
 4838.00    1.35714   1.34460    0.013
 4839.00    1.42992   1.34520    0.013
 4840.00    1.47611   1.34314    0.013
 4841.00    1.28200   1.34056    0.013
 4842.00    1.12093   1.33472    0.013
 4843.00    1.17900   1.32792    0.013
 4844.00    1.24425   1.32486    0.013
 4845.00    1.34650   1.31781    0.013
 4846.00    1.39485   1.30974    0.013
 4847.00    1.21890   1.30052    0.013
 4848.00    1.08301   1.28774    0.000
 4849.00    1.08512   1.27547    0.000
 4850.00    1.12511   1.26170    0.000
 4851.00    1.27493   1.25076    0.000
 4852.00    1.37272   1.24038    0.000
 4853.00    1.34173   1.22576    0.000
 4854.00    1.34821   1.21170    0.000
 4855.00    1.43460   1.19863    0.000
 4856.00    1.53879   1.19291    0.000
 4857.00    1.67596   1.19034    0.000
 4858.00    1.73725   1.18359    0.000
 4859.00    1.67570   1.17933    0.000
 4860.00    1.53847   1.17630    0.000
 4861.00    1.29378   1.17897    0.000
 4862.00    1.20825   1.18582    0.000
 4863.00    1.32157   1.19056    0.000
 4864.00    1.37889   1.19528    0.000
 4865.00    1.37455   1.19853    0.000
 4866.00    1.38144   1.20577    0.000
 4867.00    1.39924   1.21693    0.000
 4868.00    1.28869   1.22783    0.000
 4869.00    1.06821   1.23466    0.000
 4870.00    1.06347   1.23872    0.000
 4871.00    1.22145   1.24731    0.000
 4872.00    1.28943   1.25644    0.000
 4873.00    1.29776   1.26679    0.000
 4874.00    1.24975   1.27193    0.000
 4875.00    1.16905   1.27079    0.012
 4876.00    1.29566   1.27595    0.012
 4877.00    1.52713   1.28109    0.013
 4878.00    1.49909   1.28534    0.013
 4879.00    1.35741   1.28553    0.013
 4880.00    1.26883   1.27936    0.013
 4881.00    1.20020   1.28256    0.013
 4882.00    1.20210   1.28785    0.013
 4883.00    1.22649   1.29047    0.013
 4884.00    1.17639   1.29269    0.013
 4885.00    1.10642   1.29014    0.013
 4886.00    1.17683   1.29886    0.013
 4887.00    1.27786   1.31198    0.013
 4888.00    1.32857   1.31881    0.013
 4889.00    1.37055   1.32768    0.012
 4890.00    1.28126   1.33374    0.012
 4891.00    1.17468   1.34450    0.012
 4892.00    1.23923   1.35887    0.013
 4893.00    1.31969   1.36475    0.013
 4894.00    1.42059   1.37041    0.013
 4895.00    1.52266   1.37794    0.013
 4896.00    1.46345   1.38224    0.013
 4897.00    1.40132   1.38548    0.013
 4898.00    1.42253   1.38489    0.013
 4899.00    1.44980   1.38317    0.013
 4900.00    1.62083   1.38533    0.013
 4901.00    1.76855   1.38292    0.013
 4902.00    1.61507   1.37668    0.013
 4903.00    1.47094   1.37145    0.013
 4904.00    1.40804   1.36569    0.013
 4905.00    1.36642   1.36222    0.013
 4906.00    1.46172   1.35687    0.013
 4907.00    1.51331   1.34777    0.013
 4908.00    1.34512   1.33969    0.013
 4909.00    1.25633   1.33201    0.013
 4910.00    1.49071   1.32556    0.013
 4911.00    1.63814   1.31984    0.013
 4912.00    1.49213   1.31154    0.013
 4913.00    1.39270   1.30312    0.013
 4914.00    1.42587   1.29713    0.013
 4915.00    1.42719   1.29519    0.013
 4916.00    1.35104   1.29575    0.013
 4917.00    1.26687   1.29511    0.013
 4918.00    1.16587   1.29426    0.013
 4919.00    1.12775   1.29500    0.013
 4920.00    1.20436   1.30319    0.013
 4921.00    1.27504   1.31302    0.013
 4922.00    1.33628   1.31818    0.013
 4923.00    1.39191   1.32489    0.013
 4924.00    1.43968   1.32996    0.013
 4925.00    1.49144   1.33841    0.013
 4926.00    1.54810   1.34751    0.013
 4927.00    1.55997   1.34690    0.013
 4928.00    1.52322   1.34915    0.013
 4929.00    1.50881   1.35421    0.013
 4930.00    1.51577   1.35628    0.013
 4931.00    1.53480   1.35814    0.013
 4932.00    1.56402   1.35444    0.013
 4933.00    1.62230   1.35300    0.013
 4934.00    1.70217   1.36009    0.013
 4935.00    1.65072   1.36480    0.013
 4936.00    1.51351   1.36571    0.013
 4937.00    1.43398   1.36826    0.013
 4938.00    1.38742   1.37277    0.013
 4939.00    1.39079   1.37984    0.013
 4940.00    1.41900   1.38688    0.000
 4941.00    1.46183   1.39064    0.000
 4942.00    1.51094   1.39505    0.000
 4943.00    1.64016   1.39829    0.000
 4944.00    1.79894   1.39881    0.000
 4945.00    1.71416   1.40008    0.000
 4946.00    1.55318   1.39787    0.000
 4947.00    1.56152   1.39420    0.000
 4948.00    1.61404   1.38898    0.000
 4949.00    1.52560   1.38316    0.000
 4950.00    1.40715   1.37972    0.000
 4951.00    1.44456   1.36772    0.000
 4952.00    1.50823   1.35816    0.000
 4953.00    1.41070   1.35560    0.000
 4954.00    1.29267   1.35021    0.000
 4955.00    1.25579   1.34643    0.000
 4956.00    1.22611   1.33581    0.000
 4957.00    1.33010   1.33043    0.000
 4958.00    1.44114   1.33589    0.000
 4959.00    1.42666   1.33273    0.000
 4960.00    1.40884   1.33068    0.000
 4961.00    1.31763   1.33023    0.000
 4962.00    1.23635   1.32971    0.000
 4963.00    1.37082   1.33491    0.000
 4964.00    1.49515   1.33184    0.000
 4965.00    1.49499   1.33039    0.000
 4966.00    1.49147   1.33443    0.000
 4967.00    1.45980   1.33170    0.000
 4968.00    1.43692   1.33140    0.000
 4969.00    1.46885   1.32787    0.000
 4970.00    1.48816   1.32285    0.000
 4971.00    1.44559   1.32175    0.000
 4972.00    1.38786   1.31351    0.000
 4973.00    1.26980   1.30698    0.000
 4974.00    1.20116   1.30174    0.000
 4975.00    1.29595   1.29387    0.000
 4976.00    1.37077   1.28758    0.000
 4977.00    1.38972   1.27828    0.000
 4978.00    1.38748   1.27429    0.000
 4979.00    1.33456   1.27263    0.000
 4980.00    1.30056   1.26785    0.000
 4981.00    1.30567   1.26697    0.000
 4982.00    1.29309   1.26459    0.000
 4983.00    1.24871   1.26694    0.000
 4984.00    1.25181   1.27096    0.000
 4985.00    1.32949   1.26841    0.000
 4986.00    1.36730   1.27403    0.000
 4987.00    1.35011   1.27706    0.000
 4988.00    1.36742   1.27466    0.000
 4989.00    1.42660   1.27810    0.000
 4990.00    1.45033   1.27448    0.000
 4991.00    1.43611   1.27299    0.000
 4992.00    1.44571   1.27274    0.000
 4993.00    1.47780   1.26310    0.000
 4994.00    1.37074   1.26002    0.000
 4995.00    1.14784   1.25510    0.000
 4996.00    1.12205   1.24542    0.000
 4997.00    1.24071   1.24070    0.000
 4998.00    1.38964   1.23133    0.000
 4999.00    1.55806   1.22351    0.000
 5000.00    1.55844   1.21701    0.000
 5001.00    1.46424   1.20887    0.000
 5002.00    1.48988   1.20654    0.000
 5003.00    1.57424   1.20068    0.000
 5004.00    1.63550   1.19392    0.000
 5005.00    1.68699   1.18944    0.000
 5006.00    1.61183   1.18485    0.000
 5007.00    1.49074   1.18617    0.000
 5008.00    1.44276   1.18246    0.000
 5009.00    1.41721   1.17903    0.000
 5010.00    1.46285   1.18234    0.000
 5011.00    1.52666   1.18040    0.000
 5012.00    1.43375   1.18147    0.000
 5013.00    1.30827   1.18221    0.000
 5014.00    1.22829   1.18417    0.000
 5015.00    1.15575   1.19372    0.000
 5016.00    1.21551   1.19522    0.000
 5017.00    1.29151   1.19890    0.000
 5018.00    1.37623   1.20712    0.000
 5019.00    1.46170   1.21224    0.000
 5020.00    1.53058   1.22262    0.000
 5021.00    1.59866   1.22526    0.000
 5022.00    1.46443   1.22888    0.000
 5023.00    1.33056   1.24140    0.000
 5024.00    1.40894   1.24468    0.000
 5025.00    1.47773   1.24958    0.000
 5026.00    1.35410   1.25159    0.000
 5027.00    1.24930   1.24861    0.000
 5028.00    1.36437   1.25655    0.000
 5029.00    1.44791   1.25569    0.013
 5030.00    1.27698   1.24906    0.012
 5031.00    1.15277   1.25053    0.012
 5032.00    1.31185   1.24634    0.013
 5033.00    1.46242   1.24527    0.013
 5034.00    1.57225   1.24271    0.013
 5035.00    1.61040   1.23253    0.013
 5036.00    1.36932   1.23646    0.013
 5037.00    1.18796   1.24001    0.013
 5038.00    1.20027   1.23662    0.013
 5039.00    1.22752   1.23839    0.013
 5040.00    1.29581   1.23765    0.012
 5041.00    1.39286   1.24372    0.012
 5042.00    1.55756   1.25190    0.012
 5043.00    1.63066   1.25215    0.012
 5044.00    1.51758   1.25905    0.012
 5045.00    1.44496   1.26740    0.012
 5046.00    1.44396   1.27251    0.012
 5047.00    1.43366   1.27725    0.012
 5048.00    1.40897   1.28073    0.012
 5049.00    1.34089   1.28935    0.012
 5050.00    1.21382   1.29526    0.012
 5051.00    1.22032   1.29730    0.012
 5052.00    1.38669   1.30360    0.012
 5053.00    1.47704   1.30738    0.012
 5054.00    1.48715   1.31025    0.012
 5055.00    1.48835   1.31010    0.012
 5056.00    1.48124   1.30761    0.012
 5057.00    1.44732   1.31083    0.012
 5058.00    1.39142   1.30718    0.012
 5059.00    1.40503   1.30042    0.012
 5060.00    1.46884   1.29938    0.012
 5061.00    1.48091   1.29531    0.012
 5062.00    1.46019   1.28999    0.012
 5063.00    1.35459   1.28120    0.012
 5064.00    1.20194   1.27344    0.012
 5065.00    1.18339   1.27237    0.012
 5066.00    1.22950   1.26554    0.012
 5067.00    1.25529   1.25656    0.012
 5068.00    1.27262   1.25301    0.012
 5069.00    1.36262   1.25038    0.012
 5070.00    1.47850   1.24377    0.012
 5071.00    1.44867   1.23530    0.012
 5072.00    1.37501   1.23305    0.012
 5073.00    1.20489   1.23245    0.012
 5074.00    1.01067   1.22738    0.012
 5075.00    1.19162   1.22362    0.012
 5076.00    1.44859   1.22510    0.012
 5077.00    1.53043   1.22770    0.012
 5078.00    1.58443   1.22574    0.012
 5079.00    1.47099   1.22521    0.012
 5080.00    1.33773   1.23183    0.012
 5081.00    1.29666   1.23801    0.012
 5082.00    1.26300   1.23980    0.012
 5083.00    1.30015   1.24412    0.012
 5084.00    1.34048   1.25144    0.011
 5085.00    1.33929   1.25607    0.011
 5086.00    1.33926   1.25823    0.012
 5087.00    1.42098   1.26002    0.011
 5088.00    1.49747   1.26329    0.011
 5089.00    1.47662   1.26485    0.011
 5090.00    1.44500   1.26090    0.011
 5091.00    1.29351   1.26019    0.012
 5092.00    1.16913   1.26125    0.012
 5093.00    1.25601   1.25667    0.012
 5094.00    1.33487   1.25257    0.012
 5095.00    1.36646   1.24852    0.012
 5096.00    1.40927   1.24521    0.012
 5097.00    1.50448   1.24358    0.012
 5098.00    1.56624   1.23627    0.012
 5099.00    1.50057   1.23427    0.012
 5100.00    1.41413   1.23764    0.012
 5101.00    1.26165   1.23331    0.012
 5102.00    1.12659   1.23288    0.012
 5103.00    1.03851   1.23489    0.012
 5104.00    1.03532   1.23341    0.012
 5105.00    1.22845   1.23845    0.012
 5106.00    1.31626   1.23896    0.012
 5107.00    1.19340   1.23869    0.012
 5108.00    1.15045   1.24679    0.012
 5109.00    1.24677   1.24638    0.012
 5110.00    1.29390   1.24717    0.012
 5111.00    1.26603   1.25192    0.012
 5112.00    1.24499   1.24852    0.012
 5113.00    1.23309   1.24983    0.012
 5114.00    1.29424   1.24847    0.013
 5115.00    1.44159   1.24149    0.013
 5116.00    1.51332   1.24167    0.013
 5117.00    1.50635   1.23711    0.013
 5118.00    1.45493   1.23035    0.013
 5119.00    1.36273   1.22683    0.012
 5120.00    1.36624   1.21979    0.012
 5121.00    1.44720   1.21627    0.012
 5122.00    1.47361   1.21248    0.012
 5123.00    1.46120   1.20756    0.012
 5124.00    1.38595   1.20726    0.012
 5125.00    1.27144   1.20507    0.012
 5126.00    1.28420   1.20534    0.012
 5127.00    1.36642   1.20547    0.012
 5128.00    1.35200   1.20318    0.012
 5129.00    1.29174   1.20555    0.012
 5130.00    1.33402   1.20333    0.012
 5131.00    1.41827   1.20420    0.012
 5132.00    1.38809   1.20821    0.012
 5133.00    1.31792   1.20072    0.012
 5134.00    1.35641   1.20122    0.012
 5135.00    1.42693   1.20357    0.012
 5136.00    1.44426   1.19604    0.012
 5137.00    1.44860   1.19595    0.012
 5138.00    1.44652   1.19152    0.012
 5139.00    1.44317   1.18753    0.012
 5140.00    1.33956   1.19320    0.012
 5141.00    1.22050   1.18609    0.012
 5142.00    1.13912   1.18118    0.011
 5143.00    1.06204   1.18756    0.011
 5144.00    1.05976   1.18494    0.011
 5145.00    1.06319   1.18331    0.011
 5146.00    1.17995   1.18622    0.011
 5147.00    1.30138   1.18561    0.011
 5148.00    1.39381   1.19005    0.012
 5149.00    1.48361   1.19193    0.012
 5150.00    1.47249   1.18692    0.012
 5151.00    1.46273   1.18911    0.012
 5152.00    1.47641   1.18937    0.012
 5153.00    1.46736   1.18120    0.012
 5154.00    1.21655   1.17718    0.012
 5155.00    1.00586   1.16986    0.012
 5156.00    1.09700   1.15812    0.012
 5157.00    1.19490   1.14793    0.012
 5158.00    1.33146   1.13002    0.012
 5159.00    1.44185   1.11340    0.012
 5160.00    1.43303   1.10097    0.012
 5161.00    1.39565   1.08246    0.012
 5162.00    1.25165   1.06592    0.012
 5163.00    1.14055   1.05011    0.012
 5164.00    1.13211   1.03386    0.012
 5165.00    1.15922   1.02493    0.012
 5166.00    1.28048   1.01550    0.012
 5167.00    1.35607   1.00638    0.012
 5168.00    1.32783   1.00489    0.012
 5169.00    1.27183   1.00670    0.012
 5170.00    1.16115   1.00761    0.012
 5171.00    1.10176   1.00537    0.012
 5172.00    1.13039   1.00725    0.012
 5173.00    1.17899   1.01791    0.012
 5174.00    1.25761   1.02340    0.012
 5175.00    1.30705   1.02593    0.012
 5176.00    1.31795   1.03536    0.012
 5177.00    1.28259   1.04472    0.012
 5178.00    1.19341   1.05291    0.012
 5179.00    1.13934   1.05745    0.012
 5180.00    1.12128   1.06337    0.012
 5181.00    1.13646   1.07794    0.012
 5182.00    1.18170   1.08322    0.012
 5183.00    1.19276   1.08574    0.012
 5184.00    1.17657   1.10203    0.012
 5185.00    1.19209   1.11459    0.012
 5186.00    1.22986   1.12197    0.011
 5187.00    1.30646   1.13041    0.012
 5188.00    1.40694   1.13714    0.012
 5189.00    1.44470   1.14883    0.012
 5190.00    1.44875   1.15528    0.000
 5191.00    1.49042   1.15396    0.000
 5192.00    1.54964   1.16143    0.000
 5193.00    1.44223   1.16781    0.000
 5194.00    1.26779   1.16648    0.000
 5195.00    1.25676   1.16731    0.000
 5196.00    1.30181   1.16577    0.000
 5197.00    1.27047   1.16434    0.000
 5198.00    1.21707   1.16417    0.000
 5199.00    1.23759   1.15921    0.000
 5200.00    1.27577   1.15741    0.000
 5201.00    1.25479   1.15648    0.000
 5202.00    1.22243   1.15540    0.000
 5203.00    1.14675   1.15761    0.000
 5204.00    1.06458   1.15571    0.000
 5205.00    1.10930   1.15868    0.000
 5206.00    1.16792   1.16736    0.000
 5207.00    1.15223   1.16935    0.000
 5208.00    1.13117   1.17531    0.000
 5209.00    1.28421   1.18579    0.000
 5210.00    1.44375   1.19274    0.000
 5211.00    1.35409   1.20034    0.011
 5212.00    1.26403   1.20678    0.011
 5213.00    1.20165   1.21265    0.011
 5214.00    1.14640   1.21709    0.011
 5215.00    1.20694   1.21740    0.011
 5216.00    1.25262   1.22123    0.011
 5217.00    1.14718   1.22474    0.011
 5218.00    1.07721   1.22288    0.011
 5219.00    1.26545   1.22501    0.011
 5220.00    1.42237   1.22577    0.012
 5221.00    1.40479   1.22385    0.012
 5222.00    1.36945   1.22683    0.012
 5223.00    1.25511   1.22532    0.012
 5224.00    1.17823   1.22725    0.012
 5225.00    1.23822   1.23410    0.012
 5226.00    1.28810   1.23321    0.012
 5227.00    1.30700   1.24185    0.012
 5228.00    1.32337   1.25332    0.012
 5229.00    1.33314   1.25517    0.012
 5230.00    1.33937   1.26513    0.012
 5231.00    1.33768   1.27285    0.012
 5232.00    1.32644   1.27579    0.012
 5233.00    1.29672   1.28620    0.012
 5234.00    1.34317   1.29028    0.012
 5235.00    1.51840   1.29246    0.012
 5236.00    1.55109   1.30063    0.012
 5237.00    1.37267   1.30175    0.012
 5238.00    1.26501   1.29885    0.012
 5239.00    1.24946   1.29990    0.012
 5240.00    1.18824   1.29918    0.012
 5241.00    1.07462   1.29648    0.012
 5242.00    1.11019   1.29274    0.012
 5243.00    1.29666   1.28693    0.012
 5244.00    1.29958   1.28712    0.012
 5245.00    1.13874   1.28473    0.012
 5246.00    1.10266   1.27326    0.012
 5247.00    1.16467   1.27250    0.012
 5248.00    1.16513   1.27344    0.012
 5249.00    1.12302   1.26395    0.012
 5250.00    1.12325   1.25940    0.012
 5251.00    1.14915   1.25497    0.012
 5252.00    1.26728   1.24933    0.012
 5253.00    1.43421   1.24376    0.012
 5254.00    1.47923   1.22936    0.012
 5255.00    1.46827   1.22265    0.012
 5256.00    1.35734   1.21865    0.012
 5257.00    1.20689   1.20099    0.012
 5258.00    1.24050   1.18958    0.012
 5259.00    1.33610   1.18376    0.012
 5260.00    1.35148   1.17073    0.012
 5261.00    1.34415   1.16113    0.012
 5262.00    1.33777   1.15483    0.012
 5263.00    1.33160   1.14937    0.012
 5264.00    1.29120   1.14956    0.012
 5265.00    1.24438   1.14783    0.012
 5266.00    1.22503   1.15054    0.012
 5267.00    1.20967   1.16384    0.012
 5268.00    1.22348   1.16812    0.012
 5269.00    1.24036   1.17145    0.012
 5270.00    1.27621   1.19193    0.012
 5271.00    1.31334   1.20650    0.012
 5272.00    1.34289   1.21404    0.012
 5273.00    1.37218   1.23335    0.012
 5274.00    1.36473   1.24800    0.012
 5275.00    1.35507   1.25839    0.012
 5276.00    1.27619   1.27531    0.012
 5277.00    1.20564   1.28734    0.012
 5278.00    1.26195   1.29880    0.012
 5279.00    1.31115   1.31094    0.011
 5280.00    1.29095   1.31706    0.011
 5281.00    1.27872   1.32652    0.011
 5282.00    1.32261   1.33556    0.011
 5283.00    1.35376   1.33807    0.012
 5284.00    1.31582   1.34396    0.012
 5285.00    1.29746   1.34880    0.012
 5286.00    1.36421   1.34792    0.012
 5287.00    1.44318   1.34924    0.012
 5288.00    1.56586   1.34948    0.011
 5289.00    1.64921   1.34643    0.011
 5290.00    1.61440   1.34601    0.012
 5291.00    1.56646   1.34451    0.012
 5292.00    1.48496   1.34147    0.012
 5293.00    1.42843   1.34156    0.012
 5294.00    1.42684   1.34133    0.012
 5295.00    1.39485   1.34198    0.012
 5296.00    1.30487   1.34417    0.012
 5297.00    1.25068   1.34506    0.012
 5298.00    1.25611   1.35085    0.012
 5299.00    1.26947   1.35887    0.012
 5300.00    1.29439   1.36198    0.012
 5301.00    1.36126   1.36679    0.012
 5302.00    1.48194   1.37487    0.012
 5303.00    1.52190   1.37989    0.012
 5304.00    1.47060   1.38341    0.012
 5305.00    1.41332   1.38776    0.012
 5306.00    1.35009   1.38911    0.012
 5307.00    1.31228   1.38872    0.012
 5308.00    1.29683   1.38929    0.012
 5309.00    1.32477   1.38615    0.011
 5310.00    1.38632   1.38172    0.011
 5311.00    1.40229   1.37807    0.011
 5312.00    1.38718   1.36849    0.012
 5313.00    1.43803   1.35952    0.011
 5314.00    1.52826   1.35423    0.011
 5315.00    1.51341   1.34226    0.011
 5316.00    1.44381   1.32964    0.011
 5317.00    1.45517   1.32192    0.011
 5318.00    1.50310   1.31155    0.011
 5319.00    1.56343   1.30179    0.011
 5320.00    1.62857   1.29329    0.011
 5321.00    1.51828   1.28476    0.011
 5322.00    1.35001   1.28099    0.011
 5323.00    1.31333   1.27563    0.011
 5324.00    1.31313   1.26975    0.011
 5325.00    1.31322   1.27233    0.011
 5326.00    1.31337   1.27432    0.011
 5327.00    1.22032   1.27135    0.011
 5328.00    1.11026   1.27470    0.011
 5329.00    1.17907   1.28286    0.011
 5330.00    1.27297   1.28795    0.011
 5331.00    1.35557   1.29137    0.011
 5332.00    1.43702   1.29701    0.011
 5333.00    1.42406   1.30223    0.011
 5334.00    1.40504   1.30672    0.011
 5335.00    1.34527   1.31268    0.011
 5336.00    1.28458   1.31461    0.011
 5337.00    1.34189   1.31855    0.011
 5338.00    1.39590   1.32591    0.011
 5339.00    1.35521   1.32613    0.011
 5340.00    1.31677   1.33056    0.011
 5341.00    1.31050   1.33969    0.011
 5342.00    1.30934   1.34238    0.011
 5343.00    1.35590   1.34960    0.011
 5344.00    1.40286   1.35710    0.011
 5345.00    1.45260   1.36067    0.011
 5346.00    1.48650   1.37020    0.011
 5347.00    1.43679   1.37761    0.011
 5348.00    1.40359   1.38229    0.011
 5349.00    1.44046   1.38913    0.011
 5350.00    1.50079   1.39488    0.011
 5351.00    1.64332   1.40046    0.011
 5352.00    1.71714   1.40177    0.011
 5353.00    1.58842   1.40253    0.012
 5354.00    1.49008   1.40537    0.012
 5355.00    1.46808   1.40110    0.011
 5356.00    1.44718   1.39682    0.011
 5357.00    1.42866   1.39461    0.011
 5358.00    1.38907   1.38672    0.011
 5359.00    1.30988   1.38066    0.011
 5360.00    1.23262   1.37519    0.011
 5361.00    1.15851   1.36543    0.011
 5362.00    1.13909   1.35999    0.011
 5363.00    1.19832   1.35552    0.011
 5364.00    1.25619   1.34799    0.011
 5365.00    1.31235   1.34516    0.011
 5366.00    1.31872   1.34390    0.011
 5367.00    1.26959   1.34045    0.011
 5368.00    1.26045   1.34118   -2.000
 5369.00    1.29063   1.34407   -2.000
 5370.00    1.26738   1.34327   -2.000
 5371.00    1.19780   1.34625   -2.000
 5372.00    1.26889   1.35316   -2.000
 5373.00    1.44744   1.35402   -2.000
 5374.00    1.52329   1.35643   -2.000
 5375.00    1.53019   1.36137   -2.000
 5376.00    1.52520   1.35958   -2.000
 5377.00    1.51322   1.36010   -2.000
 5378.00    1.49914   1.36272   -2.000
 5379.00    1.48400   1.35737   -2.000
 5380.00    1.45969   1.35467   -2.000
 5381.00    1.43132   1.35379   -2.000
 5382.00    1.40626   1.34463   -2.000
 5383.00    1.38246   1.33960    0.011
 5384.00    1.34574   1.33658    0.011
 5385.00    1.30484   1.32606    0.011
 5386.00    1.33864   1.31924    0.011
 5387.00    1.39273   1.31337    0.011
 5388.00    1.43739   1.30382    0.011
 5389.00    1.47995   1.29758    0.011
 5390.00    1.47272   1.28932    0.011
 5391.00    1.45665   1.28239    0.011
 5392.00    1.42328   1.27916    0.011
 5393.00    1.38756   1.26968    0.011
 5394.00    1.40126   1.26522    0.011
 5395.00    1.41973   1.26547    0.011
 5396.00    1.41261   1.25654    0.011
 5397.00    1.40395   1.25355    0.011
 5398.00    1.41546   1.25787    0.011
 5399.00    1.42788   1.25384    0.011
 5400.00    1.50469   1.25190    0.011
 5401.00    1.57186   1.25735    0.011
 5402.00    1.39048   1.25856    0.011
 5403.00    1.21945   1.26036    0.011
 5404.00    1.18867   1.26780    0.011
 5405.00    1.16847   1.27211    0.011
 5406.00    1.24349   1.27760    0.011
 5407.00    1.29973   1.28909    0.011
 5408.00    1.23188   1.29540    0.011
 5409.00    1.19359   1.30084    0.011
 5410.00    1.30725   1.31213    0.011
 5411.00    1.39008   1.31796    0.011
 5412.00    1.34490   1.32404    0.011
 5413.00    1.31023   1.33269    0.011
 5414.00    1.31167   1.33325    0.011
 5415.00    1.31766   1.33783    0.011
 5416.00    1.33681   1.34310    0.011
 5417.00    1.35180   1.33861    0.010
 5418.00    1.35650   1.34139    0.011
 5419.00    1.34786   1.34194    0.011
 5420.00    1.31080   1.33356    0.010
 5421.00    1.29171   1.33644    0.010
 5422.00    1.30585   1.33415    0.010
 5423.00    1.34364   1.32476    0.010
 5424.00    1.41962   1.32825    0.010
 5425.00    1.40753   1.32397    0.010
 5426.00    1.27059   1.31761    0.010
 5427.00    1.20967   1.32410    0.010
 5428.00    1.24355   1.31912    0.010
 5429.00    1.30776   1.31487    0.010
 5430.00    1.40532   1.32384    0.010
 5431.00    1.43355   1.32317    0.010
 5432.00    1.39457   1.32228    0.010
 5433.00    1.33092   1.32885    0.010
 5434.00    1.24617   1.32981    0.010
 5435.00    1.25152   1.33180    0.010
 5436.00    1.32471   1.33597    0.010
 5437.00    1.42675   1.33565    0.010
 5438.00    1.54788   1.33727    0.010
 5439.00    1.50502   1.33834    0.010
 5440.00    1.36715   1.33491    0.010
 5441.00    1.32163   1.33510    0.010
 5442.00    1.32272   1.33311    0.010
 5443.00    1.31927   1.32700    0.010
 5444.00    1.31384   1.32722    0.010
 5445.00    1.28408   1.32361    0.010
 5446.00    1.24519   1.31683    0.010
 5447.00    1.27724   1.31800    0.010
 5448.00    1.33184   1.31481    0.010
 5449.00    1.34641   1.31032    0.010
 5450.00    1.35032   1.31176    0.010
 5451.00    1.38384   1.30794    0.010
 5452.00    1.42380   1.30582    0.010
 5453.00    1.43720   1.30824    0.011
 5454.00    1.44600   1.30548    0.011
 5455.00    1.39619   1.30496    0.011
 5456.00    1.33868   1.30628    0.011
 5457.00    1.35771   1.30559    0.011
 5458.00    1.38381   1.30664    0.011
 5459.00    1.43309   1.30437    0.011
 5460.00    1.48367   1.30308    0.010
 5461.00    1.52204   1.30494    0.010
 5462.00    1.55935   1.30120    0.010
 5463.00    1.51532   1.29791    0.010
 5464.00    1.46960   1.29898    0.010
 5465.00    1.38428   1.29643    0.010
 5466.00    1.30837   1.29038    0.010
 5467.00    1.35336   1.28882    0.010
 5468.00    1.38715   1.28940    0.010
 5469.00    1.32401   1.28256    0.010
 5470.00    1.26651   1.27884    0.010
 5471.00    1.24512   1.28269    0.010
 5472.00    1.21978   1.27794    0.010
 5473.00    1.17465   1.27386    0.010
 5474.00    1.16830   1.27905    0.010
 5475.00    1.31936   1.27881    0.010
 5476.00    1.43445   1.27710    0.010
 5477.00    1.42851   1.28059    0.010
 5478.00    1.40731   1.28420   -2.000
 5479.00    1.34276   1.28715   -2.000
 5480.00    1.31773   1.28791   -2.000
 5481.00    1.38866   1.29175   -2.000
 5482.00    1.44672   1.29809   -2.000
 5483.00    1.47779   1.29753   -2.000
 5484.00    1.32248   1.29999   -2.000
 5485.00    0.82774   1.30720   -2.000
 5486.00    0.66782   1.30548   -2.000
 5487.00    1.04088   1.30532   -2.000
 5488.00    1.36747   1.31162   -2.000
 5489.00    1.62914   1.31042   -2.000
 5490.00    1.89592   1.30778   -2.000
 5491.00    2.16900   1.31106   -2.000
 5492.00    2.06081   1.31122   -2.000
 5493.00    1.53947   1.30660   -2.000
 5494.00    1.31239   1.30582   -2.000
 5495.00    1.36660   1.30796   -2.000
 5496.00    1.49748   1.30303   -2.000
 5497.00    1.69297   1.29856   -2.000
 5498.00    1.70082   1.30137   -2.000
 5499.00    1.56941   1.29706   -2.000
 5500.00    1.53536   1.29192   -2.000
 5501.00    1.56479   1.29497   -2.000
 5502.00    1.48720   1.29042    0.010
 5503.00    1.34857   1.28693    0.010
 5504.00    1.32062   1.29162    0.010
 5505.00    1.34767   1.28763    0.010
 5506.00    1.39461   1.28624    0.010
 5507.00    1.45009   1.29181    0.010
 5508.00    1.42737   1.28997    0.010
 5509.00    1.37585   1.29115    0.010
 5510.00    1.35583   1.29608    0.010
 5511.00    1.34564   1.29671    0.010
 5512.00    1.33492   1.29991    0.010
 5513.00    1.32406   1.30328    0.010
 5514.00    1.33736   1.30591    0.010
 5515.00    1.35579   1.30955    0.010
 5516.00    1.34352   1.31072    0.010
 5517.00    1.32610   1.31346    0.010
 5518.00    1.32014   1.31571    0.010
 5519.00    1.31562   1.31535    0.010
 5520.00    1.36846   1.31755    0.010
 5521.00    1.42635   1.31759    0.010
 5522.00    1.41691   1.31652    0.010
 5523.00    1.40395   1.31902    0.010
 5524.00    1.40766   1.31772    0.010
 5525.00    1.41094   1.31627    0.010
 5526.00    1.35760   1.32024    0.010
 5527.00    1.30403   1.31996    0.010
 5528.00    1.24528   1.31818    0.010
 5529.00    1.19329   1.32333    0.010
 5530.00    1.22373   1.32542    0.010
 5531.00    1.25248   1.32381    0.010
 5532.00    1.26706   1.32930    0.010
 5533.00    1.27114   1.33287    0.010
 5534.00    1.20983   1.33223    0.010
 5535.00    1.16488   1.33793    0.010
 5536.00    1.19992   1.34130    0.010
 5537.00    1.23622   1.34190    0.010
 5538.00    1.27752   1.34759    0.010
 5539.00    1.31997   1.34903    0.010
 5540.00    1.36626   1.35006    0.010
 5541.00    1.39434   1.35567    0.010
 5542.00    1.37165   1.35509    0.010
 5543.00    1.34368   1.35529    0.012
 5544.00    1.30314   1.35985    0.029
 5545.00    1.28213   1.35821   -1.000
 5546.00    1.30137   1.35726   -1.000
 5547.00    1.32625   1.35903   -1.000
 5548.00    1.36125   1.35652   -1.000
 5549.00    1.41451   1.35494    0.049
 5550.00    1.49639   1.35327    0.014
 5551.00    1.51356   1.34977    0.010
 5552.00    1.44163   1.34836    0.010
 5553.00    1.35884   1.34411    0.010
 5554.00    1.26290   1.33978    0.010
 5555.00    1.25165   1.33879    0.010
 5556.00    1.33090   1.33323    0.010
 5557.00    1.36137   1.32886    0.010
 5558.00    1.34586   1.32871    0.010
 5559.00    1.35823   1.32259    0.010
 5560.00    1.39378   1.31862    0.010
 5561.00    1.41148   1.32081    0.010
 5562.00    1.41612   1.31499    0.010
 5563.00    1.38869   1.31041    0.010
 5564.00    1.34064   1.31605    0.009
 5565.00    1.33385   1.31172    0.009
 5566.00    1.35025   1.30520    0.009
 5567.00    1.35396   1.31375    0.009
 5568.00    1.35146   1.31143    0.010
 5569.00    1.31893   1.30223    0.009
 5570.00    1.27371   1.31123    0.009
 5571.00    1.26435   1.31046    0.009
 5572.00    1.26795   1.29943    0.009
 5573.00    1.28939   1.30600    0.010
 5574.00    1.31630   1.30487    0.010
 5575.00    1.28196   1.29334    0.010
 5576.00    1.23202   1.29632    0.010
 5577.00    1.21970   1.29363    0.010
 5578.00    1.21517   1.28293    0.010
 5579.00    1.21467   1.28255    0.010
 5580.00    1.21481   1.27892    0.010
 5581.00    1.17438   1.27073    0.010
 5582.00    1.12898   1.26822    0.010
 5583.00    1.20828   1.26522    0.010
 5584.00    1.29805   1.26070    0.010
 5585.00    1.21557   1.25789    0.010
 5586.00    1.12477   1.25796    0.010
 5587.00    1.02225   1.25723    0.010
 5588.00    0.92192   1.25495    0.010
 5589.00    0.96181   1.25876    0.010
 5590.00    1.00361   1.26074    0.010
 5591.00    1.08347   1.25915    0.010
 5592.00    1.16345   1.26635    0.010
 5593.00    1.24478   1.27055    0.010
 5594.00    1.31566   1.26962    0.010
 5595.00    1.30247   1.27758    0.010
 5596.00    1.28245   1.28289    0.010
 5597.00    1.22122   1.28389    0.010
 5598.00    1.16841   1.29117    0.010
 5599.00    1.15574   1.29545    0.010
 5600.00    1.15819   1.29807    0.010
 5601.00    1.21935   1.30432    0.010
 5602.00    1.25159   1.30617    0.010
 5603.00    1.19029   1.30826    0.010
 5604.00    1.15389   1.31250    0.010
 5605.00    1.18572   1.31080    0.010
 5606.00    1.23887   1.31104    0.010
 5607.00    1.34204   1.31366    0.009
 5608.00    1.41568   1.30844    0.009
 5609.00    1.42940   1.30665    0.009
 5610.00    1.41856   1.30875    0.009
 5611.00    1.36434   1.30088    0.009
 5612.00    1.32439   1.29711    0.009
 5613.00    1.30649   1.30056    0.009
 5614.00    1.28052   1.29411    0.009
 5615.00    1.24358   1.28985    0.009
 5616.00    1.21230   1.29382    0.009
 5617.00    1.18776   1.28978    0.009
 5618.00    1.19882   1.28675    0.009
 5619.00    1.24737   1.29204    0.009
 5620.00    1.26441   1.29022    0.009
 5621.00    1.25217   1.28756    0.009
 5622.00    1.24468   1.29361    0.009
 5623.00    1.24109   1.29460    0.010
 5624.00    1.23917   1.29232    0.010
 5625.00    1.23847   1.29695    0.010
 5626.00    1.25023   1.29904    0.010
 5627.00    1.26987   1.29699    0.010
 5628.00    1.31455   1.29915    0.010
 5629.00    1.37307   1.30115    0.010
 5630.00    1.36754   1.29917    0.010
 5631.00    1.33120   1.29889    0.010
 5632.00    1.26363   1.30065    0.010
 5633.00    1.18309   1.29912    0.009
 5634.00    1.19251   1.29710    0.010
 5635.00    1.23388   1.29895    0.010
 5636.00    1.24036   1.29837    0.009
 5637.00    1.23637   1.29577    0.009
 5638.00    1.23269   1.29769    0.009
 5639.00    1.22910   1.29754    0.009
 5640.00    1.19569   1.29565    0.009
 5641.00    1.15626   1.29782    0.009
 5642.00    1.15878   1.29671    0.009
 5643.00    1.16794   1.29555    0.009
 5644.00    1.26732   1.29789    0.009
 5645.00    1.37732   1.29471    0.009
 5646.00    1.40713   1.29379    0.009
 5647.00    1.43053   1.29633    0.009
 5648.00    1.39448   1.29065    0.009
 5649.00    1.35578   1.28960    0.009
 5650.00    1.30586   1.29311    0.009
 5651.00    1.25792   1.28561    0.009
 5652.00    1.31255   1.28387    0.009
 5653.00    1.36485   1.28947    0.009
 5654.00    1.37414   1.28295    0.009
 5655.00    1.37420   1.28056    0.009
 5656.00    1.27218   1.28769    0.009
 5657.00    1.17613   1.28472    0.009
 5658.00    1.12648   1.28320    0.009
 5659.00    1.09949   1.29074    0.009
 5660.00    1.20545   1.29136    0.009
 5661.00    1.30780   1.29154    0.009
 5662.00    1.39337   1.29878    0.009
 5663.00    1.44341   1.30201    0.009
 5664.00    1.35838   1.30359    0.009
 5665.00    1.27123   1.30945    0.009
 5666.00    1.17733   1.31371    0.010
 5667.00    1.14325   1.31608    0.010
 5668.00    1.27008   1.31970    0.010
 5669.00    1.35478   1.32281    0.010
 5670.00    1.34223   1.32507    0.010
 5671.00    1.31642   1.32671    0.010
 5672.00    1.26414   1.32732    0.009
 5673.00    1.21642   1.32840    0.009
 5674.00    1.17662   1.32898    0.010
 5675.00    1.16909   1.32738    0.010
 5676.00    1.21068   1.32683    0.010
 5677.00    1.24484   1.32718    0.010
 5678.00    1.26906   1.32487    0.010
 5679.00    1.30501   1.32335    0.010
 5680.00    1.35478   1.32389    0.010
 5681.00    1.38506   1.32170    0.010
 5682.00    1.39510   1.31993    0.009
 5683.00    1.35095   1.32121    0.009
 5684.00    1.25716   1.31965    0.009
 5685.00    1.22366   1.31735    0.009
 5686.00    1.23886   1.31866    0.009
 5687.00    1.25473   1.31746    0.009
 5688.00    1.27107   1.31393    0.009
 5689.00    1.24611   1.31413    0.009
 5690.00    1.19540   1.31264    0.009
 5691.00    1.16440   1.30768    0.009
 5692.00    1.14412   1.30590    0.009
 5693.00    1.14729   1.30322    0.009
 5694.00    1.16157   1.29784    0.009
 5695.00    1.18798   1.29445    0.009
 5696.00    1.21935   1.29007    0.009
 5697.00    1.23516   1.28601    0.010
 5698.00    1.24555   1.28256    0.010
 5699.00    1.24051   1.27681    0.010
 5700.00    1.23094   1.27606    0.010
 5701.00    1.21225   1.27457    0.010
 5702.00    1.19133   1.26857    0.010
 5703.00    1.22164   1.27243    0.010
 5704.00    1.26204   1.27447    0.010
 5705.00    1.34583   1.26955    0.010
 5706.00    1.43630   1.27788    0.010
 5707.00    1.38437   1.28366    0.009
 5708.00    1.31632   1.28059    0.009
 5709.00    1.34808   1.29200    0.009
 5710.00    1.38740   1.30053    0.009
 5711.00    1.38032   1.29903    0.010
 5712.00    1.37134   1.31114    0.010
 5713.00    1.27577   1.32064    0.010
 5714.00    1.18305   1.31971    0.009
 5715.00    1.23591   1.33002    0.009
 5716.00    1.28733   1.33884    0.009
 5717.00    1.31383   1.33769    0.009
 5718.00    1.33229   1.34447    0.009
 5719.00    1.26568   1.35155    0.009
 5720.00    1.20599   1.35000    0.009
 5721.00    1.19812   1.35287    0.009
 5722.00    1.19967   1.35808    0.009
 5723.00    1.25498   1.35660    0.009
 5724.00    1.29675   1.35630    0.009
 5725.00    1.27701   1.35998    0.009
 5726.00    1.25867   1.35922    0.009
 5727.00    1.24556   1.35706    0.009
 5728.00    1.23643   1.35961    0.009
 5729.00    1.23968   1.35973    0.009
 5730.00    1.25216   1.35696    0.009
 5731.00    1.28903   1.35866    0.009
 5732.00    1.31236   1.35915    0.009
 5733.00    1.30496   1.35657    0.009
 5734.00    1.30701   1.35758    0.009
 5735.00    1.32764   1.35761    0.009
 5736.00    1.34143   1.35550    0.009
 5737.00    1.34350   1.35598    0.009
 5738.00    1.34522   1.35484    0.009
 5739.00    1.34641   1.35322    0.009
 5740.00    1.36353   1.35335    0.000
 5741.00    1.40166   1.35081    0.000
 5742.00    1.41065   1.34966    0.000
 5743.00    1.38579   1.34974    0.000
 5744.00    1.35653   1.34601    0.000
 5745.00    1.32277   1.34545    0.000
 5746.00    1.27285   1.34576    0.000
 5747.00    1.20834   1.34143    0.000
 5748.00    1.21441   1.34176    0.000
 5749.00    1.27666   1.34256    0.000
 5750.00    1.28602   1.33825    0.000
 5751.00    1.25834   1.33976    0.000
 5752.00    1.29259   1.34123    0.000
 5753.00    1.36488   1.33734    0.000
 5754.00    1.38369   1.34016    0.000
 5755.00    1.37379   1.34232    0.000
 5756.00    1.38965   1.33885    0.000
 5757.00    1.41751   1.34274    0.000
 5758.00    1.42503   1.34530    0.000
 5759.00    1.42438   1.34181    0.000
 5760.00    1.39518   1.34605    0.000
 5761.00    1.35620   1.34840    0.000
 5762.00    1.36024   1.34416    0.000
 5763.00    1.37669   1.34766    0.000
 5764.00    1.35398   1.34901    0.000
 5765.00    1.32195   1.34323    0.000
 5766.00    1.36002   1.34492    0.000
 5767.00    1.41153   1.34474    0.000
 5768.00    1.48380   1.33707    0.000
 5769.00    1.55916   1.33635    0.000
 5770.00    1.54912   1.33487    0.000
 5771.00    1.52977   1.32589    0.000
 5772.00    1.49642   1.32286    0.000
 5773.00    1.46206   1.32127    0.000
 5774.00    1.42303   1.31261    0.000
 5775.00    1.38382   1.30808    0.000
 5776.00    1.39601   1.30805    0.000
 5777.00    1.40841   1.30192    0.000
 5778.00    1.42097   1.29707    0.000
 5779.00    1.43288   1.29989    0.000
 5780.00    1.43435   1.29815    0.000
 5781.00    1.42970   1.29409    0.000
 5782.00    1.36305   1.29987    0.000
 5783.00    1.30497   1.30309    0.000
 5784.00    1.30892   1.30040    0.000
 5785.00    1.31067   1.30794    0.000
 5786.00    1.30029   1.31524    0.000
 5787.00    1.29890   1.31395    0.000
 5788.00    1.33741   1.32125    0.000
 5789.00    1.38446   1.33076    0.000
 5790.00    1.46265   1.33057    0.000
 5791.00    1.51030   1.33581   -2.000
 5792.00    1.46469   1.34548   -2.000
 5793.00    1.44513   1.34606   -2.000
 5794.00    1.49319   1.34834   -2.000
 5795.00    1.51506   1.35658   -2.000
 5796.00    1.47848   1.35761   -2.000
 5797.00    1.41696   1.35719   -2.000
 5798.00    1.30717   1.36326   -2.000
 5799.00    1.23479   1.36443   -2.000
 5800.00    1.22554   1.36235   -2.000
 5801.00    1.24207   1.36632   -2.000
 5802.00    1.29670   1.36743   -2.000
 5803.00    1.35035   1.36489   -2.000
 5804.00    1.40272   1.36747   -2.000
 5805.00    1.41235   1.36854   -2.000
 5806.00    1.37307   1.36641   -2.000
 5807.00    1.29818   1.36843   -2.000
 5808.00    1.18735   1.36973   -2.000
 5809.00    1.12814   1.36839   -2.000
 5810.00    1.11490   1.37038   -2.000
 5811.00    1.16489   1.37221    0.000
 5812.00    1.26447   1.37164    0.000
 5813.00    1.34008   1.37367    0.000
 5814.00    1.39913   1.37608    0.000
 5815.00    1.41561   1.37598    0.000
 5816.00    1.40634   1.37780    0.000
 5817.00    1.40726   1.38053    0.000
 5818.00    1.41356   1.38044    0.000
 5819.00    1.42265   1.38168    0.000
 5820.00    1.43301   1.38435    0.000
 5821.00    1.42795   1.38387    0.000
 5822.00    1.41681   1.38417    0.000
 5823.00    1.33841   1.38665    0.000
 5824.00    1.23741   1.38560    0.000
 5825.00    1.25881   1.38470    0.000
 5826.00    1.31477   1.38703    0.000
 5827.00    1.34136   1.38568    0.000
 5828.00    1.36111   1.38342    0.000
 5829.00    1.36887   1.38553    0.000
 5830.00    1.37438   1.38432    0.000
 5831.00    1.34523   1.38073    0.000
 5832.00    1.31108   1.38220    0.000
 5833.00    1.29827   1.38134    0.000
 5834.00    1.28768   1.37654    0.000
 5835.00    1.33330   1.37671    0.000
 5836.00    1.38271   1.37589    0.000
 5837.00    1.39515   1.37003    0.000
 5838.00    1.40637   1.36834    0.000
 5839.00    1.33842   1.36704    0.000
 5840.00    1.27266   1.36027    0.000
 5841.00    1.27780   1.35664    0.000
 5842.00    1.28502   1.35460    0.000
 5843.00    1.32384   1.34728    0.000
 5844.00    1.35811   1.34215    0.000
 5845.00    1.34824   1.33980    0.000
 5846.00    1.33567   1.33270    0.000
 5847.00    1.30417   1.32690    0.000
 5848.00    1.27787   1.32512    0.000
 5849.00    1.27967   1.31940    0.000
 5850.00    1.28327   1.31379    0.000
 5851.00    1.29464   1.31339    0.000
 5852.00    1.27947   1.31017    0.000
 5853.00    1.16956   1.30547    0.000
 5854.00    1.09829   1.30665    0.000
 5855.00    1.14275   1.30645    0.000
 5856.00    1.19213   1.30303    0.000
 5857.00    1.25403   1.30521    0.000
 5858.00    1.30783   1.30769    0.000
 5859.00    1.34385   1.30549    0.000
 5860.00    1.35592   1.30746    0.000
 5861.00    1.32239   1.31125    0.000
 5862.00    1.31225   1.30990    0.000
 5863.00    1.34098   1.31033    0.000
 5864.00    1.35629   1.31349    0.000
 5865.00    1.35202   1.31228    0.000
 5866.00    1.33231   1.31013    0.000
 5867.00    1.29282   1.31040    0.000
 5868.00    1.28385   1.30833    0.000
 5869.00    1.30933   1.30326    0.000
 5870.00    1.33600   1.29869    0.000
 5871.00    1.36386   1.29430    0.000
 5872.00    1.37236   1.28649    0.000
 5873.00    1.36386   1.27601    0.000
 5874.00    1.35236   1.26798    0.000
 5875.00    1.33852   1.25828    0.000
 5876.00    1.31918   1.24202    0.000
 5877.00    1.29610   1.22958    0.000
 5878.00    1.24236   1.21973    0.000
 5879.00    1.17035   1.19967    0.000
 5880.00    1.15735   1.18333    0.000
 5881.00    1.17503   1.17601    0.000
 5882.00    1.20227   1.15597    0.000
 5883.00    1.23381   1.13781    0.000
 5884.00    1.22888   1.13618    0.000
 5885.00    1.20980   1.12118    0.000
 5886.00    1.19881   1.10416    0.000
 5887.00    1.19048   1.11050    0.000
 5888.00    1.13242   1.10498    0.000
 5889.00    1.06061   1.09193    0.000
 5890.00    1.07810   1.10610    0.000
 5891.00    1.11589   1.11179    0.000
 5892.00    1.12099   1.10437    0.000
 5893.00    1.12014   1.12351    0.000
 5894.00    1.17069   1.13854    0.000
 5895.00    1.22840   1.13647    0.000
 5896.00    1.24413   1.15630    0.000
 5897.00    1.25564   1.17636    0.000
 5898.00    1.23992   1.17858    0.000
 5899.00    1.22247   1.19498    0.000
 5900.00    1.23364   1.21420    0.000
 5901.00    1.24573   1.21846    0.009
 5902.00    1.28870   1.22976    0.009
 5903.00    1.32894   1.24479    0.009
 5904.00    1.29243   1.24976    0.009
 5905.00    1.25406   1.25624    0.009
 5906.00    1.18930   1.26533    0.009
 5907.00    1.13157   1.26974    0.009
 5908.00    1.13936   1.27337    0.009
 5909.00    1.14515   1.27760    0.009
 5910.00    1.13728   1.28106    0.009
 5911.00    1.13689   1.28348    0.009
 5912.00    1.17581   1.28469    0.009
 5913.00    1.21265   1.28749    0.009
 5914.00    1.24065   1.28967    0.009
 5915.00    1.26599   1.28931    0.009
 5916.00    1.28208   1.29172    0.009
 5917.00    1.30368   1.29380    0.009
 5918.00    1.34149   1.29274    0.009
 5919.00    1.36639   1.29501    0.009
 5920.00    1.35892   1.29675    0.009
 5921.00    1.35130   1.29522    0.009
 5922.00    1.34334   1.29753    0.009
 5923.00    1.34646   1.29900    0.009
 5924.00    1.37033   1.29703    0.009
 5925.00    1.37632   1.29901    0.009
 5926.00    1.35304   1.30052    0.009
 5927.00    1.33055   1.29839    0.009
 5928.00    1.30920   1.29967    0.009
 5929.00    1.29218   1.30164    0.008
 5930.00    1.28064   1.29975    0.008
 5931.00    1.26933   1.29998    0.008
 5932.00    1.25829   1.30248    0.008
 5933.00    1.26687   1.30112    0.008
 5934.00    1.29472   1.30016    0.008
 5935.00    1.34009   1.30295    0.009
 5936.00    1.40065   1.30211    0.009
 5937.00    1.41633   1.30020    0.009
 5938.00    1.39779   1.30292    0.009
 5939.00    1.35578   1.30231    0.009
 5940.00    1.29804   1.29987    0.009
 5941.00    1.27209   1.30224    0.009
 5942.00    1.26481   1.30164    0.009
 5943.00    1.28451   1.29925    0.009
 5944.00    1.31802   1.30155    0.009
 5945.00    1.29482   1.30090    0.009
 5946.00    1.24649   1.29866    0.009
 5947.00    1.20396   1.30152    0.009
 5948.00    1.16363   1.30151    0.009
 5949.00    1.19225   1.29934    0.009
 5950.00    1.24317   1.30286    0.009
 5951.00    1.29029   1.30434    0.009
 5952.00    1.33638   1.30222    0.009
 5953.00    1.31232   1.30585    0.009
 5954.00    1.27268   1.30934    0.009
 5955.00    1.26629   1.30753    0.009
 5956.00    1.26578   1.31015    0.009
 5957.00    1.21267   1.31527    0.009
 5958.00    1.15246   1.31426    0.008
 5959.00    1.15821   1.31483    0.008
 5960.00    1.17030   1.32010    0.008
 5961.00    1.22172   1.32002    0.008
 5962.00    1.27549   1.31852    0.008
 5963.00    1.28726   1.32257    0.008
 5964.00    1.29802   1.32277    0.008
 5965.00    1.31895   1.31951    0.008
 5966.00    1.33916   1.32175    0.008
 5967.00    1.34070   1.32169    0.009
 5968.00    1.34028   1.31719    0.009
 5969.00    1.31334   1.31760    0.009
 5970.00    1.28994   1.31734    0.009
 5971.00    1.29825   1.31247    0.009
 5972.00    1.30108   1.31156    0.009
 5973.00    1.26786   1.31143    0.009
 5974.00    1.23573   1.30686    0.009
 5975.00    1.20920   1.30542    0.009
 5976.00    1.19578   1.30605    0.009
 5977.00    1.23666   1.30221    0.009
 5978.00    1.26538   1.30084    0.009
 5979.00    1.25244   1.30270    0.009
 5980.00    1.24293   1.29990    0.009
 5981.00    1.24337   1.29880    0.009
 5982.00    1.24887   1.30176    0.009
 5983.00    1.26681   1.30011    0.009
 5984.00    1.27725   1.29902    0.009
 5985.00    1.27178   1.30197    0.009
 5986.00    1.26214   1.30119    0.009
 5987.00    1.24483   1.29990    0.008
 5988.00    1.22644   1.30194    0.008
 5989.00    1.20633   1.30178    0.008
 5990.00    1.19376   1.30015    0.008
 5991.00    1.19186   1.30048    0.008
 5992.00    1.18607   1.30026    0.008
 5993.00    1.17545   1.29841    0.008
 5994.00    1.18027   1.29735    0.008
 5995.00    1.20205   1.29636    0.008
 5996.00    1.20989   1.29434    0.008
 5997.00    1.20424   1.29318    0.008
 5998.00    1.21113   1.29135    0.008
 5999.00    1.22872   1.28875    0.008
 6000.00    1.26432   1.28814    0.008
 6001.00    1.31345   1.28625    0.009
 6002.00    1.32620   1.28351    0.009
 6003.00    1.31490   1.28353    0.009
 6004.00    1.28314   1.28200    0.009
 6005.00    1.23955   1.27973    0.009
 6006.00    1.23694   1.27994    0.009
 6007.00    1.25496   1.27897    0.009
 6008.00    1.27876   1.27840    0.009
 6009.00    1.30508   1.27863    0.009
 6010.00    1.30732   1.27767    0.009
 6011.00    1.30056   1.27930    0.009
 6012.00    1.27233   1.28050    0.009
 6013.00    1.23729   1.27987    0.009
 6014.00    1.19873   1.28313    0.009
 6015.00    1.15923   1.28555    0.009
 6016.00    1.16441   1.28545    0.009
 6017.00    1.17927   1.28963    0.009
 6018.00    1.18332   1.29414    0.009
 6019.00    1.18551   1.29512    0.008
 6020.00    1.23253   1.29861    0.008
 6021.00    1.28540   1.30477    0.008
 6022.00    1.29203   1.30759    0.008
 6023.00    1.29442   1.30971    0.008
 6024.00    1.28964   1.31593    0.008
 6025.00    1.28447   1.32050    0.008
 6026.00    1.33610   1.32169    0.008
 6027.00    1.38839   1.32664    0.009
 6028.00    1.38227   1.33169    0.009
 6029.00    1.37535   1.33255    0.009
 6030.00    1.35000   1.33585    0.008
 6031.00    1.32441   1.34025    0.008
 6032.00    1.29568   1.34111    0.009
 6033.00    1.27361   1.34301    0.009
 6034.00    1.30900   1.34626    0.009
 6035.00    1.33097   1.34676    0.009
 6036.00    1.26727   1.34781    0.009
 6037.00    1.21176   1.35025    0.009
 6038.00    1.19712   1.34986    0.009
 6039.00    1.19608   1.34994    0.009
 6040.00    1.25009   1.35205    0.009
 6041.00    1.28844   1.35093    0.009
 6042.00    1.27420   1.34959    0.009
 6043.00    1.25036   1.35117    0.009
 6044.00    1.19932   1.34990    0.008
 6045.00    1.17486   1.34721    0.008
 6046.00    1.21480   1.34777    0.009
 6047.00    1.26071   1.34706    0.009
 6048.00    1.31912   1.34343    0.009
 6049.00    1.36599   1.34256    0.008
 6050.00    1.39187   1.34289    0.008
 6051.00    1.40688   1.33950    0.008
 6052.00    1.40461   1.33741    0.008
 6053.00    1.38376   1.33870    0.008
 6054.00    1.33699   1.33691    0.008
 6055.00    1.29801   1.33408    0.008
 6056.00    1.26861   1.33580    0.008
 6057.00    1.26854   1.33643    0.009
 6058.00    1.30018   1.33376    0.009
 6059.00    1.29780   1.33524    0.009
 6060.00    1.26295   1.33818    0.008
 6061.00    1.21608   1.33609    0.008
 6062.00    1.15910   1.33646    0.009
 6063.00    1.16737   1.34100    0.009
 6064.00    1.22399   1.33939    0.009
 6065.00    1.27268   1.33753    0.009
 6066.00    1.31623   1.34207    0.009
 6067.00    1.32934   1.34119    0.009
 6068.00    1.32512   1.33711    0.009
 6069.00    1.34390   1.33980    0.009
 6070.00    1.37409   1.34006    0.009
 6071.00    1.36990   1.33478    0.009
 6072.00    1.35097   1.33380    0.009
 6073.00    1.31530   1.33407    0.009
 6074.00    1.27349   1.32915    0.008
 6075.00    1.29694   1.32555    0.008
 6076.00    1.34072   1.32555    0.008
 6077.00    1.33963   1.32188    0.008
 6078.00    1.32690   1.31728    0.008
 6079.00    1.29335   1.31681    0.008
 6080.00    1.25541   1.31457    0.008
 6081.00    1.24635   1.31057    0.008
 6082.00    1.24213   1.30970    0.008
 6083.00    1.23986   1.30873    0.008
 6084.00    1.23784   1.30689    0.008
 6085.00    1.25023   1.30518    0.008
 6086.00    1.26388   1.30355    0.008
 6087.00    1.28326   1.30474    0.008
 6088.00    1.30293   1.30379    0.008
 6089.00    1.31637   1.30020    0.008
 6090.00    1.32929   1.30277    0.008
 6091.00    1.31146   1.30373    0.008
 6092.00    1.29401   1.29878    0.009
 6093.00    1.28466   1.30077    0.009
 6094.00    1.27390   1.30361    0.009
 6095.00    1.24600   1.29902    0.009
 6096.00    1.21696   1.29984    0.009
 6097.00    1.17849   1.30415    0.009
 6098.00    1.14750   1.30078    0.008
 6099.00    1.16282   1.29996    0.008
 6100.00    1.18045   1.30490    0.008
 6101.00    1.20936   1.30319    0.009
 6102.00    1.23256   1.30114    0.009
 6103.00    1.23312   1.30632    0.009
 6104.00    1.24569   1.30571    0.008
 6105.00    1.29781   1.30144    0.009
 6106.00    1.32547   1.30562    0.009
 6107.00    1.28506   1.30749    0.008
 6108.00    1.25894   1.30291    0.008
 6109.00    1.26688   1.30355    0.008
 6110.00    1.27460   1.30551    0.008
 6111.00    1.28186   1.30150    0.008
 6112.00    1.28161   1.29926    0.008
 6113.00    1.26792   1.30121    0.008
 6114.00    1.25067   1.29822    0.008
 6115.00    1.22784   1.29292    0.008
 6116.00    1.23493   1.29492    0.008
 6117.00    1.28316   1.29484    0.008
 6118.00    1.30806   1.28727    0.008
 6119.00    1.30476   1.28742    0.008
 6120.00    1.30419   1.28988    0.008
 6121.00    1.30654   1.28273    0.009
 6122.00    1.28966   1.28132    0.009
 6123.00    1.25469   1.28428    0.009
 6124.00    1.19785   1.27807    0.009
 6125.00    1.12288   1.27640    0.009
 6126.00    1.09060   1.28056    0.008
 6127.00    1.08949   1.27628    0.009
 6128.00    1.11319   1.27329    0.009
 6129.00    1.15277   1.27670    0.009
 6130.00    1.13257   1.27458    0.008
 6131.00    1.07883   1.27202    0.008
 6132.00    1.03988   1.27554    0.008
 6133.00    1.00815   1.27513    0.008
 6134.00    1.00953   1.27293    0.008
 6135.00    1.02489   1.27634    0.008
 6136.00    1.11788   1.27719    0.009
 6137.00    1.23889   1.27515    0.009
 6138.00    1.29587   1.27752    0.009
 6139.00    1.33331   1.27955    0.008
 6140.00    1.29948   1.27723    0.008
 6141.00    1.24756   1.27733    0.008
 6142.00    1.28441   1.28074    0.008
 6143.00    1.33959   1.27815    0.008
 6144.00    1.36796   1.27268    0.008
 6145.00    1.39198   1.27354    0.008
 6146.00    1.35417   1.27212    0.008
 6147.00    1.30883   1.26393    0.008
 6148.00    1.18326   1.25973    0.008
 6149.00    1.05099   1.25725    0.008
 6150.00    1.04910   1.24946    0.008
 6151.00    1.05346   1.24278    0.008
 6152.00    1.11008   1.23860    0.008
 6153.00    1.16729   1.23173    0.008
 6154.00    1.21451   1.22525    0.008
 6155.00    1.25937   1.22021    0.009
 6156.00    1.25784   1.21388    0.009
 6157.00    1.25632   1.20963    0.009
 6158.00    1.25505   1.20660    0.009
 6159.00    1.25734   1.20164    0.009
 6160.00    1.28816   1.20014    0.009
 6161.00    1.30941   1.20065    0.009
 6162.00    1.27310   1.19709    0.009
 6163.00    1.22594   1.19713    0.008
 6164.00    1.12726   1.20208    0.008
 6165.00    1.04669   1.20070    0.008
 6166.00    1.03627   1.20104    0.008
 6167.00    1.03766   1.21015    0.008
 6168.00    1.07715   1.21195    0.008
 6169.00    1.12041   1.20952    0.008
 6170.00    1.17400   1.21806    0.008
 6171.00    1.21895   1.22370    0.008
 6172.00    1.24369   1.21953    0.008
 6173.00    1.26539   1.22361    0.008
 6174.00    1.28094   1.23152    0.008
 6175.00    1.28594   1.22933    0.008
 6176.00    1.27234   1.22821    0.008
 6177.00    1.26063   1.23261    0.008
 6178.00    1.25183   1.23255    0.008
 6179.00    1.23775   1.23024    0.008
 6180.00    1.21650   1.23091    0.008
 6181.00    1.22121   1.23139    0.008
 6182.00    1.25689   1.22976    0.008
 6183.00    1.29224   1.22872    0.008
 6184.00    1.32726   1.22860    0.009
 6185.00    1.33951   1.22781    0.009
 6186.00    1.33065   1.22730    0.009
 6187.00    1.29519   1.22661    0.009
 6188.00    1.23797   1.22658    0.009
 6189.00    1.20461   1.22815    0.008
 6190.00    1.18842   1.22720    0.008
 6191.00    1.21308   1.22742    0.008
 6192.00    1.26354   1.23128    0.008
 6193.00    1.28166   1.23058    0.008
 6194.00    1.28191   1.22977    0.008
 6195.00    1.35471   1.23353    0.008
 6196.00    1.46235   1.23392   -2.000
 6197.00    1.68037   1.23295   -2.000
 6198.00    1.94415   1.23422   -2.000
 6199.00    1.97720   1.23289   -2.000
 6200.00    1.92846   1.23125   -2.000
 6201.00    1.62736   1.23110   -2.000
 6202.00    1.25074   1.22759   -2.000
 6203.00    1.00695   1.22398   -2.000
 6204.00    0.79616   1.22339   -2.000
 6205.00    0.83669   1.21979   -2.000
 6206.00    0.92783   1.21383   -2.000
 6207.00    1.05913   1.21143   -2.000
 6208.00    1.19676   1.20882    0.009
 6209.00    1.23592   1.20220    0.009
 6210.00    1.26354   1.19804    0.009
 6211.00    1.21648   1.19734    0.009
 6212.00    1.16349   1.19200    0.008
 6213.00    1.16733   1.18635    0.008
 6214.00    1.17367   1.18704    0.008
 6215.00    1.18789   1.18437    0.008
 6216.00    1.20280   1.17804    0.008
 6217.00    1.24639   1.17882    0.008
 6218.00    1.28707   1.17973    0.008
 6219.00    1.27473   1.17398    0.008
 6220.00    1.26244   1.17327    0.008
 6221.00    1.25069   1.17725    0.008
 6222.00    1.24833   1.17328    0.008
 6223.00    1.31840   1.16997    0.008
 6224.00    1.37552   1.17558    0.008
 6225.00    1.35683   1.17495    0.008
 6226.00    1.32736   1.16857    0.008
 6227.00    1.24783   1.17308    0.008
 6228.00    1.18855   1.17576    0.008
 6229.00    1.20602   1.16727    0.008
 6230.00    1.22138   1.16985    0.008
 6231.00    1.23004   1.17593    0.008
 6232.00    1.23037   1.16649    0.008
 6233.00    1.20833   1.16549    0.009
 6234.00    1.18731   1.17377    0.009
 6235.00    1.16866   1.16663    0.008
 6236.00    1.16631   1.16246    0.008
 6237.00    1.19646   1.17039    0.008
 6238.00    1.21267   1.16629    0.008
 6239.00    1.20471   1.15875    0.008
 6240.00    1.21433   1.16443    0.008
 6241.00    1.25068   1.16371    0.008
 6242.00    1.27816   1.15458    0.008
 6243.00    1.29380   1.15809    0.008
 6244.00    1.28290   1.16081    0.008
 6245.00    1.24079   1.15256    0.008
 6246.00    1.18569   1.15372    0.008
 6247.00    1.11714   1.15704    0.008
 6248.00    1.07583   1.15128    0.008
 6249.00    1.05944   1.15331    0.008
 6250.00    1.03450   1.15706    0.008
 6251.00    1.00268   1.15276    0.008
 6252.00    0.99994   1.15562    0.008
 6253.00    1.01784   1.16089    0.008
 6254.00    1.08677   1.15737    0.008
 6255.00    1.18747   1.15958    0.008
 6256.00    1.21569   1.16790    0.008
 6257.00    1.20450   1.16726    0.008
 6258.00    1.19297   1.16795    0.009
 6259.00    1.18129   1.17735    0.009
 6260.00    1.21790   1.17896    0.010
 6261.00    1.27419   1.17831    0.010
 6262.00    1.21383   1.18782    0.011
 6263.00    1.11287   1.19190    0.011
 6264.00    1.02341   1.18997    0.011
 6265.00    0.93731   1.19643    0.010
 6266.00    0.89363   1.20196    0.010
 6267.00    0.86025   1.20072    0.009
 6268.00    0.91037   1.20364    0.009
 6269.00    0.97688   1.20840    0.008
 6270.00    1.06264   1.20892    0.008
 6271.00    1.15134   1.21029    0.008
 6272.00    1.16872   1.21377    0.008
 6273.00    1.17804   1.21530    0.008
 6274.00    1.20010   1.21594    0.008
 6275.00    1.22312   1.21845    0.008
 6276.00    1.25651   1.21970    0.008
 6277.00    1.29032   1.22025    0.008
 6278.00    1.25309   1.22254    0.008
 6279.00    1.21646   1.22269    0.008
 6280.00    1.22555   1.22280    0.000
 6281.00    1.23500   1.22447    0.000
 6282.00    1.25068   1.22346    0.000
 6283.00    1.26147   1.22356    0.000
 6284.00    1.22074   1.22472    0.000
 6285.00    1.18273   1.22317    0.000
 6286.00    1.16502   1.22223    0.000
 6287.00    1.15734   1.22197    0.000
 6288.00    1.20664   1.22105    0.000
 6289.00    1.24613   1.21985    0.000
 6290.00    1.24126   1.21833    0.000
 6291.00    1.23314   1.21703    0.000
 6292.00    1.21295   1.21599    0.000
 6293.00    1.20227   1.21541    0.000
 6294.00    1.22115   1.21374    0.000
 6295.00    1.23860   1.21233    0.000
 6296.00    1.25231   1.21364    0.000
 6297.00    1.26258   1.21253    0.000
 6298.00    1.26509   1.21086    0.000
 6299.00    1.25560   1.21308    0.000
 6300.00    1.22259   1.21191    0.000
 6301.00    1.19690   1.20919    0.000
 6302.00    1.18374   1.21305    0.000
 6303.00    1.17775   1.21387    0.000
 6304.00    1.18250   1.20810    0.000
 6305.00    1.17528   1.21075    0.000
 6306.00    1.15229   1.21562    0.000
 6307.00    1.12729   1.20947    0.000
 6308.00    1.09997   1.20838    0.000
 6309.00    1.07102   1.21535    0.000
 6310.00    1.04042   1.21247    0.000
 6311.00    1.06803   1.20832    0.000
 6312.00    1.14812   1.21465    0.000
 6313.00    1.19451   1.21619    0.000
 6314.00    1.21411   1.21061    0.000
 6315.00    1.18791   1.21507    0.000
 6316.00    1.12968   1.22038    0.000
 6317.00    1.08844   1.21595    0.000
 6318.00    1.05761   1.21769    0.000
 6319.00    1.04824   1.22386    0.000
 6320.00    1.05036   1.22257    0.000
 6321.00    1.07833   1.22187    0.008
 6322.00    1.11831   1.22632    0.008
 6323.00    1.10751   1.22823    0.008
 6324.00    1.07637   1.22600    0.008
 6325.00    1.04640   1.22683    0.008
 6326.00    1.01682   1.22962    0.008
 6327.00    1.04807   1.22857    0.008
 6328.00    1.09680   1.22722    0.008
 6329.00    1.13562   1.22820    0.008
 6330.00    1.17208   1.22878    0.008
 6331.00    1.15783   1.22739    0.008
 6332.00    1.13388   1.22638    0.008
 6333.00    1.13025   1.22687    0.008
 6334.00    1.12963   1.22602    0.008
 6335.00    1.18788   1.22466    0.008
 6336.00    1.25251   1.22488    0.008
 6337.00    1.25489   1.22462    0.008
 6338.00    1.25285   1.22327    0.008
 6339.00    1.23500   1.22287    0.008
 6340.00    1.21659   1.22300    0.008
 6341.00    1.21357   1.22229    0.008
 6342.00    1.21123   1.22146    0.008
 6343.00    1.23066   1.21956    0.008
 6344.00    1.25032   1.21786    0.008
 6345.00    1.27369   1.21795    0.008
 6346.00    1.29208   1.21558    0.008
 6347.00    1.26022   1.21156    0.008
 6348.00    1.22708   1.21110    0.008
 6349.00    1.18460   1.21086    0.008
 6350.00    1.15237   1.20650    0.008
 6351.00    1.17679   1.20354    0.008
 6352.00    1.19982   1.20461    0.008
 6353.00    1.21668   1.20277    0.008
 6354.00    1.21701   1.19911    0.008
 6355.00    1.15726   1.20062    0.008
 6356.00    1.10230   1.20222    0.008
 6357.00    1.06194   1.20024    0.008
 6358.00    1.04704   1.20169    0.008
 6359.00    1.09811   1.20599    0.008
 6360.00    1.14707   1.20711    0.008
 6361.00    1.19131   1.20868    0.008
 6362.00    1.21316   1.21374    0.009
 6363.00    1.19177   1.21717    0.008
 6364.00    1.18242   1.21968    0.008
 6365.00    1.19334   1.22511    0.009
 6366.00    1.21082   1.22925    0.009
 6367.00    1.23801   1.23129    0.009
 6368.00    1.22928   1.23606    0.008
 6369.00    1.17396   1.24039    0.008
 6370.00    1.10918   1.24109    0.008
 6371.00    1.03358   1.24395    0.008
 6372.00    1.00008   1.24812    0.008
 6373.00    1.00902   1.24785    0.008
 6374.00    1.02297   1.24824    0.008
 6375.00    1.04137   1.25180    0.008
 6376.00    1.07517   1.25197    0.008
 6377.00    1.12101   1.25012    0.008
 6378.00    1.16310   1.25141    0.008
 6379.00    1.20258   1.25220    0.008
 6380.00    1.22705   1.25055    0.008
 6381.00    1.24246   1.24990    0.008
 6382.00    1.24832   1.24861    0.008
 6383.00    1.24916   1.24767    0.008
 6384.00    1.24321   1.24848    0.008
 6385.00    1.23416   1.24564    0.008
 6386.00    1.20447   1.24331    0.008
 6387.00    1.16666   1.24608    0.008
 6388.00    1.12910   1.24481    0.008
 6389.00    1.09164   1.23974    0.008
 6390.00    1.07261   1.24233    0.008
 6391.00    1.05876   1.24485    0.008
 6392.00    1.10641   1.23776    0.008
 6393.00    1.16833   1.23723    0.008
 6394.00    1.20510   1.24426    0.009
 6395.00    1.23718   1.24126    0.009
 6396.00    1.22540   1.23610    0.009
 6397.00    1.20732   1.24091    0.008
 6398.00    1.20267   1.24453    0.008
 6399.00    1.19941   1.23890    0.008
 6400.00    1.16996   1.23732    0.008
 6401.00    1.13876   1.24383    0.008
 6402.00    1.13169   1.24275    0.008
 6403.00    1.12541   1.23683    0.008
 6404.00    1.11164   1.24051    0.008
 6405.00    1.09853   1.24579    0.008
 6406.00    1.10581   1.24085    0.008
 6407.00    1.11243   1.23767    0.008
 6408.00    1.10908   1.24459    0.008
 6409.00    1.10480   1.24464    0.008
 6410.00    1.09152   1.23763    0.008
 6411.00    1.07927   1.24168    0.008
 6412.00    1.07414   1.24655    0.008
 6413.00    1.07784   1.24005    0.008
 6414.00    1.12915   1.23971    0.008
 6415.00    1.17300   1.24771    0.008
 6416.00    1.18460   1.24571    0.008
 6417.00    1.18535   1.24141    0.008
 6418.00    1.14745   1.24712    0.008
 6419.00    1.11315   1.24919    0.008
 6420.00    1.08963   1.24425    0.008
 6421.00    1.08233   1.24646    0.008
 6422.00    1.11632   1.25079    0.008
 6423.00    1.14641   1.24711    0.008
 6424.00    1.16797   1.24652    0.008
 6425.00    1.18107   1.25235    0.008
 6426.00    1.17807   1.25277    0.008
 6427.00    1.18220   1.24935    0.008
 6428.00    1.19816   1.25131    0.008
 6429.00    1.20536   1.25504    0.008
 6430.00    1.19982   1.25278    0.008
 6431.00    1.18990   1.24996    0.008
 6432.00    1.17438   1.25325    0.008
 6433.00    1.15394   1.25561    0.008
 6434.00    1.12795   1.25275    0.008
 6435.00    1.11371   1.25292    0.008
 6436.00    1.11116   1.25730    0.008
 6437.00    1.11455   1.25544    0.008
 6438.00    1.12315   1.25053    0.008
 6439.00    1.10506   1.25411    0.008
 6440.00    1.06636   1.25710    0.008
 6441.00    1.05031   1.24984    0.008
 6442.00    1.04963   1.24792    0.008
 6443.00    1.08309   1.25481    0.008
 6444.00    1.13685   1.25204    0.008
 6445.00    1.15297   1.24690    0.008
 6446.00    1.14954   1.25253    0.008
 6447.00    1.17630   1.25308    0.008
 6448.00    1.21664   1.24582    0.008
 6449.00    1.23590   1.24868    0.008
 6450.00    1.24700   1.25474    0.008
 6451.00    1.20885   1.24909    0.008
 6452.00    1.15449   1.24784    0.008
 6453.00    1.13999   1.25574    0.008
 6454.00    1.13648   1.25269    0.008
 6455.00    1.17164   1.24859    0.008
 6456.00    1.21555   1.25631    0.008
 6457.00    1.21991   1.25754    0.008
 6458.00    1.21710   1.25241    0.008
 6459.00    1.18117   1.25674    0.008
 6460.00    1.14064   1.26080    0.008
 6461.00    1.13346   1.25605    0.008
 6462.00    1.12962   1.25713    0.008
 6463.00    1.16393   1.26131    0.008
 6464.00    1.20065   1.25686    0.008
 6465.00    1.16411   1.25644    0.008
 6466.00    1.12551   1.26101    0.008
 6467.00    1.10416   1.25744    0.008
 6468.00    1.08352   1.25440    0.008
 6469.00    1.08273   1.25830    0.008
 6470.00    1.08537   1.25595    0.008
 6471.00    1.13648   1.24971    0.008
 6472.00    1.18909   1.25172    0.008
 6473.00    1.25570   1.25104    0.008
 6474.00    1.30923   1.24281    0.008
 6475.00    1.27421   1.24090    0.008
 6476.00    1.23516   1.24172    0.008
 6477.00    1.17496   1.23548    0.008
 6478.00    1.12309   1.22964    0.008
 6479.00    1.10635   1.22818    0.008
 6480.00    1.09941   1.22400    0.008
 6481.00    1.12669   1.21703    0.008
 6482.00    1.15228   1.21282    0.008
 6483.00    1.17291   1.20885    0.008
 6484.00    1.18959   1.20374    0.008
 6485.00    1.19636   1.19947    0.008
 6486.00    1.19466   1.19379    0.008
 6487.00    1.17473   1.18953    0.008
 6488.00    1.15768   1.18799    0.008
 6489.00    1.14603   1.18519    0.008
 6490.00    1.13242   1.18277    0.008
 6491.00    1.11561   1.18204    0.008
 6492.00    1.11066   1.18262    0.008
 6493.00    1.12272   1.18208    0.008
 6494.00    1.11933   1.18257    0.008
 6495.00    1.09645   1.18679    0.008
 6496.00    1.08934   1.18902    0.008
 6497.00    1.09974   1.19017    0.008
 6498.00    1.12708   1.19516    0.008
 6499.00    1.17102   1.20133    0.008
 6500.00    1.18412   1.20378    0.008
 6501.00    1.17057   1.20591    0.009
 6502.00    1.15518   1.21317    0.009
 6503.00    1.13841   1.21796    0.009
 6504.00    1.12380   1.21816    0.009
 6505.00    1.11064   1.22318    0.009
 6506.00    1.12571   1.22949    0.009
 6507.00    1.15733   1.22944    0.009
 6508.00    1.14984   1.22994    0.009
 6509.00    1.12236   1.23591    0.008
 6510.00    1.10824   1.23770    0.008
 6511.00    1.10002   1.23513    0.008
 6512.00    1.12205   1.23864    0.008
 6513.00    1.15558   1.24309    0.008
 6514.00    1.13106   1.24124    0.008
 6515.00    1.08781   1.24041    0.008
 6516.00    1.06838   1.24440    0.008
 6517.00    1.05540   1.24552    0.008
 6518.00    1.08263   1.24262    0.008
 6519.00    1.11877   1.24359    0.008
 6520.00    1.10431   1.24688    0.008
 6521.00    1.08093   1.24610    0.008
 6522.00    1.08106   1.24502    0.008
 6523.00    1.08437   1.24727    0.008
 6524.00    1.11483   1.24818    0.008
 6525.00    1.14790   1.24593    0.008
 6526.00    1.14393   1.24570    0.008
 6527.00    1.13778   1.24802    0.008
 6528.00    1.14723   1.24713    0.000
 6529.00    1.15662   1.24470    0.000
 6530.00    1.09930   1.24489    0.000
 6531.00    1.04248   1.24478    0.000
 6532.00    0.99817   1.24274    0.000
 6533.00    0.96129   1.24099    0.000
 6534.00    1.02392   1.23966    0.000
 6535.00    1.08012   1.23699    0.000
 6536.00    1.07914   1.23386    0.000
 6537.00    1.08144   1.23104    0.000
 6538.00    1.10523   1.22694    0.000
 6539.00    1.13907   1.22337    0.000
 6540.00    1.22432   1.21923    0.000
 6541.00    1.30342   1.21365    0.000
 6542.00    1.35718   1.21000    0.000
 6543.00    1.39456   1.20537    0.000
 6544.00    1.37593   1.19730    0.000
 6545.00    1.35155   1.19155    0.000
 6546.00    1.31061   1.18883    0.000
 6547.00    1.26863   1.17919    0.000
 6548.00    1.22406   1.16816    0.000
 6549.00    1.17311   1.16856    0.000
 6550.00    1.10860   1.16522    0.000
 6551.00    1.06240   1.15167    0.000
 6552.00    1.04991   1.14894    0.000
 6553.00    1.04054   1.15232    0.000
 6554.00    1.03620   1.13893    0.000
 6555.00    1.10229   1.12684    0.000
 6556.00    1.26787   1.13667    0.000
 6557.00    1.49346   1.13755    0.000
 6558.00    1.79361   1.12369    0.000
 6559.00    2.03192   1.12850    0.000
 6560.00    2.20249   1.13929    0.000
 6561.00    2.21673   1.13061    0.000
 6562.00    2.07992   1.12696    0.000
 6563.00    1.86822   1.14182    0.000
 6564.00    1.59272   1.14461    0.000
 6565.00    1.41342   1.13728    0.000
 6566.00    1.30629   1.14701    0.000
 6567.00    1.26668   1.15862    0.000
 6568.00    1.27156   1.15716    0.000
 6569.00    1.27362   1.16038    0.000
 6570.00    1.27403   1.17093    0.000
 6571.00    1.23974   1.17314    0.000
 6572.00    1.18801   1.17295    0.000
 6573.00    1.15057   1.18042    0.000
 6574.00    1.11937   1.18580    0.000
 6575.00    1.13507   1.18696    0.000
 6576.00    1.16829   1.19110    0.000
 6577.00    1.30534   1.19434    0.000
 6578.00    1.47526   1.19352    0.000
 6579.00    1.62215   1.19623    0.000
 6580.00    1.76296   1.20056    0.000
 6581.00    1.75940   1.19922    0.000
 6582.00    1.72463   1.19909    0.000
 6583.00    1.62250   1.20247    0.000
 6584.00    1.50882   1.20119    0.000
 6585.00    1.40062   1.19788    0.000
 6586.00    1.29313   1.20084    0.000
 6587.00    1.19055   1.20312    0.000
 6588.00    1.08842   1.19906    0.000
 6589.00    1.03227   1.19887    0.000
 6590.00    0.97867   1.20186    0.000
 6591.00    1.03327   1.19959    0.000
 6592.00    1.08966   1.19781    0.000
 6593.00    1.09618   1.20074    0.000
 6594.00    1.10157   1.20043    0.000
 6595.00    1.08111   1.19773    0.000
 6596.00    1.06578   1.20036    0.000
 6597.00    1.11543   1.20252    0.000
 6598.00    1.16138   1.20014    0.000
 6599.00    1.17566   1.20108    0.000
 6600.00    1.17810   1.20438    0.000
 6601.00    1.10518   1.20249    0.000
 6602.00    1.04067   1.20127    0.000
 6603.00    1.01801   1.20575    0.000
 6604.00    1.00721   1.20730    0.000
 6605.00    1.04433   1.20477    0.000
 6606.00    1.08146   1.20647    0.000
 6607.00    1.11868   1.21034    0.000
 6608.00    1.13876   1.20876    0.000
 6609.00    1.11038   1.20663    0.008
 6610.00    1.08747   1.20989    0.008
 6611.00    1.07778   1.21172    0.008
 6612.00    1.07788   1.20878    0.008
 6613.00    1.09840   1.20834    0.008
 6614.00    1.12619   1.21121    0.008
 6615.00    1.16717   1.20992    0.008
 6616.00    1.18705   1.20595    0.008
 6617.00    1.17349   1.20588    0.008
 6618.00    1.15278   1.20654    0.008
 6619.00    1.12213   1.20332    0.008
 6620.00    1.09748   1.20087    0.008
 6621.00    1.08017   1.20115    0.008
 6622.00    1.09529   1.19956    0.008
 6623.00    1.14541   1.19679    0.008
 6624.00    1.17516   1.19505    0.008
 6625.00    1.18550   1.19337    0.008
 6626.00    1.15566   1.19197    0.008
 6627.00    1.09209   1.19112    0.008
 6628.00    1.04842   1.18896    0.008
 6629.00    1.01946   1.18764    0.008
 6630.00    1.02953   1.18932    0.008
 6631.00    1.06493   1.18797    0.008
 6632.00    1.08161   1.18436    0.008
 6633.00    1.08765   1.18626    0.008
 6634.00    1.11966   1.18839    0.008
 6635.00    1.16452   1.18429    0.008
 6636.00    1.18310   1.18335    0.008
 6637.00    1.19044   1.18827    0.008
 6638.00    1.14818   1.18704    0.008
 6639.00    1.08772   1.18269    0.008
 6640.00    1.07916   1.18598    0.008
 6641.00    1.08671   1.18838    0.008
 6642.00    1.13999   1.18368    0.008
 6643.00    1.20512   1.18312    0.008
 6644.00    1.24427   1.18697    0.008
 6645.00    1.27795   1.18472    0.008
 6646.00    1.20741   1.18141    0.008
 6647.00    1.11950   1.18376    0.008
 6648.00    1.10475   1.18323    0.008
 6649.00    1.09919   1.17931    0.008
 6650.00    1.14023   1.18011    0.008
 6651.00    1.18533   1.18053    0.008
 6652.00    1.21286   1.17659    0.008
 6653.00    1.23949   1.17587    0.008
 6654.00    1.21275   1.17765    0.008
 6655.00    1.18443   1.17404    0.008
 6656.00    1.11109   1.17113    0.008
 6657.00    1.03986   1.17419    0.008
 6658.00    1.01281   1.17310    0.008
 6659.00    0.98930   1.16828    0.008
 6660.00    1.00858   1.16987    0.008
 6661.00    1.02829   1.17286    0.008
 6662.00    1.05165   1.16862    0.008
 6663.00    1.06641   1.16584    0.008
 6664.00    1.02805   1.17060    0.008
 6665.00    0.99166   1.17080    0.008
 6666.00    0.96478   1.16541    0.008
 6667.00    0.93931   1.16722    0.008
 6668.00    0.91939   1.17211    0.008
 6669.00    0.90313   1.16853    0.008
 6670.00    0.89890   1.16458    0.008
 6671.00    0.92608   1.16974    0.008
 6672.00    1.04046   1.17185    0.008
 6673.00    1.13841   1.16588    0.008
 6674.00    1.19731   1.16657    0.008
 6675.00    1.20387   1.17257    0.008
 6676.00    1.10297   1.17014    0.008
 6677.00    1.03763   1.16571    0.008
 6678.00    1.03579   1.16998    0.008
 6679.00    1.04923   1.17291    0.008
 6680.00    1.08654   1.16795    0.008
 6681.00    1.11648   1.16742    0.008
 6682.00    1.13630   1.17224    0.008
 6683.00    1.14887   1.17105    0.008
 6684.00    1.15270   1.16717    0.008
 6685.00    1.14918   1.16920    0.008
 6686.00    1.13784   1.17141    0.008
 6687.00    1.11426   1.16823    0.008
 6688.00    1.07919   1.16639    0.008
 6689.00    1.06725   1.16852    0.008
 6690.00    1.07447   1.16812    0.008
 6691.00    1.09114   1.16479    0.008
 6692.00    1.11472   1.16444    0.008
 6693.00    1.12201   1.16574    0.008
 6694.00    1.11888   1.16409    0.008
 6695.00    1.11012   1.16131    0.008
 6696.00    1.09820   1.16119    0.000
 6697.00    1.08886   1.16152    0.000
 6698.00    1.08076   1.15855    0.000
 6699.00    1.10256   1.15622    0.000
 6700.00    1.13694   1.15702    0.000
 6701.00    1.14426   1.15642    0.000
 6702.00    1.14183   1.15269    0.000
 6703.00    1.09999   1.15104    0.000
 6704.00    1.04615   1.15220    0.000
 6705.00    1.03034   1.14957    0.000
 6706.00    1.02417   1.14588    0.000
 6707.00    1.02967   1.14672    0.000
 6708.00    1.03756   1.14745    0.000
 6709.00    1.11883   1.14389    0.000
 6710.00    1.21199   1.14175    0.000
 6711.00    1.36342   1.14417    0.000
 6712.00    1.52191   1.14370    0.000
 6713.00    1.55509   1.14059    0.000
 6714.00    1.57786   1.14152    0.000
 6715.00    1.45777   1.14433    0.000
 6716.00    1.33091   1.14337    0.000
 6717.00    1.25689   1.14159    0.000
 6718.00    1.18447   1.14416    0.000
 6719.00    1.16059   1.14634    0.000
 6720.00    1.13810   1.14495    0.000
 6721.00    1.14252   1.14489    0.000
 6722.00    1.14980   1.14793    0.000
 6723.00    1.18982   1.14875    0.000
 6724.00    1.23361   1.14703    0.000
 6725.00    1.30748   1.14809    0.000
 6726.00    1.37619   1.15003    0.000
 6727.00    1.41392   1.14862    0.000
 6728.00    1.43186   1.14738    0.000
 6729.00    1.35611   1.14922    0.000
 6730.00    1.28729   1.14893    0.000
 6731.00    1.24533   1.14616    0.000
 6732.00    1.21856   1.14663    0.000
 6733.00    1.24070   1.14763    0.000
 6734.00    1.24248   1.14454    0.000
 6735.00    1.18873   1.14286    0.000
 6736.00    1.14478   1.14513    0.000
 6737.00    1.12373   1.14404    0.000
 6738.00    1.10891   1.14023    0.000
 6739.00    1.10666   1.14177    0.000
 6740.00    1.09290   1.14380    0.000
 6741.00    1.05887   1.14035    0.000
 6742.00    1.02876   1.13938    0.000
 6743.00    1.00468   1.14309    0.000
 6744.00    0.98926   1.14306    0.000
 6745.00    0.98555   1.14026    0.000
 6746.00    0.96690   1.14316    0.000
 6747.00    0.93045   1.14611    0.000
 6748.00    0.92732   1.14398    0.000
 6749.00    0.95914   1.14463    0.000
 6750.00    0.99466   1.14859    0.000
 6751.00    1.03359   1.14908    0.000
 6752.00    1.10606   1.14791    0.000
 6753.00    1.20592   1.15105    0.009
 6754.00    1.20500   1.15326    0.009
 6755.00    1.13169   1.15170    0.009
 6756.00    1.08243   1.15268    0.009
 6757.00    1.04831   1.15586    0.010
 6758.00    1.01745   1.15574    0.010
 6759.00    0.98838   1.15429    0.009
 6760.00    1.05735   1.15653    0.009
 6761.00    1.17329   1.15834    0.010
 6762.00    1.28647   1.15663    0.010
 6763.00    1.39850   1.15629    0.010
 6764.00    1.39455   1.15881    0.010
 6765.00    1.34958   1.15876    0.009
 6766.00    1.36088   1.15658    0.009
 6767.00    1.38897   1.15746    0.009
 6768.00    1.40562   1.15936    0.009
 6769.00    1.41945   1.15823    0.009
 6770.00    1.37921   1.15648    0.009
 6771.00    1.32812   1.15734    0.009
 6772.00    1.28546   1.15755    0.009
 6773.00    1.24412   1.15581    0.009
 6774.00    1.15031   1.15475    0.009
 6775.00    1.05038   1.15532    0.009
 6776.00    1.00459   1.15530    0.009
 6777.00    0.96306   1.15294    0.009
 6778.00    1.02329   1.15141    0.009
 6779.00    1.08796   1.15200    0.009
 6780.00    1.15930   1.15175    0.009
 6781.00    1.22883   1.14914    0.009
 6782.00    1.21031   1.14865    0.009
 6783.00    1.19329   1.15053    0.009
 6784.00    1.20362   1.14871    0.009
 6785.00    1.21627   1.14626    0.008
 6786.00    1.25438   1.14826    0.008
 6787.00    1.28446   1.14969    0.008
 6788.00    1.25290   1.14668    0.009
 6789.00    1.22100   1.14671    0.009
 6790.00    1.18719   1.15029    0.009
 6791.00    1.16107   1.14892    0.009
 6792.00    1.17053   1.14667    0.009
 6793.00    1.19913   1.14994    0.009
 6794.00    1.30006   1.15188    0.009
 6795.00    1.37204   1.14858    0.009
 6796.00    1.35261   1.14907    0.009
 6797.00    1.32136   1.15319    0.009
 6798.00    1.25850   1.15183    0.009
 6799.00    1.21683   1.14947    0.009
 6800.00    1.22387   1.15276    0.009
 6801.00    1.21196   1.15468    0.009
 6802.00    1.16239   1.15135    0.009
 6803.00    1.12392   1.15134    0.009
 6804.00    1.10468   1.15528    0.009
 6805.00    1.10164   1.15485    0.008
 6806.00    1.12316   1.15261    0.008
 6807.00    1.13875   1.15475    0.008
 6808.00    1.14644   1.15672    0.008
 6809.00    1.15872   1.15467    0.008
 6810.00    1.17637   1.15431    0.008
 6811.00    1.18173   1.15748    0.008
 6812.00    1.17437   1.15822    0.009
 6813.00    1.18528   1.15663    0.009
 6814.00    1.21287   1.15752    0.009
 6815.00    1.23345   1.15926    0.009
 6816.00    1.24839   1.15830    0.009
 6817.00    1.22760   1.15758    0.009
 6818.00    1.18153   1.15961    0.009
 6819.00    1.19044   1.16057    0.009
 6820.00    1.23349   1.15874    0.009
 6821.00    1.23307   1.15807    0.009
 6822.00    1.20905   1.15932    0.008
 6823.00    1.15471   1.15870    0.008
 6824.00    1.08607   1.15671    0.008
 6825.00    1.06676   1.15690    0.008
 6826.00    1.06750   1.15772    0.008
 6827.00    1.11007   1.15547    0.008
 6828.00    1.16715   1.15304    0.008
 6829.00    1.18709   1.15332    0.008
 6830.00    1.19616   1.15306    0.008
 6831.00    1.21930   1.15060    0.009
 6832.00    1.24586   1.14942    0.009
 6833.00    1.21277   1.15018    0.008
 6834.00    1.16800   1.14875    0.008
 6835.00    1.15528   1.14600    0.009
 6836.00    1.14745   1.14559    0.009
 6837.00    1.18479   1.14613    0.009
 6838.00    1.22720   1.14449    0.010
 6839.00    1.18128   1.14275    0.010
 6840.00    1.12876   1.14373    0.009
 6841.00    1.13741   1.14404    0.009
 6842.00    1.14849   1.14131    0.009
 6843.00    1.08700   1.13960    0.009
 6844.00    1.02889   1.14141    0.008
 6845.00    1.12485   1.14103    0.008
 6846.00    1.21443   1.13787    0.008
 6847.00    1.19628   1.13868    0.008
 6848.00    1.17869   1.14050    0.008
 6849.00    1.16701   1.13665    0.008
 6850.00    1.15828   1.13339    0.008
 6851.00    1.17146   1.13696    0.008
 6852.00    1.18055   1.13774    0.008
 6853.00    1.16643   1.13281    0.008
 6854.00    1.14952   1.13334    0.008
 6855.00    1.11999   1.13650    0.008
 6856.00    1.09246   1.13208    0.009
 6857.00    1.07233   1.12885    0.009
 6858.00    1.07007   1.13461    0.009
 6859.00    1.12317   1.13598    0.009
 6860.00    1.16708   1.12985    0.009
 6861.00    1.18681   1.13103    0.008
 6862.00    1.19982   1.13640    0.008
 6863.00    1.19767   1.13272    0.009
 6864.00    1.18745   1.12956    0.008
 6865.00    1.16142   1.13643    0.008
 6866.00    1.13750   1.13896    0.008
 6867.00    1.11717   1.13293    0.008
 6868.00    1.10867   1.13449    0.008
 6869.00    1.11784   1.14152    0.008
 6870.00    1.11769   1.13935    0.008
 6871.00    1.10530   1.13605    0.008
 6872.00    1.09608   1.14264    0.008
 6873.00    1.09051   1.14665    0.008
 6874.00    1.09584   1.14201    0.008
 6875.00    1.11230   1.14363    0.008
 6876.00    1.12975   1.15070    0.008
 6877.00    1.14809   1.14984    0.009
 6878.00    1.14567   1.14747    0.009
 6879.00    1.12677   1.15366    0.009
 6880.00    1.10027   1.15749    0.009
 6881.00    1.06845   1.15392    0.008
 6882.00    1.07405   1.15615    0.008
 6883.00    1.10254   1.16247    0.009
 6884.00    1.14029   1.16158    0.009
 6885.00    1.18297   1.16000    0.008
 6886.00    1.23643   1.16594    0.008
 6887.00    1.29489   1.16862    0.008
 6888.00    1.24055   1.16485    0.008
 6889.00    1.14114   1.16689    0.008
 6890.00    1.04687   1.17263    0.008
 6891.00    0.95434   1.17137    0.008
 6892.00    0.99706   1.16897    0.008
 6893.00    1.07854   1.17350    0.008
 6894.00    1.13113   1.17589    0.008
 6895.00    1.17688   1.17227    0.008
 6896.00    1.14050   1.17247    0.008
 6897.00    1.08848   1.17705    0.009
 6898.00    1.06775   1.17638    0.009
 6899.00    1.05164   1.17325    0.009
 6900.00    1.08287   1.17511    0.009
 6901.00    1.11920   1.17687    0.009
 6902.00    1.19457   1.17422    0.009
 6903.00    1.27269   1.17332    0.009
 6904.00    1.16937   1.17574    0.009
 6905.00    1.05954   1.17467    0.008
 6906.00    1.08654   1.17202    0.008
 6907.00    1.11432   1.17275    0.008
 6908.00    1.15301   1.17334    0.008
 6909.00    1.18872   1.17046    0.008
 6910.00    1.17726   1.16961    0.008
 6911.00    1.16292   1.17150    0.008
 6912.00    1.11979   1.16967    0.008
 6913.00    1.07509   1.16665    0.008
 6914.00    1.01911   1.16732    0.008
 6915.00    0.97200   1.16871    0.008
 6916.00    0.97384   1.16639    0.008
 6917.00    0.98884   1.16464    0.008
 6918.00    1.06190   1.16634    0.009
 6919.00    1.11870   1.16625    0.009
 6920.00    1.11653   1.16342    0.009
 6921.00    1.11642   1.16247    0.009
 6922.00    1.12259   1.16482    0.009
 6923.00    1.13222   1.16526    0.009
 6924.00    1.15080   1.16312    0.009
 6925.00    1.15882   1.16297    0.009
 6926.00    1.14338   1.16482    0.008
 6927.00    1.12867   1.16471    0.008
 6928.00    1.11537   1.16245    0.008
 6929.00    1.09937   1.16316    0.008
 6930.00    1.07882   1.16557    0.008
 6931.00    1.08515   1.16503    0.008
 6932.00    1.13105   1.16288    0.008
 6933.00    1.13661   1.16347    0.008
 6934.00    1.08993   1.16554    0.008
 6935.00    1.09057   1.16480    0.008
 6936.00    1.14520   1.16366    0.009
 6937.00    1.13414   1.16492    0.009
 6938.00    1.05697   1.16583    0.009
 6939.00    0.98582   1.16378    0.009
 6940.00    0.92002   1.16301    0.009
 6941.00    0.91031   1.16545    0.009
 6942.00    0.94445   1.16608    0.009
 6943.00    0.97050   1.16452    0.009
 6944.00    0.99097   1.16550    0.009
 6945.00    1.03226   1.16773    0.009
 6946.00    1.08610   1.16659    0.009
 6947.00    1.10131   1.16612    0.008
 6948.00    1.09620   1.16892    0.008
 6949.00    1.11738   1.17014    0.008
 6950.00    1.15057   1.16886    0.009
 6951.00    1.13972   1.17011    0.008
 6952.00    1.11158   1.17347    0.008
 6953.00    1.10226   1.17370    0.008
 6954.00    1.09923   1.17263    0.009
 6955.00    1.11848   1.17412    0.009
 6956.00    1.14398   1.17662    0.009
 6957.00    1.11482   1.17664    0.009
 6958.00    1.07300   1.17579    0.009
 6959.00    1.11038   1.17661    0.009
 6960.00    1.16245   1.17809    0.009
 6961.00    1.11521   1.17765    0.009
 6962.00    1.05375   1.17552    0.009
 6963.00    1.07712   1.17566    0.009
 6964.00    1.10927   1.17825    0.009
 6965.00    1.09958   1.17724    0.009
 6966.00    1.08710   1.17223    0.009
 6967.00    1.10657   1.17234    0.008
 6968.00    1.12705   1.17677    0.008
 6969.00    1.11792   1.17446    0.008
 6970.00    1.10737   1.16920    0.009
 6971.00    1.05360   1.17208    0.008
 6972.00    1.00453   1.17581    0.008
 6973.00    1.02541   1.17026    0.009
 6974.00    1.04357   1.16678    0.009
 6975.00    1.03553   1.17354    0.009
 6976.00    1.02020   1.17627    0.009
 6977.00    0.95403   1.17062    0.009
 6978.00    0.90709   1.17080    0.009
 6979.00    0.96332   1.17712    0.009
 6980.00    1.01668   1.17661    0.009
 6981.00    1.05769   1.17287    0.009
 6982.00    1.09902   1.17649    0.009
 6983.00    1.14148   1.18044    0.009
 6984.00    1.16115   1.17682    0.009
 6985.00    1.11283   1.17502    0.009
 6986.00    1.09766   1.18003    0.009
 6987.00    1.16666   1.18157    0.009
 6988.00    1.21503   1.17772    0.009
 6989.00    1.21831   1.17757    0.009
 6990.00    1.18738   1.18031    0.009
 6991.00    1.09157   1.17872    0.009
 6992.00    1.05155   1.17594    0.009
 6993.00    1.10390   1.17784    0.009
 6994.00    1.16056   1.17866    0.009
 6995.00    1.22346   1.17414    0.009
 6996.00    1.23179   1.17210    0.009
 6997.00    1.17046   1.17549    0.009
 6998.00    1.13951   1.17617    0.009
 6999.00    1.14273   1.17130    0.009
 7000.00    1.12912   1.16890    0.009
 7001.00    1.09881   1.17134    0.009
 7002.00    1.09961   1.17177    0.009
 7003.00    1.12762   1.16823    0.009
 7004.00    1.08778   1.16747    0.009
 7005.00    0.99565   1.17028    0.009
 7006.00    0.98241   1.16933    0.009
 7007.00    1.02262   1.16490    0.009
 7008.00    1.09066   1.16536    0.009
 7009.00    1.17520   1.17048    0.009
 7010.00    1.24633   1.16978    0.009
 7011.00    1.31051   1.16341    0.009
 7012.00    1.26791   1.16411    0.009
 7013.00    1.17737   1.17104    0.009
 7014.00    1.22488   1.17065    0.009
 7015.00    1.32565   1.16588    0.009
 7016.00    1.29042   1.16914    0.009
 7017.00    1.21055   1.17467    0.009
 7018.00    1.15331   1.17124    0.009
 7019.00    1.10230   1.16788    0.009
 7020.00    1.05876   1.17479    0.009
 7021.00    1.01691   1.18000    0.009
 7022.00    1.05588   1.17466    0.009
 7023.00    1.10945   1.17352    0.009
 7024.00    1.11173   1.18222    0.009
 7025.00    1.10690   1.18498    0.009
 7026.00    1.15532   1.18037    0.009
 7027.00    1.20903   1.18326    0.009
 7028.00    1.18512   1.19042    0.009
 7029.00    1.15634   1.18816    0.009
 7030.00    1.13299   1.18501    0.009
 7031.00    1.10981   1.19249    0.009
 7032.00    1.09298   1.19761    0.009
 7033.00    1.07883   1.19132    0.009
 7034.00    1.13803   1.18987    0.009
 7035.00    1.19432   1.19798    0.009
 7036.00    1.20963   1.19841    0.009
 7037.00    1.21284   1.19218    0.009
 7038.00    1.10459   1.19364    0.009
 7039.00    1.01236   1.19696    0.009
 7040.00    1.02804   1.19100    0.009
 7041.00    1.03979   1.18617    0.009
 7042.00    1.03105   1.18934    0.010
 7043.00    1.06163   1.18789    0.010
 7044.00    1.25774   1.17880    0.010
 7045.00    1.39987   1.17496    0.010
 7046.00    1.35424   1.17604    0.010
 7047.00    1.29949   1.16998    0.010
 7048.00    1.21806   1.16155    0.009
 7049.00    1.14654   1.15945    0.009
 7050.00    1.09975   1.15676   -2.000
 7051.00    1.07650   1.14879   -2.000
 7052.00    1.10386   1.14337   -2.000
 7053.00    1.14758   1.14261   -2.000
 7054.00    1.22184   1.13853   -2.000
 7055.00    1.25841   1.13145   -2.000
 7056.00    1.23354   1.12834   -2.000
 7057.00    1.20022   1.12799   -2.000
 7058.00    1.15479   1.12445   -2.000
 7059.00    1.13961   1.12010   -2.000
 7060.00    1.16248   1.11898   -2.000
 7061.00    1.19380   1.11893   -2.000
 7062.00    1.23450   1.11717   -2.000
 7063.00    1.27115   1.11412   -2.000
 7064.00    1.30383   1.11329   -2.000
 7065.00    1.27577   1.11490   -2.000
 7066.00    1.19530   1.11479   -2.000
 7067.00    1.07961   1.11179   -2.000
 7068.00    0.93716   1.11031   -2.000
 7069.00    0.98118   1.11152   -2.000
 7070.00    1.14971   1.11099   -2.000
 7071.00    1.25225   1.10758   -2.000
 7072.00    1.31620   1.10601   -2.000
 7073.00    1.29664   1.10653   -2.000
 7074.00    1.23452   1.10356   -2.000
 7075.00    1.19700   1.09862   -2.000
 7076.00    1.17035   1.09750   -2.000
 7077.00    1.19676   1.09754   -2.000
 7078.00    1.24328   1.09327   -2.000
 7079.00    1.27862   1.08711   -2.000
 7080.00    1.31035   1.08473   -2.000
 7081.00    1.24270   1.08444   -2.000
 7082.00    1.14827   1.08056   -2.000
 7083.00    1.14343   1.07576   -2.000
 7084.00    1.15836   1.07395   -2.000
 7085.00    1.16037   1.07272   -2.000
 7086.00    1.16012   1.06917   -2.000
 7087.00    1.13790   1.06637   -2.000
 7088.00    1.11274   1.06589   -2.000
 7089.00    1.09176   1.06565   -2.000
 7090.00    1.07118   1.06281   -2.000
 7091.00    1.10473   1.06026   -2.000
 7092.00    1.14146   1.06157   -2.000
 7093.00    1.11905   1.06249   -2.000
 7094.00    1.09510   1.06048   -2.000
 7095.00    1.05920   1.05895   -2.000
 7096.00    1.02675   1.06128   -2.000
 7097.00    1.08018   1.06204   -2.000
 7098.00    1.13127   1.05919   -2.000
 7099.00    1.15126   1.05865   -2.000
 7100.00    1.15126   1.06287   -2.000
 7101.00    0.97412   1.06308   -2.000
 7102.00    0.83279   1.05825   -2.000
 7103.00    0.92536   1.05861   -2.000
 7104.00    1.01997   1.06349   -2.000
 7105.00    1.12500   1.06247   -2.000
 7106.00    1.20208   1.05696   -2.000
 7107.00    1.16411   1.05826   -2.000
 7108.00    1.13375   1.06251   -2.000
 7109.00    1.12929   1.05941   -2.000
 7110.00    1.12823   1.05440   -2.000
 7111.00    1.13694   1.05695   -2.000
 7112.00    1.11904   1.05970   -2.000
 7113.00    1.03585   1.05445   -2.000
 7114.00    1.02989   1.05049   -2.000
 7115.00    1.18737   1.05377   -2.000
 7116.00    1.23590   1.05466   -2.000
 7117.00    1.08408   1.04855   -2.000
 7118.00    1.04910   1.04605   -2.000
 7119.00    1.20184   1.04956   -2.000
 7120.00    1.25317   1.04888   -2.000
 7121.00    1.16153   1.04383   -2.000
 7122.00    1.07242   1.04256   -2.000
 7123.00    0.98644   1.04491   -2.000
 7124.00    1.05985   1.04408   -2.000
 7125.00    1.30752   1.04157   -2.000
 7126.00    1.43047   1.04114   -2.000
 7127.00    1.43317   1.04177   -2.000
 7128.00    1.33549   1.04165   -2.000
 7129.00    1.15246   1.04218   -2.000
 7130.00    1.10601   1.04224   -2.000
 7131.00    1.16185   1.04109   -2.000
 7132.00    1.23185   1.04258   -2.000
 7133.00    1.31117   1.04500   -2.000
 7134.00    1.28984   1.04397   -2.000
 7135.00    1.21053   1.04217   -2.000
 7136.00    1.09557   1.04514   -2.000
 7137.00    0.96272   1.04873   -2.000
 7138.00    1.07800   1.04697   -2.000
 7139.00    1.30102   1.04463   -2.000
 7140.00    1.32503   1.04837   -2.000
 7141.00    1.27490   1.05246   -2.000
 7142.00    1.22560   1.05000   -2.000
 7143.00    1.17656   1.04787   -2.000
 7144.00    1.07408   1.05256   -2.000
 7145.00    0.95751   1.05558   -2.000
 7146.00    1.00706   1.05192   -2.000
 7147.00    1.09241   1.05140   -2.000
 7148.00    1.02527   1.05762   -2.000
 7149.00    0.93205   1.05942   -2.000
 7150.00    0.92625   1.05482   -2.000
 7151.00    0.93176   1.05480   -2.000
 7152.00    1.00869   1.06078   -2.000
 7153.00    1.09210   1.06214   -2.000
 7154.00    1.11309   1.05911   -2.000
 7155.00    1.13068   1.05966   -2.000
 7156.00    1.07338   1.06235   -2.000
 7157.00    1.01309   1.06301   -2.000
 7158.00    0.82251   1.06378   -2.000
 7159.00    0.65878   1.06550   -2.000
 7160.00    1.10471   1.06490   -2.000
 7161.00    1.52716   1.06414   -2.000
 7162.00    1.65398   1.06673   -2.000
 7163.00    1.77676   1.06920   -2.000
 7164.00    1.86512   1.06776   -2.000
 7165.00    1.85420   1.06731   -2.000
 7166.00    1.21401   1.06982   -2.000
 7167.00    0.72906   1.06955   -2.000
 7168.00    1.01483   1.06740   -2.000
 7169.00    1.25435   1.06951   -2.000
 7170.00    1.30773   1.07215   -2.000
 7171.00    1.33057   1.06872   -2.000
 7172.00    1.25134   1.06499   -2.000
 7173.00    1.17572   1.06827   -2.000
 7174.00    1.11027   1.07158   -2.000
 7175.00    1.09585   1.06766   -2.000
 7176.00    1.20452   1.06331   -2.000
 7177.00    1.26035   1.06550   -2.000
 7178.00    1.20616   1.06783   -2.000
 7179.00    1.21528   1.06472   -2.000
 7180.00    1.33903   1.06203   -2.000
 7181.00    1.35614   1.06375   -2.000
 7182.00    1.20446   1.06467   -2.000
 7183.00    1.12201   1.06182   -2.000
 7184.00    1.13574   1.06016   -2.000
 7185.00    1.09067   1.06219   -2.000
 7186.00    0.97370   1.06408   -2.000
 7187.00    0.93097   1.06194   -2.000
 7188.00    0.96827   1.05956   -2.000
 7189.00    1.04610   1.06138   -2.000
 7190.00    1.16246   1.06430   -2.000
 7191.00    1.21338   1.06370   -2.000
 7192.00    1.20942   1.06167   -2.000
 7193.00    1.13215   1.06248   -2.000
 7194.00    1.00076   1.06469   -2.000
 7195.00    0.94568   1.06510   -2.000
 7196.00    0.94008   1.06465   -2.000
 7197.00    0.88593   1.06556   -2.000
 7198.00    0.80424   1.06658   -2.000
 7199.00    0.91640   1.06684   -2.000
 7200.00    1.12428   1.06739   -2.000
 7201.00    1.24838   1.06906   -2.000
 7202.00    1.33671   1.07054   -2.000
 7203.00    1.37652   1.07061   -2.000
 7204.00    1.39857   1.07080   -2.000
 7205.00    1.25490   1.07300   -2.000
 7206.00    1.05990   1.07583   -2.000
 7207.00    0.97180   1.07639   -2.000
 7208.00    0.91129   1.07661   -2.000
 7209.00    0.89093   1.07930   -2.000
 7210.00    0.87903   1.08223   -2.000
 7211.00    0.91528   1.08305   -2.000
 7212.00    0.95953   1.08427   -2.000
 7213.00    1.01173   1.08750   -2.000
 7214.00    1.06492   1.09005   -2.000
 7215.00    1.18674   1.09078   -2.000
 7216.00    1.31450   1.09257   -2.000
 7217.00    1.16078   1.09629   -2.000
 7218.00    0.99276   1.09922   -2.000
