###################################################################
## OUTPUT of StarlightChains_v04.for    [Cid@UFSC - 01/Apr/2007] ##
###################################################################

## Some input info
KUG0210-078._49_45.txt                   [arq_obs]
Base.CB07.vall.4m                        [arq_base]
Masks.EmLines.NEW.gm                     [arq_masks]
StCv04.C11.config                        [arq_config]
   66                                    [N_base]
    0                                    [N_YAV_components = # of components with extra extinction!]
    0                                    [i_FitPowerLaw (1/0 = Yes/No)]
-9.99                                    [alpha_PowerLaw]
CCM                                      [red_law_option]
 1.458241                                [q_norm = A(l_norm)/A(V)]

## (Re)Sampling Parameters
 3741.00                                 [l_ini (A)]
 7218.00                                 [l_fin (A)]
    1.00                                 [dl    (A)]     (OBS: dl_cushion =    50.00 A)

## Normalization info
 4020.00                                 [l_norm (A) - for base]
 4010.00                                 [llow_norm (A) - window for f_obs]
 4060.00                                 [lupp_norm (A) - window for f_obs]
5.909502E-18                             [fobs_norm (in input units)]

## S/N
 3691.00                                 [llow_SN (A) - window for S/N]
 7268.00                                 [lupp_SN (A) - window for S/N]
   2.581                                 [S/N in S/N window]
   3.854                                 [S/N in norm. window]
   0.005                                 [S/N_err in S/N window]
   0.007                                 [S/N_err in norm. window]
  1.0000                                 [fscale_chi2]

## etc...
    -2007948                             [idum_orig]
  2348                                   [NOl_eff]
  2322                                   [Nl_eff]
    26    NSIGMA                         [Ntot_cliped & clip_method]
  1970220                                [Nglobal_steps]
   7                                     [N_chains]
  45                                     [NEX0s_base = N_base in EX0s-fits]
 0   0   1       26   2.0   1.282E+03    [Clip-Bug, RC-Crash & Burn-In warning-flags, n_censored_weights, wei_nsig_threshold & wei_limit]
    40     40.087     39.579      0.508  [idt_all, wdt_TotTime, wdt_UsrTime & wdt_SysTime (sec)]

## Synthesis Results - Best model ##

 7.85475E-06                             [chi2/Nl_eff]
    67.25768                             [adev (%)]

    87.61555                             [sum-of-x (%)]
 1.85278E-17                             [Flux_tot (units of input spectrum!)]
 9.84328E-14                             [Mini_tot (???)]
 5.06319E-14                             [Mcor_tot (???)]

-477.88                                  [v0_min  (km/s)]
 107.98                                  [vd_min  (km/s)]
 0.9492                                  [AV_min  (mag)]
 0.0000                                  [YAV_min (mag)]

# j     x_j(%)      Mini_j(%)     Mcor_j(%)     age_j(yr)     Z_j      (L/M)_j    YAV?  Mstars   component_j        a/Fe...       SSP_chi2r SSP_adev(%)   SSP_AV   SSP_x(%)
  1      0.0006     1.0911E-05    2.1212E-05    1.000000E+06  0.00400  1.094E-02    0   1.0000   age020_m42            0.0000     8.1078E-06    68.9115   2.2373    81.0057
  2      0.0000     0.0000E+00    0.0000E+00    3.160000E+06  0.00400  4.007E-02    0   0.9999   age045_m42            0.0000     8.3711E-06    68.3651   1.5069    86.2262
  3      6.0184     5.0924E-02    9.3931E-02    5.010000E+06  0.00400  2.539E-02    0   0.9488   age055_m42            0.0000     8.2272E-06    68.5536   1.8353    84.1412
  4      0.8543     7.0054E-03    1.2557E-02    6.610000E+06  0.00400  2.620E-02    0   0.9220   age061_m42            0.0000     8.4040E-06    68.0375   1.4479    86.1243
  5      0.0000     0.0000E+00    0.0000E+00    1.000000E+07  0.00400  1.322E-02    0   0.8862   age070_m42            0.0000     8.1913E-06    66.9997   1.2300    86.7366
  6      0.0000     0.0000E+00    0.0000E+00    1.445000E+07  0.00400  7.883E-03    0   0.8571   age078_m42            0.0000     8.1191E-06    67.3464   1.5476    84.8675
  7      0.0000     0.0000E+00    0.0000E+00    2.512000E+07  0.00400  5.251E-03    0   0.8174   age090_m42            0.0000     8.1720E-06    66.7347   1.1122    86.9771
  8      0.0000     0.0000E+00    0.0000E+00    4.000000E+07  0.00400  3.649E-03    0   0.7851   age104_m42            0.0000     8.2412E-06    66.7093   0.8756    87.8114
  9      0.0036     2.4979E-04    3.7048E-04    5.500000E+07  0.00400  3.098E-03    0   0.7629   age110_m42            0.0000     8.4165E-06    66.9238   0.9971    88.3834
 10      0.7830     7.5505E-02    1.0579E-01    1.015200E+08  0.00400  2.228E-03    0   0.7207   age116_m42            0.0000     8.5982E-06    66.9400   1.0049    88.6913
 11      0.0000     0.0000E+00    0.0000E+00    2.861200E+08  0.00400  1.093E-03    0   0.6648   age125_m42            0.0000     8.7294E-06    66.6262   0.4640    90.3923
 12      0.0000     0.0000E+00    0.0000E+00    5.088000E+08  0.00400  6.597E-04    0   0.6365   age130_m42            0.0000     8.9899E-06    66.7176   0.4302    91.4895
 13      4.6507     4.6864E+00    5.2824E+00    1.434000E+09  0.00400  2.132E-04    0   0.5798   age139_m42            0.0000     9.0777E-06    66.8097  -0.5704    93.6328
 14      0.0000     0.0000E+00    0.0000E+00    4.250000E+09  0.00400  5.895E-05    0   0.5377   age158_m42            0.0000     9.1291E-06    68.0184  -1.0000    89.8903
 15      0.0000     0.0000E+00    0.0000E+00    7.500000E+09  0.00400  3.510E-05    0   0.5212   age171_m42            0.0000     9.3700E-06    66.9221  -1.0000    86.0284
 16      0.0000     0.0000E+00    0.0000E+00    1.300000E+10  0.00400  2.005E-05    0   0.5034   age193_m42            0.0000     9.6758E-06    66.2882  -1.0000    82.4786
 17      0.0000     0.0000E+00    0.0000E+00    1.800000E+10  0.00400  1.525E-05    0   0.4967   age213_m42            0.0000     9.6570E-06    66.3062  -1.0000    81.6978
 18      1.0686     1.8544E-02    3.6051E-02    1.000000E+06  0.00800  1.238E-02    0   1.0000   age020_m52            0.0000     8.1167E-06    68.8964   2.2350    81.1501
 19      0.0007     4.8902E-06    9.4746E-06    3.160000E+06  0.00800  3.074E-02    0   0.9966   age045_m52            0.0000     8.1352E-06    68.8999   2.1559    81.8853
 20      0.0000     0.0000E+00    0.0000E+00    5.010000E+06  0.00800  2.668E-02    0   0.9443   age055_m52            0.0000     8.1911E-06    68.5311   1.9171    83.4970
 21      0.0000     0.0000E+00    0.0000E+00    6.610000E+06  0.00800  2.136E-02    0   0.9177   age061_m52            0.0000     8.1494E-06    67.4198   0.7216    87.8597
 22      1.3326     2.3563E-02    4.0434E-02    1.000000E+07  0.00800  1.215E-02    0   0.8827   age070_m52            0.0000     8.1119E-06    66.9665   1.4265    86.3232
 23      0.0000     0.0000E+00    0.0000E+00    1.445000E+07  0.00800  8.717E-03    0   0.8552   age078_m52            0.0000     8.1448E-06    67.2319   1.5174    85.9822
 24      0.0065     2.4904E-04    3.9516E-04    2.512000E+07  0.00800  5.592E-03    0   0.8162   age090_m52            0.0000     8.1934E-06    66.6807   1.1766    88.0300
 25      0.0006     3.3248E-05    5.0683E-05    4.000000E+07  0.00800  3.896E-03    0   0.7841   age104_m52            0.0000     8.3128E-06    66.7928   1.0702    88.9602
 26      0.0000     0.0000E+00    0.0000E+00    1.015200E+08  0.00800  2.148E-03    0   0.7226   age116_m52            0.0000     8.5466E-06    67.0573   0.9852    89.1500
 27      0.0000     0.0000E+00    0.0000E+00    2.861200E+08  0.00800  9.925E-04    0   0.6683   age125_m52            0.0000     8.9943E-06    66.6166   0.4841    92.6806
 28      0.0000     8.3443E-10    9.9571E-10    9.047900E+08  0.00800  3.141E-04    0   0.6138   age135_m52            0.0000     9.4146E-06    67.2287  -0.3588    96.9696
 29      0.0000     0.0000E+00    0.0000E+00    1.434000E+09  0.00800  1.719E-04    0   0.5853   age139_m52            0.0000     9.2035E-06    67.8352  -0.9527    95.1697
 30      0.0000     0.0000E+00    0.0000E+00    2.500000E+09  0.00800  7.872E-05    0   0.5600   age150_m52            0.0000     9.4912E-06    66.7135  -1.0000    88.8273
 31      0.0000     0.0000E+00    0.0000E+00    4.250000E+09  0.00800  4.336E-05    0   0.5426   age158_m52            0.0000     9.5498E-06    66.8320  -1.0000    87.6805
 32      0.0000     0.0000E+00    0.0000E+00    6.250000E+09  0.00800  3.159E-05    0   0.5319   age166_m52            0.0000     1.0047E-05    65.9149  -1.0000    83.7046
 33      0.3693     5.8292E+00    5.7489E+00    1.300000E+10  0.00800  1.361E-05    0   0.5073   age193_m52            0.0000     1.1305E-05    65.6037  -1.0000    73.3126
 34      0.8882     1.9301E+01    1.8724E+01    1.800000E+10  0.00800  9.886E-06    0   0.4990   age213_m52            0.0000     1.1916E-05    65.4017  -1.0000    70.3967
 35     10.2476     1.4259E-01    2.7720E-01    1.000000E+06  0.02000  1.544E-02    0   1.0000   age020_m62            0.0000     8.1205E-06    68.9135   2.2313    81.3326
 36      9.8418     5.6203E-02    1.0771E-01    3.160000E+06  0.02000  3.762E-02    0   0.9858   age045_m62            0.0000     8.1205E-06    68.8951   2.1664    82.1116
 37      0.0000     0.0000E+00    0.0000E+00    5.010000E+06  0.02000  3.296E-02    0   0.9342   age055_m62            0.0000     8.3227E-06    68.4105   1.7841    85.4195
 38     22.4269     4.1751E-01    7.1923E-01    8.710000E+06  0.02000  1.154E-02    0   0.8861   age067_m62            0.0000     7.7720E-06    65.9372   0.9948    86.5395
 39      0.7508     2.1050E-02    3.4669E-02    1.445000E+07  0.02000  7.663E-03    0   0.8472   age078_m62            0.0000     7.9872E-06    66.7222   1.1007    87.6966
 40      0.0000     0.0000E+00    0.0000E+00    2.512000E+07  0.02000  4.532E-03    0   0.8099   age090_m62            0.0000     8.0104E-06    66.5689   1.1058    87.2102
 41      1.0238     8.0479E-02    1.1883E-01    5.500000E+07  0.02000  2.733E-03    0   0.7595   age110_m62            0.0000     8.2874E-06    66.8833   1.0546    88.3471
 42      0.0000     0.0000E+00    0.0000E+00    1.609000E+08  0.02000  1.369E-03    0   0.6985   age120_m62            0.0000     8.7534E-06    66.5777   0.8652    91.0737
 43      0.0000     0.0000E+00    0.0000E+00    2.861200E+08  0.02000  9.013E-04    0   0.6714   age125_m62            0.0000     9.0957E-06    66.1286   0.6024    93.7042
 44      0.0000     0.0000E+00    0.0000E+00    5.088000E+08  0.02000  5.028E-04    0   0.6449   age130_m62            0.0000     9.4538E-06    66.7025   0.1718    96.9892
 45      0.0000     0.0000E+00    0.0000E+00    9.047900E+08  0.02000  2.428E-04    0   0.6179   age135_m62            0.0000     9.4578E-06    67.9303  -0.4508    96.9953
 46      0.0000     0.0000E+00    0.0000E+00    1.434000E+09  0.02000  1.263E-04    0   0.5908   age139_m62            0.0000     9.4536E-06    68.5113  -0.9060    95.6285
 47      0.0254     9.1143E-02    1.0052E-01    2.500000E+09  0.02000  5.985E-05    0   0.5673   age150_m62            0.0000     9.7995E-06    66.7272  -1.0000    89.4691
 48      1.7104     1.1233E+01    1.1941E+01    4.250000E+09  0.02000  3.271E-05    0   0.5468   age158_m62            0.0000     1.0566E-05    65.2772  -1.0000    82.4820
 49      0.0000     0.0000E+00    0.0000E+00    1.000000E+10  0.02000  1.360E-05    0   0.5167   age181_m62            0.0000     1.1856E-05    64.5250  -1.0000    74.3213
 50      1.7098     5.1561E+01    5.0250E+01    1.800000E+10  0.02000  7.124E-06    0   0.5013   age213_m62            0.0000     1.2844E-05    64.2351  -1.0000    68.8224
 51     10.9734     9.0952E-02    1.7678E-01    1.000000E+06  0.05000  2.592E-02    0   0.9998   age020_m72            0.0000     8.1303E-06    68.9075   2.2268    81.2685
 52      0.0000     0.0000E+00    0.0000E+00    3.160000E+06  0.05000  4.845E-02    0   0.9577   age045_m72            0.0000     8.1950E-06    68.8663   2.0399    83.3505
 53      0.0000     0.0000E+00    0.0000E+00    5.010000E+06  0.05000  3.072E-02    0   0.9147   age055_m72            0.0000     8.0663E-06    67.7938   1.6393    85.3140
 54     12.6077     1.8616E-01    3.2126E-01    6.610000E+06  0.05000  1.455E-02    0   0.8877   age061_m72            0.0000     7.8323E-06    67.4818   1.0646    86.5406
 55      0.0000     0.0000E+00    0.0000E+00    1.000000E+07  0.05000  9.074E-03    0   0.8524   age070_m72            0.0000     8.1006E-06    68.5225   1.8175    85.0543
 56      0.0951     4.8060E-03    7.3830E-03    2.512000E+07  0.05000  4.250E-03    0   0.7902   age090_m72            0.0000     8.2024E-06    67.6714   1.5224    86.5468
 57      0.0000     0.0000E+00    0.0000E+00    4.000000E+07  0.05000  3.087E-03    0   0.7618   age104_m72            0.0000     8.2718E-06    67.3529   1.3045    87.7195
 58      0.0000     0.0000E+00    0.0000E+00    1.015200E+08  0.05000  1.700E-03    0   0.7096   age116_m72            0.0000     8.6616E-06    66.5902   1.0222    90.4530
 59      0.0698     2.0295E-02    2.6170E-02    2.861200E+08  0.05000  7.384E-04    0   0.6633   age125_m72            0.0000     9.3237E-06    66.3017   0.4435    95.4228
 60      0.0000     0.0000E+00    0.0000E+00    5.088000E+08  0.05000  3.819E-04    0   0.6372   age130_m72            0.0000     9.4785E-06    67.3747  -0.1065    98.0193
 61      0.0283     3.6235E-02    4.3041E-02    9.047900E+08  0.05000  1.676E-04    0   0.6110   age135_m72            0.0000     9.7217E-06    69.2701  -0.8692    97.3868
 62      0.0000     0.0000E+00    0.0000E+00    1.434000E+09  0.05000  8.837E-05    0   0.5874   age139_m72            0.0000     1.0004E-05    66.7741  -1.0000    90.7048
 63      0.0000     0.0000E+00    0.0000E+00    2.500000E+09  0.05000  4.233E-05    0   0.5598   age150_m72            0.0000     1.0744E-05    65.1489  -1.0000    83.1231
 64      0.0000     0.0000E+00    0.0000E+00    6.250000E+09  0.05000  1.435E-05    0   0.5249   age166_m72            0.0000     1.2209E-05    64.4834  -1.0000    71.8391
 65      0.0000     0.0000E+00    0.0000E+00    1.300000E+10  0.05000  6.513E-06    0   0.5036   age193_m72            0.0000     1.3540E-05    64.1973  -1.0000    65.8353
 66      0.1278     6.0657E+00    5.8313E+00    1.800000E+10  0.05000  4.527E-06    0   0.4945   age213_m72            0.0000     1.4372E-05    64.0874  -1.0000    61.8626


## Synthesis Results - Average & Chains ##

# j      x_j: min, <> & last-chain-values for 1 ...  7 chains
  1      0.0006      1.0293      1.4360      2.9951      3.9863      2.3195      1.8700      1.0319      3.3734
  2      0.0000      0.9312      0.0000      1.4696      1.2513      0.0000      1.6151      0.0000      0.0000
  3      6.0184      1.0835      0.2383      0.6723      1.6330      2.1845      0.1129      2.1339      2.6216
  4      0.8543      1.0546      0.2472      0.0000      0.6474      1.4647      1.8499      3.6909      4.4719
  5      0.0000      1.0650      0.0000      0.7482      0.0000      1.6878      1.6468      0.6201      0.5093
  6      0.0000      1.0731      0.0000      0.5399      0.9724      0.0000      0.0123      0.0000      2.3453
  7      0.0000      0.8084      2.9054      0.0000      1.8958      0.0000      0.8558      0.0000      0.0000
  8      0.0000      1.0115      0.8452      0.0214      0.9669      0.0000      1.1464      5.2387      0.0000
  9      0.0036      1.2910      0.0886      0.8068      0.7605      3.0373      0.7789      2.2730      2.3301
 10      0.7830      1.0930      1.1625      0.0000      0.8167      2.5949      1.9215      0.7516      0.0000
 11      0.0000      1.1216      0.0000      2.3869      1.7267      0.0000      1.0878      0.0000      6.1868
 12      0.0000      1.0866      2.9299      1.2231      2.5646      0.0000      0.3489      0.3149      0.0000
 13      4.6507      1.4721      0.0000      1.1119      0.0000      1.1462      2.5059      0.0000      1.7580
 14      0.0000      0.8600      1.8358      0.8434      0.0670      1.1478      1.3843      0.6228      0.5115
 15      0.0000      1.0501      0.6112      0.6707      0.0717      0.0000      1.8784      0.0000      4.8489
 16      0.0000      1.1464      3.3015      0.0000      0.9333      0.4005      1.3609      4.0888      0.7198
 17      0.0000      0.8117      1.1603      1.6289      7.2114      0.0000      0.5501      0.5459      0.0000
 18      1.0686      0.9889      1.5691      0.4857      0.0000      1.9717      1.5550      0.6256      2.7953
 19      0.0007      1.2704      0.2807      1.2504      1.8755      1.1046      3.8413      2.2444      2.3292
 20      0.0000      1.2177      1.0914      4.8974      0.0368      1.6609      0.0000      3.8446      1.7622
 21      0.0000      1.1973      4.3929      3.3128      0.7329      0.2530      1.7248      0.3157      0.0000
 22      1.3326      1.2240      3.3354      1.4797      4.2233      3.5086      3.2907      0.7237      1.2914
 23      0.0000      1.0912      0.8059      2.2692      0.0000      0.0000      0.1223      1.0562      1.9313
 24      0.0065      0.8412      0.6974      0.4548      0.7499      0.6729      1.8179      0.6600      0.0000
 25      0.0006      0.9849      0.0000      0.1956      2.0145      0.5301      0.2349      1.8051      0.0000
 26      0.0000      1.3045      0.6834      0.0000      1.7843      0.0000      1.2560      0.9944      0.0000
 27      0.0000      0.8984      3.3002      0.0000      0.0000      0.0000      0.9111      0.6146      0.5725
 28      0.0000      1.3321      0.4789      1.5111      0.0000      0.4870      0.7515      0.0000      4.3308
 29      0.0000      1.4219      0.4689      0.0000      3.5772      1.2103      1.4033      3.5231      0.0000
 30      0.0000      1.0576      0.0000      0.0859      0.0000      1.0952      0.4257      0.0000      1.5762
 31      0.0000      1.1479      2.1121      0.0000      0.9754      0.0000      0.0000      0.0000      0.1678
 32      0.0000      0.6495      0.0000      0.0000      1.2520      2.6827      0.4319      1.8042      1.9160
 33      0.3693      0.9999      0.9466      1.4475      0.0000      1.5196      0.0485      7.3362      0.0000
 34      0.8882      0.7579      0.8295      1.0527      5.8479      3.7006      1.1076      0.0000      0.0238
 35     10.2476      0.7925      0.4187      0.0000      2.2710      0.5998      0.3262      0.1540      0.4830
 36      9.8418      0.9127      4.2375      0.0000      0.0000      2.8541      3.2349      0.3674      0.7033
 37      0.0000      0.9242      4.7699      2.3588      0.0000      0.1179      0.0000      1.2584      0.2464
 38     22.4269      1.1678      0.7877      0.0000      3.0459      1.3165      2.0938      2.8536      2.2715
 39      0.7508      0.9580      0.5696      5.1919      1.4783      0.8276      0.0000      0.0000      0.5985
 40      0.0000      1.2264      0.3587      0.6986      3.4084      0.0000      0.0000      2.5589      1.3635
 41      1.0238      1.0213      2.7785      0.6600      0.0000      2.3462      0.0000      0.0000      1.9498
 42      0.0000      1.0066      5.7864      0.0275      0.0000      0.8013      1.8786      1.5168      0.0000
 43      0.0000      0.8736      0.5824      0.6356      0.0000      0.3458      2.1978      0.0000      1.5165
 44      0.0000      1.2067      0.3089      0.0000      3.3730      0.6471      1.2517      0.8237      0.4997
 45      0.0000      1.1391      0.4096      0.0000      1.0064      0.0000      0.2274      0.0000      0.0000
 46      0.0000      0.9233      0.0000      1.2604      0.7238      5.1206      0.0000      0.0000      0.2439
 47      0.0254      1.1322      2.8737      0.4200      0.8011      0.4344      0.4976      2.1463      2.2627
 48      1.7104      1.0300      0.0000      4.7590      0.6888      2.9167      2.3196      0.3973      1.8913
 49      0.0000      0.7099      2.2260      0.1746      1.8745      0.1100      3.1003      0.0000      0.0000
 50      1.7098      1.5174      3.8040      0.8566      3.6418      0.7803      1.7560      2.8755      0.9067
 51     10.9734      1.2236      0.0000      2.7041      3.0947      3.6969      0.6021      0.2913      4.5574
 52      0.0000      1.0917      4.0445      0.9024      0.8158      0.0000      4.7854      0.0000      0.7130
 53      0.0000      1.1306      1.2271      0.6454      0.0000      1.9440      2.4374      0.0000      0.8035
 54     12.6077      1.2601      3.7280      0.0000      0.0000      1.7376      5.7830      1.0782      0.4168
 55      0.0000      0.9172      0.0000      5.0311      1.3372      0.3692      0.0590      2.8137      0.0000
 56      0.0951      0.7752      0.0000      0.1895      3.2680      1.1076      2.2577      0.0000      1.2610
 57      0.0000      0.9565      1.0391      0.0000      2.0327      6.1368      4.3850      0.0000      0.7727
 58      0.0000      1.0837      0.6045      2.6666      0.0000      4.6397      0.0000      6.7126      1.1485
 59      0.0698      0.8359      0.5256      1.8775      0.4102      1.2996      0.0000      1.4078      0.0000
 60      0.0000      0.8006      1.3908      1.2571      2.2848      0.7378      0.0000      0.0000      0.0000
 61      0.0283      5.8181      3.4560      3.5633      2.4124      1.3855      0.0000      6.2585      4.5818
 62      0.0000      1.3591      0.0000      2.5597      0.9719      1.0966      0.7455      1.0416      0.4688
 63      0.0000      0.8965      3.8139      0.5938      0.4361      0.9817      0.0000      0.0000      1.2133
 64      0.0000      0.8475      0.0000      3.3983      0.8642      1.1313      1.2396      0.0000      6.2517
 65      0.0000      3.3182      0.0000      3.9998      0.0000      4.2976      0.8898      6.6208      2.9018
 66      0.1278     14.5018      4.1200      9.5465      0.7335      5.7090      7.6125      1.8647      1.1589

# j      m_j: min, <> & last-chain-values for 1 ...  7 chains
  1  2.1212E-05  4.1035E-03  1.1295E-02  1.4671E-02  3.3020E-02  1.4180E-02  1.2031E-02  6.6061E-03  3.4319E-02
  2  0.0000E+00  1.0136E-03  0.0000E+00  1.9653E-03  2.8295E-03  0.0000E+00  2.8367E-03  0.0000E+00  0.0000E+00
  3  9.3931E-02  1.7660E-03  7.6638E-04  1.3463E-03  5.5298E-03  5.4594E-03  2.9698E-04  5.5848E-03  1.0904E-02
  4  1.2557E-02  1.6187E-03  7.4845E-04  0.0000E+00  2.0645E-03  3.4471E-03  4.5819E-03  9.0969E-03  1.7515E-02
  5  0.0000E+00  3.1139E-03  0.0000E+00  2.6877E-03  0.0000E+00  7.5668E-03  7.7697E-03  2.9113E-03  3.7999E-03
  6  0.0000E+00  5.0891E-03  0.0000E+00  3.1459E-03  9.5805E-03  0.0000E+00  9.3999E-05  0.0000E+00  2.8381E-02
  7  0.0000E+00  5.4885E-03  3.8917E-02  0.0000E+00  2.6742E-02  0.0000E+00  9.3770E-03  0.0000E+00  0.0000E+00
  8  0.0000E+00  9.4919E-03  1.5649E-02  2.4698E-04  1.8851E-02  0.0000E+00  1.7361E-02  7.8941E-02  0.0000E+00
  9  3.7048E-04  1.3866E-02  1.8779E-03  1.0647E-02  1.6971E-02  5.0022E-02  1.3500E-02  3.9203E-02  6.3864E-02
 10  1.0579E-01  1.5421E-02  3.2357E-02  0.0000E+00  2.3939E-02  5.6137E-02  4.3748E-02  1.7028E-02  0.0000E+00
 11  0.0000E+00  2.9754E-02  0.0000E+00  7.7800E-02  9.5170E-02  0.0000E+00  4.6568E-02  0.0000E+00  4.1882E-01
 12  0.0000E+00  4.5728E-02  2.4324E-01  6.3240E-02  2.2423E-01  0.0000E+00  2.3692E-02  2.1281E-02  0.0000E+00
 13  5.2824E+00  1.7461E-01  0.0000E+00  1.6205E-01  0.0000E+00  2.0846E-01  4.7965E-01  0.0000E+00  5.3210E-01
 14  0.0000E+00  3.4213E-01  1.4409E+00  4.1227E-01  5.5392E-02  7.0014E-01  8.8871E-01  3.9784E-01  5.1924E-01
 15  0.0000E+00  6.8009E-01  7.8097E-01  5.3373E-01  9.6463E-02  0.0000E+00  1.9632E+00  0.0000E+00  8.0136E+00
 16  0.0000E+00  1.2554E+00  7.1327E+00  0.0000E+00  2.1234E+00  6.7245E-01  2.4048E+00  7.1900E+00  2.0114E+00
 17  0.0000E+00  1.1531E+00  3.2518E+00  2.8431E+00  2.1284E+01  0.0000E+00  1.2611E+00  1.2453E+00  0.0000E+00
 18  3.6051E-02  3.4839E-03  1.0906E-02  2.1026E-03  0.0000E+00  1.0651E-02  8.8407E-03  3.5389E-03  2.5131E-02
 19  9.4746E-06  1.7964E-03  7.8305E-04  2.1724E-03  5.5099E-03  2.3950E-03  8.7654E-03  5.0963E-03  8.4045E-03
 20  0.0000E+00  1.8798E-03  3.3239E-03  9.2889E-03  1.1817E-04  3.9313E-03  0.0000E+00  9.5302E-03  6.9416E-03
 21  0.0000E+00  2.2436E-03  1.6240E-02  7.6274E-03  2.8533E-03  7.2696E-04  5.2159E-03  9.4994E-04  0.0000E+00
 22  4.0434E-02  3.8786E-03  2.0851E-02  5.7610E-03  2.7804E-02  1.7047E-02  1.6827E-02  3.6821E-03  1.0442E-02
 23  0.0000E+00  4.6693E-03  6.8032E-03  1.1931E-02  0.0000E+00  0.0000E+00  8.4479E-04  7.2570E-03  2.1088E-02
 24  3.9516E-04  5.3554E-03  8.7588E-03  3.5572E-03  9.9180E-03  6.5683E-03  1.8676E-02  6.7468E-03  0.0000E+00
 25  5.0683E-05  8.6456E-03  0.0000E+00  2.1099E-03  3.6740E-02  7.1351E-03  3.3277E-03  2.5443E-02  0.0000E+00
 26  0.0000E+00  1.9141E-02  1.9782E-02  0.0000E+00  5.4392E-02  0.0000E+00  2.9740E-02  2.3430E-02  0.0000E+00
 27  0.0000E+00  2.6384E-02  1.9122E-01  0.0000E+00  0.0000E+00  0.0000E+00  4.3180E-02  2.8984E-02  4.2902E-02
 28  9.9571E-10  1.1354E-01  8.0535E-02  1.5824E-01  0.0000E+00  6.3652E-02  1.0336E-01  0.0000E+00  9.4192E-01
 29  0.0000E+00  2.1117E-01  1.3738E-01  0.0000E+00  1.1037E+00  2.7561E-01  3.3630E-01  8.4014E-01  0.0000E+00
 30  0.0000E+00  3.2816E-01  0.0000E+00  3.2757E-02  0.0000E+00  5.2106E-01  2.1316E-01  0.0000E+00  1.2480E+00
 31  0.0000E+00  6.2656E-01  2.2743E+00  0.0000E+00  1.1060E+00  0.0000E+00  0.0000E+00  0.0000E+00  2.3374E-01
 32  0.0000E+00  4.7697E-01  0.0000E+00  0.0000E+00  1.9102E+00  3.0209E+00  5.1180E-01  2.1277E+00  3.5906E+00
 33  5.7489E+00  1.6255E+00  3.0361E+00  2.8914E+00  0.0000E+00  3.7881E+00  1.2724E-01  1.9152E+01  0.0000E+00
 34  1.8724E+01  1.6685E+00  3.6030E+00  2.8474E+00  2.6748E+01  1.2492E+01  3.9348E+00  0.0000E+00  1.3364E-01
 35  2.7720E-01  2.2387E-03  2.3333E-03  0.0000E+00  1.3329E-02  2.5982E-03  1.4869E-03  6.9835E-04  3.4817E-03
 36  1.0771E-01  1.0431E-03  9.5548E-03  0.0000E+00  0.0000E+00  5.0018E-03  5.9663E-03  6.7428E-04  2.0511E-03
 37  0.0000E+00  1.1425E-03  1.1633E-02  3.5828E-03  0.0000E+00  2.2350E-04  0.0000E+00  2.4981E-03  7.7742E-04
 38  7.1923E-01  3.9109E-03  5.2042E-03  0.0000E+00  2.1194E-02  6.7606E-03  1.1316E-02  1.5346E-02  1.9412E-02
 39  3.4669E-02  4.6194E-03  5.4189E-03  3.0760E-02  1.4810E-02  6.1192E-03  0.0000E+00  0.0000E+00  7.3643E-03
 40  0.0000E+00  9.5591E-03  5.5152E-03  6.6898E-03  5.5195E-02  0.0000E+00  0.0000E+00  3.2027E-02  2.7120E-02
 41  1.1883E-01  1.2379E-02  6.6441E-02  9.8296E-03  0.0000E+00  4.3605E-02  0.0000E+00  0.0000E+00  6.0308E-02
 42  0.0000E+00  2.2402E-02  2.5405E-01  7.5173E-04  0.0000E+00  2.7344E-02  6.7463E-02  5.4201E-02  0.0000E+00
 43  0.0000E+00  2.8385E-02  3.7333E-02  2.5372E-02  0.0000E+00  1.7226E-02  1.1523E-01  0.0000E+00  1.2573E-01
 44  0.0000E+00  6.7506E-02  3.4088E-02  0.0000E+00  3.9204E-01  5.5510E-02  1.1300E-01  7.3990E-02  7.1329E-02
 45  0.0000E+00  1.2644E-01  8.9691E-02  0.0000E+00  2.3208E-01  0.0000E+00  4.0726E-02  0.0000E+00  0.0000E+00
 46  0.0000E+00  1.8838E-01  0.0000E+00  3.1595E-01  3.0681E-01  1.6019E+00  0.0000E+00  0.0000E+00  1.2700E-01
 47  1.0052E-01  4.6809E-01  2.3439E+00  2.1335E-01  6.8806E-01  2.7539E-01  3.3195E-01  1.4249E+00  2.3871E+00
 48  1.1941E+01  7.5099E-01  0.0000E+00  4.2632E+00  1.0434E+00  3.2608E+00  2.7292E+00  4.6512E-01  3.5189E+00
 49  0.0000E+00  1.1763E+00  7.2773E+00  3.5542E-01  6.4536E+00  2.7944E-01  8.2904E+00  0.0000E+00  0.0000E+00
 50  5.0250E+01  4.6572E+00  2.3034E+01  3.2302E+00  2.3222E+01  3.6722E+00  8.6970E+00  1.4171E+01  7.1007E+00
 51  1.7678E-01  2.0585E-03  0.0000E+00  5.5896E-03  1.0817E-02  9.5367E-03  1.6346E-03  7.8685E-04  1.9565E-02
 52  0.0000E+00  9.4119E-04  6.8793E-03  9.5591E-04  1.4613E-03  0.0000E+00  6.6577E-03  0.0000E+00  1.5686E-03
 53  0.0000E+00  1.4682E-03  3.1439E-03  1.0298E-03  0.0000E+00  3.8711E-03  5.1081E-03  0.0000E+00  2.6628E-03
 54  3.2126E-01  3.3533E-03  1.9572E-02  0.0000E+00  0.0000E+00  7.0897E-03  2.4833E-02  4.6073E-03  2.8301E-03
 55  0.0000E+00  3.7581E-03  0.0000E+00  2.5327E-02  1.1383E-02  2.3197E-03  3.9040E-04  1.8512E-02  0.0000E+00
 56  7.3830E-03  6.2868E-03  0.0000E+00  1.8886E-03  5.5061E-02  1.3772E-02  2.9546E-02  0.0000E+00  2.6095E-02
 57  0.0000E+00  1.0295E-02  2.2065E-02  0.0000E+00  4.5455E-02  1.0128E-01  7.6165E-02  0.0000E+00  2.1223E-02
 58  0.0000E+00  1.9729E-02  2.1712E-02  5.9649E-02  0.0000E+00  1.2952E-01  0.0000E+00  1.9624E-01  5.3354E-02
 59  2.6170E-02  3.2750E-02  4.0625E-02  9.0379E-02  3.3393E-02  7.8073E-02  0.0000E+00  8.8570E-02  0.0000E+00
 60  0.0000E+00  5.8260E-02  1.9969E-01  1.1240E-01  3.4546E-01  8.2332E-02  0.0000E+00  0.0000E+00  0.0000E+00
 61  4.3041E-02  9.2512E-01  1.0842E+00  6.9615E-01  7.9695E-01  3.3779E-01  0.0000E+00  1.5980E+00  1.8591E+00
 62  0.0000E+00  3.9403E-01  0.0000E+00  9.1178E-01  5.8542E-01  4.8750E-01  3.4879E-01  4.8493E-01  3.4682E-01
 63  0.0000E+00  5.1711E-01  4.3401E+00  4.2080E-01  5.2264E-01  8.6829E-01  0.0000E+00  0.0000E+00  1.7859E+00
 64  0.0000E+00  1.3522E+00  0.0000E+00  6.6614E+00  2.8645E+00  2.7676E+00  3.1914E+00  0.0000E+00  2.5451E+01
 65  0.0000E+00  1.1191E+01  0.0000E+00  1.6574E+01  0.0000E+00  2.2223E+01  4.8426E+00  3.5854E+01  2.4973E+01
 66  5.8313E+00  6.9092E+01  3.8725E+01  5.5883E+01  7.2606E+00  4.1706E+01  5.8528E+01  1.4265E+01  1.4089E+01

# AV, chi2 & Mass for <> & i_chain = 1 ...  7 solutions
AV       0.9492     -0.9338     -0.5294     -0.7627     -0.3703     -0.4521     -0.4280     -0.5954     -0.2144
chi2 7.8548E-06  8.7020E-06  8.4657E-06  8.5304E-06  8.3477E-06  8.2865E-06  8.2911E-06  8.4681E-06  8.2991E-06
Mass 5.0632E-14  3.8657E-14  3.3729E-14  3.9590E-14  3.9661E-14  4.8147E-14  4.7255E-14  3.7924E-14  3.9809E-14
-477.88                                  [v0_min (km/s) before EX0s...]
 107.98                                  [vd_min (km/s) before EX0s...]


## Synthetic spectrum (Best Model) ##l_obs f_obs f_syn wei
 3478    [Nl_obs]
 3741.00   -0.40917   0.75153    0.000
 3742.00   -0.47445   0.71312    0.000
 3743.00   -0.81277   0.68059    0.000
 3744.00   -0.72567   0.66792    0.000
 3745.00   -0.39069   0.68178    0.000
 3746.00    0.61253   0.71498    0.020
 3747.00    1.95509   0.75352    0.021
 3748.00    1.85070   0.78722    0.020
 3749.00    1.11004   0.81248    0.020
 3750.00    0.29609   0.82914    0.020
 3751.00   -0.54552   0.83843    0.000
 3752.00   -0.59970   0.84325    0.000
 3753.00   -0.40152   0.84688    0.000
 3754.00    0.50777   0.85156    0.018
 3755.00    1.60762   0.85670    0.019
 3756.00    1.80668   0.85911    0.019
 3757.00    1.80802   0.85642    0.019
 3758.00    0.67080   0.84757    0.018
 3759.00   -0.66517   0.83114    0.000
 3760.00   -1.04469   0.80581    0.000
 3761.00   -1.29715   0.77194    0.000
 3762.00   -1.07924   0.73199    0.000
 3763.00   -0.81712   0.69227    0.000
 3764.00    0.35758   0.66494    0.018
 3765.00    1.58493   0.66255    0.018
 3766.00    0.83216   0.68682    0.018
 3767.00    0.03335   0.72662    0.017
 3768.00   -0.65021   0.76858    0.000
 3769.00   -1.28976   0.80493    0.000
 3770.00   -0.86016   0.83326    0.000
 3771.00   -0.46105   0.85426    0.000
 3772.00   -0.46158   0.87042    0.000
 3773.00   -0.46852   0.88410    0.000
 3774.00   -0.53176   0.89583    0.000
 3775.00   -0.60063   0.90454    0.000
 3776.00   -0.70596   0.90939    0.000
 3777.00   -0.78514   0.91046    0.000
 3778.00   -0.73197   0.90810    0.000
 3779.00   -0.52390   0.90311    0.000
 3780.00    0.31821   0.89677    0.017
 3781.00    0.99226   0.88984    0.017
 3782.00    1.09629   0.88180    0.017
 3783.00    1.05967   0.87139    0.017
 3784.00    0.62080   0.85782    0.017
 3785.00    0.51484   0.84123    0.017
 3786.00    1.22226   0.82115    0.017
 3787.00    1.53119   0.79478    0.017
 3788.00    1.00025   0.75892    0.017
 3789.00    0.43897   0.71415    0.017
 3790.00   -0.17789   0.66736    0.000
 3791.00   -0.42314   0.63176    0.000
 3792.00   -0.07353   0.62196    0.000
 3793.00    0.28440   0.64359    0.016
 3794.00    0.65403   0.68752    0.017
 3795.00    0.55775   0.73727    0.017
 3796.00   -0.11440   0.78057    0.000
 3797.00   -0.18120   0.81273    0.000
 3798.00    0.41153   0.83343    0.017
 3799.00    0.58393   0.84515    0.017
 3800.00    0.35237   0.85345    0.017
 3801.00    0.16313   0.86420    0.017
 3802.00    0.00973   0.87837    0.017
 3803.00   -0.18365   0.89193    0.000
 3804.00   -0.40686   0.90092    0.000
 3805.00   -0.43308   0.90435    0.000
 3806.00   -0.33017   0.90326    0.000
 3807.00   -0.65122   0.89953    0.000
 3808.00   -1.21556   0.89473    0.000
 3809.00   -0.83818   0.88867    0.000
 3810.00    0.00988   0.87846    0.016
 3811.00    0.54555   0.86033    0.016
 3812.00    0.94614   0.83524    0.016
 3813.00    0.52044   0.81336    0.016
 3814.00   -0.21168   0.80843    0.000
 3815.00   -0.28228   0.82347    0.000
 3816.00   -0.14493   0.84607    0.000
 3817.00    0.14589   0.86168    0.015
 3818.00    0.47697   0.86573    0.015
 3819.00    0.36874   0.86161    0.015
 3820.00    0.16638   0.85353    0.015
 3821.00    0.16112   0.84301    0.015
 3822.00    0.18931   0.82925    0.015
 3823.00    0.82823   0.81057    0.015
 3824.00    1.54553   0.78483    0.015
 3825.00    1.25686   0.75001    0.015
 3826.00    0.87789   0.70589    0.016
 3827.00    0.35119   0.65701    0.016
 3828.00   -0.18345   0.61429    0.000
 3829.00   -0.08478   0.59183    0.000
 3830.00    0.03091   0.59867    0.015
 3831.00    0.51163   0.63143    0.016
 3832.00    0.98486   0.67708    0.016
 3833.00    1.29167   0.72316    0.016
 3834.00    1.54840   0.76330    0.016
 3835.00    1.18242   0.79587    0.016
 3836.00    0.86967   0.82153    0.016
 3837.00    1.00693   0.84139    0.016
 3838.00    1.03028   0.85625    0.016
 3839.00    0.33694   0.86691    0.016
 3840.00   -0.03059   0.87431    0.000
 3841.00    1.20949   0.87913    0.016
 3842.00    2.09733   0.88172    0.016
 3843.00    1.57511   0.88269    0.016
 3844.00    1.07077   0.88355    0.016
 3845.00    0.62587   0.88563    0.016
 3846.00    0.65663   0.88840    0.016
 3847.00    2.02308   0.88958    0.000
 3848.00    2.69717   0.88776    0.000
 3849.00    1.70829   0.88425    0.000
 3850.00    0.93225   0.88160    0.000
 3851.00    0.59765   0.88084    0.000
 3852.00    0.52606   0.88090    0.000
 3853.00    0.92887   0.88053    0.000
 3854.00    0.96060   0.88025    0.000
 3855.00    0.40713   0.88105    0.000
 3856.00    0.18381   0.88230    0.000
 3857.00    0.41754   0.88240    0.000
 3858.00    0.72797   0.88075    0.000
 3859.00    1.13187   0.87787    0.000
 3860.00    1.14008   0.87475    0.000
 3861.00    0.72325   0.87279    0.000
 3862.00    0.66001   0.87261    0.000
 3863.00    0.93178   0.87222    0.000
 3864.00    0.96669   0.86851    0.000
 3865.00    0.80371   0.86218    0.000
 3866.00    0.73935   0.85776    0.000
 3867.00    0.74751   0.85744    0.000
 3868.00    0.23394   0.85817    0.000
 3869.00   -0.61664   0.85601    0.000
 3870.00   -0.56542   0.85100    0.000
 3871.00   -0.00455   0.84585    0.000
 3872.00    0.21081   0.84171    0.000
 3873.00    0.25621   0.83687    0.000
 3874.00    0.28802   0.82881    0.000
 3875.00    0.31407   0.81633    0.000
 3876.00    0.51071   0.79980    0.000
 3877.00    0.76950   0.77925    0.000
 3878.00    1.01891   0.75231    0.000
 3879.00    1.26543   0.71545    0.000
 3880.00    1.00595   0.66878    0.000
 3881.00    0.61659   0.62023    0.014
 3882.00    0.98869   0.58470    0.014
 3883.00    1.51998   0.57702    0.014
 3884.00    1.10334   0.60151    0.014
 3885.00    0.53038   0.64781    0.014
 3886.00    0.57126   0.69869    0.014
 3887.00    0.68816   0.74202    0.014
 3888.00    0.86322   0.77469    0.014
 3889.00    1.04325   0.79860    0.014
 3890.00    0.63305   0.81606    0.014
 3891.00    0.19343   0.82836    0.013
 3892.00    0.32431   0.83693    0.013
 3893.00    0.46539   0.84418    0.013
 3894.00    0.66129   0.85197    0.013
 3895.00    0.85195   0.85997    0.013
 3896.00    0.93538   0.86642    0.013
 3897.00    1.00238   0.87037    0.013
 3898.00    0.87523   0.87239    0.013
 3899.00    0.75653   0.87392    0.012
 3900.00    0.70665   0.87642    0.012
 3901.00    0.66260   0.88050    0.012
 3902.00    0.65406   0.88501    0.012
 3903.00    0.61760   0.88781    0.012
 3904.00    0.44672   0.88788    0.012
 3905.00    0.25790   0.88645    0.012
 3906.00   -0.00122   0.88571    0.000
 3907.00   -0.30853   0.88668    0.000
 3908.00   -0.77294   0.88822    0.000
 3909.00   -1.50566   0.88802    0.000
 3910.00   -2.97828   0.88384    0.000
 3911.00   -3.21643   0.87460    0.000
 3912.00   -0.53947   0.86176    0.000
 3913.00    1.24616   0.84984    0.013
 3914.00    1.21266   0.84370    0.013
 3915.00    0.99188   0.84423    0.013
 3916.00    0.43845   0.84755    0.013
 3917.00    0.38648   0.84886    0.013
 3918.00    1.11366   0.84617    0.014
 3919.00    1.46435   0.84117    0.014
 3920.00    1.30134   0.83707    0.014
 3921.00    1.24616   0.83592    0.014
 3922.00    1.32052   0.83738    0.014
 3923.00    1.42067   0.83896    0.014
 3924.00    1.54814   0.83754    0.014
 3925.00    1.16981   0.83160    0.013
 3926.00    0.31896   0.82292    0.013
 3927.00   -0.11155   0.81621    0.000
 3928.00   -0.19588   0.81600    0.000
 3929.00    0.41362   0.82310    0.013
 3930.00    1.52611   0.83434    0.014
 3931.00    1.56642   0.84549    0.014
 3932.00    0.92438   0.85412    0.013
 3933.00    0.89275   0.85982    0.013
 3934.00    1.20083   0.86287    0.013
 3935.00    1.22362   0.86337    0.013
 3936.00    1.10832   0.86153    0.013
 3937.00    1.12329   0.85863    0.013
 3938.00    1.19274   0.85691    0.013
 3939.00    1.28477   0.85767    0.013
 3940.00    1.38487   0.86018    0.013
 3941.00    1.13159   0.86296    0.013
 3942.00    0.77150   0.86522    0.013
 3943.00    0.85049   0.86679    0.013
 3944.00    1.03976   0.86704    0.013
 3945.00    0.89703   0.86496    0.013
 3946.00    0.68660   0.86057    0.013
 3947.00    0.69707   0.85524    0.013
 3948.00    0.74290   0.85055    0.013
 3949.00    0.50533   0.84708    0.013
 3950.00    0.23392   0.84441    0.013
 3951.00    0.98253   0.84132    0.013
 3952.00    1.81421   0.83575    0.013
 3953.00    0.81284   0.82532    0.013
 3954.00   -0.27278   0.80943    0.000
 3955.00   -0.22766   0.78995    0.000
 3956.00   -0.17012   0.76851    0.000
 3957.00   -0.21572   0.74516    0.000
 3958.00   -0.23910   0.71930    0.000
 3959.00    0.15872   0.68958    0.013
 3960.00    0.52880   0.65355    0.000
 3961.00    0.58631   0.61055    0.000
 3962.00    0.58800   0.56672    0.000
 3963.00    0.15083   0.53624    0.000
 3964.00   -0.18890   0.53277    0.000
 3965.00    0.04953   0.55845    0.000
 3966.00    0.32335   0.60318    0.000
 3967.00    0.76335   0.65332    0.000
 3968.00    1.07327   0.69908    0.000
 3969.00    0.88466   0.73649    0.000
 3970.00    0.75860   0.76552    0.000
 3971.00    0.83249   0.78767    0.000
 3972.00    0.98506   0.80458    0.000
 3973.00    1.35073   0.81714    0.000
 3974.00    1.56582   0.82544    0.000
 3975.00    1.43125   0.83007    0.000
 3976.00    1.23084   0.83323    0.000
 3977.00    0.89820   0.83749    0.000
 3978.00    0.79308   0.84363    0.000
 3979.00    1.08595   0.85059    0.000
 3980.00    0.88528   0.85702    0.000
 3981.00   -0.07098   0.86204    0.000
 3982.00   -0.47397   0.86523    0.000
 3983.00   -0.13290   0.86700    0.000
 3984.00    0.37401   0.86824    0.013
 3985.00    1.07730   0.86921    0.013
 3986.00    1.23353   0.86901    0.013
 3987.00    0.81851   0.86678    0.013
 3988.00    0.70694   0.86357    0.013
 3989.00    0.87487   0.86146    0.013
 3990.00    1.20535   0.86131    0.013
 3991.00    1.66779   0.86280    0.013
 3992.00    1.71517   0.86560    0.013
 3993.00    1.46599   0.86898    0.013
 3994.00    1.38501   0.87168    0.012
 3995.00    1.40948   0.87248    0.013
 3996.00    1.36403   0.87057    0.012
 3997.00    1.28025   0.86597    0.012
 3998.00    0.96130   0.85977    0.012
 3999.00    0.53032   0.85369    0.013
 4000.00    0.42254   0.84803    0.013
 4001.00    0.44758   0.84195    0.013
 4002.00    0.38381   0.83684    0.013
 4003.00    0.28885   0.83674    0.012
 4004.00    0.28686   0.84332    0.012
 4005.00    0.31242   0.85364    0.012
 4006.00    0.45681   0.86339    0.012
 4007.00    0.63040   0.87008    0.012
 4008.00    0.88262   0.87371    0.013
 4009.00    1.15047   0.87510    0.013
 4010.00    1.32894   0.87505    0.013
 4011.00    1.49352   0.87459    0.013
 4012.00    1.07743   0.87414    0.013
 4013.00    0.59457   0.87261    0.012
 4014.00    1.00000   0.86821    0.013
 4015.00    1.47410   0.85926    0.013
 4016.00    1.34910   0.84388    0.013
 4017.00    1.19886   0.82093    0.013
 4018.00    1.15309   0.79388    0.013
 4019.00    1.10332   0.77368    0.012
 4020.00    0.83711   0.77241    0.013
 4021.00    0.59436   0.79016    0.013
 4022.00    0.76523   0.81467    0.013
 4023.00    0.91889   0.83367    0.013
 4024.00    0.88739   0.84303    0.012
 4025.00    0.85732   0.84566    0.012
 4026.00    0.83818   0.84598    0.012
 4027.00    0.83769   0.84704    0.012
 4028.00    0.94478   0.85060    0.012
 4029.00    1.07299   0.85728    0.012
 4030.00    1.29795   0.86541    0.012
 4031.00    1.48232   0.87165    0.012
 4032.00    1.51438   0.87373    0.012
 4033.00    1.57040   0.87178    0.012
 4034.00    1.70154   0.86772    0.012
 4035.00    1.72298   0.86332    0.012
 4036.00    1.45257   0.85840    0.012
 4037.00    1.22548   0.85222    0.012
 4038.00    1.09730   0.84616    0.012
 4039.00    1.01988   0.84333    0.012
 4040.00    1.04281   0.84567    0.012
 4041.00    0.90940   0.85194    0.012
 4042.00    0.50663   0.85907    0.012
 4043.00    0.45891   0.86457    0.012
 4044.00    0.94680   0.86719    0.012
 4045.00    1.11807   0.86658    0.012
 4046.00    0.86963   0.86330    0.012
 4047.00    0.91214   0.85879    0.012
 4048.00    1.29431   0.85478    0.012
 4049.00    1.57147   0.85231    0.012
 4050.00    1.74054   0.85116    0.012
 4051.00    1.52993   0.85049    0.012
 4052.00    0.97455   0.84972    0.012
 4053.00    0.66141   0.84848    0.012
 4054.00    0.54215   0.84641    0.012
 4055.00    0.64923   0.84324    0.012
 4056.00    0.91568   0.83965    0.012
 4057.00    0.93239   0.83762    0.012
 4058.00    0.79482   0.83811    0.013
 4059.00    0.72871   0.83899    0.013
 4060.00    0.70115   0.83699    0.012
 4061.00    0.70066   0.83105    0.012
 4062.00    0.71286   0.82287    0.012
 4063.00    0.75483   0.81539    0.012
 4064.00    0.80884   0.81135    0.012
 4065.00    0.98232   0.81193    0.012
 4066.00    1.19698   0.81586    0.012
 4067.00    0.83021   0.81923    0.012
 4068.00    0.29460   0.81853    0.012
 4069.00    0.61739   0.81506    0.012
 4070.00    1.14635   0.81342    0.012
 4071.00    1.03383   0.81610    0.012
 4072.00    0.79702   0.82227    0.012
 4073.00    0.79327   0.82963    0.012
 4074.00    0.82464   0.83536    0.012
 4075.00    0.69418   0.83716    0.012
 4076.00    0.54582   0.83471    0.012
 4077.00    0.95449   0.82986    0.012
 4078.00    1.40395   0.82519    0.012
 4079.00    1.38666   0.82192    0.012
 4080.00    1.35151   0.81894    0.012
 4081.00    1.21949   0.81486    0.012
 4082.00    1.09901   0.81054    0.012
 4083.00    1.43375   0.80811    0.012
 4084.00    1.70654   0.80700    0.012
 4085.00    0.95851   0.80381    0.012
 4086.00    0.27161   0.79610    0.012
 4087.00    0.21372   0.78321    0.012
 4088.00    0.15347   0.76440    0.011
 4089.00    0.07593   0.73954    0.011
 4090.00    0.01242   0.71031    0.011
 4091.00    0.02759   0.67792    0.011
 4092.00    0.18762   0.64133    0.000
 4093.00    0.99582   0.60073    0.000
 4094.00    1.52702   0.56359    0.000
 4095.00    1.04086   0.54423    0.000
 4096.00    0.58822   0.55332    0.000
 4097.00    0.23870   0.58774    0.000
 4098.00    0.13179   0.63374    0.000
 4099.00    0.65900   0.67835    0.000
 4100.00    0.94876   0.71458    0.000
 4101.00    0.70528   0.74071    0.000
 4102.00    0.64396   0.75831    0.000
 4103.00    0.93713   0.77020    0.000
 4104.00    1.10433   0.77917    0.000
 4105.00    1.05775   0.78727    0.000
 4106.00    0.92247   0.79471    0.000
 4107.00    0.65534   0.80025    0.000
 4108.00    0.69575   0.80306    0.000
 4109.00    1.13803   0.80372    0.000
 4110.00    1.44502   0.80303    0.000
 4111.00    1.59630   0.80015    0.000
 4112.00    1.33271   0.79400    0.000
 4113.00    0.64799   0.78733    0.011
 4114.00    0.30026   0.78566    0.012
 4115.00    0.25423   0.79219    0.012
 4116.00    0.20612   0.80494    0.012
 4117.00    0.15638   0.81820    0.012
 4118.00    0.30626   0.82719    0.012
 4119.00    0.59466   0.83034    0.012
 4120.00    0.55871   0.82838    0.012
 4121.00    0.32540   0.82367    0.011
 4122.00    0.44281   0.81868    0.017
 4123.00    0.74654   0.81441    0.071
 4124.00    0.61532   0.81064   -1.000
 4125.00    0.28355   0.80821   -1.000
 4126.00    0.21096   0.80885   -1.000
 4127.00    0.24130   0.81324   -1.000
 4128.00    0.58904   0.81987   -1.000
 4129.00    1.04421   0.82614   -1.000
 4130.00    0.97336   0.83002   -1.000
 4131.00    0.75284   0.83112   -1.000
 4132.00    0.62247   0.82991    0.028
 4133.00    0.51328   0.82526    0.012
 4134.00    0.22310   0.81474    0.011
 4135.00   -0.10124   0.79829    0.000
 4136.00    0.18840   0.78088    0.012
 4137.00    0.56770   0.77114    0.012
 4138.00    0.73809   0.77531    0.012
 4139.00    0.88627   0.79023    0.012
 4140.00    0.92277   0.80600    0.012
 4141.00    0.95155   0.81605    0.012
 4142.00    0.52202   0.81978    0.011
 4143.00    0.07668   0.81930    0.011
 4144.00    0.82091   0.81721    0.011
 4145.00    1.54057   0.81501    0.012
 4146.00    1.37095   0.81303    0.012
 4147.00    1.18867   0.81199    0.011
 4148.00    0.81077   0.81280    0.011
 4149.00    0.47545   0.81515    0.011
 4150.00    0.55988   0.81854    0.011
 4151.00    0.57859   0.82285    0.011
 4152.00    0.13079   0.82708    0.011
 4153.00   -0.23246   0.82968    0.000
 4154.00   -0.13417   0.83005    0.000
 4155.00    0.03467   0.82880    0.011
 4156.00    0.51189   0.82680    0.011
 4157.00    0.85829   0.82470    0.011
 4158.00    0.73414   0.82256    0.011
 4159.00    0.58058   0.82009    0.011
 4160.00    0.33828   0.81714    0.011
 4161.00    0.21337   0.81425    0.011
 4162.00    0.38990   0.81228    0.011
 4163.00    0.56328   0.81138    0.011
 4164.00    0.72969   0.81040    0.011
 4165.00    0.72651   0.80827    0.011
 4166.00    0.39845   0.80584    0.011
 4167.00    0.39439   0.80497    0.011
 4168.00    0.93181   0.80597    0.011
 4169.00    1.21244   0.80778    0.011
 4170.00    1.11689   0.80957    0.011
 4171.00    0.91333   0.81140    0.011
 4172.00    0.57065   0.81352    0.011
 4173.00    0.31482   0.81557    0.011
 4174.00    0.15754   0.81681    0.011
 4175.00    0.03587   0.81688    0.011
 4176.00   -0.05017   0.81608    0.000
 4177.00    0.32589   0.81466    0.011
 4178.00    1.10984   0.81230    0.011
 4179.00    0.99214   0.80910    0.011
 4180.00    0.17317   0.80600    0.011
 4181.00    0.29134   0.80412    0.011
 4182.00    1.05039   0.80417    0.011
 4183.00    1.22722   0.80608    0.011
 4184.00    1.05506   0.80952    0.011
 4185.00    0.62696   0.81373    0.011
 4186.00    0.06499   0.81686    0.011
 4187.00   -0.03825   0.81703    0.000
 4188.00    0.06658   0.81352    0.011
 4189.00   -0.00153   0.80696    0.000
 4190.00   -0.13713   0.79877    0.000
 4191.00    0.05596   0.79045    0.011
 4192.00    0.35822   0.78370    0.011
 4193.00    0.31190   0.78043    0.011
 4194.00    0.16842   0.78172    0.011
 4195.00    0.06254   0.78683    0.011
 4196.00   -0.03471   0.79380    0.000
 4197.00    0.47473   0.80082    0.011
 4198.00    1.09567   0.80697    0.011
 4199.00    0.95799   0.81194    0.011
 4200.00    0.71305   0.81574    0.011
 4201.00    0.80396   0.81795    0.011
 4202.00    0.92911   0.81829    0.011
 4203.00    0.39100   0.81714    0.011
 4204.00   -0.19033   0.81533    0.000
 4205.00   -0.16144   0.81346    0.000
 4206.00   -0.11376   0.81134    0.000
 4207.00   -0.03168   0.80853    0.000
 4208.00    0.05366   0.80594    0.011
 4209.00    0.23498   0.80533    0.011
 4210.00    0.44485   0.80766    0.011
 4211.00    1.07039   0.81198    0.011
 4212.00    1.54189   0.81578    0.011
 4213.00    0.55681   0.81702    0.011
 4214.00   -0.28341   0.81490    0.000
 4215.00   -0.12775   0.80968    0.000
 4216.00    0.07892   0.80182    0.011
 4217.00    0.55667   0.79199    0.011
 4218.00    0.92346   0.78152    0.011
 4219.00    0.81635   0.77312    0.011
 4220.00    0.78694   0.77034    0.011
 4221.00    1.03130   0.77462    0.011
 4222.00    1.12748   0.78381    0.011
 4223.00    0.78481   0.79347    0.011
 4224.00    0.60961   0.79962    0.011
 4225.00    0.85702   0.80126    0.010
 4226.00    0.93452   0.79998    0.010
 4227.00    0.64279   0.79770    0.010
 4228.00    0.44498   0.79538    0.010
 4229.00    0.42428   0.79375    0.010
 4230.00    0.39412   0.79336    0.010
 4231.00    0.34838   0.79448    0.010
 4232.00    0.36692   0.79670    0.010
 4233.00    0.47826   0.79896    0.010
 4234.00    0.61228   0.80090    0.010
 4235.00    0.77512   0.80345    0.010
 4236.00    0.82461   0.80713    0.010
 4237.00    0.74730   0.81075    0.010
 4238.00    0.72870   0.81211    0.010
 4239.00    0.76803   0.81006    0.010
 4240.00    0.86403   0.80547    0.010
 4241.00    1.00935   0.80015    0.010
 4242.00    1.06606   0.79533    0.010
 4243.00    1.05486   0.79165    0.010
 4244.00    0.97099   0.78889    0.010
 4245.00    0.83816   0.78598    0.010
 4246.00    0.73713   0.78296    0.010
 4247.00    0.65488   0.78150    0.011
 4248.00    0.56357   0.78326    0.011
 4249.00    0.46759   0.78794    0.011
 4250.00    0.36179   0.79247    0.011
 4251.00    0.25162   0.79384    0.011
 4252.00    0.23843   0.79194    0.011
 4253.00    0.26242   0.78947    0.011
 4254.00    0.13699   0.78974    0.011
 4255.00   -0.03713   0.79363    0.000
 4256.00    0.27246   0.79880    0.011
 4257.00    0.71409   0.80130    0.011
 4258.00    0.94092   0.79783    0.011
 4259.00    1.11961   0.78909    0.011
 4260.00    0.67075   0.78031    0.011
 4261.00    0.10966   0.77575    0.011
 4262.00    0.37693   0.77507    0.011
 4263.00    0.75754   0.77488    0.011
 4264.00    0.77754   0.77273    0.011
 4265.00    0.76231   0.76944    0.011
 4266.00    0.55757   0.76676    0.011
 4267.00    0.34125   0.76539    0.011
 4268.00    0.52035   0.76591    0.011
 4269.00    0.70731   0.76924    0.011
 4270.00    0.34269   0.77560    0.010
 4271.00    0.00873   0.78301    0.010
 4272.00    0.48526   0.78816    0.011
 4273.00    0.90271   0.78934    0.011
 4274.00    0.50800   0.78714    0.011
 4275.00    0.15829   0.78354    0.010
 4276.00    0.21735   0.78034    0.011
 4277.00    0.31831   0.77821    0.011
 4278.00    0.69833   0.77733    0.011
 4279.00    0.97624   0.77716    0.011
 4280.00    0.72556   0.77604    0.011
 4281.00    0.49262   0.77277    0.011
 4282.00    0.33371   0.76826   -2.000
 4283.00    0.26892   0.76535   -2.000
 4284.00    0.52903   0.76636   -2.000
 4285.00    0.82302   0.77049   -2.000
 4286.00    1.21548   0.77442   -2.000
 4287.00    1.41895   0.77600   -2.000
 4288.00    1.15367   0.77558   -2.000
 4289.00    1.08883   0.77394   -2.000
 4290.00    1.45251   0.77111   -2.000
 4291.00    1.47398   0.76649   -2.000
 4292.00    0.86006   0.76057   -2.000
 4293.00    0.57543   0.75526   -2.000
 4294.00    0.82483   0.75157   -2.000
 4295.00    1.00638   0.74917   -2.000
 4296.00    1.09140   0.74782   -2.000
 4297.00    1.01869   0.74742   -2.000
 4298.00    0.74857   0.74731    0.011
 4299.00    0.71386   0.74630    0.011
 4300.00    0.93882   0.74393    0.011
 4301.00    0.96098   0.74180    0.011
 4302.00    0.78583   0.74227    0.011
 4303.00    0.50369   0.74609    0.011
 4304.00    0.12975   0.75181    0.011
 4305.00   -0.20694   0.75735    0.000
 4306.00   -0.51548   0.76205    0.000
 4307.00   -0.22941   0.76694    0.000
 4308.00    0.45150   0.77301    0.011
 4309.00    0.67532   0.77947    0.011
 4310.00    0.63332   0.78429    0.011
 4311.00    0.78101   0.78617    0.011
 4312.00    1.02482   0.78547    0.011
 4313.00    0.76836   0.78358    0.010
 4314.00    0.29235   0.78079    0.010
 4315.00    0.61463   0.77565    0.010
 4316.00    1.23761   0.76672    0.010
 4317.00    1.05540   0.75503    0.010
 4318.00    0.61575   0.74469    0.010
 4319.00    0.53092   0.74055    0.010
 4320.00    0.54092   0.74386    0.010
 4321.00    0.45099   0.75091    0.010
 4322.00    0.33920   0.75621    0.010
 4323.00    0.45307   0.75641    0.010
 4324.00    0.60619   0.75176    0.010
 4325.00    0.45656   0.74421    0.010
 4326.00    0.26689   0.73473    0.010
 4327.00    0.76005   0.72195    0.010
 4328.00    1.31702   0.70247    0.010
 4329.00    1.32247   0.67286    0.010
 4330.00    1.29637   0.63286    0.000
 4331.00    0.93766   0.58761    0.000
 4332.00    0.57234   0.54699    0.000
 4333.00    0.33766   0.52341    0.000
 4334.00    0.11806   0.52587    0.000
 4335.00    0.26086   0.55242    0.000
 4336.00    0.40113   0.59146    0.000
 4337.00    0.50847   0.63042    0.000
 4338.00    0.60165   0.66250    0.000
 4339.00    0.57116   0.68691    0.000
 4340.00    0.57938   0.70541    0.000
 4341.00    0.83751   0.71911    0.000
 4342.00    1.01920   0.72767    0.000
 4343.00    0.81520   0.73107    0.000
 4344.00    0.63482   0.73164    0.000
 4345.00    0.55082   0.73379    0.000
 4346.00    0.55695   0.74040    0.000
 4347.00    0.86795   0.75061    0.000
 4348.00    1.05482   0.76149    0.000
 4349.00    0.88753   0.77021    0.000
 4350.00    0.67038   0.77533    0.000
 4351.00    0.33168   0.77710    0.011
 4352.00    0.10567   0.77737    0.011
 4353.00    0.11672   0.77841    0.010
 4354.00    0.13278   0.78113    0.010
 4355.00    0.15802   0.78496    0.010
 4356.00    0.22773   0.78845    0.010
 4357.00    0.36850   0.79014    0.010
 4358.00    0.61264   0.78911    0.013
 4359.00    1.00172   0.78527    0.037
 4360.00    1.22133   0.78056   -1.000
 4361.00    1.23186   0.77741   -1.000
 4362.00    1.28479   0.77652   -1.000
 4363.00    1.38383   0.77662   -1.000
 4364.00    1.28628   0.77588   -1.000
 4365.00    1.00014   0.77344   -1.000
 4366.00    0.87956   0.76997    0.038
 4367.00    0.89903   0.76708    0.013
 4368.00    0.69716   0.76672    0.010
 4369.00    0.33041   0.76963    0.010
 4370.00    0.17387   0.77433    0.010
 4371.00    0.15488   0.77799    0.010
 4372.00    0.48699   0.77848    0.010
 4373.00    1.02020   0.77490    0.011
 4374.00    1.21761   0.76690    0.011
 4375.00    1.24753   0.75517    0.011
 4376.00    0.97385   0.74277    0.011
 4377.00    0.56917   0.73372    0.010
 4378.00    0.32362   0.72928    0.010
 4379.00    0.13695   0.72740    0.010
 4380.00    0.46963   0.72614    0.010
 4381.00    0.96517   0.72771    0.011
 4382.00    0.67160   0.73505    0.011
 4383.00    0.17158   0.74661    0.011
 4384.00    0.44982   0.75849    0.010
 4385.00    0.89429   0.76745    0.010
 4386.00    0.86309   0.77191    0.010
 4387.00    0.75144   0.77321    0.010
 4388.00    0.80004   0.77433    0.010
 4389.00    0.86912   0.77762    0.010
 4390.00    0.97192   0.78215    0.011
 4391.00    1.07773   0.78469    0.011
 4392.00    0.34351   0.78383    0.011
 4393.00   -0.43544   0.78084    0.000
 4394.00    0.07927   0.77748    0.011
 4395.00    0.61377   0.77365    0.011
 4396.00    0.69890   0.76781    0.011
 4397.00    0.78919   0.76064    0.011
 4398.00    0.99306   0.75558    0.011
 4399.00    1.15207   0.75503    0.011
 4400.00    0.75684   0.75836    0.011
 4401.00    0.36918   0.76373    0.011
 4402.00    0.04534   0.77002    0.011
 4403.00   -0.14280   0.77618    0.000
 4404.00    0.51949   0.78019    0.011
 4405.00    0.97956   0.77989    0.011
 4406.00    0.44494   0.77419    0.011
 4407.00    0.12324   0.76458    0.011
 4408.00    0.65152   0.75616    0.011
 4409.00    1.04693   0.75402    0.011
 4410.00    1.00174   0.75903    0.011
 4411.00    0.91056   0.76826    0.011
 4412.00    0.69052   0.77715    0.011
 4413.00    0.62868   0.78222    0.011
 4414.00    0.94600   0.78313    0.011
 4415.00    1.05523   0.78158    0.011
 4416.00    0.73378   0.77991    0.011
 4417.00    0.46923   0.77900    0.011
 4418.00    0.30713   0.77820    0.011
 4419.00    0.34207   0.77713    0.011
 4420.00    0.68721   0.77610    0.011
 4421.00    0.97707   0.77534    0.011
 4422.00    1.19054   0.77463    0.011
 4423.00    1.20858   0.77359    0.011
 4424.00    0.98890   0.77232    0.011
 4425.00    0.92221   0.77047    0.011
 4426.00    1.01956   0.76715    0.011
 4427.00    1.01561   0.76289    0.011
 4428.00    0.91587   0.75984    0.011
 4429.00    0.58439   0.76049    0.011
 4430.00    0.05966   0.76540    0.011
 4431.00    0.22165   0.77226    0.011
 4432.00    0.88782   0.77721    0.011
 4433.00    1.14819   0.77733    0.011
 4434.00    1.14693   0.77330    0.011
 4435.00    1.12519   0.76895    0.011
 4436.00    1.09190   0.76801    0.011
 4437.00    1.07508   0.77105    0.011
 4438.00    1.06634   0.77559    0.011
 4439.00    0.87097   0.77881    0.011
 4440.00    0.59640   0.77996    0.011
 4441.00    0.49906   0.78023    0.011
 4442.00    0.46612   0.78047    0.011
 4443.00    0.36530   0.78013    0.011
 4444.00    0.24361   0.77851    0.011
 4445.00    0.39715   0.77513    0.011
 4446.00    0.62116   0.77019    0.011
 4447.00    0.76487   0.76491    0.011
 4448.00    0.89185   0.76085    0.011
 4449.00    0.69930   0.75904    0.011
 4450.00    0.45426   0.75892    0.011
 4451.00    0.67147   0.75904    0.011
 4452.00    0.94566   0.75846    0.011
 4453.00    0.93523   0.75755    0.011
 4454.00    0.90059   0.75760    0.011
 4455.00    0.76393   0.75948    0.011
 4456.00    0.62224   0.76272    0.011
 4457.00    0.68205   0.76535    0.011
 4458.00    0.74742   0.76538    0.010
 4459.00    0.96053   0.76203    0.010
 4460.00    1.15219   0.75502    0.010
 4461.00    0.90947   0.74375    0.000
 4462.00    0.65393   0.72880    0.000
 4463.00    0.24763   0.71469    0.000
 4464.00   -0.03245   0.70882    0.000
 4465.00    0.71106   0.71627    0.000
 4466.00    1.33135   0.73469    0.000
 4467.00    1.20179   0.75572    0.000
 4468.00    1.04335   0.77221    0.000
 4469.00    0.74643   0.78166    0.000
 4470.00    0.53120   0.78400    0.000
 4471.00    0.63504   0.77937    0.000
 4472.00    0.74262   0.76931    0.000
 4473.00    0.86238   0.75849    0.000
 4474.00    0.89396   0.75306    0.000
 4475.00    0.68287   0.75644    0.000
 4476.00    0.65778   0.76670    0.000
 4477.00    1.07096   0.77833    0.000
 4478.00    1.28246   0.78635    0.000
 4479.00    1.08318   0.78850    0.000
 4480.00    0.86218   0.78537    0.000
 4481.00    0.60267   0.77972    0.000
 4482.00    0.43851   0.77508    0.010
 4483.00    0.42224   0.77371    0.010
 4484.00    0.51768   0.77509    0.010
 4485.00    0.76526   0.77655    0.010
 4486.00    0.83245   0.77585    0.010
 4487.00    0.68332   0.77324    0.010
 4488.00    0.54878   0.77101    0.010
 4489.00    0.42966   0.77137    0.010
 4490.00    0.44794   0.77453    0.010
 4491.00    0.59435   0.77875    0.010
 4492.00    0.68747   0.78200    0.010
 4493.00    0.73676   0.78384    0.010
 4494.00    0.81894   0.78575    0.010
 4495.00    0.92494   0.78925    0.010
 4496.00    0.88953   0.79390    0.010
 4497.00    0.76430   0.79743    0.010
 4498.00    0.96513   0.79800    0.010
 4499.00    1.34708   0.79598    0.010
 4500.00    1.16403   0.79319    0.010
 4501.00    0.70803   0.79108    0.010
 4502.00    0.56497   0.78959    0.010
 4503.00    0.55246   0.78756    0.010
 4504.00    0.58331   0.78409    0.010
 4505.00    0.62962   0.77951    0.010
 4506.00    0.55797   0.77522    0.010
 4507.00    0.45074   0.77267    0.010
 4508.00    0.41353   0.77232    0.010
 4509.00    0.39386   0.77353    0.010
 4510.00    0.75994   0.77552    0.010
 4511.00    1.20444   0.77799    0.010
 4512.00    1.02427   0.78072    0.010
 4513.00    0.74444   0.78268    0.010
 4514.00    0.71533   0.78231    0.010
 4515.00    0.71600   0.77919    0.009
 4516.00    0.83357   0.77434    0.010
 4517.00    0.96059   0.76891    0.010
 4518.00    0.82771   0.76316    0.010
 4519.00    0.68302   0.75670    0.010
 4520.00    0.71545   0.75003    0.010
 4521.00    0.75190   0.74494    0.010
 4522.00    0.88311   0.74331    0.010
 4523.00    0.99922   0.74535    0.010
 4524.00    0.83200   0.74909    0.010
 4525.00    0.65520   0.75153    0.010
 4526.00    0.37105   0.75155    0.010
 4527.00    0.09955   0.75096    0.010
 4528.00   -0.07297   0.75283    0.000
 4529.00   -0.19826   0.75801    0.000
 4530.00   -0.04425   0.76360    0.000
 4531.00    0.18394   0.76564    0.010
 4532.00    0.75941   0.76260    0.010
 4533.00    1.20131   0.75709    0.010
 4534.00    1.13268   0.75340    0.010
 4535.00    0.99994   0.75375    0.010
 4536.00    0.66273   0.75702    0.010
 4537.00    0.50706   0.76074    0.010
 4538.00    0.84195   0.76336    0.010
 4539.00    1.10688   0.76452    0.010
 4540.00    1.20973   0.76430    0.010
 4541.00    1.14683   0.76283    0.010
 4542.00    0.75167   0.76087    0.010
 4543.00    0.55400   0.75877    0.010
 4544.00    0.70110   0.75627    0.010
 4545.00    0.82656   0.75381    0.010
 4546.00    0.91897   0.75260    0.010
 4547.00    1.02275   0.75420    0.010
 4548.00    1.14182   0.75911    0.010
 4549.00    1.11999   0.76621    0.010
 4550.00    0.93160   0.77355    0.000
 4551.00    0.76049   0.77933    0.000
 4552.00    0.60740   0.78255    0.000
 4553.00    0.69126   0.78320    0.000
 4554.00    0.99298   0.78158    0.000
 4555.00    0.99482   0.77794    0.000
 4556.00    0.75362   0.77338    0.000
 4557.00    0.61908   0.76963    0.000
 4558.00    0.56060   0.76818    0.000
 4559.00    0.58658   0.76912    0.000
 4560.00    0.66541   0.77117    0.000
 4561.00    0.66840   0.77279    0.000
 4562.00    0.62992   0.77296    0.000
 4563.00    0.77997   0.77175    0.000
 4564.00    1.01964   0.77058    0.000
 4565.00    0.98306   0.77069    0.000
 4566.00    0.83318   0.77197    0.000
 4567.00    1.04619   0.77361    0.000
 4568.00    1.38636   0.77479    0.000
 4569.00    1.41702   0.77488    0.000
 4570.00    1.35621   0.77338    0.000
 4571.00    1.39523   0.77001    0.000
 4572.00    1.45870   0.76594    0.000
 4573.00    1.06240   0.76305    0.000
 4574.00    0.57499   0.76231    0.000
 4575.00    0.59269   0.76298    0.000
 4576.00    0.68858   0.76373    0.000
 4577.00    0.90587   0.76401    0.000
 4578.00    1.13706   0.76440    0.000
 4579.00    0.91008   0.76585    0.000
 4580.00    0.64792   0.76810    0.000
 4581.00    0.74215   0.76975    0.000
 4582.00    0.85121   0.76917    0.000
 4583.00    0.86663   0.76635    0.000
 4584.00    0.87774   0.76282    0.000
 4585.00    0.73916   0.76003    0.000
 4586.00    0.61120   0.75819    0.000
 4587.00    0.66881   0.75674    0.000
 4588.00    0.73905   0.75590    0.000
 4589.00    0.94437   0.75646    0.000
 4590.00    1.12101   0.75836    0.000
 4591.00    1.08085   0.76023    0.000
 4592.00    1.02886   0.76049    0.000
 4593.00    0.90892   0.75903    0.000
 4594.00    0.84373   0.75755    0.000
 4595.00    1.02870   0.75729    0.000
 4596.00    1.14808   0.75846    0.000
 4597.00    1.02205   0.76014    0.000
 4598.00    0.90515   0.76208    0.000
 4599.00    0.81684   0.76468    0.000
 4600.00    0.77490   0.76818    0.000
 4601.00    0.85605   0.77167    0.000
 4602.00    0.88858   0.77387    0.000
 4603.00    0.81036   0.77424    0.000
 4604.00    0.74882   0.77333    0.000
 4605.00    0.72023   0.77228    0.000
 4606.00    0.68840   0.77222    0.000
 4607.00    0.65101   0.77334    0.000
 4608.00    0.59536   0.77447    0.000
 4609.00    0.51220   0.77448    0.000
 4610.00    0.54508   0.77256    0.000
 4611.00    0.73150   0.76983    0.000
 4612.00    0.82995   0.76831    0.000
 4613.00    0.82586   0.76905    0.000
 4614.00    0.90715   0.77141    0.000
 4615.00    1.07619   0.77396    0.000
 4616.00    1.05807   0.77531    0.000
 4617.00    0.87031   0.77522    0.000
 4618.00    0.78008   0.77399    0.000
 4619.00    0.76778   0.77213    0.000
 4620.00    0.97062   0.76981    0.000
 4621.00    1.32468   0.76713    0.000
 4622.00    1.17218   0.76469    0.000
 4623.00    0.70738   0.76325    0.000
 4624.00    0.52616   0.76283    0.000
 4625.00    0.49767   0.76262    0.000
 4626.00    0.72500   0.76206    0.000
 4627.00    1.07199   0.76096    0.000
 4628.00    1.04295   0.75919    0.000
 4629.00    0.86232   0.75607    0.000
 4630.00    0.90289   0.75143    0.000
 4631.00    1.01956   0.74634    0.000
 4632.00    1.02062   0.74262    0.000
 4633.00    0.98819   0.74159    0.000
 4634.00    0.89413   0.74310    0.000
 4635.00    0.78531   0.74554    0.000
 4636.00    1.08252   0.74646    0.000
 4637.00    1.45815   0.74364    0.000
 4638.00    1.27417   0.73655    0.000
 4639.00    1.00619   0.72744    0.000
 4640.00    0.65489   0.71980    0.000
 4641.00    0.29442   0.71635    0.000
 4642.00    0.39211   0.71786    0.000
 4643.00    0.52311   0.72354    0.000
 4644.00    0.45961   0.73138    0.000
 4645.00    0.38876   0.73879    0.000
 4646.00    0.46172   0.74367    0.000
 4647.00    0.53335   0.74637    0.000
 4648.00    0.52851   0.74891    0.000
 4649.00    0.53467   0.75338    0.000
 4650.00    0.72061   0.75977    0.000
 4651.00    0.87882   0.76596    0.000
 4652.00    0.75308   0.76931    0.000
 4653.00    0.62144   0.76840    0.000
 4654.00    0.44659   0.76416    0.000
 4655.00    0.32364   0.75866    0.000
 4656.00    0.49077   0.75328    0.000
 4657.00    0.63606   0.74788    0.000
 4658.00    0.68392   0.74188    0.000
 4659.00    0.68228   0.73617    0.000
 4660.00    0.49934   0.73309    0.000
 4661.00    0.38065   0.73448    0.000
 4662.00    0.45913   0.73983    0.000
 4663.00    0.53066   0.74621    0.000
 4664.00    0.58408   0.75046    0.000
 4665.00    0.61559   0.75142    0.000
 4666.00    0.59798   0.75038    0.000
 4667.00    0.51942   0.74945    0.000
 4668.00    0.32247   0.74978    0.000
 4669.00    0.19737   0.75079    0.000
 4670.00    0.19395   0.75120    0.000
 4671.00    0.39016   0.75019    0.000
 4672.00    0.88259   0.74792    0.000
 4673.00    1.11396   0.74510    0.000
 4674.00    1.00485   0.74222    0.000
 4675.00    0.90912   0.73895    0.000
 4676.00    0.82878   0.73468    0.000
 4677.00    0.69837   0.73004    0.000
 4678.00    0.51723   0.72726    0.000
 4679.00    0.37573   0.72833    0.000
 4680.00    0.26966   0.73308    0.000
 4681.00    0.36085   0.73910    0.000
 4682.00    0.60740   0.74386    0.000
 4683.00    0.65278   0.74668    0.000
 4684.00    0.55883   0.74849    0.000
 4685.00    0.51091   0.75045    0.000
 4686.00    0.49095   0.75295    0.000
 4687.00    0.66262   0.75516    0.000
 4688.00    0.93591   0.75558    0.000
 4689.00    0.97917   0.75297    0.000
 4690.00    0.91657   0.74761    0.000
 4691.00    0.82664   0.74163    0.000
 4692.00    0.72588   0.73727    0.000
 4693.00    0.59074   0.73528    0.000
 4694.00    0.44400   0.73479    0.000
 4695.00    0.52671   0.73479    0.000
 4696.00    0.67454   0.73505    0.000
 4697.00    0.68508   0.73565    0.000
 4698.00    0.66348   0.73632    0.000
 4699.00    0.48446   0.73665    0.000
 4700.00    0.27584   0.73660    0.000
 4701.00    0.50433   0.73649    0.000
 4702.00    0.79641   0.73640    0.000
 4703.00    0.67397   0.73529    0.000
 4704.00    0.50771   0.73235    0.000
 4705.00    0.50442   0.72869    0.000
 4706.00    0.51232   0.72710    0.000
 4707.00    0.63709   0.72980    0.000
 4708.00    0.76584   0.73647    0.000
 4709.00    0.44544   0.74467    0.000
 4710.00    0.13736   0.75218    0.000
 4711.00    0.25258   0.75787    0.000
 4712.00    0.35322   0.76131    0.000
 4713.00    0.23017   0.76261    0.000
 4714.00    0.11376   0.76249    0.000
 4715.00    0.06239   0.76197    0.000
 4716.00    0.04560   0.76144    0.000
 4717.00    0.27338   0.76008    0.000
 4718.00    0.47871   0.75644    0.000
 4719.00    0.56190   0.75028    0.000
 4720.00    0.64007   0.74327    0.000
 4721.00    0.69637   0.73791    0.000
 4722.00    0.78799   0.73580    0.000
 4723.00    1.00632   0.73685    0.000
 4724.00    1.08408   0.73982    0.000
 4725.00    0.73868   0.74329    0.000
 4726.00    0.53623   0.74622    0.000
 4727.00    0.70009   0.74790    0.000
 4728.00    0.78029   0.74845    0.000
 4729.00    0.67606   0.74865    0.000
 4730.00    0.61505   0.74901    0.000
 4731.00    0.63662   0.74946    0.000
 4732.00    0.64352   0.74944    0.000
 4733.00    0.62594   0.74887    0.000
 4734.00    0.72610   0.74857    0.000
 4735.00    0.99839   0.74915    0.000
 4736.00    1.02198   0.75048    0.000
 4737.00    0.72584   0.75217    0.000
 4738.00    0.61537   0.75380    0.000
 4739.00    0.71522   0.75520    0.000
 4740.00    0.70481   0.75613    0.000
 4741.00    0.58425   0.75627    0.000
 4742.00    0.54343   0.75553    0.000
 4743.00    0.57289   0.75390    0.000
 4744.00    0.66206   0.75163    0.000
 4745.00    0.79759   0.74910    0.000
 4746.00    0.68101   0.74693    0.000
 4747.00    0.39234   0.74538    0.000
 4748.00    0.48303   0.74449    0.000
 4749.00    0.80069   0.74411    0.000
 4750.00    0.79995   0.74402    0.000
 4751.00    0.63301   0.74385    0.000
 4752.00    0.44860   0.74284    0.000
 4753.00    0.25628   0.74036    0.000
 4754.00    0.43686   0.73654    0.000
 4755.00    0.76262   0.73210    0.000
 4756.00    0.92494   0.72811    0.000
 4757.00    1.03311   0.72541    0.000
 4758.00    1.06585   0.72457    0.000
 4759.00    1.07762   0.72585    0.000
 4760.00    1.08370   0.72891    0.000
 4761.00    1.08849   0.73246    0.009
 4762.00    1.04261   0.73496    0.009
 4763.00    0.98745   0.73593    0.009
 4764.00    0.80365   0.73608    0.009
 4765.00    0.60172   0.73676    0.009
 4766.00    0.89449   0.73851    0.009
 4767.00    1.23744   0.74064    0.009
 4768.00    0.89959   0.74222    0.009
 4769.00    0.51773   0.74253    0.009
 4770.00    0.47276   0.74161    0.009
 4771.00    0.43863   0.73981    0.010
 4772.00    0.73191   0.73746    0.010
 4773.00    1.00963   0.73490    0.009
 4774.00    0.83658   0.73231    0.009
 4775.00    0.66085   0.73014    0.009
 4776.00    0.44634   0.72859    0.009
 4777.00    0.25573   0.72763    0.009
 4778.00    0.28990   0.72722    0.009
 4779.00    0.31422   0.72704    0.009
 4780.00    0.27110   0.72712    0.009
 4781.00    0.31640   0.72787    0.009
 4782.00    0.83005   0.72933    0.009
 4783.00    1.19535   0.73184    0.009
 4784.00    0.92885   0.73557    0.009
 4785.00    0.72522   0.74010    0.009
 4786.00    0.74256   0.74445    0.009
 4787.00    0.76014   0.74726    0.009
 4788.00    0.77845   0.74752    0.009
 4789.00    0.74996   0.74522    0.009
 4790.00    0.60357   0.74151    0.009
 4791.00    0.53657   0.73815    0.009
 4792.00    0.64173   0.73655    0.009
 4793.00    0.70166   0.73701    0.009
 4794.00    0.67646   0.73856    0.009
 4795.00    0.69830   0.73953    0.009
 4796.00    0.79746   0.73885    0.009
 4797.00    0.82285   0.73677    0.009
 4798.00    0.74194   0.73410    0.009
 4799.00    0.72747   0.73192    0.009
 4800.00    0.79723   0.73080    0.009
 4801.00    0.80671   0.73073    0.009
 4802.00    0.74886   0.73134    0.009
 4803.00    0.77956   0.73186    0.009
 4804.00    0.89749   0.73187    0.010
 4805.00    0.79214   0.73159    0.010
 4806.00    0.49284   0.73177    0.010
 4807.00    0.48793   0.73296    0.010
 4808.00    0.70830   0.73504    0.010
 4809.00    0.76906   0.73721    0.010
 4810.00    0.72245   0.73871    0.010
 4811.00    0.66144   0.73902    0.009
 4812.00    0.59194   0.73811    0.009
 4813.00    0.81613   0.73609    0.009
 4814.00    1.19122   0.73310    0.010
 4815.00    1.18071   0.72986    0.009
 4816.00    0.99851   0.72746    0.009
 4817.00    0.83269   0.72686    0.009
 4818.00    0.67313   0.72745    0.009
 4819.00    0.67387   0.72750    0.009
 4820.00    0.72673   0.72639    0.009
 4821.00    0.84755   0.72466    0.010
 4822.00    0.98687   0.72318    0.010
 4823.00    1.03402   0.72247    0.010
 4824.00    1.06057   0.72247    0.009
 4825.00    0.88507   0.72320    0.009
 4826.00    0.67356   0.72487    0.009
 4827.00    0.59807   0.72653    0.009
 4828.00    0.54111   0.72705    0.009
 4829.00    0.75332   0.72602    0.009
 4830.00    0.99168   0.72368    0.009
 4831.00    1.05467   0.72066    0.009
 4832.00    1.10703   0.71771    0.009
 4833.00    1.15894   0.71541    0.009
 4834.00    1.21064   0.71396    0.009
 4835.00    1.22552   0.71332    0.009
 4836.00    1.23014   0.71333    0.010
 4837.00    0.96687   0.71364    0.009
 4838.00    0.73187   0.71317    0.009
 4839.00    0.88284   0.71084    0.009
 4840.00    0.99788   0.70699    0.009
 4841.00    0.78812   0.70269    0.009
 4842.00    0.63180   0.69865    0.009
 4843.00    0.83010   0.69439    0.009
 4844.00    0.94878   0.68834    0.009
 4845.00    0.65662   0.67930    0.009
 4846.00    0.46000   0.66717    0.009
 4847.00    0.66109   0.65227    0.009
 4848.00    0.82457   0.63478    0.000
 4849.00    0.85855   0.61388    0.000
 4850.00    0.85660   0.58776    0.000
 4851.00    0.75041   0.55657    0.000
 4852.00    0.70655   0.52614    0.000
 4853.00    0.81690   0.50607    0.000
 4854.00    0.87050   0.50431    0.000
 4855.00    0.80303   0.52195    0.000
 4856.00    0.79539   0.55184    0.000
 4857.00    0.89862   0.58391    0.000
 4858.00    0.76713   0.61186    0.000
 4859.00    0.25566   0.63336    0.000
 4860.00    0.07079   0.64837    0.000
 4861.00    0.34970   0.65774    0.000
 4862.00    0.59013   0.66292    0.000
 4863.00    0.78251   0.66595    0.000
 4864.00    0.93163   0.66936    0.000
 4865.00    1.03312   0.67489    0.000
 4866.00    1.04127   0.68219    0.000
 4867.00    0.95876   0.68972    0.000
 4868.00    0.85794   0.69654    0.000
 4869.00    0.74144   0.70259    0.000
 4870.00    0.58615   0.70761    0.000
 4871.00    0.40160   0.71091    0.000
 4872.00    0.40125   0.71228    0.000
 4873.00    0.52298   0.71188    0.000
 4874.00    0.50142   0.71052    0.000
 4875.00    0.39671   0.70908    0.009
 4876.00    0.12997   0.70754    0.009
 4877.00   -0.21870   0.70576    0.000
 4878.00   -0.01575   0.70413    0.000
 4879.00    0.42875   0.70304    0.009
 4880.00    0.67193   0.70207    0.009
 4881.00    0.83945   0.70048    0.009
 4882.00    0.57494   0.69891    0.009
 4883.00    0.17263   0.69932    0.009
 4884.00    0.41671   0.70373    0.009
 4885.00    0.83307   0.71239    0.009
 4886.00    0.81853   0.72270    0.009
 4887.00    0.70997   0.73160    0.009
 4888.00    0.46523   0.73722    0.009
 4889.00    0.19688   0.73880    0.009
 4890.00    0.15493   0.73708    0.009
 4891.00    0.14279   0.73354    0.009
 4892.00    0.26128   0.72962    0.009
 4893.00    0.39192   0.72654    0.009
 4894.00    0.70145   0.72481    0.009
 4895.00    1.02113   0.72431    0.009
 4896.00    0.70139   0.72502    0.009
 4897.00    0.37265   0.72658    0.009
 4898.00    0.65262   0.72783    0.009
 4899.00    0.92833   0.72743    0.009
 4900.00    1.10292   0.72505    0.009
 4901.00    1.25475   0.72179    0.009
 4902.00    1.11223   0.71929    0.009
 4903.00    0.98162   0.71881    0.009
 4904.00    0.95458   0.72057    0.009
 4905.00    0.90647   0.72362    0.009
 4906.00    0.72277   0.72641    0.009
 4907.00    0.59292   0.72729    0.009
 4908.00    0.73383   0.72441    0.009
 4909.00    0.78220   0.71650    0.009
 4910.00    0.45383   0.70382    0.009
 4911.00    0.26290   0.68842    0.009
 4912.00    0.53581   0.67452    0.009
 4913.00    0.78084   0.66598    0.009
 4914.00    0.94649   0.66507    0.009
 4915.00    1.00911   0.67151    0.009
 4916.00    0.82111   0.68270    0.009
 4917.00    0.63770   0.69563    0.009
 4918.00    0.46393   0.70848    0.009
 4919.00    0.41174   0.72006    0.009
 4920.00    0.58136   0.72891    0.009
 4921.00    0.62169   0.73460    0.009
 4922.00    0.45582   0.73664    0.009
 4923.00    0.40977   0.73485    0.009
 4924.00    0.53143   0.73046    0.009
 4925.00    0.52252   0.72523    0.009
 4926.00    0.35281   0.72082    0.009
 4927.00    0.37406   0.71787    0.009
 4928.00    0.60261   0.71521    0.009
 4929.00    0.66582   0.71172    0.009
 4930.00    0.57070   0.70814    0.009
 4931.00    0.58514   0.70646    0.009
 4932.00    0.69209   0.70785    0.009
 4933.00    0.59186   0.71213    0.009
 4934.00    0.33760   0.71751    0.009
 4935.00    0.34126   0.72246    0.009
 4936.00    0.51337   0.72644    0.009
 4937.00    0.42550   0.72925    0.009
 4938.00    0.18900   0.73127    0.009
 4939.00    0.28455   0.73321    0.009
 4940.00    0.54540   0.73529    0.000
 4941.00    0.57602   0.73721    0.000
 4942.00    0.50748   0.73837    0.000
 4943.00    0.42518   0.73806    0.000
 4944.00    0.33780   0.73564    0.000
 4945.00    0.73147   0.73075    0.000
 4946.00    1.27562   0.72344    0.000
 4947.00    1.17003   0.71397    0.000
 4948.00    0.89491   0.70407    0.000
 4949.00    0.68158   0.69656    0.000
 4950.00    0.48140   0.69425    0.000
 4951.00    0.84600   0.69794    0.000
 4952.00    1.30577   0.70482    0.000
 4953.00    0.93298   0.71106    0.000
 4954.00    0.45428   0.71438    0.000
 4955.00    0.49850   0.71433    0.000
 4956.00    0.58910   0.71174    0.000
 4957.00    0.59639   0.70799    0.000
 4958.00    0.59927   0.70474    0.000
 4959.00    0.47982   0.70320    0.000
 4960.00    0.35887   0.70351    0.000
 4961.00    0.30441   0.70552    0.000
 4962.00    0.26053   0.70866    0.000
 4963.00    0.44686   0.71224    0.000
 4964.00    0.62655   0.71576    0.000
 4965.00    0.72471   0.71847    0.000
 4966.00    0.80867   0.71989    0.000
 4967.00    0.77381   0.71962    0.000
 4968.00    0.75014   0.71749    0.000
 4969.00    0.79640   0.71390    0.000
 4970.00    0.81579   0.70918    0.000
 4971.00    0.70346   0.70370    0.000
 4972.00    0.64020   0.69765    0.000
 4973.00    0.77228   0.69121    0.000
 4974.00    0.84475   0.68550    0.000
 4975.00    0.72003   0.68242    0.000
 4976.00    0.65992   0.68324    0.000
 4977.00    0.78039   0.68736    0.000
 4978.00    0.83530   0.69309    0.000
 4979.00    0.73341   0.69856    0.000
 4980.00    0.66667   0.70209    0.000
 4981.00    0.67256   0.70323    0.000
 4982.00    0.65183   0.70282    0.000
 4983.00    0.58330   0.70191    0.000
 4984.00    0.50653   0.70165    0.000
 4985.00    0.41680   0.70207    0.000
 4986.00    0.45708   0.70283    0.000
 4987.00    0.67671   0.70385    0.000
 4988.00    0.71222   0.70421    0.000
 4989.00    0.52417   0.70265    0.000
 4990.00    0.34389   0.69874    0.000
 4991.00    0.17194   0.69286    0.000
 4992.00    0.12973   0.68661    0.000
 4993.00    0.21002   0.68198    0.000
 4994.00    0.34951   0.67948    0.000
 4995.00    0.53828   0.67842    0.000
 4996.00    0.51775   0.67725    0.000
 4997.00    0.34385   0.67592    0.000
 4998.00    0.21028   0.67568    0.000
 4999.00    0.10268   0.67771    0.000
 5000.00    0.17942   0.68138    0.000
 5001.00    0.35994   0.68435    0.000
 5002.00    0.57193   0.68453    0.000
 5003.00    0.79933   0.68115    0.000
 5004.00    0.84721   0.67445    0.000
 5005.00    0.81908   0.66617    0.000
 5006.00    0.58632   0.65882    0.000
 5007.00    0.27937   0.65461    0.000
 5008.00    0.23921   0.65567    0.000
 5009.00    0.28090   0.66103    0.000
 5010.00    0.30461   0.66799    0.000
 5011.00    0.32372   0.67429    0.000
 5012.00    0.39891   0.67891    0.000
 5013.00    0.48575   0.68144    0.000
 5014.00    0.40093   0.68277    0.000
 5015.00    0.28801   0.68431    0.000
 5016.00    0.25701   0.68611    0.000
 5017.00    0.23607   0.68733    0.000
 5018.00    0.41070   0.68793    0.000
 5019.00    0.60187   0.68820    0.000
 5020.00    0.53023   0.68937    0.000
 5021.00    0.44574   0.69223    0.000
 5022.00    0.56340   0.69600    0.000
 5023.00    0.68136   0.69970    0.000
 5024.00    0.62700   0.70224    0.000
 5025.00    0.57220   0.70247    0.000
 5026.00    0.50864   0.69986    0.000
 5027.00    0.46146   0.69479    0.000
 5028.00    0.60567   0.68878    0.000
 5029.00    0.73796   0.68289    0.008
 5030.00    0.77392   0.67647    0.008
 5031.00    0.77071   0.66960    0.009
 5032.00    0.53004   0.66409    0.009
 5033.00    0.34004   0.66277    0.009
 5034.00    0.39234   0.66755    0.009
 5035.00    0.40778   0.67665    0.009
 5036.00    0.27966   0.68588    0.009
 5037.00    0.24595   0.69221    0.009
 5038.00    0.51850   0.69386    0.009
 5039.00    0.66389   0.69112    0.009
 5040.00    0.46022   0.68649    0.009
 5041.00    0.33431   0.68276    0.008
 5042.00    0.39126   0.68142    0.009
 5043.00    0.40196   0.68242    0.009
 5044.00    0.31865   0.68516    0.009
 5045.00    0.40104   0.68849    0.009
 5046.00    0.77664   0.69139    0.009
 5047.00    0.96060   0.69348    0.009
 5048.00    0.84791   0.69538    0.009
 5049.00    0.85805   0.69783    0.009
 5050.00    1.03516   0.70087    0.009
 5051.00    0.91989   0.70358    0.009
 5052.00    0.45465   0.70531    0.009
 5053.00    0.31746   0.70498    0.009
 5054.00    0.52649   0.70187    0.009
 5055.00    0.59843   0.69637    0.009
 5056.00    0.54274   0.68993    0.009
 5057.00    0.59653   0.68486    0.009
 5058.00    0.74014   0.68255    0.009
 5059.00    0.79991   0.68240    0.009
 5060.00    0.79912   0.68335    0.009
 5061.00    0.73424   0.68459    0.009
 5062.00    0.62873   0.68552    0.009
 5063.00    0.67903   0.68569    0.009
 5064.00    0.81571   0.68545    0.009
 5065.00    0.67490   0.68552    0.009
 5066.00    0.40031   0.68582    0.008
 5067.00    0.38363   0.68565    0.008
 5068.00    0.47430   0.68433    0.009
 5069.00    0.42016   0.68141    0.009
 5070.00    0.31445   0.67683    0.008
 5071.00    0.32360   0.67160    0.008
 5072.00    0.36729   0.66790    0.008
 5073.00    0.26793   0.66691    0.008
 5074.00    0.13283   0.66838    0.008
 5075.00    0.37115   0.67151    0.008
 5076.00    0.68515   0.67539    0.008
 5077.00    0.92236   0.67920    0.008
 5078.00    1.14735   0.68242    0.008
 5079.00    0.91499   0.68491    0.008
 5080.00    0.62852   0.68678    0.008
 5081.00    0.62628   0.68826    0.008
 5082.00    0.64689   0.68962    0.008
 5083.00    0.55839   0.69113    0.008
 5084.00    0.46497   0.69257    0.008
 5085.00    0.34730   0.69312    0.008
 5086.00    0.23576   0.69178    0.008
 5087.00    0.44451   0.68828    0.008
 5088.00    0.64570   0.68329    0.008
 5089.00    0.70661   0.67802    0.008
 5090.00    0.76611   0.67383    0.008
 5091.00    0.80999   0.67200    0.008
 5092.00    0.82789   0.67280    0.008
 5093.00    0.64331   0.67500    0.008
 5094.00    0.48620   0.67703    0.008
 5095.00    0.49093   0.67776    0.008
 5096.00    0.52076   0.67700    0.008
 5097.00    0.66772   0.67525    0.008
 5098.00    0.79017   0.67300    0.008
 5099.00    0.81921   0.67091    0.008
 5100.00    0.78821   0.66966    0.008
 5101.00    0.56620   0.66944    0.008
 5102.00    0.44531   0.67046    0.008
 5103.00    0.59704   0.67272    0.008
 5104.00    0.63305   0.67554    0.008
 5105.00    0.40145   0.67878    0.008
 5106.00    0.28962   0.68245    0.008
 5107.00    0.41739   0.68609    0.008
 5108.00    0.44069   0.68928    0.008
 5109.00    0.28195   0.69116    0.008
 5110.00    0.29799   0.69078    0.008
 5111.00    0.58061   0.68788    0.008
 5112.00    0.70380   0.68278    0.008
 5113.00    0.61336   0.67641    0.008
 5114.00    0.51722   0.66994    0.008
 5115.00    0.41435   0.66450    0.009
 5116.00    0.24471   0.66099    0.009
 5117.00    0.00558   0.65921    0.009
 5118.00    0.02786   0.65851    0.009
 5119.00    0.29007   0.65869    0.009
 5120.00    0.57420   0.65967    0.009
 5121.00    0.87606   0.66148    0.009
 5122.00    1.06121   0.66424    0.009
 5123.00    1.16328   0.66748    0.009
 5124.00    0.91911   0.67057    0.009
 5125.00    0.45866   0.67345    0.009
 5126.00    0.28038   0.67584    0.009
 5127.00    0.25614   0.67673    0.008
 5128.00    0.34832   0.67568    0.008
 5129.00    0.49574   0.67319    0.009
 5130.00    0.65653   0.67004    0.009
 5131.00    0.82280   0.66762    0.009
 5132.00    0.75252   0.66630    0.009
 5133.00    0.59953   0.66481    0.009
 5134.00    0.84410   0.66317    0.009
 5135.00    1.20587   0.66186    0.009
 5136.00    1.01037   0.66060    0.009
 5137.00    0.67873   0.65976    0.009
 5138.00    0.71616   0.65969    0.009
 5139.00    0.82650   0.65990    0.009
 5140.00    0.90039   0.66022    0.009
 5141.00    0.96866   0.65996    0.009
 5142.00    0.69054   0.65871    0.009
 5143.00    0.37297   0.65711    0.009
 5144.00    0.43430   0.65603    0.008
 5145.00    0.52454   0.65651    0.008
 5146.00    0.14328   0.65930    0.008
 5147.00   -0.25739   0.66427    0.000
 5148.00    0.01263   0.67038    0.008
 5149.00    0.28564   0.67626    0.008
 5150.00    0.45189   0.68039    0.008
 5151.00    0.61231   0.68248    0.008
 5152.00    0.67169   0.68253    0.008
 5153.00    0.73390   0.68010    0.008
 5154.00    0.82631   0.67527    0.008
 5155.00    0.91454   0.66750    0.008
 5156.00    0.97124   0.65589    0.008
 5157.00    0.98540   0.64142    0.008
 5158.00    0.75592   0.62685    0.008
 5159.00    0.56595   0.61554    0.008
 5160.00    0.55596   0.60958    0.008
 5161.00    0.54923   0.60786    0.008
 5162.00    0.55468   0.60726    0.008
 5163.00    0.57385   0.60623    0.008
 5164.00    0.63582   0.60674    0.008
 5165.00    0.65634   0.61134    0.008
 5166.00    0.56711   0.61997    0.008
 5167.00    0.51051   0.63054    0.008
 5168.00    0.52815   0.64029    0.008
 5169.00    0.48918   0.64662    0.008
 5170.00    0.33877   0.64817    0.008
 5171.00    0.27646   0.64508    0.008
 5172.00    0.36536   0.63791    0.008
 5173.00    0.51678   0.62779    0.008
 5174.00    0.76219   0.61779    0.008
 5175.00    0.83437   0.61276    0.008
 5176.00    0.67777   0.61570    0.008
 5177.00    0.55836   0.62535    0.008
 5178.00    0.48221   0.63798    0.008
 5179.00    0.45892   0.64928    0.008
 5180.00    0.48988   0.65644    0.008
 5181.00    0.48405   0.65871    0.008
 5182.00    0.44493   0.65640    0.008
 5183.00    0.37615   0.65183    0.008
 5184.00    0.28370   0.64813    0.008
 5185.00    0.35666   0.64688    0.008
 5186.00    0.54566   0.64844    0.008
 5187.00    0.67690   0.65261    0.008
 5188.00    0.77260   0.65794    0.008
 5189.00    0.74743   0.66282    0.008
 5190.00    0.65730   0.66652    0.000
 5191.00    0.47925   0.66820    0.000
 5192.00    0.26015   0.66736    0.000
 5193.00    0.25309   0.66397    0.000
 5194.00    0.33133   0.65811    0.000
 5195.00    0.49463   0.64987    0.000
 5196.00    0.68712   0.64050    0.000
 5197.00    0.49782   0.63203    0.000
 5198.00    0.19821   0.62590    0.000
 5199.00    0.27746   0.62292    0.000
 5200.00    0.44720   0.62402    0.000
 5201.00    0.55145   0.62915    0.000
 5202.00    0.64310   0.63733    0.000
 5203.00    0.59513   0.64724    0.000
 5204.00    0.52630   0.65669    0.000
 5205.00    0.39342   0.66356    0.000
 5206.00    0.25352   0.66709    0.000
 5207.00    0.34204   0.66840    0.000
 5208.00    0.44704   0.66950    0.000
 5209.00    0.43634   0.67171    0.000
 5210.00    0.42131   0.67513    0.000
 5211.00    0.56754   0.67873    0.008
 5212.00    0.70867   0.68088    0.008
 5213.00    0.63649   0.67995    0.008
 5214.00    0.56379   0.67516    0.008
 5215.00    0.48279   0.66704    0.008
 5216.00    0.39372   0.65734    0.008
 5217.00    0.22261   0.64889    0.008
 5218.00    0.11677   0.64492    0.008
 5219.00    0.48588   0.64708    0.008
 5220.00    0.75819   0.65387    0.008
 5221.00    0.49130   0.66209    0.008
 5222.00    0.30196   0.66852    0.008
 5223.00    0.45760   0.67096    0.008
 5224.00    0.58110   0.67022    0.008
 5225.00    0.58721   0.66912    0.008
 5226.00    0.61302   0.66984    0.008
 5227.00    0.69914   0.67318    0.008
 5228.00    0.77852   0.67805    0.008
 5229.00    0.84035   0.68245    0.008
 5230.00    0.83021   0.68513    0.008
 5231.00    0.65910   0.68604    0.008
 5232.00    0.54781   0.68596    0.008
 5233.00    0.55244   0.68558    0.008
 5234.00    0.59059   0.68520    0.008
 5235.00    0.68540   0.68444    0.008
 5236.00    0.77566   0.68203    0.008
 5237.00    0.85919   0.67733    0.008
 5238.00    0.91714   0.67148    0.008
 5239.00    0.94180   0.66605    0.008
 5240.00    0.88654   0.66188    0.008
 5241.00    0.73962   0.65965    0.008
 5242.00    0.55650   0.65957    0.008
 5243.00    0.33676   0.66086    0.008
 5244.00    0.32485   0.66279    0.008
 5245.00    0.49836   0.66512    0.008
 5246.00    0.70447   0.66813    0.008
 5247.00    0.93622   0.67228    0.008
 5248.00    0.97914   0.67720    0.008
 5249.00    0.89149   0.68161    0.008
 5250.00    0.77462   0.68355    0.008
 5251.00    0.64004   0.68131    0.008
 5252.00    0.58713   0.67459    0.008
 5253.00    0.57745   0.66448    0.008
 5254.00    0.53073   0.65301    0.008
 5255.00    0.46700   0.64237    0.008
 5256.00    0.45912   0.63426    0.008
 5257.00    0.47333   0.62963    0.008
 5258.00    0.66286   0.62749    0.008
 5259.00    0.91146   0.62552    0.008
 5260.00    0.96562   0.62345    0.009
 5261.00    0.96475   0.62325    0.009
 5262.00    0.79726   0.62636    0.009
 5263.00    0.59087   0.63299    0.009
 5264.00    0.51708   0.64191    0.009
 5265.00    0.46816   0.65051    0.009
 5266.00    0.48398   0.65739    0.009
 5267.00    0.50918   0.66361    0.009
 5268.00    0.65416   0.66984    0.009
 5269.00    0.81174   0.67537    0.009
 5270.00    0.78462   0.67887    0.009
 5271.00    0.74492   0.67903    0.009
 5272.00    0.82492   0.67603    0.009
 5273.00    0.90893   0.67169    0.009
 5274.00    0.60082   0.66859    0.009
 5275.00    0.31048   0.66902    0.009
 5276.00    0.60284   0.67329    0.009
 5277.00    0.86713   0.67972    0.009
 5278.00    0.70389   0.68609    0.009
 5279.00    0.54257   0.69075    0.009
 5280.00    0.40010   0.69321    0.008
 5281.00    0.29513   0.69398    0.008
 5282.00    0.45417   0.69374    0.008
 5283.00    0.62247   0.69272    0.008
 5284.00    0.84096   0.69068    0.008
 5285.00    0.99512   0.68700    0.008
 5286.00    0.86968   0.68111    0.008
 5287.00    0.78373   0.67331    0.008
 5288.00    0.83908   0.66522    0.008
 5289.00    0.86528   0.65924    0.008
 5290.00    0.80391   0.65688    0.008
 5291.00    0.72425   0.65819    0.008
 5292.00    0.59782   0.66251    0.008
 5293.00    0.54501   0.66858    0.008
 5294.00    0.65417   0.67522    0.008
 5295.00    0.72657   0.68168    0.008
 5296.00    0.72886   0.68694    0.008
 5297.00    0.74140   0.69013    0.008
 5298.00    0.77099   0.69145    0.008
 5299.00    0.74302   0.69182    0.008
 5300.00    0.63104   0.69205    0.008
 5301.00    0.58184   0.69240    0.008
 5302.00    0.61321   0.69250    0.008
 5303.00    0.64171   0.69175    0.008
 5304.00    0.66697   0.69017    0.008
 5305.00    0.64724   0.68806    0.008
 5306.00    0.58263   0.68568    0.008
 5307.00    0.48819   0.68356    0.008
 5308.00    0.36749   0.68206    0.008
 5309.00    0.34599   0.68102    0.008
 5310.00    0.40137   0.68026    0.008
 5311.00    0.51514   0.67953    0.008
 5312.00    0.66869   0.67816    0.008
 5313.00    0.71136   0.67563    0.008
 5314.00    0.68781   0.67197    0.008
 5315.00    0.76660   0.66752    0.008
 5316.00    0.89870   0.66180    0.008
 5317.00    0.75387   0.65402    0.008
 5318.00    0.48393   0.64522    0.008
 5319.00    0.29615   0.63827    0.008
 5320.00    0.14027   0.63563    0.008
 5321.00    0.28659   0.63847    0.008
 5322.00    0.53279   0.64623    0.008
 5323.00    0.71891   0.65609    0.008
 5324.00    0.88837   0.66512    0.008
 5325.00    0.78492   0.67190    0.008
 5326.00    0.61923   0.67630    0.008
 5327.00    0.38995   0.67851    0.008
 5328.00    0.14907   0.67827    0.008
 5329.00    0.52021   0.67527    0.008
 5330.00    0.97719   0.67033    0.008
 5331.00    0.87748   0.66551    0.008
 5332.00    0.72161   0.66248    0.008
 5333.00    0.61046   0.66186    0.008
 5334.00    0.50218   0.66341    0.008
 5335.00    0.59025   0.66561    0.008
 5336.00    0.68371   0.66689    0.008
 5337.00    0.59022   0.66694    0.008
 5338.00    0.49541   0.66606    0.008
 5339.00    0.36272   0.66542    0.008
 5340.00    0.25991   0.66629    0.008
 5341.00    0.58584   0.66895    0.008
 5342.00    0.86387   0.67325    0.008
 5343.00    0.69362   0.67889    0.008
 5344.00    0.53608   0.68491    0.008
 5345.00    0.46516   0.69014    0.008
 5346.00    0.38829   0.69407    0.008
 5347.00    0.28004   0.69693    0.008
 5348.00    0.22860   0.69858    0.008
 5349.00    0.41842   0.69873    0.008
 5350.00    0.57145   0.69737    0.008
 5351.00    0.59556   0.69451    0.008
 5352.00    0.58234   0.69058    0.007
 5353.00    0.45911   0.68627    0.008
 5354.00    0.41132   0.68213    0.008
 5355.00    0.55311   0.67870    0.008
 5356.00    0.70798   0.67613    0.007
 5357.00    0.89117   0.67379    0.008
 5358.00    0.96071   0.67089    0.008
 5359.00    0.81677   0.66678    0.008
 5360.00    0.71970   0.66125    0.007
 5361.00    0.69952   0.65559    0.007
 5362.00    0.61616   0.65218    0.008
 5363.00    0.44194   0.65293    0.008
 5364.00    0.39049   0.65823    0.008
 5365.00    0.49434   0.66648    0.008
 5366.00    0.54830   0.67467    0.008
 5367.00    0.54661   0.68058    0.008
 5368.00    0.43047   0.68388   -2.000
 5369.00    0.20178   0.68516   -2.000
 5370.00    0.18775   0.68514   -2.000
 5371.00    0.35989   0.68428   -2.000
 5372.00    0.55727   0.68257   -2.000
 5373.00    0.77394   0.68037   -2.000
 5374.00    0.86157   0.67864   -2.000
 5375.00    0.86257   0.67785   -2.000
 5376.00    0.71448   0.67778   -2.000
 5377.00    0.47872   0.67796   -2.000
 5378.00    0.42843   0.67749   -2.000
 5379.00    0.47326   0.67564   -2.000
 5380.00    0.49570   0.67259   -2.000
 5381.00    0.50818   0.66905   -2.000
 5382.00    0.46691   0.66567   -2.000
 5383.00    0.40512   0.66291    0.008
 5384.00    0.40589   0.66068    0.008
 5385.00    0.42695   0.65813    0.008
 5386.00    0.49900   0.65479    0.008
 5387.00    0.58489   0.65158    0.008
 5388.00    0.45945   0.64992    0.008
 5389.00    0.28693   0.65043    0.008
 5390.00    0.34840   0.65318    0.008
 5391.00    0.45144   0.65723    0.008
 5392.00    0.43301   0.66002    0.008
 5393.00    0.39810   0.65950    0.008
 5394.00    0.39952   0.65560    0.008
 5395.00    0.40446   0.64947    0.007
 5396.00    0.55527   0.64292    0.007
 5397.00    0.71485   0.63785    0.008
 5398.00    0.65371   0.63513    0.008
 5399.00    0.58797   0.63434    0.007
 5400.00    0.71252   0.63466    0.007
 5401.00    0.83043   0.63574    0.007
 5402.00    0.77724   0.63833    0.007
 5403.00    0.71676   0.64340    0.007
 5404.00    0.55738   0.65076    0.007
 5405.00    0.39118   0.65894    0.007
 5406.00    0.16365   0.66637    0.007
 5407.00   -0.03030   0.67215    0.000
 5408.00   -0.00230   0.67604    0.000
 5409.00    0.07436   0.67792    0.007
 5410.00    0.40136   0.67799    0.007
 5411.00    0.66894   0.67692    0.007
 5412.00    0.68988   0.67536    0.007
 5413.00    0.65935   0.67376    0.007
 5414.00    0.45204   0.67266    0.007
 5415.00    0.32036   0.67221    0.007
 5416.00    0.40748   0.67217    0.007
 5417.00    0.46945   0.67197    0.007
 5418.00    0.46931   0.67040    0.007
 5419.00    0.50123   0.66684    0.007
 5420.00    0.60141   0.66170    0.007
 5421.00    0.66103   0.65602    0.007
 5422.00    0.64560   0.65154    0.007
 5423.00    0.64677   0.64910    0.008
 5424.00    0.67475   0.64773    0.008
 5425.00    0.69665   0.64694    0.008
 5426.00    0.70992   0.64773    0.008
 5427.00    0.71102   0.65114    0.008
 5428.00    0.69694   0.65718    0.008
 5429.00    0.60953   0.66486    0.008
 5430.00    0.44153   0.67268    0.008
 5431.00    0.37438   0.67918    0.008
 5432.00    0.40500   0.68329    0.008
 5433.00    0.44286   0.68434    0.008
 5434.00    0.48690   0.68186    0.008
 5435.00    0.53340   0.67579    0.008
 5436.00    0.58176   0.66717    0.008
 5437.00    0.58957   0.65826    0.008
 5438.00    0.57056   0.65156    0.008
 5439.00    0.53487   0.64887    0.007
 5440.00    0.48950   0.65016    0.007
 5441.00    0.56244   0.65315    0.007
 5442.00    0.69510   0.65496    0.007
 5443.00    0.71068   0.65405    0.007
 5444.00    0.67512   0.65056    0.007
 5445.00    0.61256   0.64607    0.007
 5446.00    0.53989   0.64270    0.007
 5447.00    0.54626   0.64205    0.007
 5448.00    0.57779   0.64467    0.007
 5449.00    0.57082   0.64937    0.007
 5450.00    0.55362   0.65372    0.007
 5451.00    0.65703   0.65571    0.007
 5452.00    0.78667   0.65518    0.007
 5453.00    0.69737   0.65356    0.007
 5454.00    0.57024   0.65227    0.007
 5455.00    0.59995   0.65206    0.007
 5456.00    0.65022   0.65330    0.007
 5457.00    0.71164   0.65541    0.007
 5458.00    0.77409   0.65717    0.007
 5459.00    0.72987   0.65803    0.007
 5460.00    0.67965   0.65796    0.007
 5461.00    0.79223   0.65670    0.007
 5462.00    0.90605   0.65435    0.007
 5463.00    0.76976   0.65156    0.007
 5464.00    0.64436   0.64848    0.007
 5465.00    0.77451   0.64489    0.007
 5466.00    0.88107   0.64156    0.007
 5467.00    0.68469   0.63950    0.007
 5468.00    0.50430   0.63888    0.007
 5469.00    0.46213   0.63985    0.007
 5470.00    0.45960   0.64212    0.007
 5471.00    0.71109   0.64441    0.007
 5472.00    0.90004   0.64582    0.007
 5473.00    0.77543   0.64709    0.007
 5474.00    0.68940   0.64946    0.007
 5475.00    0.75990   0.65269    0.007
 5476.00    0.80370   0.65545    0.007
 5477.00    0.75760   0.65676    0.007
 5478.00    0.67183   0.65640   -2.000
 5479.00    0.47333   0.65524   -2.000
 5480.00    0.40141   0.65468   -2.000
 5481.00    0.63673   0.65519   -2.000
 5482.00    0.77056   0.65613   -2.000
 5483.00    0.69180   0.65704   -2.000
 5484.00    0.63330   0.65752   -2.000
 5485.00    0.61167   0.65706   -2.000
 5486.00    0.92822   0.65606   -2.000
 5487.00    1.78306   0.65520   -2.000
 5488.00    2.19468   0.65456   -2.000
 5489.00    1.98713   0.65404   -2.000
 5490.00    1.95904   0.65385   -2.000
 5491.00    2.15158   0.65358   -2.000
 5492.00    1.67868   0.65238   -2.000
 5493.00    0.48465   0.65036   -2.000
 5494.00    0.08072   0.64837   -2.000
 5495.00    0.43205   0.64677   -2.000
 5496.00    0.63633   0.64551   -2.000
 5497.00    0.71668   0.64460   -2.000
 5498.00    0.76067   0.64434   -2.000
 5499.00    0.77767   0.64502   -2.000
 5500.00    0.78647   0.64594   -2.000
 5501.00    0.78993   0.64554   -2.000
 5502.00    0.74793   0.64345    0.007
 5503.00    0.67999   0.64043    0.007
 5504.00    0.65560   0.63782    0.007
 5505.00    0.65286   0.63709    0.007
 5506.00    0.59925   0.63894    0.007
 5507.00    0.52380   0.64305    0.007
 5508.00    0.46483   0.64846    0.007
 5509.00    0.41193   0.65402    0.007
 5510.00    0.52122   0.65874    0.007
 5511.00    0.68112   0.66175    0.007
 5512.00    0.70639   0.66291    0.007
 5513.00    0.69663   0.66275    0.007
 5514.00    0.72535   0.66163    0.007
 5515.00    0.76223   0.65945    0.007
 5516.00    0.73766   0.65611    0.007
 5517.00    0.70277   0.65209    0.007
 5518.00    0.70752   0.64840    0.007
 5519.00    0.71730   0.64606    0.007
 5520.00    0.71830   0.64588    0.007
 5521.00    0.71854   0.64792    0.007
 5522.00    0.69247   0.65074    0.007
 5523.00    0.66502   0.65263    0.007
 5524.00    0.66099   0.65312    0.007
 5525.00    0.65676   0.65280    0.007
 5526.00    0.60395   0.65234    0.007
 5527.00    0.55633   0.65245    0.007
 5528.00    0.62038   0.65362    0.007
 5529.00    0.67925   0.65559    0.007
 5530.00    0.67509   0.65778    0.007
 5531.00    0.67924   0.65977    0.007
 5532.00    0.75262   0.66095    0.007
 5533.00    0.80663   0.66082    0.007
 5534.00    0.74006   0.65956    0.007
 5535.00    0.69577   0.65814    0.007
 5536.00    0.76034   0.65754    0.007
 5537.00    0.79963   0.65805    0.007
 5538.00    0.73851   0.65959    0.007
 5539.00    0.70581   0.66186    0.007
 5540.00    0.76690   0.66404    0.007
 5541.00    0.83678   0.66516    0.007
 5542.00    0.93116   0.66490    0.007
 5543.00    0.99152   0.66347    0.007
 5544.00    0.97071   0.66130    0.007
 5545.00    0.90634   0.65897    0.007
 5546.00    0.75217   0.65714    0.007
 5547.00    0.62896   0.65605    0.007
 5548.00    0.56124   0.65544    0.007
 5549.00    0.57137   0.65503    0.007
 5550.00    0.70359   0.65469    0.007
 5551.00    0.76838   0.65412    0.007
 5552.00    0.74031   0.65299    0.006
 5553.00    0.68899   0.65129    0.006
 5554.00    0.60951   0.64928    0.006
 5555.00    0.62400   0.64737    0.006
 5556.00    0.73891   0.64574    0.007
 5557.00    0.83888   0.64442    0.007
 5558.00    0.92477   0.64370    0.007
 5559.00    0.96669   0.64374    0.007
 5560.00    0.97208   0.64415    0.007
 5561.00    0.91473   0.64468    0.007
 5562.00    0.81149   0.64535    0.007
 5563.00    0.77588   0.64590    0.007
 5564.00    0.78373   0.64630    0.007
 5565.00    0.74170   0.64723    0.007
 5566.00    0.67164   0.64875    0.007
 5567.00    0.65368   0.65017    0.007
 5568.00    0.66121   0.65127    0.007
 5569.00    0.59036   0.65205    0.007
 5570.00    0.48639   0.65236    0.007
 5571.00    0.47591   0.65225    0.007
 5572.00    0.49926   0.65156    0.007
 5573.00    0.48870   0.64996    0.007
 5574.00    0.46776   0.64734    0.007
 5575.00    0.56267   0.64355    0.007
 5576.00    0.68708   0.63844    0.007
 5577.00    0.65896   0.63247    0.007
 5578.00    0.59925   0.62674    0.007
 5579.00    0.58529   0.62256    0.007
 5580.00    0.57879   0.62071    0.007
 5581.00    0.52288   0.62115    0.007
 5582.00    0.46093   0.62313    0.007
 5583.00    0.56822   0.62594    0.007
 5584.00    0.68972   0.62932    0.007
 5585.00    0.71047   0.63303    0.007
 5586.00    0.72635   0.63644    0.007
 5587.00    0.53164   0.63859    0.007
 5588.00    0.34047   0.63845    0.007
 5589.00    0.54689   0.63593    0.007
 5590.00    0.74849   0.63245    0.007
 5591.00    0.85427   0.62954    0.007
 5592.00    0.94379   0.62802    0.007
 5593.00    0.84461   0.62845    0.007
 5594.00    0.75844   0.63121    0.007
 5595.00    0.77675   0.63608    0.007
 5596.00    0.80525   0.64194    0.007
 5597.00    0.89531   0.64746    0.007
 5598.00    0.92048   0.65168    0.007
 5599.00    0.63629   0.65432    0.007
 5600.00    0.43947   0.65556    0.007
 5601.00    0.58203   0.65569    0.007
 5602.00    0.68674   0.65469    0.007
 5603.00    0.66896   0.65218    0.007
 5604.00    0.64093   0.64778    0.007
 5605.00    0.58487   0.64170    0.007
 5606.00    0.58214   0.63547    0.007
 5607.00    0.70457   0.63146    0.007
 5608.00    0.81747   0.63070    0.007
 5609.00    0.91104   0.63210    0.007
 5610.00    0.90424   0.63420    0.007
 5611.00    0.72019   0.63612    0.007
 5612.00    0.59428   0.63732    0.007
 5613.00    0.55822   0.63724    0.007
 5614.00    0.49170   0.63562    0.007
 5615.00    0.38386   0.63327    0.007
 5616.00    0.36688   0.63194    0.007
 5617.00    0.45845   0.63276    0.007
 5618.00    0.60077   0.63530    0.007
 5619.00    0.79654   0.63856    0.007
 5620.00    0.79697   0.64182    0.007
 5621.00    0.61588   0.64446    0.007
 5622.00    0.55105   0.64608    0.007
 5623.00    0.58145   0.64653    0.007
 5624.00    0.66996   0.64584    0.006
 5625.00    0.80037   0.64415    0.006
 5626.00    0.85890   0.64171    0.006
 5627.00    0.87195   0.63894    0.007
 5628.00    0.84370   0.63638    0.007
 5629.00    0.79261   0.63445    0.007
 5630.00    0.82007   0.63309    0.006
 5631.00    0.88534   0.63216    0.006
 5632.00    0.91875   0.63179    0.006
 5633.00    0.93893   0.63229    0.006
 5634.00    0.86673   0.63335    0.006
 5635.00    0.76171   0.63451    0.006
 5636.00    0.79106   0.63563    0.006
 5637.00    0.86072   0.63662    0.006
 5638.00    0.89996   0.63756    0.006
 5639.00    0.93161   0.63863    0.006
 5640.00    0.77992   0.64001    0.006
 5641.00    0.59120   0.64176    0.006
 5642.00    0.57533   0.64365    0.006
 5643.00    0.58684   0.64501    0.006
 5644.00    0.61665   0.64503    0.006
 5645.00    0.64862   0.64333    0.006
 5646.00    0.65144   0.64025    0.006
 5647.00    0.65193   0.63632    0.006
 5648.00    0.72246   0.63166    0.007
 5649.00    0.79610   0.62721    0.007
 5650.00    0.77732   0.62474    0.007
 5651.00    0.75750   0.62455    0.007
 5652.00    0.73881   0.62532    0.007
 5653.00    0.71521   0.62648    0.007
 5654.00    0.60132   0.62827    0.007
 5655.00    0.50195   0.63044    0.007
 5656.00    0.56342   0.63215    0.007
 5657.00    0.61506   0.63297    0.007
 5658.00    0.59048   0.63318    0.007
 5659.00    0.57229   0.63346    0.007
 5660.00    0.59159   0.63436    0.007
 5661.00    0.61112   0.63596    0.007
 5662.00    0.63173   0.63823    0.007
 5663.00    0.66275   0.64096    0.007
 5664.00    0.73332   0.64351    0.006
 5665.00    0.76624   0.64514    0.006
 5666.00    0.67969   0.64580    0.006
 5667.00    0.62800   0.64582    0.006
 5668.00    0.67011   0.64521    0.006
 5669.00    0.72985   0.64378    0.006
 5670.00    0.83024   0.64186    0.006
 5671.00    0.91821   0.64000    0.006
 5672.00    0.98141   0.63830    0.006
 5673.00    0.97070   0.63682    0.006
 5674.00    0.83145   0.63588    0.006
 5675.00    0.73720   0.63544    0.006
 5676.00    0.71147   0.63485    0.006
 5677.00    0.74534   0.63394    0.007
 5678.00    0.85894   0.63333    0.007
 5679.00    0.89826   0.63388    0.006
 5680.00    0.85009   0.63587    0.006
 5681.00    0.77219   0.63894    0.006
 5682.00    0.66341   0.64222    0.006
 5683.00    0.62811   0.64474    0.006
 5684.00    0.66014   0.64575    0.006
 5685.00    0.64872   0.64510    0.006
 5686.00    0.60221   0.64321    0.006
 5687.00    0.61377   0.64071    0.006
 5688.00    0.66658   0.63795    0.007
 5689.00    0.64504   0.63519    0.007
 5690.00    0.57715   0.63268    0.007
 5691.00    0.59537   0.63053    0.007
 5692.00    0.66051   0.62894    0.007
 5693.00    0.60787   0.62825    0.007
 5694.00    0.49947   0.62829    0.007
 5695.00    0.56685   0.62818    0.007
 5696.00    0.70600   0.62699    0.007
 5697.00    0.76188   0.62450    0.007
 5698.00    0.78871   0.62124    0.007
 5699.00    0.80786   0.61817    0.007
 5700.00    0.82474   0.61637    0.007
 5701.00    0.77031   0.61648    0.007
 5702.00    0.69850   0.61852    0.007
 5703.00    0.64862   0.62240    0.007
 5704.00    0.60306   0.62743    0.007
 5705.00    0.59366   0.63241    0.007
 5706.00    0.58980   0.63652    0.007
 5707.00    0.57284   0.63948    0.006
 5708.00    0.55439   0.64154    0.006
 5709.00    0.47470   0.64317    0.006
 5710.00    0.39036   0.64475    0.006
 5711.00    0.51393   0.64635    0.006
 5712.00    0.64596   0.64779    0.006
 5713.00    0.69696   0.64870    0.006
 5714.00    0.74506   0.64869    0.006
 5715.00    0.69885   0.64760    0.006
 5716.00    0.65725   0.64548    0.006
 5717.00    0.69484   0.64292    0.006
 5718.00    0.71784   0.64096    0.006
 5719.00    0.58652   0.64013    0.006
 5720.00    0.47153   0.64000    0.006
 5721.00    0.47899   0.64002    0.006
 5722.00    0.48485   0.64043    0.006
 5723.00    0.48161   0.64155    0.006
 5724.00    0.47799   0.64308    0.006
 5725.00    0.47265   0.64443    0.006
 5726.00    0.49318   0.64510    0.006
 5727.00    0.60998   0.64489    0.006
 5728.00    0.71764   0.64393    0.006
 5729.00    0.79689   0.64263    0.006
 5730.00    0.83918   0.64159    0.006
 5731.00    0.78382   0.64121    0.006
 5732.00    0.77185   0.64150    0.007
 5733.00    0.85834   0.64223    0.007
 5734.00    0.89736   0.64341    0.007
 5735.00    0.84312   0.64474    0.007
 5736.00    0.80155   0.64552    0.007
 5737.00    0.78172   0.64522    0.007
 5738.00    0.76014   0.64416    0.007
 5739.00    0.73597   0.64333    0.007
 5740.00    0.68394   0.64296    0.000
 5741.00    0.59521   0.64240    0.000
 5742.00    0.55681   0.64105    0.000
 5743.00    0.57685   0.63911    0.000
 5744.00    0.65849   0.63767    0.000
 5745.00    0.80321   0.63789    0.000
 5746.00    0.87391   0.63988    0.000
 5747.00    0.87775   0.64257    0.000
 5748.00    0.85553   0.64451    0.000
 5749.00    0.81256   0.64446    0.000
 5750.00    0.78316   0.64215    0.000
 5751.00    0.76327   0.63847    0.000
 5752.00    0.67570   0.63502    0.000
 5753.00    0.54658   0.63348    0.000
 5754.00    0.40078   0.63457    0.000
 5755.00    0.24605   0.63758    0.000
 5756.00    0.16269   0.64117    0.000
 5757.00    0.11259   0.64430    0.000
 5758.00    0.21528   0.64630    0.000
 5759.00    0.37929   0.64703    0.000
 5760.00    0.51147   0.64676    0.000
 5761.00    0.63274   0.64583    0.000
 5762.00    0.66268   0.64458    0.000
 5763.00    0.66629   0.64331    0.000
 5764.00    0.66941   0.64220    0.000
 5765.00    0.67241   0.64138    0.000
 5766.00    0.73064   0.64085    0.000
 5767.00    0.79946   0.64020    0.000
 5768.00    0.90360   0.63878    0.000
 5769.00    1.01300   0.63596    0.000
 5770.00    0.82923   0.63151    0.000
 5771.00    0.61351   0.62618    0.000
 5772.00    0.56084   0.62133    0.000
 5773.00    0.51985   0.61787    0.000
 5774.00    0.57889   0.61600    0.000
 5775.00    0.64161   0.61586    0.000
 5776.00    0.64668   0.61759    0.000
 5777.00    0.65174   0.62076    0.000
 5778.00    0.66549   0.62446    0.000
 5779.00    0.67568   0.62779    0.000
 5780.00    0.62855   0.63025    0.000
 5781.00    0.58253   0.63215    0.000
 5782.00    0.54769   0.63420    0.000
 5783.00    0.52239   0.63673    0.000
 5784.00    0.56627   0.63945    0.000
 5785.00    0.59994   0.64162    0.000
 5786.00    0.57692   0.64247    0.000
 5787.00    0.54671   0.64207    0.000
 5788.00    0.48459   0.64148    0.000
 5789.00    0.43863   0.64172    0.000
 5790.00    0.45156   0.64298    0.000
 5791.00    0.50101   0.64480   -2.000
 5792.00    0.66195   0.64643   -2.000
 5793.00    0.76534   0.64707   -2.000
 5794.00    0.71931   0.64650   -2.000
 5795.00    0.66760   0.64531   -2.000
 5796.00    0.60321   0.64423   -2.000
 5797.00    0.59371   0.64368   -2.000
 5798.00    0.69038   0.64364   -2.000
 5799.00    0.79137   0.64383   -2.000
 5800.00    0.89967   0.64386   -2.000
 5801.00    0.96949   0.64341   -2.000
 5802.00    0.98242   0.64245   -2.000
 5803.00    0.97149   0.64107   -2.000
 5804.00    0.92954   0.63937   -2.000
 5805.00    0.92281   0.63768   -2.000
 5806.00    0.95641   0.63670   -2.000
 5807.00    0.94823   0.63701   -2.000
 5808.00    0.89785   0.63858   -2.000
 5809.00    0.82666   0.64086   -2.000
 5810.00    0.73694   0.64313   -2.000
 5811.00    0.67643   0.64473    0.000
 5812.00    0.63886   0.64535    0.000
 5813.00    0.60932   0.64524    0.000
 5814.00    0.58533   0.64499    0.000
 5815.00    0.51920   0.64496    0.000
 5816.00    0.42756   0.64521    0.000
 5817.00    0.40460   0.64568    0.000
 5818.00    0.41792   0.64623    0.000
 5819.00    0.49804   0.64665    0.000
 5820.00    0.60878   0.64675    0.000
 5821.00    0.67058   0.64650    0.000
 5822.00    0.71307   0.64583    0.000
 5823.00    0.73561   0.64474    0.000
 5824.00    0.75146   0.64347    0.000
 5825.00    0.72730   0.64245    0.000
 5826.00    0.69185   0.64178    0.000
 5827.00    0.67441   0.64133    0.000
 5828.00    0.66118   0.64123    0.000
 5829.00    0.68962   0.64174    0.000
 5830.00    0.72585   0.64286    0.000
 5831.00    0.68760   0.64428    0.000
 5832.00    0.63860   0.64554    0.000
 5833.00    0.65507   0.64611    0.000
 5834.00    0.67838   0.64561    0.000
 5835.00    0.87671   0.64394    0.000
 5836.00    1.08688   0.64141    0.000
 5837.00    1.06437   0.63864    0.000
 5838.00    1.03417   0.63614    0.000
 5839.00    0.96622   0.63398    0.000
 5840.00    0.89876   0.63191    0.000
 5841.00    0.84747   0.62956    0.000
 5842.00    0.79826   0.62689    0.000
 5843.00    0.78064   0.62426    0.000
 5844.00    0.75589   0.62195    0.000
 5845.00    0.66210   0.61980    0.000
 5846.00    0.58059   0.61765    0.000
 5847.00    0.58531   0.61581    0.000
 5848.00    0.58658   0.61487    0.000
 5849.00    0.56917   0.61517    0.000
 5850.00    0.57291   0.61660    0.000
 5851.00    0.66826   0.61855    0.000
 5852.00    0.75788   0.62042    0.000
 5853.00    0.82701   0.62178    0.000
 5854.00    0.86024   0.62235    0.000
 5855.00    0.78585   0.62222    0.000
 5856.00    0.73225   0.62192    0.000
 5857.00    0.73164   0.62212    0.000
 5858.00    0.74650   0.62306    0.000
 5859.00    0.79529   0.62448    0.000
 5860.00    0.82544   0.62561    0.000
 5861.00    0.82006   0.62542    0.000
 5862.00    0.80280   0.62295    0.000
 5863.00    0.76578   0.61763    0.000
 5864.00    0.76044   0.61029    0.000
 5865.00    0.80123   0.60312    0.000
 5866.00    0.82492   0.59842    0.000
 5867.00    0.82669   0.59731    0.000
 5868.00    0.81602   0.59906    0.000
 5869.00    0.79129   0.60247    0.000
 5870.00    0.78554   0.60614    0.000
 5871.00    0.79866   0.60902    0.000
 5872.00    0.81285   0.61060    0.000
 5873.00    0.82800   0.61081    0.000
 5874.00    0.71722   0.60965    0.000
 5875.00    0.50905   0.60637    0.000
 5876.00    0.46090   0.59966    0.000
 5877.00    0.52159   0.58835    0.000
 5878.00    0.61872   0.57299    0.000
 5879.00    0.73758   0.55663    0.000
 5880.00    0.78821   0.54345    0.000
 5881.00    0.80336   0.53627    0.000
 5882.00    0.79859   0.53520    0.000
 5883.00    0.78484   0.53767    0.000
 5884.00    0.86363   0.54052    0.000
 5885.00    0.97830   0.54251    0.000
 5886.00    0.97747   0.54445    0.000
 5887.00    0.93854   0.54810    0.000
 5888.00    0.90406   0.55485    0.000
 5889.00    0.87081   0.56445    0.000
 5890.00    0.82391   0.57540    0.000
 5891.00    0.77391   0.58581    0.000
 5892.00    0.63956   0.59425    0.000
 5893.00    0.48988   0.60029    0.000
 5894.00    0.48783   0.60433    0.000
 5895.00    0.50641   0.60695    0.000
 5896.00    0.58092   0.60876    0.000
 5897.00    0.66104   0.61022    0.000
 5898.00    0.67160   0.61158    0.000
 5899.00    0.67774   0.61284    0.000
 5900.00    0.65026   0.61375    0.000
 5901.00    0.62204   0.61389    0.006
 5902.00    0.67527   0.61295    0.006
 5903.00    0.72683   0.61110    0.006
 5904.00    0.73131   0.60888    0.006
 5905.00    0.73147   0.60707    0.006
 5906.00    0.67029   0.60623    0.006
 5907.00    0.61050   0.60655    0.006
 5908.00    0.56373   0.60783    0.006
 5909.00    0.53809   0.60948    0.006
 5910.00    0.65588   0.61087    0.006
 5911.00    0.77181   0.61181    0.006
 5912.00    0.87791   0.61235    0.006
 5913.00    0.95562   0.61273    0.006
 5914.00    0.91312   0.61317    0.006
 5915.00    0.85936   0.61364    0.006
 5916.00    0.76619   0.61391    0.006
 5917.00    0.71807   0.61373    0.006
 5918.00    0.80240   0.61305    0.006
 5919.00    0.85136   0.61222    0.006
 5920.00    0.81166   0.61167    0.006
 5921.00    0.77313   0.61151    0.006
 5922.00    0.73711   0.61162    0.006
 5923.00    0.67629   0.61178    0.006
 5924.00    0.56894   0.61195    0.006
 5925.00    0.49434   0.61221    0.006
 5926.00    0.47332   0.61275    0.006
 5927.00    0.49022   0.61355    0.006
 5928.00    0.56156   0.61420    0.006
 5929.00    0.66754   0.61423    0.006
 5930.00    0.81725   0.61351    0.006
 5931.00    0.93223   0.61242    0.006
 5932.00    1.00854   0.61168    0.006
 5933.00    1.01190   0.61187    0.006
 5934.00    0.94365   0.61304    0.006
 5935.00    0.88434   0.61461    0.006
 5936.00    0.83278   0.61571    0.006
 5937.00    0.84947   0.61575    0.006
 5938.00    0.91820   0.61478    0.006
 5939.00    0.91916   0.61322    0.006
 5940.00    0.87470   0.61154    0.006
 5941.00    0.74637   0.61015    0.006
 5942.00    0.56881   0.60922    0.006
 5943.00    0.53482   0.60861    0.006
 5944.00    0.57431   0.60804    0.006
 5945.00    0.68672   0.60742    0.006
 5946.00    0.83144   0.60694    0.006
 5947.00    0.82614   0.60699    0.006
 5948.00    0.76370   0.60787    0.006
 5949.00    0.66272   0.60965    0.006
 5950.00    0.54927   0.61213    0.006
 5951.00    0.55219   0.61475    0.006
 5952.00    0.58662   0.61679    0.006
 5953.00    0.61256   0.61783    0.006
 5954.00    0.63661   0.61796    0.006
 5955.00    0.64681   0.61765    0.006
 5956.00    0.65455   0.61748    0.006
 5957.00    0.72721   0.61782    0.006
 5958.00    0.80864   0.61876    0.006
 5959.00    0.78950   0.62006    0.006
 5960.00    0.76070   0.62133    0.006
 5961.00    0.67503   0.62213    0.006
 5962.00    0.58597   0.62209    0.006
 5963.00    0.53764   0.62105    0.006
 5964.00    0.49063   0.61900    0.005
 5965.00    0.48408   0.61617    0.006
 5966.00    0.47945   0.61308    0.006
 5967.00    0.52383   0.61041    0.006
 5968.00    0.56549   0.60872    0.006
 5969.00    0.57049   0.60819    0.006
 5970.00    0.58052   0.60844    0.006
 5971.00    0.63551   0.60873    0.006
 5972.00    0.67927   0.60850    0.006
 5973.00    0.64915   0.60771    0.006
 5974.00    0.60804   0.60678    0.006
 5975.00    0.51064   0.60640    0.006
 5976.00    0.43858   0.60706    0.006
 5977.00    0.47140   0.60866    0.006
 5978.00    0.49735   0.61069    0.006
 5979.00    0.49975   0.61262    0.006
 5980.00    0.52114   0.61422    0.006
 5981.00    0.59738   0.61564    0.006
 5982.00    0.66644   0.61709    0.006
 5983.00    0.71783   0.61849    0.006
 5984.00    0.76081   0.61945    0.006
 5985.00    0.78588   0.61959    0.006
 5986.00    0.79890   0.61877    0.006
 5987.00    0.78968   0.61717    0.006
 5988.00    0.75668   0.61531    0.006
 5989.00    0.68534   0.61371    0.006
 5990.00    0.66048   0.61262    0.006
 5991.00    0.70137   0.61196    0.005
 5992.00    0.73145   0.61150    0.005
 5993.00    0.74805   0.61099    0.005
 5994.00    0.77392   0.61028    0.006
 5995.00    0.80994   0.60928    0.006
 5996.00    0.80855   0.60810    0.006
 5997.00    0.77095   0.60711    0.006
 5998.00    0.74747   0.60664    0.006
 5999.00    0.73603   0.60694    0.006
 6000.00    0.74766   0.60793    0.006
 6001.00    0.77661   0.60907    0.006
 6002.00    0.75653   0.60978    0.006
 6003.00    0.70406   0.60972    0.006
 6004.00    0.61917   0.60903    0.006
 6005.00    0.51554   0.60814    0.006
 6006.00    0.46941   0.60738    0.006
 6007.00    0.45224   0.60682    0.006
 6008.00    0.49219   0.60638    0.006
 6009.00    0.55705   0.60605    0.006
 6010.00    0.53493   0.60598    0.006
 6011.00    0.48026   0.60632    0.006
 6012.00    0.49603   0.60709    0.006
 6013.00    0.53414   0.60831    0.006
 6014.00    0.58265   0.60998    0.006
 6015.00    0.63391   0.61198    0.006
 6016.00    0.62707   0.61410    0.006
 6017.00    0.60762   0.61615    0.006
 6018.00    0.59249   0.61800    0.006
 6019.00    0.57810   0.61952    0.006
 6020.00    0.64336   0.62065    0.006
 6021.00    0.71902   0.62156    0.005
 6022.00    0.77811   0.62234    0.006
 6023.00    0.83569   0.62306    0.006
 6024.00    0.84617   0.62374    0.006
 6025.00    0.85402   0.62424    0.006
 6026.00    0.83989   0.62437    0.006
 6027.00    0.82565   0.62404    0.006
 6028.00    0.84874   0.62336    0.006
 6029.00    0.86880   0.62262    0.006
 6030.00    0.81856   0.62211    0.006
 6031.00    0.75887   0.62212    0.006
 6032.00    0.57877   0.62279    0.006
 6033.00    0.42024   0.62405    0.006
 6034.00    0.44747   0.62564    0.006
 6035.00    0.48006   0.62712    0.006
 6036.00    0.54683   0.62824    0.006
 6037.00    0.60298   0.62884    0.006
 6038.00    0.60604   0.62897    0.006
 6039.00    0.61153   0.62878    0.006
 6040.00    0.62680   0.62833    0.006
 6041.00    0.65632   0.62755    0.006
 6042.00    0.73371   0.62634    0.006
 6043.00    0.81081   0.62468    0.006
 6044.00    0.88708   0.62268    0.006
 6045.00    0.91401   0.62067    0.006
 6046.00    0.82144   0.61911    0.006
 6047.00    0.74765   0.61830    0.006
 6048.00    0.71315   0.61832    0.006
 6049.00    0.69084   0.61891    0.006
 6050.00    0.69070   0.61951    0.006
 6051.00    0.67088   0.61944    0.006
 6052.00    0.61980   0.61831    0.005
 6053.00    0.59526   0.61629    0.005
 6054.00    0.60773   0.61419    0.006
 6055.00    0.60937   0.61311    0.006
 6056.00    0.59772   0.61387    0.006
 6057.00    0.56459   0.61653    0.006
 6058.00    0.50823   0.62047    0.006
 6059.00    0.49179   0.62463    0.006
 6060.00    0.51345   0.62803    0.006
 6061.00    0.50652   0.63025    0.006
 6062.00    0.47553   0.63138    0.006
 6063.00    0.45560   0.63165    0.006
 6064.00    0.44387   0.63111    0.006
 6065.00    0.45973   0.62979    0.006
 6066.00    0.49354   0.62773    0.006
 6067.00    0.54988   0.62507    0.006
 6068.00    0.61905   0.62207    0.006
 6069.00    0.66389   0.61908    0.006
 6070.00    0.69667   0.61641    0.006
 6071.00    0.71082   0.61435    0.006
 6072.00    0.71698   0.61307    0.006
 6073.00    0.68881   0.61255    0.006
 6074.00    0.64803   0.61272    0.006
 6075.00    0.58029   0.61339    0.006
 6076.00    0.50415   0.61415    0.005
 6077.00    0.52879   0.61450    0.005
 6078.00    0.57957   0.61424    0.006
 6079.00    0.64552   0.61341    0.006
 6080.00    0.71469   0.61233    0.006
 6081.00    0.78259   0.61148    0.005
 6082.00    0.85029   0.61143    0.005
 6083.00    0.83621   0.61249    0.006
 6084.00    0.81183   0.61436    0.006
 6085.00    0.73297   0.61639    0.006
 6086.00    0.64933   0.61806    0.006
 6087.00    0.57125   0.61897    0.005
 6088.00    0.49345   0.61879    0.005
 6089.00    0.46619   0.61735    0.006
 6090.00    0.44160   0.61461    0.006
 6091.00    0.54484   0.61079    0.006
 6092.00    0.64829   0.60673    0.006
 6093.00    0.75636   0.60372    0.006
 6094.00    0.85636   0.60288    0.006
 6095.00    0.85859   0.60451    0.006
 6096.00    0.86009   0.60776    0.006
 6097.00    0.85556   0.61111    0.006
 6098.00    0.85653   0.61360    0.006
 6099.00    0.89158   0.61520    0.006
 6100.00    0.92124   0.61629    0.006
 6101.00    0.92466   0.61724    0.006
 6102.00    0.91868   0.61816    0.006
 6103.00    0.87549   0.61901    0.006
 6104.00    0.83449   0.61973    0.006
 6105.00    0.80071   0.61992    0.006
 6106.00    0.77952   0.61910    0.006
 6107.00    0.79331   0.61701    0.006
 6108.00    0.80209   0.61368    0.006
 6109.00    0.79895   0.60941    0.006
 6110.00    0.76467   0.60472    0.005
 6111.00    0.66635   0.60046    0.005
 6112.00    0.62792   0.59781    0.005
 6113.00    0.69666   0.59750    0.005
 6114.00    0.78185   0.59924    0.005
 6115.00    0.89276   0.60213    0.005
 6116.00    0.94413   0.60494    0.006
 6117.00    0.91367   0.60706    0.006
 6118.00    0.85588   0.60891    0.006
 6119.00    0.76505   0.61102    0.006
 6120.00    0.68810   0.61328    0.006
 6121.00    0.62595   0.61493    0.006
 6122.00    0.58951   0.61486    0.006
 6123.00    0.57725   0.61211    0.006
 6124.00    0.62727   0.60667    0.006
 6125.00    0.72895   0.59971    0.006
 6126.00    0.77887   0.59318    0.006
 6127.00    0.79100   0.58916    0.006
 6128.00    0.74721   0.58888    0.006
 6129.00    0.66757   0.59209    0.006
 6130.00    0.64251   0.59736    0.006
 6131.00    0.64806   0.60276    0.006
 6132.00    0.61377   0.60715    0.006
 6133.00    0.56003   0.61061    0.006
 6134.00    0.54258   0.61355    0.006
 6135.00    0.54043   0.61566    0.006
 6136.00    0.59667   0.61620    0.006
 6137.00    0.67399   0.61488    0.006
 6138.00    0.72118   0.61224    0.006
 6139.00    0.75916   0.60922    0.006
 6140.00    0.80862   0.60673    0.006
 6141.00    0.86099   0.60536    0.006
 6142.00    0.89989   0.60509    0.006
 6143.00    0.93600   0.60528    0.006
 6144.00    0.91678   0.60507    0.006
 6145.00    0.88856   0.60387    0.006
 6146.00    0.77189   0.60147    0.006
 6147.00    0.64446   0.59779    0.006
 6148.00    0.63496   0.59252    0.006
 6149.00    0.63530   0.58538    0.006
 6150.00    0.69361   0.57685    0.006
 6151.00    0.75470   0.56823    0.006
 6152.00    0.78612   0.56136    0.006
 6153.00    0.81670   0.55787    0.006
 6154.00    0.82414   0.55827    0.006
 6155.00    0.82952   0.56144    0.006
 6156.00    0.79435   0.56527    0.006
 6157.00    0.75071   0.56804    0.006
 6158.00    0.60936   0.56926    0.006
 6159.00    0.49646   0.56955    0.006
 6160.00    0.61126   0.56998    0.006
 6161.00    0.71979   0.57157    0.006
 6162.00    0.79068   0.57452    0.006
 6163.00    0.83010   0.57795    0.006
 6164.00    0.71993   0.58087    0.006
 6165.00    0.62377   0.58309    0.005
 6166.00    0.58182   0.58493    0.005
 6167.00    0.54788   0.58662    0.005
 6168.00    0.53977   0.58827    0.005
 6169.00    0.53139   0.58991    0.005
 6170.00    0.52231   0.59133    0.005
 6171.00    0.53469   0.59230    0.005
 6172.00    0.59735   0.59268    0.005
 6173.00    0.64479   0.59225    0.005
 6174.00    0.66142   0.59071    0.005
 6175.00    0.64498   0.58802    0.005
 6176.00    0.57026   0.58438    0.005
 6177.00    0.49911   0.58012    0.005
 6178.00    0.43349   0.57573    0.005
 6179.00    0.40487   0.57172    0.005
 6180.00    0.42637   0.56860    0.005
 6181.00    0.48996   0.56692    0.006
 6182.00    0.60375   0.56727    0.006
 6183.00    0.64934   0.56989    0.006
 6184.00    0.62323   0.57409    0.006
 6185.00    0.58816   0.57826    0.006
 6186.00    0.54478   0.58116    0.006
 6187.00    0.57928   0.58232    0.006
 6188.00    0.67748   0.58198    0.006
 6189.00    0.72219   0.58092    0.006
 6190.00    0.72841   0.58021    0.006
 6191.00    0.67444   0.58073    0.006
 6192.00    0.58247   0.58259    0.005
 6193.00    0.56144   0.58501    0.005
 6194.00    0.57960   0.58718    0.005
 6195.00    0.94097   0.58870    0.006
 6196.00    1.46713   0.58953   -2.000
 6197.00    2.10761   0.58969   -2.000
 6198.00    2.79547   0.58897   -2.000
 6199.00    2.80435   0.58713   -2.000
 6200.00    2.57257   0.58403   -2.000
 6201.00    1.87188   0.57970   -2.000
 6202.00    1.03086   0.57455   -2.000
 6203.00    0.57356   0.56924   -2.000
 6204.00    0.21157   0.56456   -2.000
 6205.00    0.12296   0.56137   -2.000
 6206.00    0.08940   0.56001   -2.000
 6207.00    0.25169   0.56006   -2.000
 6208.00    0.44487   0.56077    0.006
 6209.00    0.59704   0.56139    0.006
 6210.00    0.74440   0.56170    0.006
 6211.00    0.79816   0.56201    0.006
 6212.00    0.84450   0.56254    0.006
 6213.00    0.78408   0.56324    0.006
 6214.00    0.71896   0.56387    0.006
 6215.00    0.67621   0.56422    0.006
 6216.00    0.63501   0.56403    0.005
 6217.00    0.65641   0.56288    0.005
 6218.00    0.67850   0.56056    0.005
 6219.00    0.71325   0.55747    0.005
 6220.00    0.74615   0.55455    0.005
 6221.00    0.75872   0.55314    0.005
 6222.00    0.76015   0.55420    0.005
 6223.00    0.67544   0.55751    0.005
 6224.00    0.60347   0.56181    0.005
 6225.00    0.60596   0.56557    0.005
 6226.00    0.62009   0.56750    0.005
 6227.00    0.68822   0.56711    0.005
 6228.00    0.75182   0.56480    0.005
 6229.00    0.79822   0.56148    0.006
 6230.00    0.82077   0.55816    0.006
 6231.00    0.76780   0.55558    0.006
 6232.00    0.70358   0.55397    0.005
 6233.00    0.60916   0.55329    0.005
 6234.00    0.55029   0.55377    0.005
 6235.00    0.57326   0.55558    0.006
 6236.00    0.60374   0.55835    0.006
 6237.00    0.64916   0.56151    0.006
 6238.00    0.69798   0.56424    0.006
 6239.00    0.75270   0.56563    0.006
 6240.00    0.81907   0.56518    0.006
 6241.00    0.90313   0.56306    0.006
 6242.00    0.92830   0.55989    0.006
 6243.00    0.87484   0.55655    0.006
 6244.00    0.82231   0.55357    0.005
 6245.00    0.77087   0.55093    0.005
 6246.00    0.71164   0.54858    0.005
 6247.00    0.64432   0.54689    0.005
 6248.00    0.56546   0.54663    0.005
 6249.00    0.47605   0.54848    0.005
 6250.00    0.42563   0.55234    0.005
 6251.00    0.40664   0.55718    0.005
 6252.00    0.44193   0.56191    0.005
 6253.00    0.51573   0.56568    0.005
 6254.00    0.61921   0.56785    0.005
 6255.00    0.74116   0.56857    0.006
 6256.00    0.80421   0.56865    0.006
 6257.00    0.83522   0.56869    0.006
 6258.00    1.03210   0.56885    0.006
 6259.00    1.30735   0.56926    0.006
 6260.00    1.57380   0.57008    0.006
 6261.00    1.83666   0.57116    0.007
 6262.00    1.75158   0.57221    0.007
 6263.00    1.54542   0.57296    0.007
 6264.00    1.18838   0.57330    0.007
 6265.00    0.78707   0.57332    0.007
 6266.00    0.49162   0.57306    0.007
 6267.00    0.22189   0.57248    0.006
 6268.00    0.22041   0.57161    0.006
 6269.00    0.27159   0.57053    0.006
 6270.00    0.41117   0.56965    0.005
 6271.00    0.56429   0.56958    0.005
 6272.00    0.59419   0.57061    0.005
 6273.00    0.61018   0.57257    0.005
 6274.00    0.57807   0.57506    0.005
 6275.00    0.54234   0.57768    0.005
 6276.00    0.58677   0.58027    0.005
 6277.00    0.63441   0.58254    0.005
 6278.00    0.63807   0.58403    0.005
 6279.00    0.64167   0.58437    0.005
 6280.00    0.65590   0.58346    0.000
 6281.00    0.66828   0.58165    0.000
 6282.00    0.64933   0.57942    0.000
 6283.00    0.63043   0.57714    0.000
 6284.00    0.61215   0.57494    0.000
 6285.00    0.59491   0.57276    0.000
 6286.00    0.58537   0.57084    0.000
 6287.00    0.56494   0.56967    0.000
 6288.00    0.48246   0.56941    0.000
 6289.00    0.41202   0.56973    0.000
 6290.00    0.39608   0.57014    0.000
 6291.00    0.40334   0.57054    0.000
 6292.00    0.49672   0.57119    0.000
 6293.00    0.55819   0.57236    0.000
 6294.00    0.52056   0.57411    0.000
 6295.00    0.49678   0.57640    0.000
 6296.00    0.50954   0.57910    0.000
 6297.00    0.52647   0.58171    0.000
 6298.00    0.55283   0.58350    0.000
 6299.00    0.56935   0.58405    0.000
 6300.00    0.56656   0.58338    0.000
 6301.00    0.57985   0.58194    0.000
 6302.00    0.62063   0.58025    0.000
 6303.00    0.66448   0.57853    0.000
 6304.00    0.71296   0.57683    0.000
 6305.00    0.74511   0.57533    0.000
 6306.00    0.75579   0.57411    0.000
 6307.00    0.73734   0.57327    0.000
 6308.00    0.68511   0.57327    0.000
 6309.00    0.62621   0.57438    0.000
 6310.00    0.56048   0.57636    0.000
 6311.00    0.55509   0.57878    0.000
 6312.00    0.60411   0.58131    0.000
 6313.00    0.65265   0.58366    0.000
 6314.00    0.70081   0.58559    0.000
 6315.00    0.73283   0.58706    0.000
 6316.00    0.75356   0.58814    0.000
 6317.00    0.74819   0.58901    0.000
 6318.00    0.72682   0.58974    0.000
 6319.00    0.71257   0.59029    0.000
 6320.00    0.70214   0.59074    0.000
 6321.00    0.65244   0.59094    0.006
 6322.00    0.58448   0.59042    0.005
 6323.00    0.52033   0.58872    0.005
 6324.00    0.45770   0.58595    0.005
 6325.00    0.41290   0.58309    0.005
 6326.00    0.37419   0.58130    0.005
 6327.00    0.38806   0.58109    0.005
 6328.00    0.41704   0.58226    0.005
 6329.00    0.48799   0.58410    0.005
 6330.00    0.56890   0.58556    0.005
 6331.00    0.65152   0.58577    0.005
 6332.00    0.73446   0.58457    0.005
 6333.00    0.68491   0.58261    0.005
 6334.00    0.61571   0.58091    0.005
 6335.00    0.52595   0.58027    0.005
 6336.00    0.43395   0.58107    0.005
 6337.00    0.52385   0.58311    0.005
 6338.00    0.62670   0.58577    0.005
 6339.00    0.66675   0.58824    0.005
 6340.00    0.70453   0.58981    0.005
 6341.00    0.65050   0.59007    0.005
 6342.00    0.59670   0.58889    0.006
 6343.00    0.56296   0.58656    0.005
 6344.00    0.53140   0.58360    0.005
 6345.00    0.53470   0.58038    0.005
 6346.00    0.54453   0.57696    0.005
 6347.00    0.62009   0.57339    0.005
 6348.00    0.68460   0.56993    0.005
 6349.00    0.66930   0.56687    0.005
 6350.00    0.65021   0.56453    0.005
 6351.00    0.61024   0.56331    0.005
 6352.00    0.58859   0.56353    0.005
 6353.00    0.64796   0.56528    0.005
 6354.00    0.70360   0.56839    0.005
 6355.00    0.74561   0.57249    0.005
 6356.00    0.77837   0.57700    0.005
 6357.00    0.78295   0.58121    0.005
 6358.00    0.78548   0.58461    0.005
 6359.00    0.78269   0.58714    0.005
 6360.00    0.76121   0.58915    0.005
 6361.00    0.69810   0.59093    0.005
 6362.00    0.65004   0.59256    0.005
 6363.00    0.63106   0.59388    0.005
 6364.00    0.65444   0.59463    0.006
 6365.00    0.74915   0.59449    0.006
 6366.00    0.80210   0.59330    0.006
 6367.00    0.79341   0.59134    0.006
 6368.00    0.76550   0.58914    0.006
 6369.00    0.71265   0.58726    0.006
 6370.00    0.66909   0.58610    0.006
 6371.00    0.63615   0.58575    0.006
 6372.00    0.61717   0.58598    0.005
 6373.00    0.61227   0.58655    0.005
 6374.00    0.62242   0.58725    0.005
 6375.00    0.64596   0.58795    0.005
 6376.00    0.63439   0.58850    0.005
 6377.00    0.59530   0.58877    0.005
 6378.00    0.54860   0.58855    0.005
 6379.00    0.49664   0.58757    0.005
 6380.00    0.48277   0.58569    0.005
 6381.00    0.49191   0.58321    0.005
 6382.00    0.50384   0.58098    0.005
 6383.00    0.51726   0.57989    0.005
 6384.00    0.54443   0.58032    0.005
 6385.00    0.57789   0.58188    0.005
 6386.00    0.60789   0.58347    0.005
 6387.00    0.63653   0.58405    0.005
 6388.00    0.63985   0.58348    0.005
 6389.00    0.63468   0.58264    0.005
 6390.00    0.64662   0.58263    0.005
 6391.00    0.66339   0.58409    0.005
 6392.00    0.69346   0.58676    0.005
 6393.00    0.72662   0.58964    0.006
 6394.00    0.65552   0.59163    0.006
 6395.00    0.56499   0.59220    0.006
 6396.00    0.52895   0.59161    0.006
 6397.00    0.50074   0.59042    0.006
 6398.00    0.57396   0.58907    0.006
 6399.00    0.65773   0.58782    0.006
 6400.00    0.67386   0.58679    0.005
 6401.00    0.68544   0.58604    0.005
 6402.00    0.66040   0.58580    0.005
 6403.00    0.63417   0.58621    0.005
 6404.00    0.63098   0.58710    0.005
 6405.00    0.62735   0.58796    0.005
 6406.00    0.60952   0.58817    0.005
 6407.00    0.59116   0.58731    0.005
 6408.00    0.56502   0.58559    0.005
 6409.00    0.54066   0.58382    0.005
 6410.00    0.53360   0.58294    0.005
 6411.00    0.52459   0.58356    0.005
 6412.00    0.50198   0.58569    0.005
 6413.00    0.48402   0.58875    0.005
 6414.00    0.49111   0.59185    0.005
 6415.00    0.51236   0.59413    0.005
 6416.00    0.59481   0.59498    0.005
 6417.00    0.65764   0.59410    0.006
 6418.00    0.65067   0.59176    0.005
 6419.00    0.62590   0.58874    0.005
 6420.00    0.54795   0.58612    0.005
 6421.00    0.49381   0.58485    0.005
 6422.00    0.50028   0.58528    0.005
 6423.00    0.53790   0.58694    0.005
 6424.00    0.64375   0.58880    0.005
 6425.00    0.71368   0.58986    0.005
 6426.00    0.71537   0.58976    0.005
 6427.00    0.70344   0.58894    0.005
 6428.00    0.66895   0.58831    0.005
 6429.00    0.65120   0.58881    0.005
 6430.00    0.65781   0.59082    0.005
 6431.00    0.65256   0.59400    0.005
 6432.00    0.63213   0.59746    0.005
 6433.00    0.59249   0.60022    0.005
 6434.00    0.53122   0.60140    0.005
 6435.00    0.50301   0.60040    0.005
 6436.00    0.50765   0.59701    0.005
 6437.00    0.57596   0.59171    0.005
 6438.00    0.70006   0.58569    0.005
 6439.00    0.77823   0.58064    0.005
 6440.00    0.82093   0.57800    0.005
 6441.00    0.77578   0.57826    0.005
 6442.00    0.67100   0.58077    0.005
 6443.00    0.58210   0.58430    0.005
 6444.00    0.50267   0.58778    0.005
 6445.00    0.47250   0.59081    0.005
 6446.00    0.46791   0.59341    0.005
 6447.00    0.53012   0.59547    0.005
 6448.00    0.62239   0.59650    0.005
 6449.00    0.70916   0.59591    0.009
 6450.00    0.79382   0.59361    0.043
 6451.00    0.93362   0.59032   -1.000
 6452.00    1.09156   0.58740   -1.000
 6453.00    1.30357   0.58616   -1.000
 6454.00    1.53049   0.58707   -1.000
 6455.00    1.52793   0.58959   -1.000
 6456.00    1.47334   0.59257   -1.000
 6457.00    1.26834   0.59489   -1.000
 6458.00    1.03607   0.59597   -1.000
 6459.00    0.87752   0.59580   -1.000
 6460.00    0.72923   0.59479   -1.000
 6461.00    0.68353   0.59347   -1.000
 6462.00    0.64807   0.59226   -1.000
 6463.00    0.56455   0.59140    0.011
 6464.00    0.47799   0.59102    0.005
 6465.00    0.47766   0.59110    0.005
 6466.00    0.47994   0.59139    0.005
 6467.00    0.52042   0.59140    0.005
 6468.00    0.55850   0.59059    0.005
 6469.00    0.52990   0.58867    0.005
 6470.00    0.50124   0.58588    0.005
 6471.00    0.47177   0.58301    0.005
 6472.00    0.44414   0.58101    0.005
 6473.00    0.43364   0.58052    0.005
 6474.00    0.43481   0.58152    0.005
 6475.00    0.51507   0.58337    0.005
 6476.00    0.58511   0.58514    0.005
 6477.00    0.60161   0.58598    0.005
 6478.00    0.60325   0.58532    0.005
 6479.00    0.54212   0.58284    0.005
 6480.00    0.49419   0.57841    0.005
 6481.00    0.49235   0.57214    0.005
 6482.00    0.51137   0.56448    0.005
 6483.00    0.59162   0.55643    0.005
 6484.00    0.66638   0.54942    0.005
 6485.00    0.72742   0.54483    0.005
 6486.00    0.77083   0.54350    0.005
 6487.00    0.77624   0.54542    0.005
 6488.00    0.77700   0.54984    0.005
 6489.00    0.76906   0.55576    0.005
 6490.00    0.77444   0.56220    0.005
 6491.00    0.80156   0.56839    0.005
 6492.00    0.79891   0.57380    0.005
 6493.00    0.75359   0.57813    0.005
 6494.00    0.71320   0.58123    0.005
 6495.00    0.67902   0.58314    0.005
 6496.00    0.67636   0.58407    0.005
 6497.00    0.70871   0.58441    0.005
 6498.00    0.72985   0.58462    0.005
 6499.00    0.74001   0.58499    0.005
 6500.00    0.71351   0.58555    0.005
 6501.00    0.65535   0.58601    0.005
 6502.00    0.62449   0.58602    0.005
 6503.00    0.61440   0.58533    0.005
 6504.00    0.60089   0.58400    0.005
 6505.00    0.58508   0.58235    0.005
 6506.00    0.59574   0.58088    0.005
 6507.00    0.62190   0.58010    0.005
 6508.00    0.67132   0.58031    0.005
 6509.00    0.73262   0.58150    0.005
 6510.00    0.74834   0.58330    0.005
 6511.00    0.74390   0.58517    0.005
 6512.00    0.66915   0.58659    0.005
 6513.00    0.56769   0.58726    0.005
 6514.00    0.55158   0.58720    0.005
 6515.00    0.56303   0.58666    0.005
 6516.00    0.57896   0.58602    0.005
 6517.00    0.59611   0.58555    0.005
 6518.00    0.58445   0.58532    0.005
 6519.00    0.56642   0.58521    0.005
 6520.00    0.50737   0.58505    0.005
 6521.00    0.44110   0.58490    0.005
 6522.00    0.41446   0.58499    0.005
 6523.00    0.39315   0.58552    0.005
 6524.00    0.47585   0.58650    0.005
 6525.00    0.56848   0.58773    0.005
 6526.00    0.54971   0.58891    0.005
 6527.00    0.52435   0.58982    0.005
 6528.00    0.51362   0.59027    0.000
 6529.00    0.50344   0.59003    0.000
 6530.00    0.51912   0.58883    0.000
 6531.00    0.53622   0.58651    0.000
 6532.00    0.58900   0.58316    0.000
 6533.00    0.63863   0.57919    0.000
 6534.00    0.64609   0.57521    0.000
 6535.00    0.65457   0.57182    0.000
 6536.00    0.67210   0.56940    0.000
 6537.00    0.70497   0.56788    0.000
 6538.00    0.83845   0.56681    0.000
 6539.00    0.94475   0.56554    0.000
 6540.00    0.91218   0.56350    0.000
 6541.00    0.86654   0.56044    0.000
 6542.00    0.76701   0.55639    0.000
 6543.00    0.68531   0.55159    0.000
 6544.00    0.66457   0.54627    0.000
 6545.00    0.63450   0.54043    0.000
 6546.00    0.57759   0.53355    0.000
 6547.00    0.54789   0.52464    0.000
 6548.00    0.58512   0.51263    0.000
 6549.00    0.62455   0.49732    0.000
 6550.00    0.66865   0.48036    0.000
 6551.00    0.70925   0.46538    0.000
 6552.00    0.74341   0.45677    0.000
 6553.00    0.77942   0.45761    0.000
 6554.00    0.81841   0.46793    0.000
 6555.00    0.84127   0.48462    0.000
 6556.00    0.84135   0.50313    0.000
 6557.00    0.87705   0.51953    0.000
 6558.00    0.95702   0.53178    0.000
 6559.00    1.04016   0.53969    0.000
 6560.00    1.12676   0.54418    0.000
 6561.00    1.16626   0.54651    0.000
 6562.00    1.16026   0.54786    0.000
 6563.00    1.08431   0.54923    0.000
 6564.00    0.94878   0.55126    0.000
 6565.00    0.81111   0.55407    0.000
 6566.00    0.67182   0.55730    0.000
 6567.00    0.61798   0.56036    0.000
 6568.00    0.62045   0.56278    0.000
 6569.00    0.62337   0.56446    0.000
 6570.00    0.62656   0.56570    0.000
 6571.00    0.63799   0.56696    0.000
 6572.00    0.65358   0.56855    0.000
 6573.00    0.68612   0.57056    0.000
 6574.00    0.72604   0.57282    0.000
 6575.00    0.74139   0.57508    0.000
 6576.00    0.74758   0.57702    0.000
 6577.00    0.74711   0.57825    0.000
 6578.00    0.74453   0.57829    0.000
 6579.00    0.71027   0.57678    0.000
 6580.00    0.66761   0.57379    0.000
 6581.00    0.69460   0.57000    0.000
 6582.00    0.73665   0.56653    0.000
 6583.00    0.75337   0.56444    0.000
 6584.00    0.76575   0.56417    0.000
 6585.00    0.71451   0.56545    0.000
 6586.00    0.65500   0.56759    0.000
 6587.00    0.64572   0.56998    0.000
 6588.00    0.64103   0.57233    0.000
 6589.00    0.64530   0.57453    0.000
 6590.00    0.65007   0.57640    0.000
 6591.00    0.58331   0.57758    0.000
 6592.00    0.51597   0.57772    0.000
 6593.00    0.53788   0.57667    0.000
 6594.00    0.56071   0.57464    0.000
 6595.00    0.60476   0.57211    0.000
 6596.00    0.64735   0.56970    0.000
 6597.00    0.67144   0.56802    0.000
 6598.00    0.69290   0.56752    0.000
 6599.00    0.69173   0.56834    0.000
 6600.00    0.67769   0.57022    0.000
 6601.00    0.58182   0.57262    0.000
 6602.00    0.51055   0.57501    0.000
 6603.00    0.56182   0.57704    0.000
 6604.00    0.61038   0.57862    0.000
 6605.00    0.64799   0.57980    0.000
 6606.00    0.66785   0.58062    0.000
 6607.00    0.62823   0.58108    0.000
 6608.00    0.60749   0.58114    0.000
 6609.00    0.64017   0.58069    0.005
 6610.00    0.66850   0.57957    0.005
 6611.00    0.68629   0.57771    0.005
 6612.00    0.69198   0.57531    0.005
 6613.00    0.67243   0.57283    0.005
 6614.00    0.64744   0.57083    0.005
 6615.00    0.61256   0.56968    0.005
 6616.00    0.61163   0.56933    0.005
 6617.00    0.66455   0.56938    0.005
 6618.00    0.70103   0.56931    0.005
 6619.00    0.71465   0.56877    0.005
 6620.00    0.71509   0.56772    0.005
 6621.00    0.69941   0.56641    0.005
 6622.00    0.72795   0.56532    0.005
 6623.00    0.80426   0.56489    0.005
 6624.00    0.87726   0.56534    0.005
 6625.00    0.94711   0.56654    0.005
 6626.00    0.94332   0.56805    0.005
 6627.00    0.87769   0.56939    0.005
 6628.00    0.80966   0.57020    0.005
 6629.00    0.73987   0.57036    0.005
 6630.00    0.67577   0.56998    0.005
 6631.00    0.61537   0.56925    0.005
 6632.00    0.52769   0.56848    0.005
 6633.00    0.42452   0.56797    0.005
 6634.00    0.39168   0.56789    0.005
 6635.00    0.39364   0.56819    0.005
 6636.00    0.44212   0.56863    0.005
 6637.00    0.51049   0.56888    0.005
 6638.00    0.55384   0.56873    0.005
 6639.00    0.58801   0.56816    0.005
 6640.00    0.58158   0.56729    0.005
 6641.00    0.56254   0.56636    0.005
 6642.00    0.55531   0.56561    0.005
 6643.00    0.55115   0.56514    0.005
 6644.00    0.59865   0.56492    0.005
 6645.00    0.65706   0.56482    0.005
 6646.00    0.66093   0.56465    0.005
 6647.00    0.65572   0.56424    0.005
 6648.00    0.61380   0.56342    0.005
 6649.00    0.56728   0.56213    0.005
 6650.00    0.62345   0.56044    0.005
 6651.00    0.68856   0.55860    0.005
 6652.00    0.70232   0.55696    0.005
 6653.00    0.71345   0.55591    0.005
 6654.00    0.70739   0.55568    0.005
 6655.00    0.70037   0.55633    0.005
 6656.00    0.64647   0.55777    0.005
 6657.00    0.59383   0.55984    0.005
 6658.00    0.56779   0.56227    0.005
 6659.00    0.54650   0.56465    0.005
 6660.00    0.58253   0.56653    0.005
 6661.00    0.60962   0.56740    0.005
 6662.00    0.56287   0.56682    0.005
 6663.00    0.51472   0.56450    0.005
 6664.00    0.45792   0.56044    0.005
 6665.00    0.41503   0.55513    0.005
 6666.00    0.43971   0.54965    0.005
 6667.00    0.47200   0.54533    0.005
 6668.00    0.53440   0.54325    0.005
 6669.00    0.58279   0.54366    0.005
 6670.00    0.58518   0.54600    0.005
 6671.00    0.60022   0.54925    0.005
 6672.00    0.65041   0.55245    0.005
 6673.00    0.69753   0.55506    0.005
 6674.00    0.73738   0.55690    0.005
 6675.00    0.74357   0.55807    0.005
 6676.00    0.68064   0.55877    0.005
 6677.00    0.61615   0.55924    0.005
 6678.00    0.54887   0.55964    0.005
 6679.00    0.52299   0.55999    0.005
 6680.00    0.56179   0.56016    0.005
 6681.00    0.61444   0.56000    0.005
 6682.00    0.68609   0.55938    0.005
 6683.00    0.72340   0.55832    0.005
 6684.00    0.71922   0.55705    0.005
 6685.00    0.70848   0.55597    0.005
 6686.00    0.69076   0.55547    0.005
 6687.00    0.65177   0.55575    0.005
 6688.00    0.59281   0.55671    0.005
 6689.00    0.59440   0.55793    0.005
 6690.00    0.64610   0.55894    0.005
 6691.00    0.67618   0.55945    0.005
 6692.00    0.69048   0.55945    0.005
 6693.00    0.66738   0.55921    0.005
 6694.00    0.62035   0.55903    0.005
 6695.00    0.59555   0.55906    0.005
 6696.00    0.58319   0.55921    0.000
 6697.00    0.57649   0.55926    0.000
 6698.00    0.57253   0.55897    0.000
 6699.00    0.54826   0.55821    0.000
 6700.00    0.51543   0.55688    0.000
 6701.00    0.56458   0.55495    0.000
 6702.00    0.64324   0.55236    0.000
 6703.00    0.70272   0.54923    0.000
 6704.00    0.75635   0.54590    0.000
 6705.00    0.71492   0.54290    0.000
 6706.00    0.64941   0.54082    0.000
 6707.00    0.64448   0.54007    0.000
 6708.00    0.65203   0.54065    0.000
 6709.00    0.67001   0.54220    0.000
 6710.00    0.68969   0.54418    0.000
 6711.00    0.65890   0.54610    0.000
 6712.00    0.62201   0.54766    0.000
 6713.00    0.64344   0.54878    0.000
 6714.00    0.66971   0.54955    0.000
 6715.00    0.67571   0.55014    0.000
 6716.00    0.68075   0.55076    0.000
 6717.00    0.68168   0.55149    0.000
 6718.00    0.68199   0.55229    0.000
 6719.00    0.64981   0.55300    0.000
 6720.00    0.62307   0.55347    0.000
 6721.00    0.70237   0.55366    0.000
 6722.00    0.78051   0.55362    0.000
 6723.00    0.84552   0.55342    0.000
 6724.00    0.89656   0.55307    0.000
 6725.00    0.83635   0.55252    0.000
 6726.00    0.77497   0.55173    0.000
 6727.00    0.70657   0.55077    0.000
 6728.00    0.64992   0.54979    0.000
 6729.00    0.64902   0.54893    0.000
 6730.00    0.63790   0.54826    0.000
 6731.00    0.58731   0.54776    0.000
 6732.00    0.55103   0.54736    0.000
 6733.00    0.56078   0.54698    0.000
 6734.00    0.57070   0.54656    0.000
 6735.00    0.58108   0.54601    0.000
 6736.00    0.58481   0.54530    0.000
 6737.00    0.57301   0.54446    0.000
 6738.00    0.58069   0.54362    0.000
 6739.00    0.62773   0.54293    0.000
 6740.00    0.68319   0.54257    0.000
 6741.00    0.75344   0.54272    0.000
 6742.00    0.78203   0.54353    0.000
 6743.00    0.74647   0.54509    0.000
 6744.00    0.68595   0.54728    0.000
 6745.00    0.59168   0.54985    0.000
 6746.00    0.55635   0.55241    0.000
 6747.00    0.59119   0.55457    0.000
 6748.00    0.59540   0.55610    0.000
 6749.00    0.56746   0.55691    0.000
 6750.00    0.55905   0.55706    0.000
 6751.00    0.56873   0.55668    0.000
 6752.00    0.60131   0.55586    0.000
 6753.00    0.65258   0.55470    0.005
 6754.00    0.69484   0.55329    0.006
 6755.00    0.73063   0.55181    0.006
 6756.00    0.69083   0.55052    0.006
 6757.00    0.60337   0.54968    0.006
 6758.00    0.53319   0.54946    0.006
 6759.00    0.47253   0.54992    0.006
 6760.00    0.49981   0.55101    0.006
 6761.00    0.56923   0.55266    0.006
 6762.00    0.63590   0.55470    0.006
 6763.00    0.70143   0.55689    0.006
 6764.00    0.75427   0.55890    0.006
 6765.00    0.80262   0.56043    0.006
 6766.00    0.72435   0.56125    0.006
 6767.00    0.60828   0.56116    0.006
 6768.00    0.60648   0.56002    0.006
 6769.00    0.63298   0.55774    0.006
 6770.00    0.63163   0.55445    0.006
 6771.00    0.62470   0.55056    0.006
 6772.00    0.58227   0.54675    0.006
 6773.00    0.53426   0.54377    0.006
 6774.00    0.52786   0.54218    0.005
 6775.00    0.52630   0.54206    0.005
 6776.00    0.52923   0.54304    0.005
 6777.00    0.53251   0.54453    0.005
 6778.00    0.59307   0.54593    0.005
 6779.00    0.65613   0.54689    0.005
 6780.00    0.66815   0.54733    0.005
 6781.00    0.67868   0.54740    0.006
 6782.00    0.64451   0.54733    0.006
 6783.00    0.60939   0.54737    0.006
 6784.00    0.55720   0.54769    0.005
 6785.00    0.50733   0.54835    0.005
 6786.00    0.48273   0.54929    0.006
 6787.00    0.46918   0.55040    0.006
 6788.00    0.54061   0.55154    0.006
 6789.00    0.60961   0.55259    0.006
 6790.00    0.66446   0.55342    0.006
 6791.00    0.70288   0.55393    0.006
 6792.00    0.66531   0.55410    0.006
 6793.00    0.63493   0.55399    0.006
 6794.00    0.63166   0.55370    0.006
 6795.00    0.61167   0.55337    0.005
 6796.00    0.53887   0.55309    0.005
 6797.00    0.49343   0.55290    0.005
 6798.00    0.52128   0.55277    0.005
 6799.00    0.55840   0.55264    0.005
 6800.00    0.61686   0.55244    0.005
 6801.00    0.64766   0.55211    0.005
 6802.00    0.62347   0.55172    0.005
 6803.00    0.61292   0.55137    0.005
 6804.00    0.62599   0.55125    0.005
 6805.00    0.63742   0.55141    0.005
 6806.00    0.64637   0.55181    0.005
 6807.00    0.66827   0.55233    0.005
 6808.00    0.70743   0.55288    0.005
 6809.00    0.72500   0.55350    0.005
 6810.00    0.71722   0.55425    0.006
 6811.00    0.71669   0.55513    0.006
 6812.00    0.72367   0.55594    0.006
 6813.00    0.75436   0.55642    0.006
 6814.00    0.80672   0.55636    0.006
 6815.00    0.77533   0.55574    0.006
 6816.00    0.67656   0.55477    0.006
 6817.00    0.63217   0.55381    0.005
 6818.00    0.62628   0.55317    0.005
 6819.00    0.63605   0.55302    0.005
 6820.00    0.65554   0.55333    0.005
 6821.00    0.66618   0.55396    0.005
 6822.00    0.67202   0.55472    0.005
 6823.00    0.64951   0.55540    0.005
 6824.00    0.61363   0.55572    0.005
 6825.00    0.58489   0.55541    0.005
 6826.00    0.55906   0.55429    0.005
 6827.00    0.54579   0.55239    0.005
 6828.00    0.53688   0.55006    0.005
 6829.00    0.61424   0.54785    0.005
 6830.00    0.71684   0.54639    0.006
 6831.00    0.71912   0.54608    0.006
 6832.00    0.69709   0.54695    0.006
 6833.00    0.67627   0.54866    0.006
 6834.00    0.65567   0.55064    0.006
 6835.00    0.65625   0.55232    0.006
 6836.00    0.66006   0.55338    0.005
 6837.00    0.67048   0.55375    0.006
 6838.00    0.68166   0.55353    0.006
 6839.00    0.69388   0.55287    0.006
 6840.00    0.70618   0.55190    0.006
 6841.00    0.64659   0.55065    0.006
 6842.00    0.58413   0.54920    0.005
 6843.00    0.54915   0.54769    0.005
 6844.00    0.51857   0.54634    0.005
 6845.00    0.65603   0.54535    0.005
 6846.00    0.78296   0.54476    0.005
 6847.00    0.73196   0.54447    0.005
 6848.00    0.68795   0.54437    0.005
 6849.00    0.71696   0.54448    0.005
 6850.00    0.74083   0.54498    0.005
 6851.00    0.72644   0.54598    0.005
 6852.00    0.71143   0.54733    0.005
 6853.00    0.69288   0.54859    0.005
 6854.00    0.67741   0.54928    0.005
 6855.00    0.67588   0.54917    0.005
 6856.00    0.66065   0.54843    0.005
 6857.00    0.59470   0.54748    0.005
 6858.00    0.54684   0.54671    0.005
 6859.00    0.55500   0.54630    0.005
 6860.00    0.57047   0.54630    0.005
 6861.00    0.60518   0.54667    0.005
 6862.00    0.62086   0.54745    0.005
 6863.00    0.59353   0.54867    0.005
 6864.00    0.58240   0.55026    0.005
 6865.00    0.60298   0.55200    0.005
 6866.00    0.62353   0.55354    0.005
 6867.00    0.64402   0.55449    0.005
 6868.00    0.63126   0.55456    0.005
 6869.00    0.56880   0.55374    0.005
 6870.00    0.52478   0.55235    0.005
 6871.00    0.50497   0.55095    0.005
 6872.00    0.52778   0.55008    0.005
 6873.00    0.59991   0.55007    0.005
 6874.00    0.62504   0.55093    0.005
 6875.00    0.60222   0.55242    0.005
 6876.00    0.56386   0.55422    0.005
 6877.00    0.51150   0.55602    0.005
 6878.00    0.46380   0.55759    0.005
 6879.00    0.41980   0.55878    0.005
 6880.00    0.41373   0.55952    0.005
 6881.00    0.43411   0.55983    0.005
 6882.00    0.46384   0.55983    0.005
 6883.00    0.49928   0.55965    0.005
 6884.00    0.47331   0.55944    0.005
 6885.00    0.41452   0.55929    0.005
 6886.00    0.40106   0.55923    0.005
 6887.00    0.40862   0.55926    0.005
 6888.00    0.45493   0.55940    0.005
 6889.00    0.51673   0.55969    0.005
 6890.00    0.49458   0.56018    0.005
 6891.00    0.44381   0.56088    0.005
 6892.00    0.46928   0.56170    0.005
 6893.00    0.51661   0.56261    0.005
 6894.00    0.51946   0.56355    0.005
 6895.00    0.51177   0.56448    0.005
 6896.00    0.55874   0.56525    0.005
 6897.00    0.61613   0.56566    0.005
 6898.00    0.55379   0.56550    0.005
 6899.00    0.47376   0.56470    0.005
 6900.00    0.52392   0.56337    0.005
 6901.00    0.58812   0.56178    0.005
 6902.00    0.56033   0.56031    0.005
 6903.00    0.52605   0.55927    0.005
 6904.00    0.53232   0.55884    0.005
 6905.00    0.54005   0.55901    0.005
 6906.00    0.59148   0.55962    0.005
 6907.00    0.64157   0.56046    0.005
 6908.00    0.64049   0.56126    0.005
 6909.00    0.63824   0.56174    0.005
 6910.00    0.61741   0.56166    0.005
 6911.00    0.59781   0.56091    0.005
 6912.00    0.59045   0.55968    0.005
 6913.00    0.57520   0.55839    0.005
 6914.00    0.50332   0.55759    0.005
 6915.00    0.43327   0.55763    0.005
 6916.00    0.37326   0.55848    0.005
 6917.00    0.32198   0.55976    0.005
 6918.00    0.30917   0.56097    0.005
 6919.00    0.31263   0.56174    0.005
 6920.00    0.37509   0.56200    0.005
 6921.00    0.43214   0.56197    0.005
 6922.00    0.47276   0.56196    0.005
 6923.00    0.49849   0.56220    0.005
 6924.00    0.48573   0.56275    0.005
 6925.00    0.47661   0.56352    0.005
 6926.00    0.47556   0.56439    0.005
 6927.00    0.47300   0.56521    0.005
 6928.00    0.46754   0.56582    0.005
 6929.00    0.46751   0.56604    0.005
 6930.00    0.47659   0.56570    0.005
 6931.00    0.50783   0.56482    0.005
 6932.00    0.57171   0.56367    0.005
 6933.00    0.59404   0.56271    0.005
 6934.00    0.56256   0.56238    0.005
 6935.00    0.54313   0.56282    0.005
 6936.00    0.53745   0.56377    0.005
 6937.00    0.53786   0.56473    0.005
 6938.00    0.54441   0.56518    0.006
 6939.00    0.57974   0.56492    0.006
 6940.00    0.64062   0.56411    0.005
 6941.00    0.62682   0.56318    0.005
 6942.00    0.55464   0.56263    0.005
 6943.00    0.54543   0.56277    0.005
 6944.00    0.57952   0.56361    0.005
 6945.00    0.58974   0.56495    0.005
 6946.00    0.58557   0.56645    0.005
 6947.00    0.57179   0.56784    0.005
 6948.00    0.55296   0.56899    0.005
 6949.00    0.50663   0.56988    0.005
 6950.00    0.44773   0.57058    0.005
 6951.00    0.45326   0.57113    0.005
 6952.00    0.48410   0.57156    0.005
 6953.00    0.51617   0.57191    0.005
 6954.00    0.54866   0.57226    0.005
 6955.00    0.61146   0.57266    0.005
 6956.00    0.68278   0.57305    0.005
 6957.00    0.55572   0.57334    0.005
 6958.00    0.38275   0.57339    0.005
 6959.00    0.39012   0.57311    0.005
 6960.00    0.43097   0.57245    0.005
 6961.00    0.48219   0.57134    0.005
 6962.00    0.53490   0.56960    0.005
 6963.00    0.59917   0.56706    0.005
 6964.00    0.66465   0.56372    0.006
 6965.00    0.59055   0.55996    0.005
 6966.00    0.50714   0.55658    0.005
 6967.00    0.46177   0.55451    0.005
 6968.00    0.41764   0.55446    0.005
 6969.00    0.46966   0.55656    0.005
 6970.00    0.51684   0.56026    0.005
 6971.00    0.41539   0.56460    0.005
 6972.00    0.32068   0.56858    0.005
 6973.00    0.32629   0.57147    0.005
 6974.00    0.34063   0.57300    0.005
 6975.00    0.43886   0.57322    0.005
 6976.00    0.52282   0.57251    0.005
 6977.00    0.50752   0.57137    0.005
 6978.00    0.49496   0.57034    0.005
 6979.00    0.49713   0.56979    0.005
 6980.00    0.51623   0.56980    0.005
 6981.00    0.60825   0.57020    0.006
 6982.00    0.68617   0.57066    0.006
 6983.00    0.71403   0.57093    0.005
 6984.00    0.71515   0.57083    0.005
 6985.00    0.63653   0.57035    0.005
 6986.00    0.58934   0.56956    0.005
 6987.00    0.62201   0.56861    0.005
 6988.00    0.63544   0.56774    0.005
 6989.00    0.60680   0.56714    0.005
 6990.00    0.55223   0.56687    0.005
 6991.00    0.44849   0.56683    0.005
 6992.00    0.41297   0.56683    0.005
 6993.00    0.49039   0.56681    0.005
 6994.00    0.50696   0.56685    0.005
 6995.00    0.43520   0.56710    0.005
 6996.00    0.43116   0.56764    0.005
 6997.00    0.51356   0.56838    0.005
 6998.00    0.53162   0.56911    0.005
 6999.00    0.47734   0.56956    0.005
 7000.00    0.45038   0.56948    0.005
 7001.00    0.45055   0.56869    0.005
 7002.00    0.54746   0.56722    0.005
 7003.00    0.72902   0.56539    0.006
 7004.00    0.73062   0.56385    0.006
 7005.00    0.59350   0.56329    0.005
 7006.00    0.51369   0.56410    0.005
 7007.00    0.47271   0.56604    0.005
 7008.00    0.43761   0.56833    0.005
 7009.00    0.40600   0.57006    0.005
 7010.00    0.34322   0.57062    0.005
 7011.00    0.26431   0.57003    0.005
 7012.00    0.33640   0.56882    0.005
 7013.00    0.47628   0.56770    0.005
 7014.00    0.58849   0.56725    0.005
 7015.00    0.69002   0.56765    0.005
 7016.00    0.56406   0.56875    0.005
 7017.00    0.36343   0.57025    0.005
 7018.00    0.29412   0.57180    0.005
 7019.00    0.26093   0.57315    0.005
 7020.00    0.38511   0.57415    0.005
 7021.00    0.54487   0.57475    0.006
 7022.00    0.52965   0.57493    0.006
 7023.00    0.48282   0.57472    0.006
 7024.00    0.46172   0.57424    0.006
 7025.00    0.44419   0.57371    0.005
 7026.00    0.47317   0.57360    0.005
 7027.00    0.50676   0.57441    0.005
 7028.00    0.52465   0.57642    0.005
 7029.00    0.54155   0.57945    0.005
 7030.00    0.54895   0.58287    0.005
 7031.00    0.55615   0.58590    0.005
 7032.00    0.58272   0.58810    0.005
 7033.00    0.60422   0.58943    0.005
 7034.00    0.48631   0.59021    0.005
 7035.00    0.38011   0.59069    0.005
 7036.00    0.43820   0.59076    0.005
 7037.00    0.49370   0.58998    0.005
 7038.00    0.52525   0.58777    0.005
 7039.00    0.55435   0.58376    0.005
 7040.00    0.56695   0.57810    0.006
 7041.00    0.56665   0.57145    0.006
 7042.00    0.49894   0.56480    0.005
 7043.00    0.47441   0.55910    0.005
 7044.00    0.63168   0.55489    0.006
 7045.00    0.74880   0.55213    0.006
 7046.00    0.72627   0.55036    0.006
 7047.00    0.70884   0.54902    0.006
 7048.00    0.70633   0.54778    0.006
 7049.00    0.67650   0.54660    0.006
 7050.00    0.57848   0.54562   -2.000
 7051.00    0.53528   0.54492   -2.000
 7052.00    0.60999   0.54438   -2.000
 7053.00    0.64998   0.54382   -2.000
 7054.00    0.62511   0.54317   -2.000
 7055.00    0.65833   0.54262   -2.000
 7056.00    0.78626   0.54256   -2.000
 7057.00    0.82470   0.54339   -2.000
 7058.00    0.73512   0.54529   -2.000
 7059.00    0.65426   0.54802   -2.000
 7060.00    0.58437   0.55110   -2.000
 7061.00    0.57212   0.55398   -2.000
 7062.00    0.62379   0.55630   -2.000
 7063.00    0.59714   0.55795   -2.000
 7064.00    0.49390   0.55904   -2.000
 7065.00    0.49859   0.55976   -2.000
 7066.00    0.59640   0.56021   -2.000
 7067.00    0.61225   0.56032   -2.000
 7068.00    0.56584   0.55984   -2.000
 7069.00    0.51633   0.55843   -2.000
 7070.00    0.46476   0.55584   -2.000
 7071.00    0.49726   0.55207   -2.000
 7072.00    0.57892   0.54739   -2.000
 7073.00    0.66731   0.54231   -2.000
 7074.00    0.75912   0.53730   -2.000
 7075.00    0.72776   0.53273   -2.000
 7076.00    0.64201   0.52885   -2.000
 7077.00    0.58518   0.52580   -2.000
 7078.00    0.53933   0.52367   -2.000
 7079.00    0.54078   0.52245   -2.000
 7080.00    0.55746   0.52198   -2.000
 7081.00    0.54802   0.52204   -2.000
 7082.00    0.53155   0.52240   -2.000
 7083.00    0.55056   0.52298   -2.000
 7084.00    0.57741   0.52380   -2.000
 7085.00    0.65113   0.52493   -2.000
 7086.00    0.73308   0.52632   -2.000
 7087.00    0.69649   0.52780   -2.000
 7088.00    0.64403   0.52913   -2.000
 7089.00    0.62985   0.53012   -2.000
 7090.00    0.61932   0.53079   -2.000
 7091.00    0.66281   0.53130   -2.000
 7092.00    0.70948   0.53187   -2.000
 7093.00    0.64052   0.53257   -2.000
 7094.00    0.56950   0.53329   -2.000
 7095.00    0.60504   0.53382   -2.000
 7096.00    0.64349   0.53396   -2.000
 7097.00    0.75423   0.53366   -2.000
 7098.00    0.85923   0.53310   -2.000
 7099.00    0.88807   0.53261   -2.000
 7100.00    0.88652   0.53251   -2.000
 7101.00    0.61569   0.53305   -2.000
 7102.00    0.38591   0.53421   -2.000
 7103.00    0.42438   0.53577   -2.000
 7104.00    0.46611   0.53742   -2.000
 7105.00    0.52451   0.53884   -2.000
 7106.00    0.57684   0.53984   -2.000
 7107.00    0.60425   0.54032   -2.000
 7108.00    0.63496   0.54027   -2.000
 7109.00    0.67694   0.53965   -2.000
 7110.00    0.68871   0.53838   -2.000
 7111.00    0.61367   0.53634   -2.000
 7112.00    0.56634   0.53350   -2.000
 7113.00    0.58696   0.52995   -2.000
 7114.00    0.60310   0.52600   -2.000
 7115.00    0.60974   0.52207   -2.000
 7116.00    0.58433   0.51860   -2.000
 7117.00    0.50002   0.51589   -2.000
 7118.00    0.43800   0.51412   -2.000
 7119.00    0.41179   0.51336   -2.000
 7120.00    0.48131   0.51363   -2.000
 7121.00    0.68577   0.51479   -2.000
 7122.00    0.82139   0.51656   -2.000
 7123.00    0.87163   0.51852   -2.000
 7124.00    0.84100   0.52028   -2.000
 7125.00    0.72196   0.52160   -2.000
 7126.00    0.67375   0.52249   -2.000
 7127.00    0.69386   0.52315   -2.000
 7128.00    0.82013   0.52379   -2.000
 7129.00    1.03667   0.52453   -2.000
 7130.00    1.00667   0.52533   -2.000
 7131.00    0.79204   0.52597   -2.000
 7132.00    0.69997   0.52623   -2.000
 7133.00    0.68853   0.52593   -2.000
 7134.00    0.62681   0.52512   -2.000
 7135.00    0.53612   0.52405   -2.000
 7136.00    0.58171   0.52313   -2.000
 7137.00    0.69567   0.52285   -2.000
 7138.00    0.76438   0.52352   -2.000
 7139.00    0.81345   0.52517   -2.000
 7140.00    0.74241   0.52753   -2.000
 7141.00    0.62664   0.53015   -2.000
 7142.00    0.61928   0.53257   -2.000
 7143.00    0.64617   0.53448   -2.000
 7144.00    0.63972   0.53574   -2.000
 7145.00    0.62448   0.53629   -2.000
 7146.00    0.54810   0.53621   -2.000
 7147.00    0.45853   0.53559   -2.000
 7148.00    0.35925   0.53460   -2.000
 7149.00    0.25831   0.53339   -2.000
 7150.00    0.34348   0.53211   -2.000
 7151.00    0.45275   0.53089   -2.000
 7152.00    0.33890   0.52996   -2.000
 7153.00    0.20480   0.52958   -2.000
 7154.00    0.39857   0.52997   -2.000
 7155.00    0.61027   0.53118   -2.000
 7156.00    0.62296   0.53304   -2.000
 7157.00    0.63081   0.53520   -2.000
 7158.00    0.57784   0.53734   -2.000
 7159.00    0.53557   0.53921   -2.000
 7160.00    0.73621   0.54067   -2.000
 7161.00    0.93167   0.54160   -2.000
 7162.00    1.06192   0.54195   -2.000
 7163.00    1.13882   0.54177   -2.000
 7164.00    0.76061   0.54118   -2.000
 7165.00    0.40954   0.54031   -2.000
 7166.00    0.23045   0.53931   -2.000
 7167.00    0.16671   0.53830   -2.000
 7168.00    0.67577   0.53752   -2.000
 7169.00    1.07906   0.53718   -2.000
 7170.00    1.05664   0.53739   -2.000
 7171.00    0.97520   0.53796   -2.000
 7172.00    0.69657   0.53841   -2.000
 7173.00    0.46960   0.53820   -2.000
 7174.00    0.38837   0.53706   -2.000
 7175.00    0.38470   0.53522   -2.000
 7176.00    0.56810   0.53331   -2.000
 7177.00    0.66623   0.53204   -2.000
 7178.00    0.58679   0.53184   -2.000
 7179.00    0.55333   0.53271   -2.000
 7180.00    0.60314   0.53424   -2.000
 7181.00    0.64044   0.53592   -2.000
 7182.00    0.65794   0.53729   -2.000
 7183.00    0.59739   0.53814   -2.000
 7184.00    0.42841   0.53845   -2.000
 7185.00    0.45586   0.53836   -2.000
 7186.00    0.72351   0.53811   -2.000
 7187.00    0.78615   0.53788   -2.000
 7188.00    0.62779   0.53781   -2.000
 7189.00    0.52812   0.53790   -2.000
 7190.00    0.48424   0.53806   -2.000
 7191.00    0.52169   0.53807   -2.000
 7192.00    0.62731   0.53767   -2.000
 7193.00    0.65057   0.53668   -2.000
 7194.00    0.61303   0.53520   -2.000
 7195.00    0.56899   0.53363   -2.000
 7196.00    0.52074   0.53257   -2.000
 7197.00    0.42684   0.53251   -2.000
 7198.00    0.30704   0.53353   -2.000
 7199.00    0.49583   0.53530   -2.000
 7200.00    0.83702   0.53726   -2.000
 7201.00    1.00303   0.53901   -2.000
 7202.00    1.09424   0.54041   -2.000
 7203.00    0.89779   0.54162   -2.000
 7204.00    0.59609   0.54287   -2.000
 7205.00    0.47770   0.54427   -2.000
 7206.00    0.41610   0.54571   -2.000
 7207.00    0.42219   0.54700   -2.000
 7208.00    0.44574   0.54800   -2.000
 7209.00    0.43764   0.54875   -2.000
 7210.00    0.42288   0.54942   -2.000
 7211.00    0.60567   0.55025   -2.000
 7212.00    0.82126   0.55136   -2.000
 7213.00    0.71491   0.55268   -2.000
 7214.00    0.56834   0.55403   -2.000
 7215.00    0.61880   0.55520   -2.000
 7216.00    0.68633   0.55615   -2.000
 7217.00    0.63132   0.55694   -2.000
 7218.00    0.57009   0.55774   -2.000
