###################################################################
## OUTPUT of StarlightChains_v04.for    [Cid@UFSC - 01/Apr/2007] ##
###################################################################

## Some input info
KUG0210-078._13_15.txt                   [arq_obs]
Base.CB07.vall.4m                        [arq_base]
Masks.EmLines.NEW.gm                     [arq_masks]
StCv04.C11.config                        [arq_config]
   66                                    [N_base]
    0                                    [N_YAV_components = # of components with extra extinction!]
    0                                    [i_FitPowerLaw (1/0 = Yes/No)]
-9.99                                    [alpha_PowerLaw]
CCM                                      [red_law_option]
 1.458241                                [q_norm = A(l_norm)/A(V)]

## (Re)Sampling Parameters
 3741.00                                 [l_ini (A)]
 7218.00                                 [l_fin (A)]
    1.00                                 [dl    (A)]     (OBS: dl_cushion =    50.00 A)

## Normalization info
 4020.00                                 [l_norm (A) - for base]
 4010.00                                 [llow_norm (A) - window for f_obs]
 4060.00                                 [lupp_norm (A) - window for f_obs]
1.357504E-18                             [fobs_norm (in input units)]

## S/N
 3691.00                                 [llow_SN (A) - window for S/N]
 7268.00                                 [lupp_SN (A) - window for S/N]
   2.880                                 [S/N in S/N window]
   0.773                                 [S/N in norm. window]
   0.006                                 [S/N_err in S/N window]
   0.002                                 [S/N_err in norm. window]
  1.0000                                 [fscale_chi2]

## etc...
    -2007217                             [idum_orig]
  2320                                   [NOl_eff]
  2314                                   [Nl_eff]
     6    NSIGMA                         [Ntot_cliped & clip_method]
   440580                                [Nglobal_steps]
   7                                     [N_chains]
  15                                     [NEX0s_base = N_base in EX0s-fits]
 0   0   1        6   2.0   1.392E+02    [Clip-Bug, RC-Crash & Burn-In warning-flags, n_censored_weights, wei_nsig_threshold & wei_limit]
    14     13.970     13.597      0.374  [idt_all, wdt_TotTime, wdt_UsrTime & wdt_SysTime (sec)]

## Synthesis Results - Best model ##

 1.15866E-05                             [chi2/Nl_eff]
    82.65352                             [adev (%)]

   130.00000                             [sum-of-x (%)]
 5.77141E-18                             [Flux_tot (units of input spectrum!)]
 1.22708E-12                             [Mini_tot (???)]
 6.07553E-13                             [Mcor_tot (???)]

 133.25                                  [v0_min  (km/s)]
 111.56                                  [vd_min  (km/s)]
 0.8822                                  [AV_min  (mag)]
 0.0000                                  [YAV_min (mag)]

# j     x_j(%)      Mini_j(%)     Mcor_j(%)     age_j(yr)     Z_j      (L/M)_j    YAV?  Mstars   component_j        a/Fe...       SSP_chi2r SSP_adev(%)   SSP_AV   SSP_x(%)
  1      0.0000     0.0000E+00    0.0000E+00    1.000000E+06  0.00400  1.094E-02    0   1.0000   age020_m42            0.0000     5.9921E-06   159.7428   3.5204   296.0522
  2      0.0000     0.0000E+00    0.0000E+00    3.160000E+06  0.00400  4.007E-02    0   0.9999   age045_m42            0.0000     6.2520E-06   163.1470   2.8115   313.9010
  3      0.0000     0.0000E+00    0.0000E+00    5.010000E+06  0.00400  2.539E-02    0   0.9488   age055_m42            0.0000     6.1629E-06   161.4073   3.1255   307.0903
  4      0.0000     0.0000E+00    0.0000E+00    6.610000E+06  0.00400  2.620E-02    0   0.9220   age061_m42            0.0000     6.3182E-06   162.6491   2.7420   314.0871
  5      0.0000     0.0000E+00    0.0000E+00    1.000000E+07  0.00400  1.322E-02    0   0.8862   age070_m42            0.0000     6.5444E-06   164.5142   2.4620   320.6770
  6      0.0000     0.0000E+00    0.0000E+00    1.445000E+07  0.00400  7.883E-03    0   0.8571   age078_m42            0.0000     6.4477E-06   163.6738   2.7841   313.1981
  7      0.0000     0.0000E+00    0.0000E+00    2.512000E+07  0.00400  5.251E-03    0   0.8174   age090_m42            0.0000     6.6261E-06   165.1905   2.3341   322.2150
  8      0.0000     0.0000E+00    0.0000E+00    4.000000E+07  0.00400  3.649E-03    0   0.7851   age104_m42            0.0000     6.6201E-06   165.1234   2.1102   324.5267
  9      0.0000     0.0000E+00    0.0000E+00    5.500000E+07  0.00400  3.098E-03    0   0.7629   age110_m42            0.0000     6.5818E-06   164.7086   2.2660   324.0043
 10      0.0000     0.0000E+00    0.0000E+00    1.015200E+08  0.00400  2.228E-03    0   0.7207   age116_m42            0.0000     6.5905E-06   164.1733   2.2912   323.8537
 11      0.0000     0.0000E+00    0.0000E+00    2.861200E+08  0.00400  1.093E-03    0   0.6648   age125_m42            0.0000     6.7830E-06   165.1665   1.7212   333.1947
 12      0.0000     0.0000E+00    0.0000E+00    5.088000E+08  0.00400  6.597E-04    0   0.6365   age130_m42            0.0000     6.7209E-06   163.9743   1.7170   335.2065
 13      0.0000     0.0000E+00    0.0000E+00    1.434000E+09  0.00400  2.132E-04    0   0.5798   age139_m42            0.0000     6.5094E-06   161.5321   0.7444   342.8536
 14      0.1232     7.5622E-03    8.2125E-03    4.250000E+09  0.00400  5.895E-05    0   0.5377   age158_m42            0.0000     6.0111E-06   155.8277   0.2833   333.0589
 15      0.0000     0.0000E+00    0.0000E+00    7.500000E+09  0.00400  3.510E-05    0   0.5212   age171_m42            0.0000     5.9000E-06   153.7318   0.0909   331.4757
 16      0.0000     0.0000E+00    0.0000E+00    1.300000E+10  0.00400  2.005E-05    0   0.5034   age193_m42            0.0000     5.8110E-06   152.0475  -0.0773   330.0736
 17      0.0000     0.0000E+00    0.0000E+00    1.800000E+10  0.00400  1.525E-05    0   0.4967   age213_m42            0.0000     5.8180E-06   152.0669  -0.1002   328.6652
 18      0.0000     0.0000E+00    0.0000E+00    1.000000E+06  0.00800  1.238E-02    0   1.0000   age020_m52            0.0000     5.9879E-06   159.8299   3.5144   296.8834
 19      0.0000     0.0000E+00    0.0000E+00    3.160000E+06  0.00800  3.074E-02    0   0.9966   age045_m52            0.0000     6.0095E-06   159.7881   3.4413   299.1515
 20      0.0000     0.0000E+00    0.0000E+00    5.010000E+06  0.00800  2.668E-02    0   0.9443   age055_m52            0.0000     6.1275E-06   160.8582   3.2059   304.7296
 21      0.0000     0.0000E+00    0.0000E+00    6.610000E+06  0.00800  2.136E-02    0   0.9177   age061_m52            0.0000     6.3001E-06   161.9782   1.9572   325.6440
 22      0.0000     0.0000E+00    0.0000E+00    1.000000E+07  0.00800  1.215E-02    0   0.8827   age070_m52            0.0000     6.5881E-06   164.9754   2.6365   320.4957
 23      0.8988     3.7306E-04    6.4437E-04    1.445000E+07  0.00800  8.717E-03    0   0.8552   age078_m52            0.0000     6.4785E-06   163.9881   2.7494   317.5405
 24      0.0000     0.0000E+00    0.0000E+00    2.512000E+07  0.00800  5.592E-03    0   0.8162   age090_m52            0.0000     6.6723E-06   165.6383   2.3976   325.9553
 25      0.0000     0.0000E+00    0.0000E+00    4.000000E+07  0.00800  3.896E-03    0   0.7841   age104_m52            0.0000     6.6676E-06   165.6958   2.3104   328.2497
 26      0.0000     0.0000E+00    0.0000E+00    1.015200E+08  0.00800  2.148E-03    0   0.7226   age116_m52            0.0000     6.6026E-06   164.2474   2.2564   326.7958
 27      0.0000     0.0000E+00    0.0000E+00    2.861200E+08  0.00800  9.925E-04    0   0.6683   age125_m52            0.0000     6.7237E-06   163.6349   1.7805   338.5493
 28      0.0000     0.0000E+00    0.0000E+00    9.047900E+08  0.00800  3.141E-04    0   0.6138   age135_m52            0.0000     6.4989E-06   161.2981   0.9775   353.5256
 29      0.0000     0.0000E+00    0.0000E+00    1.434000E+09  0.00800  1.719E-04    0   0.5853   age139_m52            0.0000     6.2616E-06   158.0407   0.3851   348.4561
 30      0.0000     0.0000E+00    0.0000E+00    2.500000E+09  0.00800  7.872E-05    0   0.5600   age150_m52            0.0000     5.9362E-06   153.8896   0.1112   340.5322
 31      0.0000     0.0000E+00    0.0000E+00    4.250000E+09  0.00800  4.336E-05    0   0.5426   age158_m52            0.0000     5.8798E-06   153.0011   0.0936   337.7674
 32      0.0000     0.0000E+00    0.0000E+00    6.250000E+09  0.00800  3.159E-05    0   0.5319   age166_m52            0.0000     5.8065E-06   150.6203  -0.1073   337.6761
 33      0.0000     0.0000E+00    0.0000E+00    1.300000E+10  0.00800  1.361E-05    0   0.5073   age193_m52            0.0000     5.7430E-06   147.2935  -0.5766   335.7725
 34      0.0000     0.0000E+00    0.0000E+00    1.800000E+10  0.00800  9.886E-06    0   0.4990   age213_m52            0.0000     5.7076E-06   145.3872  -0.6862   334.3040
 35      0.0000     0.0000E+00    0.0000E+00    1.000000E+06  0.02000  1.544E-02    0   1.0000   age020_m62            0.0000     5.9873E-06   159.6737   3.5122   297.4262
 36      0.0000     0.0000E+00    0.0000E+00    3.160000E+06  0.02000  3.762E-02    0   0.9858   age045_m62            0.0000     6.0000E-06   159.5071   3.4509   300.0546
 37      0.0000     0.0000E+00    0.0000E+00    5.010000E+06  0.02000  3.296E-02    0   0.9342   age055_m62            0.0000     6.1906E-06   161.3456   3.0894   310.3950
 38      0.0000     0.0000E+00    0.0000E+00    8.710000E+06  0.02000  1.154E-02    0   0.8861   age067_m62            0.0000     7.2018E-06   168.0640   2.0806   330.2920
 39      0.0000     0.0000E+00    0.0000E+00    1.445000E+07  0.02000  7.663E-03    0   0.8472   age078_m62            0.0000     6.7629E-06   166.1294   2.2793   328.0998
 40      0.0000     0.0000E+00    0.0000E+00    2.512000E+07  0.02000  4.532E-03    0   0.8099   age090_m62            0.0000     6.8675E-06   166.7406   2.2734   326.7435
 41      0.0000     0.0000E+00    0.0000E+00    5.500000E+07  0.02000  2.733E-03    0   0.7595   age110_m62            0.0000     6.6339E-06   164.8329   2.2934   325.9550
 42      0.0000     0.0000E+00    0.0000E+00    1.609000E+08  0.02000  1.369E-03    0   0.6985   age120_m62            0.0000     6.7082E-06   164.4389   2.1450   332.9839
 43      0.0000     0.0000E+00    0.0000E+00    2.861200E+08  0.02000  9.013E-04    0   0.6714   age125_m62            0.0000     6.7824E-06   164.3529   1.9024   341.3999
 44      0.0000     0.0000E+00    0.0000E+00    5.088000E+08  0.02000  5.028E-04    0   0.6449   age130_m62            0.0000     6.6361E-06   163.3755   1.5247   350.5250
 45      0.0000     0.0000E+00    0.0000E+00    9.047900E+08  0.02000  2.428E-04    0   0.6179   age135_m62            0.0000     6.2639E-06   158.9989   0.9194   351.6963
 46      0.0000     0.0000E+00    0.0000E+00    1.434000E+09  0.02000  1.263E-04    0   0.5908   age139_m62            0.0000     6.0231E-06   155.1470   0.4672   348.2018
 47      0.2094     1.2661E-02    1.4507E-02    2.500000E+09  0.02000  5.985E-05    0   0.5673   age150_m62            0.0000     5.8094E-06   151.5839   0.0950   344.6084
 48      0.0000     0.0000E+00    0.0000E+00    4.250000E+09  0.02000  3.271E-05    0   0.5468   age158_m62            0.0000     5.7053E-06   147.5608  -0.2124   342.1463
 49      0.0000     0.0000E+00    0.0000E+00    1.000000E+10  0.02000  1.360E-05    0   0.5167   age181_m62            0.0000     5.6800E-06   144.1817  -0.5623   340.9952
 50      0.0000     0.0000E+00    0.0000E+00    1.800000E+10  0.02000  7.124E-06    0   0.5013   age213_m62            0.0000     5.6808E-06   142.1803  -0.7740   338.4708
 51      0.0000     0.0000E+00    0.0000E+00    1.000000E+06  0.05000  2.592E-02    0   0.9998   age020_m72            0.0000     5.9825E-06   159.7206   3.5003   297.9464
 52      0.0000     0.0000E+00    0.0000E+00    3.160000E+06  0.05000  4.845E-02    0   0.9577   age045_m72            0.0000     6.0628E-06   160.0841   3.3400   303.1918
 53      0.0000     0.0000E+00    0.0000E+00    5.010000E+06  0.05000  3.072E-02    0   0.9147   age055_m72            0.0000     6.4977E-06   164.1513   2.8552   316.5277
 54      0.0000     0.0000E+00    0.0000E+00    6.610000E+06  0.05000  1.455E-02    0   0.8877   age061_m72            0.0000     7.7788E-06   171.2446   2.1034   333.9265
 55      0.0000     0.0000E+00    0.0000E+00    1.000000E+07  0.05000  9.074E-03    0   0.8524   age070_m72            0.0000     6.6236E-06   164.9965   3.0221   316.3002
 56      0.0000     0.0000E+00    0.0000E+00    2.512000E+07  0.05000  4.250E-03    0   0.7902   age090_m72            0.0000     6.7323E-06   166.0556   2.7429   320.2690
 57      0.0000     0.0000E+00    0.0000E+00    4.000000E+07  0.05000  3.087E-03    0   0.7618   age104_m72            0.0000     6.8728E-06   167.0273   2.5182   325.1382
 58      0.0000     0.0000E+00    0.0000E+00    1.015200E+08  0.05000  1.700E-03    0   0.7096   age116_m72            0.0000     6.8088E-06   165.5764   2.2816   332.0642
 59      0.0000     0.0000E+00    0.0000E+00    2.861200E+08  0.05000  7.384E-04    0   0.6633   age125_m72            0.0000     6.7043E-06   163.7934   1.7681   346.4966
 60      0.0000     0.0000E+00    0.0000E+00    5.088000E+08  0.05000  3.819E-04    0   0.6372   age130_m72            0.0000     6.3859E-06   160.4316   1.2689   353.7172
 61      0.0000     0.0000E+00    0.0000E+00    9.047900E+08  0.05000  1.676E-04    0   0.6110   age135_m72            0.0000     5.9177E-06   153.9867   0.5567   350.5606
 62      0.0000     0.0000E+00    0.0000E+00    1.434000E+09  0.05000  8.837E-05    0   0.5874   age139_m72            0.0000     5.8392E-06   151.3261   0.0922   349.8951
 63      0.0000     0.0000E+00    0.0000E+00    2.500000E+09  0.05000  4.233E-05    0   0.5598   age150_m72            0.0000     5.6845E-06   147.0322  -0.2167   345.5963
 64      0.0000     0.0000E+00    0.0000E+00    6.250000E+09  0.05000  1.435E-05    0   0.5249   age166_m72            0.0000     5.6599E-06   143.5576  -0.6633   340.1546
 65     12.0339     6.6849E+00    6.7993E+00    1.300000E+10  0.05000  6.513E-06    0   0.5036   age193_m72            0.0000     5.6773E-06   140.9550  -0.9431   343.2229
 66    116.7346     9.3295E+01    9.3177E+01    1.800000E+10  0.05000  4.527E-06    0   0.4945   age213_m72            0.0000     5.7143E-06   136.4348  -1.0000   330.3811


## Synthesis Results - Average & Chains ##

# j      x_j: min, <> & last-chain-values for 1 ...  7 chains
  1      0.0000      1.6383      0.7238      0.8096      0.0000      0.0000      0.3820      0.1003      0.0000
  2      0.0000      2.2819      0.0000      0.0000      0.1909      0.0000      0.9119      0.3126      0.1104
  3      0.0000      1.4053      0.0000      0.2140      0.4418      0.0000      0.0000      0.0000      0.0106
  4      0.0000      1.7745      0.0000      0.0000      0.0000      0.0000      0.0000      0.7985      0.8076
  5      0.0000      1.6872      1.1642      0.8176      0.0000      0.7562      0.0000      0.0000      0.0000
  6      0.0000      1.7616      0.0000      0.0000      0.0000      0.0000      0.0000      0.0000      0.0000
  7      0.0000      1.9074      0.0000      0.0000      0.0000      0.0769      0.0489      0.0000      0.0000
  8      0.0000      1.5706      0.0000      0.0000      0.0000      0.0000      0.0174      0.0000      0.0743
  9      0.0000      2.0650      0.0000      0.5701      1.5397      0.8210      0.0000      0.0000      0.0000
 10      0.0000      1.5437      0.0484      0.0000      0.0000      0.0879      0.0366      0.0956      0.0000
 11      0.0000      1.3569      0.0264      0.9059      0.0000      0.0000      0.0000      0.0000      0.0000
 12      0.0000      2.1946      0.0000      0.0000      0.0000      0.0000      0.0000      0.0000      0.0000
 13      0.0000      1.7459      1.4969      0.0000      1.2520      0.0000      0.0000      0.0234      1.3678
 14      0.1232      1.9120      0.0000      0.8500      0.0000      0.0000      1.0701      0.0000      0.1219
 15      0.0000      1.6439      0.0000      0.0000      0.0000      0.1146      0.0000      0.0000      0.0020
 16      0.0000      1.9965      0.0000      0.7459      0.3603      0.0000      1.3268      0.0334      0.0000
 17      0.0000      1.8955      0.4239      0.0000      0.0000      0.0000      0.0000      0.0000      0.0000
 18      0.0000      2.0539      0.5273      0.0000      0.0000      0.0000      0.0000      0.0446      0.0000
 19      0.0000      1.8763      0.0000      0.0000      0.0000      0.0000      0.6068      1.0897      1.0762
 20      0.0000      1.5876      0.0000      0.0000      0.0000      0.4199      0.0000      0.0000      0.2092
 21      0.0000      2.0264      0.0000      1.1552      0.0000      0.0000      0.0228      0.0000      0.0984
 22      0.0000      1.2775      0.0000      0.0000      0.0000      0.2715      0.8385      0.1966      0.0000
 23      0.8988      1.3893      0.2316      0.0000      0.2775      0.0155      1.3024      0.2651      0.8890
 24      0.0000      1.6205      0.0000      0.0000      0.0000      0.3942      0.0000      0.0000      0.0000
 25      0.0000      1.3998      0.0000      0.9161      0.0000      0.0000      0.0000      0.0000      0.0000
 26      0.0000      1.8430      0.0330      0.0000      1.6533      0.0000      0.0000      0.1926      1.4129
 27      0.0000      2.1782      0.9401      0.0000      0.0000      0.0000      0.3700      0.0000      0.0000
 28      0.0000      1.8144      0.2175      2.8977      0.3891      0.0000      0.0000      2.3844      0.0000
 29      0.0000      1.9102      0.0000      0.0000      2.6702      0.0000      0.0000      0.0000      0.0000
 30      0.0000      2.1541      0.6659      0.0000      0.0000      0.0000      0.0000      0.0000      2.4839
 31      0.0000      1.8108      0.0000      0.0000      0.0089      0.0000      0.0000      0.0000      0.0000
 32      0.0000      1.4316      0.0000      1.5947      0.0000      0.0000      0.0000      0.0000      0.0000
 33      0.0000      1.2953      0.0517      0.0000      2.5569      0.0000      0.0000      0.6054      0.0000
 34      0.0000      1.3591      0.0000      0.0000      0.0000      0.3169      3.7849      0.2113      0.0000
 35      0.0000      2.5633      0.0000      0.6717      0.0000      0.0498      0.0000      0.2740      0.0000
 36      0.0000      1.8474      1.6180      0.2124      0.0000      0.0000      0.1888      1.1675      0.0000
 37      0.0000      1.6080      0.0000      2.4024      0.0000      0.0000      0.5987      0.0000      0.0000
 38      0.0000      2.1671      0.3132      0.0000      0.0000      0.0679      0.9122      0.8297      0.0000
 39      0.0000      2.1506      0.0000      0.2126      0.0000      0.1744      0.0000      0.0000      1.5695
 40      0.0000      1.3203      0.0000      0.0000      0.0000      0.0000      0.0000      0.0735      0.3599
 41      0.0000      1.7025      0.0000      0.0000      0.0000      0.0000      0.0000      0.4177      0.3506
 42      0.0000      2.2902      0.0000      0.0000      1.0027      0.0000      0.5491      2.2517      0.2792
 43      0.0000      1.2979      0.1302      0.0000      0.0000      0.0000      0.0000      0.0000      0.0000
 44      0.0000      1.4842      0.0000      0.0000      0.0000      2.4835      0.0000      0.0000      0.3170
 45      0.0000      1.6856      0.0000      1.9307      0.0000      0.0000      0.4694      0.4029      0.0231
 46      0.0000      2.1258      0.0000      0.0000      0.0000      0.0000      0.0000      0.0000      1.0701
 47      0.2094      1.3238      0.0000      0.1461      0.5648      0.0409      1.2425      0.2492      0.2071
 48      0.0000      1.3446      0.0000      0.0000      0.0000      0.7745      0.0000      0.0000      0.0000
 49      0.0000      1.8771      0.1182      1.3670      0.0000      0.0000      0.8309      0.0000      0.0000
 50      0.0000      1.6745      0.0000      0.0000      0.0479      0.0000      1.6708      1.0054      0.0000
 51      0.0000      1.6147      0.0000      0.0000      0.1647      0.0000      2.4319      0.0000      0.0000
 52      0.0000      1.6254      0.0000      0.0000      0.0000      0.2209      0.0000      0.0000      0.0291
 53      0.0000      1.5351      0.0000      0.1485      0.0000      0.0000      0.0000      0.0000      0.0000
 54      0.0000      2.0988      2.5851      0.0000      0.0000      1.1781      0.1310      0.0000      0.0000
 55      0.0000      2.1274      0.0000      0.5779      1.5703      0.0000      0.2544      0.0000      0.0004
 56      0.0000      2.0271      0.0000      0.0000      0.2104      0.6813      0.0000      0.0000      0.0000
 57      0.0000      1.7488      0.0000      0.0000      0.0000      0.0000      0.0000      0.0000      0.0000
 58      0.0000      1.5652      1.6485      1.0150      0.0000      0.3487      0.0000      0.0000      0.0000
 59      0.0000      1.7906      0.6005      0.0000      0.0000      0.0000      0.0000      0.0000      2.2791
 60      0.0000      2.0080      0.1426      0.0000      0.0000      0.0000      0.0000      0.0000      0.8074
 61      0.0000      2.2110      0.2557      1.6971      0.0282      0.0000      0.0000      1.3644      0.0000
 62      0.0000      2.6495      0.0000      0.0000      0.0000      0.0000      0.0338      0.8594      0.3593
 63      0.0000      1.8738      0.5291      2.0405      0.0000      0.0499      0.0560      0.0000      1.2776
 64      0.0000      2.3583      3.9435      5.2156      3.9202      0.0564      0.0000      4.7495      3.3966
 65     12.0339      2.0425      0.2481     19.4282      0.0000     16.7724      3.5406     14.6582     11.9018
 66    116.7346      7.9327    110.9775     81.4578    109.9617    100.6163    105.9527     93.4748     95.9932

# j      m_j: min, <> & last-chain-values for 1 ...  7 chains
  1  0.0000E+00  8.4711E-03  5.3677E-04  6.8888E-04  0.0000E+00  0.0000E+00  2.8517E-04  7.8772E-05  0.0000E+00
  2  0.0000E+00  3.2211E-03  0.0000E+00  0.0000E+00  3.8789E-05  0.0000E+00  1.8583E-04  6.6999E-05  2.3781E-05
  3  0.0000E+00  2.9707E-03  0.0000E+00  7.4422E-05  1.3442E-04  0.0000E+00  0.0000E+00  0.0000E+00  3.4079E-06
  4  0.0000E+00  3.5326E-03  0.0000E+00  0.0000E+00  0.0000E+00  0.0000E+00  0.0000E+00  2.4135E-04  2.4535E-04
  5  0.0000E+00  6.3981E-03  6.3316E-04  5.1016E-04  0.0000E+00  4.1126E-04  0.0000E+00  0.0000E+00  0.0000E+00
  6  0.0000E+00  1.0835E-02  0.0000E+00  0.0000E+00  0.0000E+00  0.0000E+00  0.0000E+00  0.0000E+00  0.0000E+00
  7  0.0000E+00  1.6796E-02  0.0000E+00  0.0000E+00  0.0000E+00  9.7101E-05  6.2146E-05  0.0000E+00  0.0000E+00
  8  0.0000E+00  1.9116E-02  0.0000E+00  0.0000E+00  0.0000E+00  0.0000E+00  3.0581E-05  0.0000E+00  1.3794E-04
  9  0.0000E+00  2.8766E-02  0.0000E+00  1.3067E-03  3.0868E-03  1.6404E-03  0.0000E+00  0.0000E+00  0.0000E+00
 10  0.0000E+00  2.8248E-02  1.2709E-04  0.0000E+00  0.0000E+00  2.3056E-04  9.6573E-05  2.6570E-04  0.0000E+00
 11  0.0000E+00  4.6687E-02  1.3022E-04  5.1287E-03  0.0000E+00  0.0000E+00  0.0000E+00  0.0000E+00  0.0000E+00
 12  0.0000E+00  1.1978E-01  0.0000E+00  0.0000E+00  0.0000E+00  0.0000E+00  0.0000E+00  0.0000E+00  0.0000E+00
 13  0.0000E+00  2.6858E-01  3.3026E-02  0.0000E+00  2.7720E-02  0.0000E+00  0.0000E+00  5.4655E-04  3.2112E-02
 14  8.2125E-03  9.8654E-01  0.0000E+00  7.2172E-02  0.0000E+00  0.0000E+00  7.9708E-02  0.0000E+00  9.5955E-03
 15  0.0000E+00  1.3809E+00  0.0000E+00  0.0000E+00  0.0000E+00  1.3810E-02  0.0000E+00  0.0000E+00  2.5306E-04
 16  0.0000E+00  2.8356E+00  0.0000E+00  1.7432E-01  7.3644E-02  0.0000E+00  2.7203E-01  7.2055E-03  0.0000E+00
 17  0.0000E+00  3.4923E+00  1.1202E-01  0.0000E+00  0.0000E+00  0.0000E+00  0.0000E+00  0.0000E+00  0.0000E+00
 18  0.0000E+00  9.3849E-03  3.4556E-04  0.0000E+00  0.0000E+00  0.0000E+00  0.0000E+00  3.0954E-05  0.0000E+00
 19  0.0000E+00  3.4410E-03  0.0000E+00  0.0000E+00  0.0000E+00  0.0000E+00  1.6066E-04  3.0343E-04  3.0120E-04
 20  0.0000E+00  3.1786E-03  0.0000E+00  0.0000E+00  0.0000E+00  1.2058E-04  0.0000E+00  0.0000E+00  6.3921E-05
 21  0.0000E+00  4.9249E-03  0.0000E+00  4.6197E-04  0.0000E+00  0.0000E+00  8.0017E-06  0.0000E+00  3.6489E-05
 22  0.0000E+00  5.2501E-03  0.0000E+00  0.0000E+00  0.0000E+00  1.6001E-04  4.9744E-04  1.2267E-04  0.0000E+00
 23  6.4437E-04  7.7103E-03  1.8435E-04  0.0000E+00  2.2162E-04  1.2333E-05  1.0434E-03  2.2341E-04  7.5288E-04
 24  0.0000E+00  1.3380E-02  0.0000E+00  0.0000E+00  0.0000E+00  4.6680E-04  0.0000E+00  0.0000E+00  0.0000E+00
 25  0.0000E+00  1.5937E-02  0.0000E+00  1.7161E-03  0.0000E+00  0.0000E+00  0.0000E+00  0.0000E+00  0.0000E+00
 26  0.0000E+00  3.5072E-02  8.9954E-05  0.0000E+00  4.5279E-03  0.0000E+00  0.0000E+00  5.5645E-04  4.1031E-03
 27  0.0000E+00  8.2970E-02  5.1356E-03  0.0000E+00  0.0000E+00  0.0000E+00  2.0345E-03  0.0000E+00  0.0000E+00
 28  0.0000E+00  2.0057E-01  3.4475E-03  5.2708E-02  6.1900E-03  0.0000E+00  0.0000E+00  4.0019E-02  0.0000E+00
 29  0.0000E+00  3.6793E-01  0.0000E+00  0.0000E+00  7.4018E-02  0.0000E+00  0.0000E+00  0.0000E+00  0.0000E+00
 30  0.0000E+00  8.6687E-01  3.8430E-02  0.0000E+00  0.0000E+00  0.0000E+00  0.0000E+00  0.0000E+00  1.5254E-01
 31  0.0000E+00  1.2818E+00  0.0000E+00  0.0000E+00  9.0374E-04  0.0000E+00  0.0000E+00  0.0000E+00  0.0000E+00
 32  0.0000E+00  1.3636E+00  0.0000E+00  2.4994E-01  0.0000E+00  0.0000E+00  0.0000E+00  0.0000E+00  0.0000E+00
 33  0.0000E+00  2.7312E+00  1.5627E-02  0.0000E+00  7.7591E-01  0.0000E+00  0.0000E+00  1.9381E-01  0.0000E+00
 34  0.0000E+00  3.8805E+00  0.0000E+00  0.0000E+00  0.0000E+00  1.2979E-01  1.5601E+00  9.1593E-02  0.0000E+00
 35  0.0000E+00  9.3912E-03  0.0000E+00  4.0494E-04  0.0000E+00  2.6181E-05  0.0000E+00  1.5241E-04  0.0000E+00
 36  0.0000E+00  2.7384E-03  3.4399E-04  5.1799E-05  0.0000E+00  0.0000E+00  4.0393E-05  2.6276E-04  0.0000E+00
 37  0.0000E+00  2.5781E-03  0.0000E+00  6.3382E-04  0.0000E+00  0.0000E+00  1.3857E-04  0.0000E+00  0.0000E+00
 38  0.0000E+00  9.4129E-03  1.9509E-04  0.0000E+00  0.0000E+00  4.2312E-05  5.7199E-04  5.4716E-04  0.0000E+00
 39  0.0000E+00  1.3450E-02  0.0000E+00  2.1875E-04  0.0000E+00  1.5644E-04  0.0000E+00  0.0000E+00  1.4979E-03
 40  0.0000E+00  1.3347E-02  0.0000E+00  0.0000E+00  0.0000E+00  0.0000E+00  0.0000E+00  1.1278E-04  5.5521E-04
 41  0.0000E+00  2.6763E-02  0.0000E+00  0.0000E+00  0.0000E+00  0.0000E+00  0.0000E+00  9.9688E-04  8.4110E-04
 42  0.0000E+00  6.6101E-02  0.0000E+00  0.0000E+00  4.1650E-03  0.0000E+00  2.2881E-03  9.8677E-03  1.2296E-03
 43  0.0000E+00  5.4693E-02  7.8667E-04  0.0000E+00  0.0000E+00  0.0000E+00  0.0000E+00  0.0000E+00  0.0000E+00
 44  0.0000E+00  1.0769E-01  0.0000E+00  0.0000E+00  0.0000E+00  2.5844E-02  0.0000E+00  0.0000E+00  3.5098E-03
 45  0.0000E+00  2.4266E-01  0.0000E+00  4.5736E-02  0.0000E+00  0.0000E+00  9.7557E-03  8.8062E-03  5.0774E-04
 46  0.0000E+00  5.6251E-01  0.0000E+00  0.0000E+00  0.0000E+00  0.0000E+00  0.0000E+00  0.0000E+00  4.3214E-02
 47  1.4507E-02  7.0983E-01  0.0000E+00  1.2895E-02  4.3587E-02  3.1477E-03  9.6175E-02  2.0286E-02  1.6950E-02
 48  0.0000E+00  1.2715E+00  0.0000E+00  0.0000E+00  0.0000E+00  1.0505E-01  0.0000E+00  0.0000E+00  0.0000E+00
 49  0.0000E+00  4.0342E+00  3.6423E-02  4.8345E-01  0.0000E+00  0.0000E+00  2.5778E-01  0.0000E+00  0.0000E+00
 50  0.0000E+00  6.6655E+00  0.0000E+00  0.0000E+00  2.7447E-02  0.0000E+00  9.6009E-01  6.0762E-01  0.0000E+00
 51  0.0000E+00  3.5233E-03  0.0000E+00  0.0000E+00  5.1705E-05  0.0000E+00  7.6603E-04  0.0000E+00  0.0000E+00
 52  0.0000E+00  1.8175E-03  0.0000E+00  0.0000E+00  0.0000E+00  3.5426E-05  0.0000E+00  0.0000E+00  4.9619E-06
 53  0.0000E+00  2.5857E-03  0.0000E+00  4.1155E-05  0.0000E+00  0.0000E+00  0.0000E+00  0.0000E+00  0.0000E+00
 54  0.0000E+00  7.2434E-03  1.2796E-03  0.0000E+00  0.0000E+00  5.8316E-04  6.5253E-05  0.0000E+00  0.0000E+00
 55  0.0000E+00  1.1305E-02  0.0000E+00  5.0531E-04  1.2009E-03  0.0000E+00  1.9517E-04  0.0000E+00  3.4086E-07
 56  0.0000E+00  2.1320E-02  0.0000E+00  0.0000E+00  3.1843E-04  1.0277E-03  0.0000E+00  0.0000E+00  0.0000E+00
 57  0.0000E+00  2.4413E-02  0.0000E+00  0.0000E+00  0.0000E+00  0.0000E+00  0.0000E+00  0.0000E+00  0.0000E+00
 58  0.0000E+00  3.6957E-02  5.5827E-03  3.9437E-03  0.0000E+00  1.1808E-03  0.0000E+00  0.0000E+00  0.0000E+00
 59  0.0000E+00  9.0992E-02  4.3766E-03  0.0000E+00  0.0000E+00  0.0000E+00  0.0000E+00  0.0000E+00  1.7674E-02
 60  0.0000E+00  1.8953E-01  1.9303E-03  0.0000E+00  0.0000E+00  0.0000E+00  0.0000E+00  0.0000E+00  1.1629E-02
 61  0.0000E+00  4.5597E-01  7.5618E-03  5.7591E-02  8.3817E-04  0.0000E+00  0.0000E+00  4.2722E-02  0.0000E+00
 62  0.0000E+00  9.9625E-01  0.0000E+00  0.0000E+00  0.0000E+00  0.0000E+00  1.8326E-03  4.9066E-02  2.0617E-02
 63  0.0000E+00  1.4018E+00  5.6765E-02  2.5119E-01  0.0000E+00  5.3507E-03  6.0531E-03  0.0000E+00  1.4585E-01
 64  0.0000E+00  4.8799E+00  1.1703E+00  1.7758E+00  1.1674E+00  1.6727E-02  0.0000E+00  1.4921E+00  1.0725E+00
 65  6.7993E+00  8.9338E+00  1.5562E-01  1.3983E+01  0.0000E+00  1.0522E+01  2.2357E+00  9.7347E+00  7.9444E+00
 66  9.3177E+01  4.9018E+01  9.8349E+01  8.2825E+01  9.7789E+01  8.9172E+01  9.4512E+01  8.7698E+01  9.0519E+01

# AV, chi2 & Mass for <> & i_chain = 1 ...  7 solutions
AV       0.8822      1.0681      1.0306      1.1333      1.0217      1.0243      1.0312      1.0692      1.0771
chi2 1.1587E-05  2.3652E-05  1.1805E-05  1.1867E-05  1.1828E-05  1.1943E-05  1.1782E-05  1.1910E-05  1.1887E-05
Mass 6.0755E-13  1.0074E-13  6.6790E-13  6.6819E-13  6.5769E-13  6.6225E-13  6.6405E-13  6.6444E-13  6.6810E-13
 133.25                                  [v0_min (km/s) before EX0s...]
 111.56                                  [vd_min (km/s) before EX0s...]


## Synthetic spectrum (Best Model) ##l_obs f_obs f_syn wei
 3478    [Nl_obs]
 3741.00    3.14148   0.43095    0.000
 3742.00    4.21135   0.47008    0.000
 3743.00    4.62557   0.46961    0.000
 3744.00    3.74456   0.43367    0.000
 3745.00    2.10890   0.38163    0.003
 3746.00    2.15050   0.33362    0.003
 3747.00    3.04383   0.29964    0.003
 3748.00    2.68425   0.27844    0.003
 3749.00    1.77374   0.26634    0.003
 3750.00    3.20024   0.26787    0.003
 3751.00    5.50905   0.29397    0.003
 3752.00    6.10320   0.34785    0.003
 3753.00    6.14782   0.41859    0.003
 3754.00    4.30002   0.49026    0.003
 3755.00    1.94509   0.54977    0.003
 3756.00    1.75642   0.58266    0.003
 3757.00    2.04322   0.57319    0.003
 3758.00    1.87124   0.52053    0.003
 3759.00    1.61917   0.45114    0.003
 3760.00    0.80640   0.40313    0.003
 3761.00   -0.08086   0.39506    0.000
 3762.00    2.21730   0.41342    0.003
 3763.00    4.81481   0.43071    0.003
 3764.00    3.86045   0.43278    0.003
 3765.00    2.70118   0.42610    0.003
 3766.00    3.40452   0.42161    0.003
 3767.00    4.14151   0.42338    0.003
 3768.00    3.59948   0.43570    0.003
 3769.00    3.06429   0.46640    0.003
 3770.00    2.69499   0.51578    0.003
 3771.00    2.39137   0.57134    0.003
 3772.00    2.94831   0.61874    0.003
 3773.00    3.47841   0.65122    0.003
 3774.00    3.77292   0.66692    0.003
 3775.00    3.96498   0.66587    0.003
 3776.00    3.49286   0.65356    0.003
 3777.00    2.79323   0.64070    0.003
 3778.00    0.94214   0.63585    0.003
 3779.00   -0.82553   0.64180    0.000
 3780.00   -2.25170   0.65714    0.000
 3781.00   -3.15160   0.67683    0.000
 3782.00   -2.26657   0.69392    0.000
 3783.00   -1.91089   0.70419    0.000
 3784.00   -3.06923   0.70648    0.000
 3785.00   -3.22963   0.69562    0.000
 3786.00   -0.95182   0.66136    0.000
 3787.00    1.41798   0.60164    0.003
 3788.00    3.98170   0.53130    0.003
 3789.00    5.43780   0.47291    0.003
 3790.00    4.86510   0.44215    0.003
 3791.00    4.52595   0.44146    0.003
 3792.00    4.56066   0.45990    0.003
 3793.00    3.51611   0.47783    0.003
 3794.00    0.95560   0.47900    0.003
 3795.00   -0.60870   0.46266    0.000
 3796.00   -0.94168   0.44196    0.000
 3797.00   -1.49732   0.42757    0.000
 3798.00   -2.29554   0.41794    0.000
 3799.00   -2.94208   0.40951    0.000
 3800.00   -3.44284   0.40906    0.000
 3801.00   -3.17091   0.42814    0.000
 3802.00   -2.24420   0.46841    0.000
 3803.00   -1.97512   0.51838    0.000
 3804.00   -2.19677   0.56225    0.000
 3805.00   -1.44739   0.58794    0.000
 3806.00   -0.06145   0.58928    0.000
 3807.00    1.71280   0.56916    0.003
 3808.00    3.70987   0.54279    0.003
 3809.00    5.17043   0.52975    0.003
 3810.00    6.36283   0.53798    0.003
 3811.00    5.67672   0.55686    0.003
 3812.00    4.17828   0.56600    0.003
 3813.00    2.15100   0.55058    0.003
 3814.00   -0.07241   0.51068    0.000
 3815.00   -0.79153   0.45875    0.000
 3816.00   -1.03777   0.41115    0.000
 3817.00   -0.50667   0.38028    0.000
 3818.00    0.22835   0.36733    0.003
 3819.00   -0.03911   0.36077    0.000
 3820.00   -0.52136   0.34733    0.000
 3821.00   -0.07178   0.32646    0.000
 3822.00    0.53594   0.31048    0.003
 3823.00    1.76221   0.30782    0.003
 3824.00    3.06786   0.31115    0.003
 3825.00    1.09552   0.30679    0.003
 3826.00   -1.17105   0.29184    0.000
 3827.00   -1.91459   0.27655    0.000
 3828.00   -2.57627   0.27224    0.000
 3829.00   -3.72956   0.28122    0.000
 3830.00   -4.86463   0.29751    0.000
 3831.00   -3.63190   0.31198    0.000
 3832.00   -2.42128   0.31675    0.000
 3833.00   -1.70217   0.31007    0.000
 3834.00   -0.99951   0.29928    0.000
 3835.00   -0.50136   0.29648    0.000
 3836.00    0.38341   0.30743    0.003
 3837.00    4.53607   0.32416    0.003
 3838.00    7.61576   0.33208    0.003
 3839.00    3.94548   0.32437    0.003
 3840.00    0.97124   0.30818    0.003
 3841.00    1.43143   0.29903    0.003
 3842.00    1.58218   0.31028    0.003
 3843.00    0.49424   0.34342    0.003
 3844.00   -0.22847   0.38688    0.000
 3845.00    0.26301   0.42456    0.003
 3846.00    0.74789   0.44664    0.003
 3847.00    1.21420   0.45418    0.000
 3848.00    1.42847   0.45268    0.000
 3849.00    1.03735   0.44386    0.000
 3850.00    0.68182   0.42839    0.000
 3851.00    0.40007   0.41309    0.000
 3852.00    0.31751   0.40735    0.000
 3853.00    0.59420   0.41198    0.000
 3854.00    0.15703   0.41741    0.000
 3855.00   -1.40597   0.41347    0.000
 3856.00   -1.86215   0.39818    0.000
 3857.00   -0.78609   0.37718    0.000
 3858.00   -0.93219   0.35543    0.000
 3859.00   -2.56747   0.33383    0.000
 3860.00   -3.09923   0.31495    0.000
 3861.00   -2.44564   0.30763    0.000
 3862.00   -1.24920   0.32170    0.000
 3863.00    0.46158   0.35662    0.000
 3864.00    0.63308   0.39722    0.000
 3865.00   -0.48133   0.42508    0.000
 3866.00    0.02480   0.43344    0.000
 3867.00    1.72284   0.42894    0.000
 3868.00    2.14700   0.42085    0.000
 3869.00    1.74834   0.41184    0.000
 3870.00    1.48957   0.39903    0.000
 3871.00    1.30985   0.38138    0.000
 3872.00    1.81786   0.36454    0.000
 3873.00    2.66418   0.35946    0.000
 3874.00    1.56639   0.37544    0.000
 3875.00   -0.35809   0.41042    0.000
 3876.00    0.45318   0.44757    0.000
 3877.00    2.26094   0.46528    0.000
 3878.00    4.18574   0.45423    0.000
 3879.00    6.14661   0.42628    0.000
 3880.00    5.70144   0.40292    0.000
 3881.00    4.63860   0.39487    0.003
 3882.00    4.14917   0.39945    0.003
 3883.00    3.77962   0.41353    0.003
 3884.00    1.85019   0.43674    0.003
 3885.00   -0.33647   0.46043    0.000
 3886.00   -0.30050   0.46796    0.000
 3887.00    0.01072   0.45440    0.003
 3888.00    1.21937   0.43714    0.003
 3889.00    2.50481   0.44160    0.003
 3890.00    2.56623   0.47898    0.003
 3891.00    2.56665   0.54062    0.003
 3892.00    0.74066   0.60873    0.003
 3893.00   -1.07151   0.66500    0.000
 3894.00   -0.05972   0.69446    0.000
 3895.00    0.87452   0.69251    0.003
 3896.00    0.22266   0.67079    0.003
 3897.00   -0.28012   0.64880    0.000
 3898.00    0.97999   0.63616    0.002
 3899.00    2.09157   0.62854    0.002
 3900.00    1.99303   0.62046    0.002
 3901.00    1.73889   0.61541    0.002
 3902.00    0.53438   0.61807    0.002
 3903.00   -0.30348   0.62380    0.000
 3904.00    0.62311   0.62302    0.002
 3905.00    1.45232   0.61092    0.002
 3906.00    1.90015   0.59429    0.002
 3907.00    1.99701   0.58838    0.002
 3908.00    0.94993   0.60531    0.002
 3909.00    0.43963   0.64577    0.002
 3910.00    1.40954   0.69704    0.002
 3911.00    1.78636   0.74194    0.002
 3912.00    0.76267   0.77269    0.002
 3913.00   -0.07020   0.79142    0.000
 3914.00   -0.51360   0.80148    0.000
 3915.00   -0.24054   0.80249    0.000
 3916.00    1.30506   0.79177    0.003
 3917.00    2.29550   0.76945    0.003
 3918.00    2.42333   0.73823    0.003
 3919.00    3.08240   0.69885    0.003
 3920.00    4.46632   0.65113    0.003
 3921.00    3.43851   0.59883    0.003
 3922.00   -0.48632   0.55253    0.000
 3923.00   -2.47124   0.52537    0.000
 3924.00   -2.40163   0.52245    0.000
 3925.00   -1.93043   0.53412    0.000
 3926.00   -1.08407   0.54183    0.000
 3927.00   -1.16547   0.53047    0.000
 3928.00   -2.01094   0.49554    0.000
 3929.00   -1.48265   0.44398    0.000
 3930.00    0.04152   0.38785    0.003
 3931.00    0.02206   0.33690    0.003
 3932.00   -0.97978   0.29657    0.000
 3933.00   -0.68456   0.26857    0.000
 3934.00    0.33252   0.25217    0.003
 3935.00    1.07176   0.24602    0.003
 3936.00    1.67650   0.25083    0.003
 3937.00    1.33873   0.26970    0.003
 3938.00    0.60690   0.30528    0.003
 3939.00    0.94063   0.35537    0.003
 3940.00    1.65551   0.41038    0.003
 3941.00    1.95350   0.45726    0.003
 3942.00    2.12548   0.48642    0.003
 3943.00    0.79068   0.49577    0.003
 3944.00   -0.92256   0.49351    0.000
 3945.00   -1.89997   0.49757    0.000
 3946.00   -2.72733   0.52359    0.000
 3947.00   -3.12323   0.57091    0.000
 3948.00   -3.45004   0.62396    0.000
 3949.00   -2.77900   0.66852    0.000
 3950.00   -1.98881   0.70469    0.000
 3951.00   -0.26481   0.73956    0.000
 3952.00    1.53524   0.77083    0.003
 3953.00    2.32972   0.79094    0.003
 3954.00    3.07799   0.80112    0.003
 3955.00    3.29376   0.80715    0.003
 3956.00    3.48120   0.80800    0.003
 3957.00    2.54337   0.79712    0.003
 3958.00    1.50430   0.77436    0.003
 3959.00   -1.45254   0.74819    0.000
 3960.00   -3.92967   0.71908    0.000
 3961.00   -1.00073   0.67365    0.000
 3962.00    1.62961   0.60558    0.000
 3963.00    1.91278   0.52972    0.000
 3964.00    1.63921   0.46848    0.000
 3965.00   -1.93792   0.42939    0.000
 3966.00   -4.55789   0.40001    0.000
 3967.00   -2.68374   0.36571    0.000
 3968.00   -0.93518   0.32622    0.000
 3969.00    0.33211   0.29323    0.000
 3970.00    1.39112   0.27871    0.000
 3971.00    1.78440   0.28760    0.000
 3972.00    1.51942   0.31792    0.000
 3973.00   -0.52838   0.36453    0.000
 3974.00   -1.28824   0.42259    0.000
 3975.00    0.94243   0.48863    0.000
 3976.00    2.69716   0.55883    0.000
 3977.00    3.49595   0.62944    0.000
 3978.00    4.10509   0.69822    0.000
 3979.00    4.38249   0.76457    0.000
 3980.00    4.12236   0.82698    0.000
 3981.00    3.03927   0.87797    0.002
 3982.00    2.24221   0.90832    0.002
 3983.00    1.82980   0.91750    0.002
 3984.00    0.74052   0.91601    0.002
 3985.00   -1.15032   0.91945    0.000
 3986.00   -1.94615   0.93631    0.000
 3987.00   -1.59856   0.96453    0.000
 3988.00   -0.24065   0.99733    0.000
 3989.00    2.04784   1.02383    0.003
 3990.00    3.64121   1.03638    0.003
 3991.00    4.67022   1.03780    0.003
 3992.00    5.39476   1.03762    0.003
 3993.00    5.90177   1.04606    0.003
 3994.00    6.11953   1.06099    0.003
 3995.00    6.15595   1.06835    0.003
 3996.00    4.18523   1.05882    0.003
 3997.00    1.11457   1.03579    0.003
 3998.00    0.11279   1.01460    0.003
 3999.00    0.09649   1.01463    0.003
 4000.00    0.54987   1.04535    0.003
 4001.00    1.19630   1.09817    0.003
 4002.00    2.28458   1.15290    0.003
 4003.00    3.52806   1.18754    0.003
 4004.00    3.64181   1.18643    0.003
 4005.00    3.42084   1.14580    0.003
 4006.00    2.39914   1.07973    0.003
 4007.00    1.18073   1.02185    0.003
 4008.00   -0.39578   1.00643    0.000
 4009.00   -2.04350   1.04010    0.000
 4010.00   -1.21422   1.09637    0.000
 4011.00   -0.00006   1.14369    0.000
 4012.00    2.89410   1.17193    0.003
 4013.00    5.98144   1.18850    0.003
 4014.00    3.81732   1.20286    0.003
 4015.00    1.24718   1.21993    0.003
 4016.00    0.20854   1.23714    0.003
 4017.00   -0.76561   1.24678    0.000
 4018.00    0.34713   1.24783    0.003
 4019.00    1.41295   1.24701    0.003
 4020.00   -0.41113   1.25043    0.000
 4021.00   -1.91694   1.25763    0.000
 4022.00    2.18870   1.25953    0.003
 4023.00    5.75567   1.24850    0.003
 4024.00    3.52679   1.22828    0.003
 4025.00    1.25545   1.20958    0.003
 4026.00   -1.33818   1.20294    0.000
 4027.00   -3.42088   1.21561    0.000
 4028.00   -2.55657   1.24535    0.000
 4029.00   -1.49484   1.26838    0.000
 4030.00    0.47167   1.24964    0.003
 4031.00    2.09817   1.17470    0.003
 4032.00    2.44930   1.06190    0.003
 4033.00    2.67854   0.95098    0.003
 4034.00    2.52568   0.88204    0.003
 4035.00    2.22462   0.87367    0.003
 4036.00    1.52929   0.92531    0.003
 4037.00    1.01051   1.02568    0.003
 4038.00    0.89489   1.14560    0.003
 4039.00    0.72490   1.24535    0.003
 4040.00    0.44746   1.29665    0.003
 4041.00    1.00000   1.29860    0.003
 4042.00    2.98238   1.27227    0.003
 4043.00    3.30868   1.23164    0.003
 4044.00    1.13672   1.16819    0.003
 4045.00    0.54894   1.06898    0.003
 4046.00    2.06112   0.94827    0.003
 4047.00    2.63322   0.85862    0.003
 4048.00    2.10778   0.85205    0.003
 4049.00    1.83092   0.93417    0.003
 4050.00    1.80997   1.06237    0.003
 4051.00    1.31484   1.17996    0.003
 4052.00    0.38909   1.25380    0.003
 4053.00   -0.67623   1.27979    0.000
 4054.00   -1.85325   1.26562    0.000
 4055.00   -2.11632   1.22532    0.000
 4056.00   -1.73584   1.17628    0.000
 4057.00   -0.90447   1.12895    0.000
 4058.00    0.20541   1.08996    0.003
 4059.00    0.57820   1.06795    0.003
 4060.00    0.55327   1.06794    0.003
 4061.00    0.49854   1.08409    0.003
 4062.00    0.42986   1.09036    0.003
 4063.00    0.43504   1.05636    0.003
 4064.00    0.47006   0.98611    0.003
 4065.00    0.40951   0.92321    0.003
 4066.00    0.31601   0.90968    0.002
 4067.00    0.64187   0.95153    0.002
 4068.00    1.08951   1.02181    0.002
 4069.00    1.31019   1.08879    0.002
 4070.00    1.47636   1.13352    0.002
 4071.00    1.74223   1.14237    0.002
 4072.00    2.02741   1.11392    0.002
 4073.00    3.56400   1.07532    0.002
 4074.00    5.28915   1.06369    0.003
 4075.00    4.88590   1.08604    0.003
 4076.00    4.24723   1.10647    0.003
 4077.00    2.22102   1.08869    0.002
 4078.00    0.09319   1.04437    0.002
 4079.00    1.56159   1.01993    0.002
 4080.00    3.16765   1.05112    0.003
 4081.00    3.01541   1.13488    0.003
 4082.00    2.81422   1.23121    0.003
 4083.00    1.13592   1.29619    0.003
 4084.00   -0.46600   1.31246    0.000
 4085.00   -0.80917   1.29472    0.000
 4086.00   -1.03198   1.27804    0.000
 4087.00   -0.01615   1.29191    0.000
 4088.00    1.04516   1.34036    0.003
 4089.00    2.44016   1.40492    0.003
 4090.00    3.60930   1.45687    0.003
 4091.00    3.51142   1.47500    0.003
 4092.00    3.04254   1.45858    0.000
 4093.00    0.91346   1.42593    0.000
 4094.00   -0.56848   1.39390    0.000
 4095.00    0.32635   1.36048    0.000
 4096.00    0.97714   1.31617    0.000
 4097.00    0.87741   1.25943    0.000
 4098.00    1.11698   1.20333    0.000
 4099.00    2.24335   1.16523    0.000
 4100.00    2.29016   1.14272    0.000
 4101.00   -0.08746   1.11945    0.000
 4102.00   -1.00868   1.09203    0.000
 4103.00    0.90416   1.07438    0.000
 4104.00    2.15118   1.08355    0.000
 4105.00    2.26843   1.12440    0.000
 4106.00    2.20145   1.18462    0.000
 4107.00    1.86059   1.24511    0.000
 4108.00    1.33295   1.28972    0.000
 4109.00    0.56123   1.30541    0.000
 4110.00    0.62503   1.28890    0.000
 4111.00    1.65054   1.25310    0.000
 4112.00    2.02380   1.21875    0.000
 4113.00    1.73498   1.20402    0.002
 4114.00    1.50017   1.21548    0.002
 4115.00    1.31372   1.24554    0.002
 4116.00    1.75527   1.27892    0.002
 4117.00    2.69229   1.29958    0.002
 4118.00    2.57578   1.29728    0.002
 4119.00    1.72818   1.27311    0.002
 4120.00    2.26314   1.23932    0.002
 4121.00    3.63938   1.21209    0.002
 4122.00    3.20494   1.20203    0.002
 4123.00    1.80855   1.20664    0.002
 4124.00    0.86388   1.21918    0.002
 4125.00    0.12748   1.23900    0.002
 4126.00    1.07961   1.26255    0.002
 4127.00    2.70221   1.27783    0.002
 4128.00    2.68434   1.27285    0.002
 4129.00    2.11128   1.24744    0.002
 4130.00    2.38030   1.21092    0.002
 4131.00    2.88892   1.16829    0.002
 4132.00    3.19123   1.11907    0.002
 4133.00    3.44512   1.06909    0.002
 4134.00    2.78872   1.03417    0.002
 4135.00    1.96051   1.03421    0.002
 4136.00    1.05788   1.07582    0.002
 4137.00    0.14438   1.14241    0.002
 4138.00    0.71700   1.20925    0.002
 4139.00    1.44753   1.25643    0.002
 4140.00    1.92854   1.27713    0.002
 4141.00    2.39229   1.27081    0.002
 4142.00    2.71877   1.22950    0.002
 4143.00    3.04053   1.14963    0.002
 4144.00    3.02811   1.05209    0.002
 4145.00    2.97514   0.97961    0.002
 4146.00    1.60409   0.96801    0.002
 4147.00    0.21574   1.01575    0.002
 4148.00   -1.44020   1.08370    0.000
 4149.00   -2.71086   1.12969    0.000
 4150.00   -0.18360   1.13901    0.000
 4151.00    2.10693   1.12266    0.002
 4152.00    2.71675   1.09911    0.002
 4153.00    3.08923   1.08188    0.002
 4154.00    2.16605   1.07282    0.002
 4155.00    1.51863   1.06774    0.002
 4156.00    2.07656   1.06439    0.002
 4157.00    2.24588   1.06650    0.002
 4158.00    1.01747   1.08274    0.002
 4159.00   -0.28296   1.11780    0.000
 4160.00   -1.80074   1.16775    0.000
 4161.00   -1.34290   1.22091    0.000
 4162.00    4.18836   1.26638    0.002
 4163.00    7.89262   1.29887    0.002
 4164.00    7.56106   1.31467    0.002
 4165.00    6.52250   1.30910    0.002
 4166.00    4.12964   1.27967    0.002
 4167.00    2.44792   1.23538    0.002
 4168.00    1.95472   1.19591    0.002
 4169.00    1.40272   1.17686    0.002
 4170.00    0.76459   1.18044    0.002
 4171.00    0.08943   1.19149    0.002
 4172.00   -0.63342   1.18359    0.000
 4173.00   -0.34491   1.14512    0.000
 4174.00    1.09128   1.09233    0.002
 4175.00    1.02835   1.05383    0.002
 4176.00   -0.53496   1.04569    0.000
 4177.00   -0.45309   1.05909    0.000
 4178.00    1.08102   1.07741    0.002
 4179.00    1.77489   1.09421    0.002
 4180.00    1.81527   1.11013    0.002
 4181.00    2.20586   1.12493    0.002
 4182.00    2.83595   1.13598    0.002
 4183.00    3.17500   1.14624    0.002
 4184.00    3.33960   1.16640    0.002
 4185.00    2.70322   1.20110    0.002
 4186.00    1.64792   1.23428    0.002
 4187.00    1.61222   1.24190    0.002
 4188.00    2.03900   1.21968    0.002
 4189.00    1.98393   1.18944    0.002
 4190.00    1.74083   1.17978    0.002
 4191.00    2.24328   1.19739    0.002
 4192.00    2.99336   1.22726    0.002
 4193.00    2.28568   1.25605    0.002
 4194.00    1.17169   1.27726    0.002
 4195.00    0.90686   1.28069    0.002
 4196.00    0.83684   1.25238    0.002
 4197.00    1.24128   1.19341    0.002
 4198.00    1.73292   1.12566    0.002
 4199.00    2.16215   1.07470    0.002
 4200.00    2.58256   1.05184    0.002
 4201.00    1.67041   1.05031    0.002
 4202.00    0.62240   1.05897    0.002
 4203.00   -0.62414   1.07387    0.000
 4204.00   -1.88361   1.10043    0.000
 4205.00   -0.67747   1.14688    0.000
 4206.00    0.60478   1.20971    0.002
 4207.00    2.11737   1.27513    0.002
 4208.00    3.58178   1.33115    0.002
 4209.00    3.63077   1.36738    0.002
 4210.00    3.56206   1.37853    0.002
 4211.00    1.77987   1.37040    0.002
 4212.00    0.30075   1.35459    0.002
 4213.00    1.68753   1.33790    0.002
 4214.00    2.98736   1.31296    0.002
 4215.00    3.68953   1.26930    0.002
 4216.00    4.24118   1.22117    0.002
 4217.00    3.99279   1.20654    0.002
 4218.00    3.81193   1.25365    0.002
 4219.00    3.91944   1.35338    0.002
 4220.00    3.81819   1.46172    0.002
 4221.00    2.98143   1.53388    0.002
 4222.00    2.35788   1.54803    0.002
 4223.00    2.36572   1.50029    0.002
 4224.00    2.10587   1.39412    0.002
 4225.00    1.17044   1.24053    0.002
 4226.00    0.53794   1.06292    0.002
 4227.00    0.56371   0.90101    0.002
 4228.00    1.26066   0.80671    0.002
 4229.00    3.22333   0.81950    0.002
 4230.00    3.90516   0.93799    0.002
 4231.00    2.47827   1.11176    0.002
 4232.00    1.14916   1.26877    0.002
 4233.00   -0.03880   1.36084    0.000
 4234.00    0.49391   1.38133    0.002
 4235.00    3.21122   1.35410    0.002
 4236.00    4.22233   1.31446    0.002
 4237.00    3.32451   1.28726    0.002
 4238.00    1.98178   1.28002    0.002
 4239.00    0.20001   1.29446    0.002
 4240.00    0.00147   1.32768    0.002
 4241.00    1.18074   1.37389    0.002
 4242.00    1.95126   1.42953    0.002
 4243.00    2.40838   1.49303    0.002
 4244.00    3.28536   1.56151    0.002
 4245.00    4.44527   1.62631    0.002
 4246.00    4.89744   1.67157    0.002
 4247.00    4.93173   1.67464    0.002
 4248.00    5.06699   1.62308    0.002
 4249.00    5.25424   1.52945    0.002
 4250.00    4.60472   1.42133    0.002
 4251.00    3.58187   1.32863    0.002
 4252.00    2.21835   1.27085    0.002
 4253.00    0.72421   1.24971    0.002
 4254.00    0.84580   1.24931    0.002
 4255.00    1.49395   1.25145    0.002
 4256.00    2.64422   1.26083    0.002
 4257.00    3.93155   1.29738    0.002
 4258.00    4.46566   1.35590    0.002
 4259.00    4.83098   1.39675    0.002
 4260.00    2.08967   1.38414    0.002
 4261.00   -1.20725   1.33197    0.000
 4262.00   -0.53151   1.29737    0.000
 4263.00    0.68776   1.32859    0.002
 4264.00    2.10673   1.42832    0.002
 4265.00    3.54521   1.55547    0.002
 4266.00    2.45803   1.65891    0.002
 4267.00    1.21640   1.70763    0.002
 4268.00    0.73785   1.69520    0.002
 4269.00    0.27800   1.62728    0.002
 4270.00   -0.55088   1.51479    0.000
 4271.00   -1.31315   1.37291    0.000
 4272.00   -0.31423   1.22451    0.000
 4273.00    0.65273   1.10133    0.002
 4274.00    1.18045   1.03233    0.002
 4275.00    1.61880   1.02999    0.002
 4276.00    1.24528   1.08695    0.002
 4277.00    1.11730   1.19075    0.002
 4278.00    2.62493   1.32571    0.002
 4279.00    3.67795   1.45557    0.002
 4280.00    2.37745   1.53733    0.002
 4281.00    1.46044   1.55451    0.002
 4282.00    2.14439   1.52620   -2.000
 4283.00    2.61421   1.49253   -2.000
 4284.00    2.34484   1.47793   -2.000
 4285.00    2.10569   1.47632   -2.000
 4286.00    1.95440   1.47258   -2.000
 4287.00    2.60113   1.45617   -2.000
 4288.00    5.22722   1.42418   -2.000
 4289.00    6.70301   1.37350   -2.000
 4290.00    5.71971   1.30434   -2.000
 4291.00    4.94764   1.23559   -2.000
 4292.00    4.56777   1.20390   -2.000
 4293.00    3.50364   1.23063   -2.000
 4294.00    1.32978   1.29606   -2.000
 4295.00    0.25257   1.36079   -2.000
 4296.00    0.73550   1.39480   -2.000
 4297.00    1.57823   1.39237   -2.000
 4298.00    2.87128   1.35563    0.002
 4299.00    3.37333   1.28203    0.002
 4300.00    3.00286   1.18314    0.002
 4301.00    2.73120   1.08837    0.002
 4302.00    2.55566   1.02886    0.002
 4303.00    1.67334   1.01624    0.002
 4304.00    0.18462   1.03379    0.002
 4305.00   -0.38531   1.05347    0.000
 4306.00   -0.26091   1.05478    0.000
 4307.00    0.61788   1.02617    0.002
 4308.00    1.99764   0.97259    0.002
 4309.00    2.93912   0.91820    0.002
 4310.00    3.62572   0.89412    0.002
 4311.00    2.84329   0.92334    0.002
 4312.00    1.31636   1.00581    0.002
 4313.00    0.75871   1.12252    0.002
 4314.00    0.62638   1.25231    0.002
 4315.00    1.33839   1.38966    0.002
 4316.00    2.36844   1.54179    0.002
 4317.00    2.49847   1.70871    0.002
 4318.00    2.34074   1.86864    0.002
 4319.00    1.72042   1.98171    0.002
 4320.00    0.97646   2.02237    0.002
 4321.00    1.82403   1.99788    0.002
 4322.00    3.01986   1.93011    0.002
 4323.00    3.59642   1.82884    0.002
 4324.00    4.06525   1.69284    0.002
 4325.00    3.23850   1.52550    0.002
 4326.00    2.24039   1.36310    0.002
 4327.00    2.05972   1.27282    0.002
 4328.00    1.95544   1.30632    0.002
 4329.00    3.15448   1.45641    0.002
 4330.00    4.42806   1.65133    0.000
 4331.00    3.43295   1.81047    0.000
 4332.00    2.38910   1.90117    0.000
 4333.00    1.81215   1.94514    0.000
 4334.00    1.28194   1.97917    0.000
 4335.00    1.87416   2.01557    0.000
 4336.00    2.42166   2.03541    0.000
 4337.00    2.38702   2.00501    0.000
 4338.00    2.62016   1.90550    0.000
 4339.00    5.19293   1.75300    0.000
 4340.00    7.26171   1.59974    0.000
 4341.00    6.07517   1.50121    0.000
 4342.00    4.71329   1.48315    0.000
 4343.00    2.46679   1.53750    0.000
 4344.00    0.73336   1.63231    0.000
 4345.00    1.09415   1.72974    0.000
 4346.00    1.53314   1.80775    0.000
 4347.00    2.23670   1.86812    0.000
 4348.00    2.91266   1.91892    0.000
 4349.00    3.50983   1.96340    0.000
 4350.00    3.97138   1.98974    0.000
 4351.00    4.10227   1.96822    0.002
 4352.00    3.85271   1.88081    0.002
 4353.00    2.80290   1.75629    0.002
 4354.00    1.97944   1.66120    0.002
 4355.00    1.56979   1.64403    0.002
 4356.00    1.40810   1.69854    0.002
 4357.00    1.64259   1.78265    0.002
 4358.00    2.67706   1.85477    0.002
 4359.00    4.83315   1.89137    0.002
 4360.00    6.28538   1.89432    0.002
 4361.00    6.86919   1.89019    0.002
 4362.00    6.14698   1.90922    0.002
 4363.00    4.00439   1.95763    0.002
 4364.00    2.69504   2.01895    0.002
 4365.00    2.18502   2.07338    0.002
 4366.00    2.06709   2.10747    0.002
 4367.00    2.28082   2.10682    0.002
 4368.00    2.12990   2.06330    0.002
 4369.00    1.70735   1.99312    0.002
 4370.00    2.84564   1.92972    0.002
 4371.00    5.00524   1.89651    0.002
 4372.00    4.76594   1.88630    0.002
 4373.00    3.15270   1.87275    0.002
 4374.00    3.15966   1.83299    0.002
 4375.00    3.97483   1.76522    0.002
 4376.00    4.36119   1.69793    0.002
 4377.00    4.56251   1.67328    0.002
 4378.00    3.78314   1.71145    0.002
 4379.00    2.64090   1.78888    0.002
 4380.00    3.32072   1.85021    0.002
 4381.00    4.57194   1.84749    0.002
 4382.00    5.57330   1.76102    0.002
 4383.00    6.50930   1.60162    0.002
 4384.00    5.41656   1.40895    0.002
 4385.00    3.89048   1.24939    0.002
 4386.00    3.62479   1.19248    0.002
 4387.00    3.57224   1.25792    0.002
 4388.00    3.21320   1.39672    0.002
 4389.00    2.81501   1.52973    0.002
 4390.00    2.36975   1.60969    0.002
 4391.00    1.92029   1.64240    0.002
 4392.00    2.43008   1.65900    0.002
 4393.00    2.99095   1.68378    0.002
 4394.00    3.87226   1.71844    0.002
 4395.00    4.73788   1.75440    0.002
 4396.00    3.81736   1.79404    0.002
 4397.00    2.88740   1.84927    0.002
 4398.00    1.74967   1.92062    0.002
 4399.00    0.83645   1.98139    0.002
 4400.00    2.69713   1.99563    0.002
 4401.00    4.39782   1.95851    0.002
 4402.00    4.75254   1.89565    0.002
 4403.00    4.85735   1.82891    0.002
 4404.00    3.39585   1.75208    0.002
 4405.00    2.21574   1.64684    0.002
 4406.00    2.41964   1.52890    0.002
 4407.00    2.94389   1.44961    0.002
 4408.00    4.74692   1.44628    0.002
 4409.00    5.90370   1.51392    0.002
 4410.00    4.91723   1.62806    0.002
 4411.00    3.82011   1.76852    0.002
 4412.00    2.41295   1.91075    0.002
 4413.00    1.90977   2.01556    0.002
 4414.00    3.57320   2.04543    0.002
 4415.00    4.73977   1.99182    0.002
 4416.00    4.87797   1.88933    0.002
 4417.00    4.75916   1.80463    0.002
 4418.00    4.17768   1.79685    0.002
 4419.00    4.11658   1.86992    0.002
 4420.00    4.87462   1.97835    0.002
 4421.00    5.07732   2.06262    0.002
 4422.00    4.51261   2.08279    0.002
 4423.00    4.48852   2.04171    0.002
 4424.00    5.12200   1.97618    0.002
 4425.00    5.08426   1.92836    0.002
 4426.00    4.32680   1.91617    0.002
 4427.00    3.53768   1.92778    0.002
 4428.00    2.71861   1.94747    0.002
 4429.00    2.35984   1.96491    0.002
 4430.00    2.38493   1.97362    0.002
 4431.00    2.94931   1.97193    0.002
 4432.00    3.90962   1.96196    0.002
 4433.00    4.37489   1.95015    0.002
 4434.00    4.52099   1.92775    0.002
 4435.00    4.32715   1.88040    0.002
 4436.00    3.94157   1.82283    0.002
 4437.00    3.93961   1.79824    0.002
 4438.00    4.12598   1.84449    0.002
 4439.00    4.28123   1.95422    0.002
 4440.00    4.42327   2.07121    0.002
 4441.00    4.41783   2.13414    0.002
 4442.00    4.35879   2.11539    0.002
 4443.00    4.41680   2.04082    0.002
 4444.00    4.51080   1.97210    0.002
 4445.00    3.87166   1.96240    0.002
 4446.00    3.04482   2.02198    0.002
 4447.00    4.43401   2.11704    0.002
 4448.00    6.28507   2.20101    0.002
 4449.00    5.99805   2.24675    0.002
 4450.00    5.35975   2.25851    0.002
 4451.00    5.09967   2.24821    0.002
 4452.00    4.88621   2.22077    0.002
 4453.00    5.67332   2.17783    0.002
 4454.00    6.54554   2.11105    0.002
 4455.00    5.31027   2.01683    0.002
 4456.00    3.97098   1.91212    0.002
 4457.00    3.30616   1.82581    0.002
 4458.00    2.67487   1.77956    0.002
 4459.00    3.47373   1.76551    0.002
 4460.00    4.22167   1.75959    0.002
 4461.00    3.93824   1.74726    0.000
 4462.00    3.68518   1.73680    0.000
 4463.00    3.78911   1.74977    0.000
 4464.00    3.92825   1.80222    0.000
 4465.00    4.35288   1.88861    0.000
 4466.00    4.75974   1.97482    0.000
 4467.00    5.05845   2.03035    0.000
 4468.00    5.11630   2.05126    0.000
 4469.00    4.01867   2.04935    0.000
 4470.00    3.09986   2.04201    0.000
 4471.00    2.87945   2.04356    0.000
 4472.00    2.82915   2.06957    0.000
 4473.00    3.33195   2.12537    0.000
 4474.00    4.03419   2.19923    0.000
 4475.00    5.28516   2.27211    0.000
 4476.00    6.04559   2.32965    0.000
 4477.00    5.65009   2.37257    0.000
 4478.00    5.01816   2.40701    0.000
 4479.00    3.90464   2.42212    0.000
 4480.00    3.57944   2.39306    0.000
 4481.00    4.65173   2.31065    0.000
 4482.00    5.26023   2.20309    0.002
 4483.00    5.14943   2.12609    0.002
 4484.00    4.85916   2.12141    0.002
 4485.00    4.32447   2.19376    0.002
 4486.00    4.18236   2.30471    0.002
 4487.00    4.51099   2.39848    0.002
 4488.00    4.34639   2.43343    0.002
 4489.00    3.66035   2.39691    0.002
 4490.00    3.34965   2.31400    0.002
 4491.00    3.38898   2.23232    0.002
 4492.00    4.25927   2.19092    0.002
 4493.00    5.81269   2.19217    0.002
 4494.00    5.40294   2.19989    0.002
 4495.00    3.57263   2.17899    0.002
 4496.00    1.91892   2.12929    0.002
 4497.00    0.37739   2.09175    0.002
 4498.00    1.03853   2.10502    0.002
 4499.00    2.92315   2.17273    0.002
 4500.00    3.61640   2.26482    0.002
 4501.00    3.73407   2.34103    0.002
 4502.00    3.01962   2.38896    0.002
 4503.00    1.95802   2.42598    0.002
 4504.00    1.93353   2.48178    0.002
 4505.00    2.27918   2.56076    0.002
 4506.00    3.91823   2.63026    0.002
 4507.00    5.94725   2.65924    0.002
 4508.00    5.89841   2.64534    0.002
 4509.00    5.32914   2.61305    0.002
 4510.00    4.42760   2.59065    0.002
 4511.00    3.45851   2.58345    0.002
 4512.00    4.77248   2.57550    0.002
 4513.00    6.45066   2.54657    0.002
 4514.00    5.52150   2.49180    0.002
 4515.00    4.28248   2.43019    0.002
 4516.00    4.22107   2.38593    0.002
 4517.00    4.25494   2.36922    0.002
 4518.00    4.73113   2.37418    0.002
 4519.00    5.22743   2.39028    0.002
 4520.00    5.01241   2.41807    0.002
 4521.00    4.77251   2.46253    0.002
 4522.00    3.70902   2.50771    0.002
 4523.00    2.75929   2.52855    0.002
 4524.00    3.94474   2.50473    0.002
 4525.00    4.93084   2.43740    0.002
 4526.00    3.68361   2.34330    0.002
 4527.00    2.65037   2.23129    0.002
 4528.00    3.29181   2.11330    0.002
 4529.00    3.88100   2.00946    0.002
 4530.00    4.16128   1.94284    0.002
 4531.00    4.37462   1.92785    0.002
 4532.00    4.27455   1.95970    0.002
 4533.00    4.24320   2.01132    0.002
 4534.00    4.47451   2.05543    0.002
 4535.00    4.37267   2.07397    0.002
 4536.00    3.20860   2.08214    0.002
 4537.00    3.05423   2.11753    0.002
 4538.00    5.62834   2.20042    0.002
 4539.00    7.41866   2.31051    0.002
 4540.00    7.39286   2.39149    0.002
 4541.00    6.77248   2.41323    0.002
 4542.00    4.96025   2.39260    0.002
 4543.00    3.67177   2.36833    0.002
 4544.00    3.29768   2.36344    0.002
 4545.00    2.70703   2.36878    0.002
 4546.00    1.78547   2.36520    0.002
 4547.00    1.70966   2.35036    0.002
 4548.00    2.76921   2.33589    0.002
 4549.00    3.29265   2.32541    0.002
 4550.00    3.18232   2.31765    0.000
 4551.00    3.61944   2.31156    0.000
 4552.00    4.62720   2.31052    0.000
 4553.00    4.55234   2.31204    0.000
 4554.00    3.48208   2.30378    0.000
 4555.00    2.77930   2.28929    0.000
 4556.00    2.37434   2.28764    0.000
 4557.00    2.78730   2.32081    0.000
 4558.00    3.78360   2.39581    0.000
 4559.00    4.22425   2.49345    0.000
 4560.00    4.31716   2.57952    0.000
 4561.00    4.31016   2.63174    0.000
 4562.00    4.24852   2.64467    0.000
 4563.00    4.43705   2.62370    0.000
 4564.00    4.74450   2.57533    0.000
 4565.00    4.29883   2.50756    0.000
 4566.00    3.54428   2.44748    0.000
 4567.00    3.46860   2.43011    0.000
 4568.00    3.63080   2.46889    0.000
 4569.00    4.46811   2.54257    0.000
 4570.00    5.50494   2.60300    0.000
 4571.00    5.94824   2.61483    0.000
 4572.00    6.24615   2.58480    0.000
 4573.00    5.58390   2.54705    0.000
 4574.00    4.73135   2.53808    0.000
 4575.00    4.86879   2.56629    0.000
 4576.00    5.15947   2.60285    0.000
 4577.00    5.51569   2.61950    0.000
 4578.00    5.87941   2.60626    0.000
 4579.00    6.55892   2.56127    0.000
 4580.00    7.26267   2.49152    0.000
 4581.00    7.90753   2.41498    0.000
 4582.00    8.54994   2.35955    0.000
 4583.00    6.25034   2.34512    0.000
 4584.00    3.98137   2.36559    0.000
 4585.00    4.12348   2.39290    0.000
 4586.00    4.31057   2.40636    0.000
 4587.00    5.28353   2.41417    0.000
 4588.00    6.09147   2.43843    0.000
 4589.00    5.13384   2.49284    0.000
 4590.00    4.20340   2.56099    0.000
 4591.00    3.47838   2.60636    0.000
 4592.00    2.79253   2.60397    0.000
 4593.00    2.33177   2.55708    0.000
 4594.00    2.08255   2.49111    0.000
 4595.00    2.79996   2.43209    0.000
 4596.00    3.44742   2.39175    0.000
 4597.00    3.83319   2.37084    0.000
 4598.00    4.12563   2.36946    0.000
 4599.00    4.12614   2.38312    0.000
 4600.00    4.24233   2.40147    0.000
 4601.00    4.66556   2.41716    0.000
 4602.00    5.05272   2.42387    0.000
 4603.00    5.35769   2.42532    0.000
 4604.00    5.25449   2.42827    0.000
 4605.00    4.34598   2.43015    0.000
 4606.00    3.73571   2.43630    0.000
 4607.00    3.63826   2.46037    0.000
 4608.00    4.01709   2.52008    0.000
 4609.00    5.11309   2.61648    0.000
 4610.00    5.81031   2.72207    0.000
 4611.00    5.97987   2.79653    0.000
 4612.00    5.76288   2.81445    0.000
 4613.00    5.09540   2.78404    0.000
 4614.00    4.69317   2.74044    0.000
 4615.00    4.56352   2.71550    0.000
 4616.00    4.74810   2.72196    0.000
 4617.00    5.21751   2.75330    0.000
 4618.00    5.02408   2.78546    0.000
 4619.00    4.30107   2.80330    0.000
 4620.00    3.57779   2.80553    0.000
 4621.00    2.85431   2.79853    0.000
 4622.00    3.19271   2.79500    0.000
 4623.00    4.18580   2.79962    0.000
 4624.00    4.70920   2.80197    0.000
 4625.00    4.97963   2.79536    0.000
 4626.00    3.98082   2.78117    0.000
 4627.00    2.38834   2.76353    0.000
 4628.00    1.68620   2.74923    0.000
 4629.00    1.34300   2.74270    0.000
 4630.00    2.55916   2.74354    0.000
 4631.00    4.31174   2.74909    0.000
 4632.00    3.86626   2.75611    0.000
 4633.00    2.78411   2.75745    0.000
 4634.00    3.19480   2.74101    0.000
 4635.00    3.96304   2.70437    0.000
 4636.00    4.77146   2.66001    0.000
 4637.00    5.58764   2.61666    0.000
 4638.00    5.95053   2.57388    0.000
 4639.00    6.24538   2.52750    0.000
 4640.00    4.92796   2.48291    0.000
 4641.00    3.43309   2.45699    0.000
 4642.00    2.82290   2.45884    0.000
 4643.00    2.27704   2.48349    0.000
 4644.00    2.39338   2.50657    0.000
 4645.00    2.53477   2.49709    0.000
 4646.00    3.54206   2.44388    0.000
 4647.00    4.54699   2.36258    0.000
 4648.00    5.30109   2.28424    0.000
 4649.00    5.95257   2.24544    0.000
 4650.00    4.92659   2.26639    0.000
 4651.00    3.94042   2.33833    0.000
 4652.00    3.36165   2.43437    0.000
 4653.00    2.85389   2.52151    0.000
 4654.00    2.86512   2.57295    0.000
 4655.00    2.83893   2.58126    0.000
 4656.00    2.60348   2.55684    0.000
 4657.00    2.51120   2.53252    0.000
 4658.00    3.05765   2.54535    0.000
 4659.00    3.92931   2.61009    0.000
 4660.00    5.99222   2.71021    0.000
 4661.00    7.22128   2.80209    0.000
 4662.00    5.89202   2.84289    0.000
 4663.00    4.58422   2.81609    0.000
 4664.00    3.33236   2.73775    0.000
 4665.00    2.81964   2.63611    0.000
 4666.00    3.96345   2.52842    0.000
 4667.00    4.63527   2.41718    0.000
 4668.00    4.39044   2.30787    0.000
 4669.00    4.34245   2.22760    0.000
 4670.00    4.62782   2.21364    0.000
 4671.00    5.01891   2.27732    0.000
 4672.00    5.56685   2.38655    0.000
 4673.00    5.67342   2.49157    0.000
 4674.00    5.20432   2.55830    0.000
 4675.00    4.55821   2.58705    0.000
 4676.00    3.70873   2.60136    0.000
 4677.00    3.70106   2.61746    0.000
 4678.00    4.54639   2.63249    0.000
 4679.00    4.91341   2.62844    0.000
 4680.00    4.85295   2.59381    0.000
 4681.00    4.53316   2.53997    0.000
 4682.00    4.00912   2.49182    0.000
 4683.00    4.14974   2.47183    0.000
 4684.00    4.75076   2.48693    0.000
 4685.00    5.20490   2.52752    0.000
 4686.00    5.56983   2.57105    0.000
 4687.00    5.15482   2.59647    0.000
 4688.00    4.32627   2.59930    0.000
 4689.00    3.60341   2.58664    0.000
 4690.00    2.92918   2.56940    0.000
 4691.00    3.73604   2.55704    0.000
 4692.00    5.12972   2.55100    0.000
 4693.00    5.57728   2.55066    0.000
 4694.00    5.70537   2.56203    0.000
 4695.00    5.69395   2.59006    0.000
 4696.00    5.64293   2.62914    0.000
 4697.00    5.69549   2.66203    0.000
 4698.00    5.77231   2.66567    0.000
 4699.00    5.42798   2.62950    0.000
 4700.00    5.00442   2.56575    0.000
 4701.00    4.43268   2.50078    0.000
 4702.00    3.83939   2.45587    0.000
 4703.00    3.71278   2.43311    0.000
 4704.00    3.63551   2.42916    0.000
 4705.00    4.21771   2.44147    0.000
 4706.00    4.84520   2.46564    0.000
 4707.00    4.15348   2.48866    0.000
 4708.00    3.41688   2.49642    0.000
 4709.00    3.17339   2.48855    0.000
 4710.00    2.97298   2.48362    0.000
 4711.00    4.14937   2.50032    0.000
 4712.00    5.27867   2.53870    0.000
 4713.00    5.68546   2.58152    0.000
 4714.00    6.01796   2.60234    0.000
 4715.00    5.62215   2.59651    0.000
 4716.00    5.13283   2.58789    0.000
 4717.00    3.98237   2.60644    0.000
 4718.00    3.22642   2.66754    0.000
 4719.00    4.61691   2.75699    0.000
 4720.00    5.83406   2.84619    0.000
 4721.00    6.29582   2.91442    0.000
 4722.00    6.23294   2.95030    0.000
 4723.00    4.28797   2.95614    0.000
 4724.00    3.02352   2.94690    0.000
 4725.00    3.80771   2.93692    0.000
 4726.00    4.51708   2.92532    0.000
 4727.00    5.03471   2.88964    0.000
 4728.00    5.74010   2.80949    0.000
 4729.00    6.85939   2.69146    0.000
 4730.00    7.82220   2.57273    0.000
 4731.00    8.48585   2.49729    0.000
 4732.00    8.49640   2.48457    0.000
 4733.00    7.41748   2.52232    0.000
 4734.00    6.43565   2.58464    0.000
 4735.00    5.59577   2.64583    0.000
 4736.00    4.72388   2.68673    0.000
 4737.00    3.81083   2.70880    0.000
 4738.00    4.17011   2.72455    0.000
 4739.00    5.97065   2.74575    0.000
 4740.00    5.98428   2.77983    0.000
 4741.00    4.21264   2.81461    0.000
 4742.00    5.20131   2.83384    0.000
 4743.00    8.62223   2.84012    0.000
 4744.00    8.96487   2.84417    0.000
 4745.00    6.91769   2.85374    0.000
 4746.00    5.54548   2.87139    0.000
 4747.00    4.63402   2.89416    0.000
 4748.00    4.87457   2.92118    0.000
 4749.00    5.80434   2.94867    0.000
 4750.00    5.61346   2.96669    0.000
 4751.00    4.83759   2.96942    0.000
 4752.00    5.28160   2.95487    0.000
 4753.00    6.27780   2.92293    0.000
 4754.00    6.01252   2.87743    0.000
 4755.00    5.25607   2.83059    0.000
 4756.00    5.05675   2.79465    0.000
 4757.00    5.04204   2.77723    0.000
 4758.00    5.15293   2.77894    0.000
 4759.00    5.29875   2.79386    0.000
 4760.00    6.24400   2.81306    0.000
 4761.00    7.37211   2.82315    0.002
 4762.00    5.71025   2.81244    0.002
 4763.00    3.53739   2.77538    0.002
 4764.00    4.97018   2.71529    0.002
 4765.00    6.91075   2.64650    0.002
 4766.00    5.64118   2.58400    0.002
 4767.00    4.04603   2.54169    0.002
 4768.00    3.55061   2.53466    0.002
 4769.00    3.12629   2.57253    0.002
 4770.00    2.74264   2.64451    0.002
 4771.00    2.36259   2.72111    0.002
 4772.00    3.17006   2.77749    0.002
 4773.00    3.97098   2.80654    0.002
 4774.00    4.58187   2.82499    0.002
 4775.00    5.23896   2.85425    0.002
 4776.00    6.56365   2.89822    0.002
 4777.00    7.72419   2.94579    0.002
 4778.00    7.34035   2.98061    0.002
 4779.00    6.93623   2.99738    0.002
 4780.00    6.39325   2.99738    0.002
 4781.00    5.94115   2.97818    0.002
 4782.00    5.97042   2.94008    0.002
 4783.00    5.87968   2.88722    0.002
 4784.00    5.27787   2.82967    0.002
 4785.00    4.74545   2.78000    0.002
 4786.00    4.45688   2.74719    0.002
 4787.00    4.39430   2.73502    0.002
 4788.00    4.99939   2.73374    0.002
 4789.00    5.22276   2.73617    0.002
 4790.00    4.48489   2.74545    0.002
 4791.00    4.34343   2.76125    0.002
 4792.00    5.49530   2.78909    0.002
 4793.00    5.98478   2.84065    0.002
 4794.00    5.22756   2.91658    0.002
 4795.00    4.63774   3.00495    0.002
 4796.00    4.32302   3.08246    0.002
 4797.00    3.69675   3.12194    0.002
 4798.00    2.62155   3.10882    0.002
 4799.00    3.33104   3.05271    0.002
 4800.00    6.30235   2.98285    0.002
 4801.00    7.79968   2.93343    0.002
 4802.00    7.65080   2.92766    0.002
 4803.00    7.42029   2.96399    0.002
 4804.00    7.10939   3.01478    0.002
 4805.00    6.61280   3.04412    0.002
 4806.00    5.95490   3.03284    0.002
 4807.00    5.26191   2.98508    0.002
 4808.00    4.54205   2.92527    0.002
 4809.00    4.54442   2.87998    0.002
 4810.00    5.03261   2.86240    0.002
 4811.00    5.04673   2.87501    0.002
 4812.00    4.78148   2.90680    0.002
 4813.00    5.15527   2.93919    0.002
 4814.00    5.85744   2.96205    0.002
 4815.00    5.68070   2.97718    0.002
 4816.00    5.11265   2.99404    0.002
 4817.00    5.32862   3.02165    0.002
 4818.00    5.84454   3.06151    0.002
 4819.00    6.47391   3.10816    0.002
 4820.00    7.14017   3.14845    0.002
 4821.00    6.29731   3.16858    0.002
 4822.00    5.04358   3.15651    0.002
 4823.00    4.91811   3.10585    0.002
 4824.00    5.04472   3.03154    0.002
 4825.00    4.65103   2.96101    0.002
 4826.00    4.16460   2.92079    0.002
 4827.00    3.41438   2.92198    0.002
 4828.00    2.62822   2.94588    0.002
 4829.00    4.09229   2.96514    0.002
 4830.00    5.77496   2.96724    0.002
 4831.00    5.09823   2.95149    0.002
 4832.00    4.27839   2.92685    0.002
 4833.00    4.47805   2.90522    0.002
 4834.00    4.70671   2.89642    0.002
 4835.00    5.29037   2.91160    0.002
 4836.00    5.81438   2.94885    0.002
 4837.00    4.78119   2.98888    0.002
 4838.00    3.85275   3.01026    0.002
 4839.00    4.35441   3.00321    0.002
 4840.00    4.68069   2.97277    0.002
 4841.00    3.42173   2.93224    0.002
 4842.00    2.36664   2.89730    0.002
 4843.00    2.66432   2.87920    0.002
 4844.00    3.14803   2.88283    0.002
 4845.00    4.59165   2.90594    0.002
 4846.00    5.51980   2.94400    0.002
 4847.00    4.30218   2.98737    0.002
 4848.00    3.43857   3.01460    0.000
 4849.00    3.79392   3.01364    0.000
 4850.00    4.44750   2.99429    0.000
 4851.00    5.96589   2.97557    0.000
 4852.00    6.60043   2.97337    0.000
 4853.00    5.04753   2.98057    0.000
 4854.00    3.97539   2.97119    0.000
 4855.00    3.92895   2.93227    0.000
 4856.00    3.84380   2.87198    0.000
 4857.00    3.68695   2.80932    0.000
 4858.00    3.73868   2.76302    0.000
 4859.00    4.12807   2.73146    0.000
 4860.00    4.70561   2.68632    0.000
 4861.00    5.55033   2.60725    0.000
 4862.00    5.94982   2.51379    0.000
 4863.00    5.79307   2.44699    0.000
 4864.00    5.98068   2.44008    0.000
 4865.00    6.54747   2.49931    0.000
 4866.00    6.42199   2.59364    0.000
 4867.00    5.62418   2.68546    0.000
 4868.00    5.30935   2.75598    0.000
 4869.00    5.40818   2.79423    0.000
 4870.00    5.31286   2.78967    0.000
 4871.00    5.07109   2.74180    0.000
 4872.00    4.83290   2.66875    0.000
 4873.00    4.59708   2.59968    0.000
 4874.00    5.19495   2.56862    0.000
 4875.00    6.27672   2.59575    0.002
 4876.00    6.32914   2.66730    0.002
 4877.00    5.86093   2.75122    0.002
 4878.00    6.89317   2.83042    0.002
 4879.00    8.58246   2.90544    0.002
 4880.00    7.95675   2.96718    0.002
 4881.00    6.46094   3.00341    0.002
 4882.00    5.91191   3.01074    0.002
 4883.00    5.66484   2.98793    0.002
 4884.00    7.04637   2.94590    0.002
 4885.00    8.86200   2.89974    0.002
 4886.00    6.95633   2.84914    0.002
 4887.00    4.23879   2.79204    0.002
 4888.00    3.27363   2.73924    0.002
 4889.00    2.61224   2.70241    0.002
 4890.00    2.41181   2.67601    0.002
 4891.00    2.27209   2.64836    0.002
 4892.00    3.86661   2.63028    0.002
 4893.00    5.62226   2.64893    0.002
 4894.00    5.65160   2.73390    0.002
 4895.00    5.58306   2.88832    0.002
 4896.00    6.58643   3.06596    0.002
 4897.00    7.59359   3.21417    0.002
 4898.00    6.34404   3.30348    0.002
 4899.00    5.14484   3.32561    0.002
 4900.00    5.14049   3.29677    0.002
 4901.00    5.14799   3.24288    0.002
 4902.00    5.30883   3.18152    0.002
 4903.00    5.38713   3.12959    0.002
 4904.00    4.74782   3.10008    0.002
 4905.00    4.30582   3.09490    0.002
 4906.00    5.13344   3.11465    0.002
 4907.00    5.74527   3.15162    0.002
 4908.00    5.27184   3.18039    0.002
 4909.00    4.99013   3.17052    0.002
 4910.00    5.48871   3.11329    0.002
 4911.00    5.93313   3.03417    0.002
 4912.00    6.19480   2.97139    0.002
 4913.00    6.22115   2.95273    0.002
 4914.00    5.57755   2.98448    0.002
 4915.00    5.22081   3.04827    0.002
 4916.00    5.56190   3.11119    0.002
 4917.00    5.61347   3.13904    0.002
 4918.00    5.05733   3.10166    0.002
 4919.00    4.88650   2.98603    0.002
 4920.00    5.41870   2.81446    0.002
 4921.00    5.21452   2.64414    0.002
 4922.00    3.83598   2.54025    0.002
 4923.00    3.50731   2.53456    0.002
 4924.00    4.64794   2.61048    0.002
 4925.00    4.62709   2.72289    0.002
 4926.00    3.17574   2.83251    0.002
 4927.00    3.29730   2.92847    0.002
 4928.00    5.12645   3.02496    0.002
 4929.00    6.00467   3.12974    0.002
 4930.00    5.97231   3.22640    0.002
 4931.00    5.83005   3.29905    0.002
 4932.00    5.59498   3.33305    0.002
 4933.00    5.27822   3.31424    0.002
 4934.00    4.90073   3.25511    0.002
 4935.00    4.57491   3.18000    0.002
 4936.00    4.28285   3.10596    0.002
 4937.00    3.80410   3.04417    0.002
 4938.00    3.21863   2.98480    0.002
 4939.00    3.48320   2.91511    0.002
 4940.00    4.17095   2.85557    0.000
 4941.00    4.00115   2.84419    0.000
 4942.00    3.46207   2.90276    0.000
 4943.00    4.22410   3.01865    0.000
 4944.00    5.46650   3.14616    0.000
 4945.00    5.38201   3.24219    0.000
 4946.00    4.88243   3.29692    0.000
 4947.00    4.60785   3.31962    0.000
 4948.00    4.39198   3.32624    0.000
 4949.00    4.07762   3.33856    0.000
 4950.00    3.74228   3.36592    0.000
 4951.00    4.01109   3.39807    0.000
 4952.00    4.38170   3.42006    0.000
 4953.00    4.59174   3.42149    0.000
 4954.00    4.78136   3.39449    0.000
 4955.00    4.30995   3.33124    0.000
 4956.00    3.77990   3.22785    0.000
 4957.00    4.48718   3.08799    0.000
 4958.00    5.25975   2.93886    0.000
 4959.00    5.18091   2.82389    0.000
 4960.00    5.08930   2.78435    0.000
 4961.00    5.27290   2.84385    0.000
 4962.00    5.45861   2.96962    0.000
 4963.00    5.69001   3.09163    0.000
 4964.00    5.87990   3.16071    0.000
 4965.00    5.56008   3.16663    0.000
 4966.00    5.29412   3.12543    0.000
 4967.00    5.47929   3.05829    0.000
 4968.00    5.51619   2.99168    0.000
 4969.00    4.62723   2.95603    0.000
 4970.00    3.85437   2.95990    0.000
 4971.00    3.65074   2.99489    0.000
 4972.00    3.70505   3.05178    0.000
 4973.00    4.78621   3.11675    0.000
 4974.00    5.60102   3.17983    0.000
 4975.00    5.53470   3.22995    0.000
 4976.00    5.55286   3.25506    0.000
 4977.00    5.80715   3.25002    0.000
 4978.00    5.50243   3.21068    0.000
 4979.00    3.86076   3.14429    0.000
 4980.00    3.28593   3.06344    0.000
 4981.00    4.91476   2.97168    0.000
 4982.00    5.74021   2.87336    0.000
 4983.00    5.12223   2.77556    0.000
 4984.00    4.29535   2.68761    0.000
 4985.00    3.14024   2.63106    0.000
 4986.00    2.77437   2.63452    0.000
 4987.00    3.49711   2.70250    0.000
 4988.00    4.07471   2.80532    0.000
 4989.00    4.47606   2.91026    0.000
 4990.00    4.86212   2.99197    0.000
 4991.00    5.23181   3.03413    0.000
 4992.00    5.14966   3.04645    0.000
 4993.00    4.64091   3.04585    0.000
 4994.00    4.44651   3.04489    0.000
 4995.00    4.51378   3.05476    0.000
 4996.00    4.64904   3.06689    0.000
 4997.00    4.83412   3.07399    0.000
 4998.00    4.94354   3.07590    0.000
 4999.00    5.00428   3.05597    0.000
 5000.00    4.95440   3.00707    0.000
 5001.00    4.84225   2.93979    0.000
 5002.00    5.24022   2.86676    0.000
 5003.00    5.88813   2.80730    0.000
 5004.00    5.16951   2.76764    0.000
 5005.00    3.87225   2.73332    0.000
 5006.00    4.46223   2.69532    0.000
 5007.00    5.73653   2.66245    0.000
 5008.00    6.01725   2.65350    0.000
 5009.00    5.99317   2.68368    0.000
 5010.00    5.51738   2.74996    0.000
 5011.00    4.92625   2.81700    0.000
 5012.00    5.57448   2.83769    0.000
 5013.00    6.48021   2.79928    0.000
 5014.00    5.33971   2.72126    0.000
 5015.00    3.86424   2.63820    0.000
 5016.00    4.21730   2.58740    0.000
 5017.00    4.79475   2.58219    0.000
 5018.00    5.25417   2.61512    0.000
 5019.00    5.70360   2.66480    0.000
 5020.00    5.40965   2.70630    0.000
 5021.00    5.07937   2.73316    0.000
 5022.00    6.10146   2.74934    0.000
 5023.00    7.12186   2.75990    0.000
 5024.00    6.76456   2.77251    0.000
 5025.00    6.39826   2.79515    0.000
 5026.00    5.85127   2.83185    0.000
 5027.00    5.25398   2.86642    0.000
 5028.00    4.06908   2.88456    0.000
 5029.00    3.11490   2.89603    0.002
 5030.00    4.02344   2.91377    0.002
 5031.00    4.84131   2.95677    0.002
 5032.00    5.10947   3.03084    0.002
 5033.00    5.36518   3.11155    0.002
 5034.00    5.56130   3.17393    0.002
 5035.00    5.60130   3.19723    0.002
 5036.00    5.03321   3.16860    0.002
 5037.00    4.50888   3.09591    0.002
 5038.00    4.12653   2.99578    0.002
 5039.00    3.81809   2.89049    0.002
 5040.00    3.71259   2.79243    0.002
 5041.00    4.03071   2.69304    0.002
 5042.00    5.34496   2.60883    0.002
 5043.00    5.88084   2.58041    0.002
 5044.00    4.83450   2.63534    0.002
 5045.00    4.06543   2.77684    0.002
 5046.00    3.78696   2.95697    0.002
 5047.00    3.98840   3.10460    0.002
 5048.00    4.93279   3.17909    0.002
 5049.00    5.06541   3.17050    0.002
 5050.00    4.09443   3.09439    0.002
 5051.00    3.63689   2.99197    0.002
 5052.00    3.79391   2.91354    0.002
 5053.00    4.11347   2.88909    0.002
 5054.00    4.60459   2.91641    0.002
 5055.00    5.11208   2.97952    0.002
 5056.00    5.63483   3.06105    0.002
 5057.00    5.35954   3.14144    0.002
 5058.00    4.42936   3.20595    0.002
 5059.00    3.63714   3.25040    0.002
 5060.00    2.94458   3.28412    0.002
 5061.00    2.94899   3.31563    0.002
 5062.00    3.39532   3.33859    0.002
 5063.00    3.72295   3.34138    0.002
 5064.00    3.98477   3.30862    0.002
 5065.00    4.75946   3.23323    0.002
 5066.00    5.78141   3.13246    0.002
 5067.00    5.37261   3.03246    0.002
 5068.00    4.36818   2.96410    0.002
 5069.00    3.48746   2.94531    0.002
 5070.00    2.65078   2.95779    0.002
 5071.00    2.05942   2.97791    0.002
 5072.00    1.54184   2.99928    0.002
 5073.00    3.22787   3.01909    0.002
 5074.00    5.46430   3.02829    0.002
 5075.00    5.66986   3.02831    0.002
 5076.00    5.46389   3.03403    0.002
 5077.00    5.46376   3.04137    0.002
 5078.00    5.49634   3.02629    0.002
 5079.00    4.51520   2.97726    0.002
 5080.00    3.41414   2.90294    0.002
 5081.00    3.18486   2.81506    0.002
 5082.00    3.02567   2.73335    0.002
 5083.00    4.13725   2.69392    0.002
 5084.00    5.30601   2.71375    0.002
 5085.00    5.37843   2.77232    0.002
 5086.00    5.44859   2.84400    0.002
 5087.00    6.05302   2.91843    0.002
 5088.00    6.54749   2.98809    0.002
 5089.00    4.99694   3.04415    0.002
 5090.00    3.70152   3.08612    0.002
 5091.00    5.24757   3.12134    0.002
 5092.00    6.51791   3.15763    0.002
 5093.00    5.64009   3.19524    0.002
 5094.00    4.88969   3.22696    0.002
 5095.00    4.88997   3.24378    0.002
 5096.00    4.75286   3.23317    0.002
 5097.00    3.97455   3.18344    0.002
 5098.00    3.45279   3.09815    0.002
 5099.00    3.90893   3.00002    0.002
 5100.00    3.99597   2.92029    0.002
 5101.00    2.90898   2.88103    0.002
 5102.00    2.26116   2.89048    0.002
 5103.00    2.79739   2.94067    0.002
 5104.00    3.49029   2.99902    0.002
 5105.00    4.54544   3.03164    0.002
 5106.00    5.03826   3.02832    0.002
 5107.00    4.40610   2.99756    0.002
 5108.00    4.06862   2.95551    0.002
 5109.00    4.24462   2.91321    0.002
 5110.00    4.20305   2.87658    0.002
 5111.00    3.82965   2.86138    0.002
 5112.00    3.61752   2.87545    0.002
 5113.00    3.62151   2.91242    0.002
 5114.00    3.49844   2.97199    0.002
 5115.00    3.22544   3.04350    0.002
 5116.00    3.66947   3.11100    0.002
 5117.00    4.85960   3.17440    0.002
 5118.00    5.83558   3.22980    0.002
 5119.00    6.61501   3.26735    0.002
 5120.00    7.10033   3.28019    0.002
 5121.00    7.34771   3.25819    0.002
 5122.00    7.05244   3.19670    0.002
 5123.00    6.37087   3.10220    0.002
 5124.00    5.31516   2.99277    0.002
 5125.00    4.02573   2.89192    0.002
 5126.00    3.15174   2.81412    0.002
 5127.00    2.50454   2.76942    0.002
 5128.00    2.79204   2.75929    0.002
 5129.00    3.52298   2.76867    0.002
 5130.00    3.74509   2.78676    0.002
 5131.00    3.75896   2.81802    0.002
 5132.00    4.06985   2.86593    0.002
 5133.00    4.48457   2.92686    0.002
 5134.00    5.42842   2.99417    0.002
 5135.00    6.52825   3.05562    0.002
 5136.00    6.23044   3.09531    0.002
 5137.00    5.59120   3.10652    0.002
 5138.00    5.13391   3.08917    0.002
 5139.00    4.71257   3.04179    0.002
 5140.00    4.90585   2.98372    0.002
 5141.00    5.19390   2.93918    0.002
 5142.00    4.64771   2.91148    0.002
 5143.00    4.00652   2.90347    0.002
 5144.00    3.09030   2.90553    0.002
 5145.00    2.15310   2.89718    0.002
 5146.00    5.13273   2.88463    0.002
 5147.00    8.27352   2.87669    0.002
 5148.00    6.13372   2.86505    0.002
 5149.00    3.97927   2.85231    0.002
 5150.00    3.03688   2.84678    0.002
 5151.00    2.20254   2.84772    0.002
 5152.00    3.24064   2.84891    0.002
 5153.00    4.18264   2.84303    0.002
 5154.00    4.10231   2.83557    0.002
 5155.00    3.94064   2.84483    0.002
 5156.00    3.16680   2.88313    0.002
 5157.00    2.60651   2.95156    0.002
 5158.00    3.26943   3.03969    0.002
 5159.00    4.06393   3.12618    0.002
 5160.00    5.45784   3.19310    0.002
 5161.00    6.48438   3.22726    0.002
 5162.00    6.14027   3.22057    0.002
 5163.00    5.62370   3.17829    0.002
 5164.00    4.56906   3.09931    0.002
 5165.00    4.11995   2.97198    0.002
 5166.00    5.27457   2.79753    0.002
 5167.00    5.79963   2.58922    0.002
 5168.00    4.89314   2.37504    0.002
 5169.00    4.30527   2.20064    0.002
 5170.00    4.34480   2.10071    0.002
 5171.00    4.21703   2.06988    0.002
 5172.00    3.80217   2.07051    0.002
 5173.00    3.42860   2.06973    0.002
 5174.00    3.11710   2.06856    0.002
 5175.00    3.43870   2.10265    0.002
 5176.00    4.59650   2.21090    0.002
 5177.00    5.09648   2.38977    0.002
 5178.00    4.83117   2.58282    0.002
 5179.00    4.73522   2.72766    0.002
 5180.00    4.81300   2.79754    0.002
 5181.00    4.92637   2.78795    0.002
 5182.00    5.07194   2.69719    0.002
 5183.00    5.24251   2.53939    0.002
 5184.00    5.43301   2.36228    0.002
 5185.00    4.62502   2.23233    0.002
 5186.00    3.11649   2.20485    0.002
 5187.00    2.94835   2.30415    0.002
 5188.00    3.60506   2.50203    0.002
 5189.00    4.15197   2.72499    0.002
 5190.00    4.63988   2.90103    0.000
 5191.00    4.37559   2.98955    0.000
 5192.00    3.76019   2.99369    0.000
 5193.00    3.97114   2.94477    0.000
 5194.00    4.51449   2.87243    0.000
 5195.00    3.85340   2.81286    0.000
 5196.00    2.77893   2.80582    0.000
 5197.00    3.40216   2.85451    0.000
 5198.00    4.51587   2.93122    0.000
 5199.00    4.09969   3.01822    0.000
 5200.00    3.31811   3.10313    0.000
 5201.00    4.00294   3.16611    0.000
 5202.00    4.97006   3.19284    0.000
 5203.00    5.65139   3.17678    0.000
 5204.00    6.28998   3.11130    0.000
 5205.00    5.37119   2.99894    0.000
 5206.00    4.28185   2.85922    0.000
 5207.00    6.23805   2.71407    0.000
 5208.00    8.41417   2.58602    0.000
 5209.00    6.74532   2.50790    0.000
 5210.00    4.93294   2.49871    0.000
 5211.00    4.97409   2.55484    0.002
 5212.00    5.02662   2.67074    0.002
 5213.00    5.17997   2.82882    0.002
 5214.00    5.30704   2.98849    0.002
 5215.00    5.00812   3.10765    0.002
 5216.00    4.82756   3.16727    0.002
 5217.00    5.85173   3.17838    0.002
 5218.00    6.60582   3.17299    0.002
 5219.00    5.39449   3.18535    0.002
 5220.00    4.35861   3.23037    0.002
 5221.00    4.30020   3.29577    0.002
 5222.00    4.25146   3.35023    0.002
 5223.00    4.24572   3.36296    0.002
 5224.00    4.47368   3.31808    0.002
 5225.00    5.55545   3.21477    0.002
 5226.00    5.97610   3.06762    0.002
 5227.00    4.37319   2.91485    0.002
 5228.00    3.54082   2.81104    0.002
 5229.00    4.71347   2.79258    0.002
 5230.00    5.09978   2.86218    0.002
 5231.00    3.72745   2.99325    0.002
 5232.00    3.13204   3.12602    0.002
 5233.00    4.04250   3.20637    0.002
 5234.00    4.74996   3.22906    0.002
 5235.00    5.11431   3.22177    0.002
 5236.00    5.12538   3.22239    0.002
 5237.00    4.61323   3.26114    0.002
 5238.00    4.19933   3.33659    0.002
 5239.00    3.91334   3.42221    0.002
 5240.00    3.78011   3.49113    0.002
 5241.00    3.82209   3.53005    0.002
 5242.00    3.99481   3.54163    0.002
 5243.00    4.29978   3.54125    0.002
 5244.00    4.07020   3.54340    0.002
 5245.00    3.36373   3.54460    0.002
 5246.00    3.82568   3.52641    0.002
 5247.00    5.20618   3.47799    0.002
 5248.00    5.87461   3.40312    0.002
 5249.00    6.05069   3.30941    0.002
 5250.00    5.91310   3.21606    0.002
 5251.00    5.58534   3.15519    0.002
 5252.00    5.00645   3.13670    0.002
 5253.00    4.29465   3.14399    0.002
 5254.00    4.48894   3.16602    0.002
 5255.00    5.09930   3.20115    0.002
 5256.00    5.85480   3.24848    0.002
 5257.00    6.66768   3.30754    0.002
 5258.00    5.71241   3.38096    0.002
 5259.00    4.16152   3.46676    0.002
 5260.00    4.60307   3.53944    0.002
 5261.00    5.60860   3.55784    0.002
 5262.00    5.68882   3.49676    0.002
 5263.00    5.55304   3.36149    0.002
 5264.00    4.64921   3.17892    0.002
 5265.00    3.60137   2.98359    0.002
 5266.00    3.16342   2.81153    0.002
 5267.00    2.81381   2.69232    0.002
 5268.00    2.32096   2.62443    0.002
 5269.00    1.81305   2.58208    0.002
 5270.00    4.31682   2.55620    0.002
 5271.00    7.02589   2.55396    0.002
 5272.00    6.07497   2.58220    0.002
 5273.00    5.00129   2.65984    0.002
 5274.00    4.91167   2.79681    0.002
 5275.00    4.83451   2.95537    0.002
 5276.00    5.12198   3.09110    0.002
 5277.00    5.38466   3.20148    0.002
 5278.00    5.26999   3.30240    0.002
 5279.00    5.06071   3.39908    0.002
 5280.00    3.92863   3.47978    0.002
 5281.00    2.92171   3.51878    0.002
 5282.00    2.79605   3.49898    0.002
 5283.00    2.90932   3.43415    0.002
 5284.00    4.31806   3.36435    0.002
 5285.00    5.25848   3.33517    0.002
 5286.00    4.16377   3.36947    0.002
 5287.00    3.45176   3.45920    0.002
 5288.00    4.10910   3.57830    0.002
 5289.00    4.46661   3.69368    0.002
 5290.00    3.92362   3.77726    0.002
 5291.00    3.43623   3.82200    0.002
 5292.00    3.09098   3.83942    0.002
 5293.00    3.59480   3.83952    0.002
 5294.00    5.96648   3.82084    0.002
 5295.00    6.84930   3.77428    0.002
 5296.00    4.89129   3.69211    0.002
 5297.00    3.84611   3.57680    0.002
 5298.00    4.32080   3.44561    0.002
 5299.00    4.48763   3.32687    0.002
 5300.00    4.20514   3.24770    0.002
 5301.00    3.88300   3.22746    0.002
 5302.00    3.50997   3.27136    0.002
 5303.00    3.63650   3.36091    0.002
 5304.00    4.32793   3.46793    0.002
 5305.00    4.90001   3.57900    0.002
 5306.00    5.35307   3.68849    0.002
 5307.00    4.91533   3.78089    0.002
 5308.00    3.69406   3.84237    0.002
 5309.00    3.34471   3.87380    0.002
 5310.00    3.67106   3.88728    0.002
 5311.00    4.40473   3.89666    0.002
 5312.00    5.41592   3.90611    0.002
 5313.00    5.79892   3.90692    0.002
 5314.00    5.80679   3.89104    0.002
 5315.00    5.42423   3.86066    0.002
 5316.00    4.83827   3.82323    0.002
 5317.00    5.25449   3.78736    0.002
 5318.00    6.12341   3.75871    0.002
 5319.00    6.15607   3.73638    0.002
 5320.00    5.86384   3.71901    0.002
 5321.00    4.95712   3.70528    0.002
 5322.00    3.84727   3.68714    0.002
 5323.00    4.29421   3.65266    0.002
 5324.00    5.17280   3.59714    0.002
 5325.00    4.54059   3.52553    0.002
 5326.00    3.56379   3.43828    0.002
 5327.00    3.51117   3.32771    0.002
 5328.00    3.62724   3.19837    0.002
 5329.00    3.56719   3.07839    0.002
 5330.00    3.48243   2.99869    0.002
 5331.00    4.19905   2.98589    0.002
 5332.00    4.99651   3.06018    0.002
 5333.00    3.92388   3.20920    0.002
 5334.00    2.73129   3.38237    0.002
 5335.00    3.82086   3.53003    0.002
 5336.00    4.97559   3.63658    0.002
 5337.00    4.98133   3.70856    0.002
 5338.00    4.96300   3.74646    0.002
 5339.00    4.25656   3.73683    0.002
 5340.00    3.61325   3.67669    0.002
 5341.00    3.87566   3.59133    0.002
 5342.00    4.15532   3.51629    0.002
 5343.00    4.59638   3.47496    0.002
 5344.00    4.91873   3.47948    0.002
 5345.00    4.43152   3.52287    0.002
 5346.00    3.95352   3.57397    0.002
 5347.00    3.52413   3.60152    0.002
 5348.00    3.20112   3.59623    0.002
 5349.00    3.32991   3.57183    0.002
 5350.00    3.67901   3.55476    0.002
 5351.00    4.80035   3.56454    0.002
 5352.00    5.41014   3.60436    0.002
 5353.00    4.51212   3.67458    0.002
 5354.00    3.77378   3.77071    0.002
 5355.00    3.43665   3.87369    0.002
 5356.00    3.52081   3.96277    0.002
 5357.00    4.51667   4.03240    0.002
 5358.00    5.27153   4.08361    0.002
 5359.00    5.57363   4.11229    0.002
 5360.00    5.91737   4.11387    0.002
 5361.00    6.32939   4.09000    0.002
 5362.00    6.23615   4.04503    0.002
 5363.00    5.41620   3.98596    0.002
 5364.00    5.08038   3.91877    0.002
 5365.00    5.35703   3.84927    0.002
 5366.00    5.61871   3.78681    0.002
 5367.00    5.86369   3.73379    0.002
 5368.00    5.58878   3.68259   -2.000
 5369.00    4.80266   3.62296   -2.000
 5370.00    4.21772   3.54656   -2.000
 5371.00    3.80724   3.45519   -2.000
 5372.00    4.69650   3.37389   -2.000
 5373.00    6.57863   3.33822   -2.000
 5374.00    6.69416   3.37191   -2.000
 5375.00    5.62354   3.47757   -2.000
 5376.00    5.68959   3.62451   -2.000
 5377.00    6.42423   3.76140   -2.000
 5378.00    6.10728   3.85312   -2.000
 5379.00    5.25103   3.89842   -2.000
 5380.00    4.80933   3.91127   -2.000
 5381.00    4.55180   3.90738   -2.000
 5382.00    4.76262   3.89539   -2.000
 5383.00    5.15220   3.87328    0.002
 5384.00    5.31130   3.84551    0.002
 5385.00    5.39564   3.82559    0.002
 5386.00    5.03929   3.81943    0.002
 5387.00    4.56328   3.82279    0.002
 5388.00    3.99487   3.82611    0.002
 5389.00    3.40589   3.81315    0.002
 5390.00    4.40444   3.77331    0.002
 5391.00    5.68498   3.71376    0.002
 5392.00    5.17862   3.64906    0.002
 5393.00    4.42983   3.59072    0.002
 5394.00    3.68971   3.54620    0.002
 5395.00    2.95043   3.51397    0.002
 5396.00    2.92359   3.48002    0.002
 5397.00    2.93961   3.43578    0.002
 5398.00    3.23210   3.39518    0.002
 5399.00    3.52927   3.37740    0.002
 5400.00    3.40733   3.38973    0.002
 5401.00    3.35398   3.43558    0.002
 5402.00    5.06921   3.50567    0.002
 5403.00    6.59164   3.55814    0.002
 5404.00    5.50049   3.55303    0.002
 5405.00    4.50455   3.48921    0.002
 5406.00    4.36488   3.39137    0.002
 5407.00    4.34677   3.29222    0.002
 5408.00    5.13200   3.22401    0.002
 5409.00    5.67397   3.20549    0.002
 5410.00    4.96470   3.23572    0.002
 5411.00    4.28381   3.30067    0.002
 5412.00    3.72071   3.38054    0.002
 5413.00    3.46792   3.46569    0.002
 5414.00    4.28093   3.55923    0.002
 5415.00    4.84967   3.65935    0.002
 5416.00    4.71170   3.75111    0.002
 5417.00    4.57810   3.82247    0.002
 5418.00    4.45529   3.87324    0.002
 5419.00    4.47037   3.90595    0.002
 5420.00    4.77902   3.91799    0.002
 5421.00    5.04754   3.90671    0.002
 5422.00    5.24187   3.87778    0.002
 5423.00    5.09741   3.84082    0.002
 5424.00    4.40554   3.80578    0.002
 5425.00    3.98001   3.78580    0.002
 5426.00    3.93198   3.78572    0.002
 5427.00    3.87884   3.79680    0.002
 5428.00    3.81932   3.80461    0.002
 5429.00    3.87896   3.79230    0.002
 5430.00    4.06959   3.74965    0.002
 5431.00    4.40511   3.68224    0.002
 5432.00    4.88110   3.60418    0.002
 5433.00    5.18632   3.53570    0.002
 5434.00    5.34553   3.49436    0.002
 5435.00    5.09782   3.47431    0.002
 5436.00    4.54371   3.46165    0.002
 5437.00    4.39749   3.46867    0.002
 5438.00    4.52112   3.52025    0.002
 5439.00    4.23331   3.62138    0.002
 5440.00    3.70714   3.75441    0.002
 5441.00    4.51579   3.89068    0.002
 5442.00    5.99825   4.00326    0.002
 5443.00    5.83955   4.07230    0.002
 5444.00    4.96370   4.08606    0.002
 5445.00    4.63613   4.04043    0.002
 5446.00    4.51418   3.93979    0.002
 5447.00    4.87351   3.80643    0.002
 5448.00    5.38598   3.67934    0.002
 5449.00    5.38258   3.59661    0.002
 5450.00    5.24205   3.57956    0.002
 5451.00    5.16624   3.62411    0.002
 5452.00    5.10451   3.69716    0.002
 5453.00    5.41753   3.74915    0.002
 5454.00    5.79528   3.74676    0.002
 5455.00    5.45828   3.69066    0.002
 5456.00    5.02754   3.61155    0.002
 5457.00    4.63862   3.55057    0.002
 5458.00    4.25357   3.53563    0.002
 5459.00    4.32963   3.57308    0.002
 5460.00    4.43161   3.64627    0.002
 5461.00    4.84585   3.71955    0.002
 5462.00    5.26184   3.75524    0.002
 5463.00    5.13296   3.74268    0.002
 5464.00    4.97972   3.70560    0.002
 5465.00    4.25459   3.67587    0.002
 5466.00    3.62963   3.66955    0.002
 5467.00    4.29130   3.68877    0.002
 5468.00    4.89055   3.72565    0.002
 5469.00    4.94968   3.75935    0.002
 5470.00    5.11077   3.77191    0.002
 5471.00    5.92541   3.76440    0.002
 5472.00    6.64327   3.74322    0.002
 5473.00    6.87603   3.70880    0.002
 5474.00    6.74099   3.66592    0.002
 5475.00    5.11314   3.61936    0.002
 5476.00    3.93635   3.56400    0.002
 5477.00    4.27790   3.50340    0.002
 5478.00    4.56500   3.46006   -2.000
 5479.00    4.69741   3.44845   -2.000
 5480.00    5.24987   3.46234   -2.000
 5481.00    6.82205   3.49165   -2.000
 5482.00    7.58844   3.52776   -2.000
 5483.00    6.66680   3.55894   -2.000
 5484.00    6.13022   3.58592   -2.000
 5485.00    6.29488   3.62444   -2.000
 5486.00    6.66986   3.67909   -2.000
 5487.00    7.37962   3.73105   -2.000
 5488.00    7.24218   3.75994   -2.000
 5489.00    5.92124   3.76142   -2.000
 5490.00    5.19874   3.74469   -2.000
 5491.00    5.21194   3.73007   -2.000
 5492.00    5.13097   3.73314   -2.000
 5493.00    4.94794   3.74928   -2.000
 5494.00    5.10091   3.76538   -2.000
 5495.00    5.57505   3.77585   -2.000
 5496.00    5.45702   3.77753   -2.000
 5497.00    4.83989   3.76958   -2.000
 5498.00    4.60869   3.76273   -2.000
 5499.00    4.66393   3.76664   -2.000
 5500.00    4.27327   3.77535   -2.000
 5501.00    3.59192   3.77931   -2.000
 5502.00    3.66458   3.77627    0.002
 5503.00    4.16746   3.76319    0.002
 5504.00    4.62224   3.73595    0.002
 5505.00    5.05313   3.69953    0.002
 5506.00    4.83353   3.66517    0.002
 5507.00    4.33440   3.64329    0.002
 5508.00    4.12400   3.63788    0.002
 5509.00    4.01996   3.64569    0.002
 5510.00    4.13460   3.66128    0.002
 5511.00    4.31748   3.67495    0.002
 5512.00    4.82678   3.67092    0.002
 5513.00    5.42102   3.64055    0.002
 5514.00    5.20189   3.59367    0.002
 5515.00    4.81009   3.55296    0.002
 5516.00    4.31742   3.53942    0.002
 5517.00    3.80782   3.56476    0.002
 5518.00    3.52785   3.62783    0.002
 5519.00    3.27695   3.71306    0.002
 5520.00    3.98981   3.80031    0.002
 5521.00    4.78766   3.87401    0.002
 5522.00    4.20696   3.92505    0.002
 5523.00    3.55419   3.94960    0.002
 5524.00    4.19360   3.95020    0.002
 5525.00    4.85279   3.93317    0.002
 5526.00    5.18413   3.90143    0.002
 5527.00    5.47091   3.85251    0.002
 5528.00    4.79860   3.78867    0.002
 5529.00    4.16287   3.72634    0.002
 5530.00    3.97343   3.68623    0.002
 5531.00    3.84333   3.67968    0.002
 5532.00    4.20785   3.70521    0.002
 5533.00    4.46349   3.75029    0.002
 5534.00    4.04180   3.79326    0.002
 5535.00    3.83685   3.81538    0.002
 5536.00    4.69130   3.81689    0.002
 5537.00    5.23085   3.81032    0.002
 5538.00    4.52021   3.80741    0.004
 5539.00    3.97274   3.81678   -1.000
 5540.00    3.96370   3.84201   -1.000
 5541.00    4.01787   3.87860   -1.000
 5542.00    4.24831   3.91491   -1.000
 5543.00    4.56370   3.94058   -1.000
 5544.00    5.08183   3.95138   -1.000
 5545.00    5.46143   3.94698    0.010
 5546.00    5.55549   3.93303    0.002
 5547.00    5.42099   3.92396    0.002
 5548.00    4.87663   3.93331    0.002
 5549.00    4.51767   3.96229    0.002
 5550.00    4.44945   4.00258    0.002
 5551.00    4.29881   4.04360    0.002
 5552.00    4.03469   4.07328    0.002
 5553.00    3.78215   4.08015    0.002
 5554.00    3.54365   4.06193    0.002
 5555.00    3.32163   4.02876    0.002
 5556.00    3.11723   3.99352    0.002
 5557.00    3.35365   3.96434    0.002
 5558.00    4.00552   3.94584    0.002
 5559.00    4.37755   3.93857    0.002
 5560.00    4.51704   3.93678    0.002
 5561.00    4.68148   3.93244    0.002
 5562.00    4.86415   3.92065    0.002
 5563.00    4.97370   3.90222    0.002
 5564.00    5.03629   3.88029    0.002
 5565.00    4.98602   3.85530    0.002
 5566.00    4.87235   3.82894    0.002
 5567.00    4.76484   3.80568    0.002
 5568.00    4.66035   3.78750    0.002
 5569.00    4.48298   3.77347    0.002
 5570.00    4.27480   3.76594    0.002
 5571.00    3.87353   3.76894    0.002
 5572.00    3.40240   3.77744    0.002
 5573.00    3.14441   3.78583    0.002
 5574.00    2.95165   3.79699    0.002
 5575.00    3.02378   3.81304    0.002
 5576.00    3.16336   3.83303    0.002
 5577.00    3.62317   3.85795    0.002
 5578.00    4.14931   3.88737    0.002
 5579.00    4.44179   3.91542    0.002
 5580.00    4.69617   3.93549    0.002
 5581.00    4.06321   3.94577    0.002
 5582.00    3.32184   3.94699    0.002
 5583.00    3.91618   3.93770    0.002
 5584.00    4.62274   3.91438    0.002
 5585.00    5.03975   3.87248    0.002
 5586.00    5.44275   3.80679    0.002
 5587.00    4.48899   3.71892    0.002
 5588.00    3.53765   3.62096    0.002
 5589.00    3.93826   3.53020    0.002
 5590.00    4.31716   3.46749    0.002
 5591.00    4.26499   3.44749    0.002
 5592.00    4.23138   3.46939    0.002
 5593.00    4.41332   3.51985    0.002
 5594.00    4.56939   3.58070    0.002
 5595.00    4.51755   3.64235    0.002
 5596.00    4.46448   3.70268    0.002
 5597.00    4.40407   3.75545    0.002
 5598.00    4.43137   3.79205    0.002
 5599.00    4.87693   3.80552    0.002
 5600.00    5.05413   3.79107    0.002
 5601.00    4.18893   3.74983    0.002
 5602.00    3.48660   3.69472    0.002
 5603.00    3.31124   3.65110    0.002
 5604.00    3.29973   3.64349    0.002
 5605.00    3.73698   3.67971    0.002
 5606.00    4.00288   3.75441    0.002
 5607.00    3.86674   3.85349    0.002
 5608.00    3.71709   3.95463    0.002
 5609.00    3.54001   4.03676    0.002
 5610.00    3.79202   4.08821    0.002
 5611.00    4.80174   4.11171    0.002
 5612.00    5.25203   4.11636    0.002
 5613.00    4.83791   4.10462    0.002
 5614.00    4.15295   4.06741    0.002
 5615.00    3.10046   3.99493    0.002
 5616.00    2.81451   3.89620    0.002
 5617.00    3.44442   3.79585    0.002
 5618.00    4.02818   3.71919    0.002
 5619.00    4.56334   3.68348    0.002
 5620.00    4.79480   3.69210    0.002
 5621.00    4.74408   3.73373    0.002
 5622.00    4.33069   3.78204    0.002
 5623.00    3.62023   3.81012    0.002
 5624.00    3.17920   3.80740    0.002
 5625.00    2.93244   3.77993    0.002
 5626.00    2.91784   3.74320    0.002
 5627.00    3.05017   3.71472    0.002
 5628.00    3.01629   3.71181    0.002
 5629.00    2.89044   3.74586    0.002
 5630.00    2.97523   3.81277    0.002
 5631.00    3.16136   3.89282    0.002
 5632.00    3.70786   3.96214    0.002
 5633.00    4.40407   4.00647    0.002
 5634.00    4.97185   4.02169    0.002
 5635.00    5.49400   4.00854    0.002
 5636.00    5.25367   3.97282    0.002
 5637.00    4.78458   3.92552    0.002
 5638.00    4.64949   3.87954    0.002
 5639.00    4.59759   3.84459    0.002
 5640.00    5.10106   3.82315    0.002
 5641.00    5.71672   3.81147    0.002
 5642.00    5.34110   3.80604    0.002
 5643.00    4.80854   3.80480    0.002
 5644.00    4.26103   3.80706    0.002
 5645.00    3.71177   3.81511    0.002
 5646.00    3.58530   3.83166    0.002
 5647.00    3.49261   3.85674    0.002
 5648.00    3.89593   3.88409    0.002
 5649.00    4.32132   3.90625    0.002
 5650.00    4.55870   3.92244    0.002
 5651.00    4.77237   3.93660    0.002
 5652.00    3.93521   3.95223    0.002
 5653.00    3.14337   3.96814    0.002
 5654.00    3.18676   3.97795    0.002
 5655.00    3.24420   3.97610    0.002
 5656.00    3.45717   3.95986    0.002
 5657.00    3.66911   3.92408    0.002
 5658.00    3.87306   3.86721    0.002
 5659.00    4.06654   3.80156    0.002
 5660.00    4.19864   3.74529    0.002
 5661.00    4.18342   3.70811    0.002
 5662.00    3.48283   3.69295    0.002
 5663.00    2.96183   3.70257    0.002
 5664.00    3.12350   3.73721    0.002
 5665.00    3.32637   3.78701    0.002
 5666.00    3.65996   3.83713    0.002
 5667.00    3.79456   3.87819    0.002
 5668.00    3.39384   3.90654    0.002
 5669.00    3.09257   3.92001    0.002
 5670.00    3.02076   3.92104    0.002
 5671.00    3.14111   3.92069    0.002
 5672.00    3.64512   3.93343    0.002
 5673.00    4.00606   3.96673    0.002
 5674.00    4.11814   4.01515    0.002
 5675.00    4.19972   4.06666    0.002
 5676.00    4.23486   4.11199    0.002
 5677.00    4.29733   4.14505    0.002
 5678.00    4.39637   4.16139    0.002
 5679.00    4.51353   4.16068    0.002
 5680.00    4.65205   4.14642    0.002
 5681.00    4.88203   4.12072    0.002
 5682.00    5.20701   4.08312    0.002
 5683.00    5.33344   4.03836    0.002
 5684.00    5.27796   3.99698    0.002
 5685.00    5.05068   3.96630    0.002
 5686.00    4.68467   3.94539    0.002
 5687.00    4.63737   3.92969    0.002
 5688.00    4.81656   3.91716    0.002
 5689.00    4.86550   3.90995    0.002
 5690.00    4.83322   3.91370    0.002
 5691.00    4.44497   3.93554    0.002
 5692.00    3.86276   3.97921    0.002
 5693.00    3.70128   4.03750    0.002
 5694.00    3.73899   4.09424    0.002
 5695.00    3.47186   4.13503    0.002
 5696.00    3.08025   4.15314    0.002
 5697.00    2.72970   4.14828    0.002
 5698.00    2.39347   4.12266    0.002
 5699.00    2.54119   4.08196    0.002
 5700.00    2.83124   4.03182    0.002
 5701.00    3.43801   3.97610    0.002
 5702.00    4.12193   3.92173    0.002
 5703.00    4.03240   3.87862    0.002
 5704.00    3.79058   3.85409    0.002
 5705.00    3.59921   3.84600    0.002
 5706.00    3.41559   3.84269    0.002
 5707.00    3.03012   3.83136    0.002
 5708.00    2.62177   3.80272    0.002
 5709.00    2.77334   3.75642    0.002
 5710.00    2.96733   3.70473    0.001
 5711.00    4.00058   3.66370    0.001
 5712.00    5.06795   3.64788    0.001
 5713.00    5.40259   3.66730    0.001
 5714.00    5.70577   3.72030    0.002
 5715.00    4.94501   3.79738    0.002
 5716.00    4.24154   3.88599    0.002
 5717.00    4.52228   3.97150    0.002
 5718.00    4.78428   4.04392    0.002
 5719.00    4.84794   4.09988    0.002
 5720.00    4.91466   4.14109    0.002
 5721.00    5.00420   4.17475    0.002
 5722.00    5.08782   4.20789    0.002
 5723.00    5.13766   4.24153    0.002
 5724.00    5.11834   4.27177    0.002
 5725.00    4.78486   4.29158    0.002
 5726.00    4.45931   4.29270    0.002
 5727.00    4.16325   4.27233    0.002
 5728.00    3.99698   4.23841    0.002
 5729.00    4.23463   4.20345    0.002
 5730.00    4.34961   4.17546    0.002
 5731.00    4.14043   4.15627    0.002
 5732.00    4.11534   4.14615    0.002
 5733.00    4.50796   4.14557    0.002
 5734.00    4.92109   4.15402    0.002
 5735.00    5.37450   4.17043    0.002
 5736.00    5.35969   4.19161    0.002
 5737.00    4.54284   4.21188    0.002
 5738.00    3.97835   4.22504    0.002
 5739.00    3.79245   4.22717    0.002
 5740.00    3.71969   4.22038    0.000
 5741.00    3.79607   4.21071    0.000
 5742.00    4.08086   4.20200    0.000
 5743.00    4.60769   4.19622    0.000
 5744.00    5.06343   4.19605    0.000
 5745.00    5.44635   4.20350    0.000
 5746.00    5.68829   4.21638    0.000
 5747.00    5.80289   4.22706    0.000
 5748.00    5.74230   4.22773    0.000
 5749.00    5.54225   4.21819    0.000
 5750.00    5.54169   4.20377    0.000
 5751.00    5.68083   4.18876    0.000
 5752.00    5.90767   4.17279    0.000
 5753.00    6.18837   4.15113    0.000
 5754.00    6.12454   4.12179    0.000
 5755.00    5.87590   4.09260    0.000
 5756.00    5.52575   4.07770    0.000
 5757.00    5.12832   4.08873    0.000
 5758.00    5.26758   4.12574    0.000
 5759.00    5.62226   4.17168    0.000
 5760.00    5.53542   4.20120    0.000
 5761.00    5.29740   4.19608    0.000
 5762.00    4.97496   4.15605    0.000
 5763.00    4.62820   4.10121    0.000
 5764.00    4.53861   4.06186    0.000
 5765.00    4.51025   4.05920    0.000
 5766.00    4.93808   4.09706    0.000
 5767.00    5.45343   4.16342    0.000
 5768.00    5.17539   4.23628    0.000
 5769.00    4.77918   4.29453    0.000
 5770.00    4.57125   4.32695    0.000
 5771.00    4.38385   4.33228    0.000
 5772.00    4.81594   4.31724    0.000
 5773.00    5.29246   4.29259    0.000
 5774.00    5.02797   4.26649    0.000
 5775.00    4.73617   4.24513    0.000
 5776.00    5.05303   4.23359    0.000
 5777.00    5.36184   4.23144    0.000
 5778.00    5.29082   4.23254    0.000
 5779.00    5.20898   4.22590    0.000
 5780.00    4.95297   4.19642    0.000
 5781.00    4.75822   4.13547    0.000
 5782.00    5.18360   4.04907    0.000
 5783.00    5.56945   3.95316    0.000
 5784.00    5.66886   3.86575    0.000
 5785.00    5.69345   3.80199    0.000
 5786.00    5.30259   3.77284    0.000
 5787.00    4.95519   3.78201    0.000
 5788.00    4.80050   3.82499    0.000
 5789.00    4.66314   3.89122    0.000
 5790.00    4.58891   3.96429    0.000
 5791.00    4.42026   4.02938   -2.000
 5792.00    3.96328   4.08120   -2.000
 5793.00    3.71880   4.12122   -2.000
 5794.00    4.02600   4.15625   -2.000
 5795.00    4.46961   4.19378   -2.000
 5796.00    5.21766   4.23053   -2.000
 5797.00    5.78455   4.25642   -2.000
 5798.00    6.00101   4.26687   -2.000
 5799.00    5.96561   4.26848   -2.000
 5800.00    5.50528   4.27434   -2.000
 5801.00    5.30910   4.29582   -2.000
 5802.00    5.50341   4.33349   -2.000
 5803.00    5.34134   4.37385   -2.000
 5804.00    4.71612   4.39784   -2.000
 5805.00    4.19455   4.39500   -2.000
 5806.00    3.79164   4.36742   -2.000
 5807.00    3.60089   4.32871   -2.000
 5808.00    3.62437   4.29593   -2.000
 5809.00    3.75380   4.27987   -2.000
 5810.00    3.97758   4.28256   -2.000
 5811.00    4.25100   4.29894    0.000
 5812.00    4.56340   4.31968    0.000
 5813.00    4.60476   4.33597    0.000
 5814.00    4.45908   4.34055    0.000
 5815.00    4.50959   4.32902    0.000
 5816.00    4.67880   4.30373    0.000
 5817.00    4.66154   4.27530    0.000
 5818.00    4.54579   4.25849    0.000
 5819.00    4.41800   4.26416    0.000
 5820.00    4.28469   4.29398    0.000
 5821.00    4.22224   4.33887    0.000
 5822.00    4.18773   4.38350    0.000
 5823.00    4.78167   4.41517    0.000
 5824.00    5.58681   4.42953    0.000
 5825.00    5.50084   4.43065    0.000
 5826.00    5.16329   4.42640    0.000
 5827.00    4.49268   4.42355    0.000
 5828.00    3.74455   4.42506    0.000
 5829.00    3.69987   4.43090    0.000
 5830.00    3.78664   4.43870    0.000
 5831.00    3.61830   4.44507    0.000
 5832.00    3.41315   4.44755    0.000
 5833.00    3.37791   4.44382    0.000
 5834.00    3.36045   4.43188    0.000
 5835.00    4.07538   4.41354    0.000
 5836.00    4.83987   4.39408    0.000
 5837.00    4.65346   4.37745    0.000
 5838.00    4.43560   4.36584    0.000
 5839.00    3.67126   4.36222    0.000
 5840.00    2.94603   4.36851    0.000
 5841.00    3.46674   4.38508    0.000
 5842.00    3.99332   4.41065    0.000
 5843.00    4.60869   4.44027    0.000
 5844.00    5.13462   4.46500    0.000
 5845.00    4.79258   4.47568    0.000
 5846.00    4.48520   4.46644    0.000
 5847.00    4.42095   4.43727    0.000
 5848.00    4.40658   4.39581    0.000
 5849.00    4.66179   4.35294    0.000
 5850.00    4.94101   4.31679    0.000
 5851.00    5.32430   4.28907    0.000
 5852.00    5.65177   4.26471    0.000
 5853.00    5.78005   4.23714    0.000
 5854.00    5.80503   4.20468    0.000
 5855.00    5.52052   4.16957    0.000
 5856.00    5.14433   4.13313    0.000
 5857.00    4.53428   4.09549    0.000
 5858.00    4.09741   4.05889    0.000
 5859.00    4.04072   4.02905    0.000
 5860.00    4.10668   4.01372    0.000
 5861.00    4.40620   4.01945    0.000
 5862.00    4.78317   4.04494    0.000
 5863.00    5.28883   4.08209    0.000
 5864.00    5.58866   4.12056    0.000
 5865.00    5.58862   4.15092    0.000
 5866.00    5.25969   4.16829    0.000
 5867.00    4.50941   4.17583    0.000
 5868.00    3.83890   4.18219    0.000
 5869.00    3.25844   4.19482    0.000
 5870.00    3.21036   4.21737    0.000
 5871.00    3.69227   4.24739    0.000
 5872.00    4.37974   4.27686    0.000
 5873.00    5.24768   4.29752    0.000
 5874.00    5.42490   4.30681    0.000
 5875.00    5.06780   4.30683    0.000
 5876.00    4.91946   4.30040    0.000
 5877.00    4.91310   4.28917    0.000
 5878.00    4.96121   4.27159    0.000
 5879.00    5.04179   4.24391    0.000
 5880.00    5.11990   4.20535    0.000
 5881.00    5.19673   4.16225    0.000
 5882.00    5.06349   4.12372    0.000
 5883.00    4.83555   4.09494    0.000
 5884.00    4.73798   4.07606    0.000
 5885.00    4.69094   4.06152    0.000
 5886.00    4.94040   4.03801    0.000
 5887.00    5.28763   3.98513    0.000
 5888.00    5.02441   3.87887    0.000
 5889.00    4.59236   3.70193    0.000
 5890.00    4.36400   3.46470    0.000
 5891.00    4.18196   3.21398    0.000
 5892.00    4.42273   3.00959    0.000
 5893.00    4.74042   2.89520    0.000
 5894.00    4.69176   2.87517    0.000
 5895.00    4.59193   2.91064    0.000
 5896.00    4.69659   2.95431    0.000
 5897.00    4.82178   2.99023    0.000
 5898.00    4.23793   3.03317    0.000
 5899.00    3.60895   3.11085    0.000
 5900.00    3.06526   3.24367    0.000
 5901.00    2.52539   3.42422    0.002
 5902.00    2.44196   3.61963    0.002
 5903.00    2.38598   3.79592    0.002
 5904.00    3.10407   3.93239    0.002
 5905.00    3.80055   4.02285    0.002
 5906.00    4.18921   4.07484    0.002
 5907.00    4.52322   4.10323    0.002
 5908.00    4.34829   4.12114    0.002
 5909.00    4.23120   4.13725    0.002
 5910.00    4.50701   4.15589    0.002
 5911.00    4.73368   4.17651    0.002
 5912.00    4.70172   4.19356    0.002
 5913.00    4.60939   4.19905    0.002
 5914.00    4.26141   4.18737    0.002
 5915.00    4.06508   4.15939    0.001
 5916.00    4.39893   4.12282    0.001
 5917.00    4.63145   4.09077    0.001
 5918.00    4.56601   4.07562    0.001
 5919.00    4.41745   4.08253    0.001
 5920.00    4.06050   4.10838    0.001
 5921.00    3.91555   4.14251    0.001
 5922.00    4.22843   4.17345    0.001
 5923.00    4.49455   4.19539    0.001
 5924.00    4.67298   4.20886    0.001
 5925.00    4.82865   4.21819    0.001
 5926.00    4.94705   4.22797    0.001
 5927.00    4.97930   4.23814    0.001
 5928.00    4.88788   4.24400    0.001
 5929.00    4.69179   4.24032    0.001
 5930.00    4.36353   4.22652    0.001
 5931.00    4.18361   4.20937    0.001
 5932.00    4.16879   4.19742    0.001
 5933.00    4.20353   4.19423    0.001
 5934.00    4.28691   4.19685    0.001
 5935.00    4.29396   4.20013    0.001
 5936.00    4.23494   4.20178    0.001
 5937.00    4.31413   4.20334    0.001
 5938.00    4.49873   4.20981    0.001
 5939.00    4.56511   4.22405    0.002
 5940.00    4.55225   4.24071    0.002
 5941.00    4.59957   4.25066    0.002
 5942.00    4.68222   4.24964    0.001
 5943.00    4.44623   4.24078    0.001
 5944.00    4.04716   4.23300    0.002
 5945.00    3.92143   4.23601    0.001
 5946.00    3.91691   4.25275    0.001
 5947.00    4.05884   4.27607    0.001
 5948.00    4.25655   4.29315    0.001
 5949.00    4.16851   4.29496    0.001
 5950.00    3.98801   4.28179    0.001
 5951.00    4.08409   4.26026    0.001
 5952.00    4.25508   4.23709    0.001
 5953.00    4.00376   4.21764    0.001
 5954.00    3.65864   4.20493    0.001
 5955.00    3.43167   4.19754    0.001
 5956.00    3.22561   4.19209    0.001
 5957.00    3.48258   4.18752    0.001
 5958.00    3.80212   4.18507    0.001
 5959.00    4.23624   4.18776    0.001
 5960.00    4.68138   4.20032    0.001
 5961.00    4.69444   4.22628    0.001
 5962.00    4.68172   4.26362    0.001
 5963.00    4.65345   4.30447    0.001
 5964.00    4.62524   4.33895    0.001
 5965.00    4.66702   4.35913    0.001
 5966.00    4.71723   4.36386    0.001
 5967.00    4.98229   4.36002    0.001
 5968.00    5.22857   4.35666    0.001
 5969.00    5.22202   4.36119    0.001
 5970.00    5.13882   4.37679    0.001
 5971.00    4.36951   4.40053    0.002
 5972.00    3.69331   4.42517    0.002
 5973.00    3.63014   4.44308    0.001
 5974.00    3.61655   4.44779    0.001
 5975.00    3.85716   4.43467    0.001
 5976.00    4.09115   4.40306    0.001
 5977.00    4.29776   4.35814    0.001
 5978.00    4.51519   4.31001    0.001
 5979.00    4.76970   4.27099    0.001
 5980.00    4.96409   4.25076    0.001
 5981.00    4.98491   4.25016    0.001
 5982.00    5.04722   4.25989    0.001
 5983.00    5.21178   4.26504    0.001
 5984.00    5.12170   4.25436    0.001
 5985.00    4.49057   4.22898    0.001
 5986.00    3.91427   4.20048    0.001
 5987.00    3.43916   4.18296    0.001
 5988.00    3.17349   4.18654    0.001
 5989.00    3.24559   4.21167    0.001
 5990.00    3.28335   4.24889    0.001
 5991.00    3.27253   4.28565    0.001
 5992.00    3.25488   4.31476    0.001
 5993.00    3.22872   4.33654    0.001
 5994.00    3.21336   4.35383    0.001
 5995.00    3.20984   4.36807    0.001
 5996.00    3.42788   4.37689    0.001
 5997.00    3.86032   4.37479    0.001
 5998.00    4.01431   4.35893    0.001
 5999.00    3.93065   4.33314    0.001
 6000.00    3.49928   4.30660    0.001
 6001.00    2.80657   4.28783    0.001
 6002.00    2.71471   4.27892    0.001
 6003.00    3.01964   4.27672    0.001
 6004.00    3.60137   4.27665    0.001
 6005.00    4.34313   4.27358    0.001
 6006.00    4.62353   4.26372    0.001
 6007.00    4.67150   4.24568    0.001
 6008.00    4.70136   4.22102    0.001
 6009.00    4.72333   4.19757    0.001
 6010.00    5.00904   4.18559    0.001
 6011.00    5.39344   4.19040    0.001
 6012.00    5.25290   4.20856    0.001
 6013.00    4.94574   4.22940    0.001
 6014.00    4.36672   4.24213    0.001
 6015.00    3.71561   4.24202    0.001
 6016.00    3.87206   4.23114    0.001
 6017.00    4.20363   4.21691    0.001
 6018.00    4.86639   4.20561    0.001
 6019.00    5.58616   4.19756    0.001
 6020.00    5.25856   4.19061    0.001
 6021.00    4.79421   4.18452    0.001
 6022.00    4.16721   4.18108    0.001
 6023.00    3.52527   4.18324    0.001
 6024.00    3.68180   4.19417    0.001
 6025.00    3.88281   4.21610    0.001
 6026.00    3.83918   4.24736    0.001
 6027.00    3.78721   4.28371    0.001
 6028.00    3.43849   4.32205    0.001
 6029.00    3.12087   4.35966    0.001
 6030.00    3.52524   4.39397    0.001
 6031.00    3.90706   4.42382    0.001
 6032.00    4.00113   4.44949    0.001
 6033.00    4.07915   4.47140    0.001
 6034.00    4.01896   4.48987    0.001
 6035.00    4.00583   4.50554    0.001
 6036.00    4.29312   4.51857    0.001
 6037.00    4.48111   4.52817    0.001
 6038.00    4.17284   4.53319    0.001
 6039.00    3.84232   4.53261    0.001
 6040.00    3.42178   4.52645    0.001
 6041.00    3.05978   4.51665    0.001
 6042.00    2.89435   4.50675    0.001
 6043.00    2.85385   4.50207    0.001
 6044.00    3.16739   4.50694    0.001
 6045.00    3.54326   4.52222    0.001
 6046.00    4.07011   4.54535    0.001
 6047.00    4.45172   4.57075    0.001
 6048.00    4.52966   4.59210    0.001
 6049.00    4.35539   4.60564    0.001
 6050.00    3.72270   4.61171    0.001
 6051.00    3.30210   4.61163    0.001
 6052.00    3.21846   4.60598    0.001
 6053.00    3.32866   4.59421    0.001
 6054.00    3.70916   4.57530    0.001
 6055.00    4.08179   4.54879    0.001
 6056.00    4.44478   4.51663    0.001
 6057.00    4.62917   4.48445    0.001
 6058.00    4.62036   4.45953    0.001
 6059.00    4.58429   4.44767    0.001
 6060.00    4.52218   4.45034    0.001
 6061.00    4.46900   4.46311    0.001
 6062.00    4.42331   4.47638    0.002
 6063.00    4.40524   4.47921    0.001
 6064.00    4.40764   4.46442    0.001
 6065.00    4.14090   4.43344    0.001
 6066.00    3.69902   4.39937    0.001
 6067.00    3.43824   4.38074    0.001
 6068.00    3.28058   4.39051    0.001
 6069.00    3.46375   4.43093    0.001
 6070.00    3.81593   4.49270    0.001
 6071.00    4.01085   4.55956    0.001
 6072.00    4.13834   4.61694    0.001
 6073.00    4.04093   4.65755    0.001
 6074.00    3.86087   4.68106    0.001
 6075.00    4.07386   4.68977    0.001
 6076.00    4.40922   4.68484    0.001
 6077.00    4.33467   4.66605    0.001
 6078.00    4.15375   4.63306    0.001
 6079.00    3.88765   4.58872    0.001
 6080.00    3.60353   4.53921    0.001
 6081.00    3.61867   4.49008    0.001
 6082.00    3.68388   4.44635    0.001
 6083.00    3.52026   4.41294    0.001
 6084.00    3.32780   4.39178    0.001
 6085.00    3.14679   4.38193    0.001
 6086.00    2.96678   4.38225    0.001
 6087.00    3.42574   4.39050    0.001
 6088.00    3.91778   4.40221    0.001
 6089.00    4.52744   4.41128    0.001
 6090.00    5.12341   4.41237    0.001
 6091.00    4.56179   4.40432    0.001
 6092.00    4.00706   4.39008    0.001
 6093.00    3.59918   4.37614    0.001
 6094.00    3.26433   4.37156    0.001
 6095.00    3.81471   4.38227    0.001
 6096.00    4.30036   4.40622    0.001
 6097.00    4.24904   4.43642    0.001
 6098.00    4.15293   4.46507    0.001
 6099.00    3.77919   4.48613    0.001
 6100.00    3.49757   4.49508    0.001
 6101.00    3.66482   4.48628    0.001
 6102.00    3.80654   4.45406    0.001
 6103.00    3.84715   4.40088    0.001
 6104.00    3.87242   4.34172    0.001
 6105.00    3.84722   4.29655    0.001
 6106.00    3.78941   4.28213    0.001
 6107.00    3.64085   4.30327    0.001
 6108.00    3.56088   4.34952    0.001
 6109.00    3.64427   4.40376    0.001
 6110.00    3.75531   4.45098    0.001
 6111.00    3.92325   4.48411    0.001
 6112.00    3.85384   4.50561    0.001
 6113.00    3.35962   4.52179    0.001
 6114.00    2.94957   4.53706    0.001
 6115.00    2.67126   4.55212    0.001
 6116.00    2.73526   4.56391    0.001
 6117.00    3.26970   4.56806    0.001
 6118.00    3.66506   4.56020    0.001
 6119.00    3.89218   4.53640    0.001
 6120.00    3.97855   4.49537    0.001
 6121.00    3.91479   4.43852    0.001
 6122.00    3.73990   4.37163    0.001
 6123.00    3.46046   4.30935    0.001
 6124.00    3.31808   4.26921    0.001
 6125.00    3.28940   4.26127    0.001
 6126.00    3.18838   4.28410    0.001
 6127.00    3.03455   4.32449    0.001
 6128.00    3.02802   4.36467    0.001
 6129.00    3.11594   4.39470    0.001
 6130.00    3.33713   4.41626    0.001
 6131.00    3.63305   4.43712    0.001
 6132.00    4.01580   4.46203    0.001
 6133.00    4.44092   4.48695    0.001
 6134.00    4.44063   4.49770    0.001
 6135.00    4.26097   4.47683    0.001
 6136.00    3.62105   4.41346    0.001
 6137.00    2.81499   4.31409    0.001
 6138.00    2.73942   4.20625    0.001
 6139.00    2.88683   4.12662    0.001
 6140.00    3.19884   4.10145    0.001
 6141.00    3.55263   4.13466    0.001
 6142.00    3.80765   4.20953    0.001
 6143.00    4.04227   4.30042    0.001
 6144.00    3.95580   4.38610    0.001
 6145.00    3.81716   4.45684    0.001
 6146.00    3.66446   4.51179    0.001
 6147.00    3.51006   4.54995    0.001
 6148.00    3.54146   4.56728    0.001
 6149.00    3.58837   4.56080    0.001
 6150.00    3.52594   4.53397    0.001
 6151.00    3.45828   4.49726    0.001
 6152.00    3.38160   4.46338    0.001
 6153.00    3.30938   4.44080    0.001
 6154.00    3.50173   4.42973    0.001
 6155.00    3.68401   4.42498    0.001
 6156.00    3.66786   4.41996    0.001
 6157.00    3.65162   4.40918    0.001
 6158.00    3.63433   4.38952    0.001
 6159.00    3.66421   4.35751    0.001
 6160.00    4.07148   4.30494    0.001
 6161.00    4.48580   4.22243    0.001
 6162.00    4.94260   4.11071    0.001
 6163.00    5.30331   3.98660    0.001
 6164.00    5.20734   3.87939    0.001
 6165.00    5.05726   3.81760    0.001
 6166.00    4.69756   3.81512    0.001
 6167.00    4.34120   3.86340    0.001
 6168.00    3.99559   3.93414    0.001
 6169.00    3.78147   3.99437    0.001
 6170.00    3.92665   4.02688    0.001
 6171.00    4.00627   4.03629    0.001
 6172.00    3.93240   4.03938    0.001
 6173.00    3.92023   4.05354    0.001
 6174.00    4.03297   4.08733    0.001
 6175.00    4.12980   4.13561    0.001
 6176.00    4.19858   4.18496    0.001
 6177.00    4.18990   4.22504    0.001
 6178.00    4.06174   4.25417    0.001
 6179.00    3.90719   4.27583    0.001
 6180.00    3.71689   4.29461    0.001
 6181.00    3.58094   4.31459    0.001
 6182.00    3.50984   4.33658    0.001
 6183.00    3.52083   4.35791    0.001
 6184.00    3.61815   4.37503    0.001
 6185.00    3.70107   4.38315    0.001
 6186.00    3.77063   4.37654    0.001
 6187.00    3.85887   4.35209    0.001
 6188.00    3.96239   4.31092    0.001
 6189.00    4.07823   4.25743    0.001
 6190.00    4.20292   4.19681    0.001
 6191.00    4.26761   4.13420    0.001
 6192.00    4.29441   4.07873    0.001
 6193.00    4.00924   4.04278    0.001
 6194.00    3.55179   4.03656    0.001
 6195.00    2.98975   4.06494    0.001
 6196.00    2.37750   4.12294   -2.000
 6197.00    2.95390   4.19418   -2.000
 6198.00    4.02303   4.25674   -2.000
 6199.00    3.96536   4.29326   -2.000
 6200.00    3.50829   4.29982   -2.000
 6201.00    3.63098   4.28660   -2.000
 6202.00    3.92718   4.27096   -2.000
 6203.00    3.56909   4.26839   -2.000
 6204.00    3.04849   4.28540   -2.000
 6205.00    3.34247   4.31752   -2.000
 6206.00    3.80049   4.35365   -2.000
 6207.00    4.41719   4.38335   -2.000
 6208.00    5.05891   4.40147    0.001
 6209.00    4.64074   4.40754    0.001
 6210.00    4.09837   4.40183    0.001
 6211.00    3.79517   4.38336    0.001
 6212.00    3.51095   4.34947    0.001
 6213.00    3.94573   4.29695    0.001
 6214.00    4.41216   4.22662    0.001
 6215.00    4.47508   4.14608    0.001
 6216.00    4.52774   4.06826    0.001
 6217.00    4.30131   4.00789    0.001
 6218.00    4.09842   3.97395    0.001
 6219.00    4.32536   3.96498    0.001
 6220.00    4.54005   3.97220    0.001
 6221.00    4.61983   3.98593    0.001
 6222.00    4.68216   4.00087    0.001
 6223.00    4.60976   4.01709    0.001
 6224.00    4.57849   4.03684    0.001
 6225.00    4.78781   4.06129    0.001
 6226.00    4.99294   4.08797    0.001
 6227.00    5.17865   4.11133    0.001
 6228.00    5.18119   4.12479    0.001
 6229.00    4.48929   4.12084    0.001
 6230.00    3.88046   4.09371    0.001
 6231.00    3.53457   4.04610    0.001
 6232.00    3.36092   3.99147    0.001
 6233.00    3.64957   3.95015    0.001
 6234.00    3.84970   3.94235    0.001
 6235.00    3.84600   3.97644    0.001
 6236.00    3.76695   4.04295    0.001
 6237.00    3.53775   4.11911    0.001
 6238.00    3.43238   4.17902    0.001
 6239.00    3.54193   4.20435    0.001
 6240.00    3.81818   4.19094    0.001
 6241.00    4.34777   4.14846    0.001
 6242.00    4.52375   4.09168    0.001
 6243.00    4.22758   4.03396    0.001
 6244.00    3.89624   3.98618    0.001
 6245.00    3.52354   3.95454    0.001
 6246.00    3.30533   3.94230    0.001
 6247.00    3.24731   3.95314    0.001
 6248.00    3.33201   3.98718    0.001
 6249.00    3.54724   4.03706    0.001
 6250.00    3.76398   4.08947    0.001
 6251.00    3.98194   4.12767    0.001
 6252.00    4.11378   4.13769    0.001
 6253.00    4.18454   4.11581    0.001
 6254.00    4.17167   4.06926    0.001
 6255.00    4.10676   4.01091    0.001
 6256.00    4.41417   3.95253    0.001
 6257.00    4.92404   3.90065    0.001
 6258.00    5.23435   3.85771    0.001
 6259.00    5.45037   3.82755    0.002
 6260.00    5.59254   3.81776    0.002
 6261.00    5.70460   3.83620    0.002
 6262.00    5.48259   3.88658    0.002
 6263.00    5.14434   3.96279    0.002
 6264.00    5.02723   4.04795    0.002
 6265.00    4.97499   4.12256    0.002
 6266.00    4.50964   4.17459    0.002
 6267.00    3.94395   4.20204    0.001
 6268.00    3.60784   4.21088    0.001
 6269.00    3.31679   4.21082    0.001
 6270.00    3.54416   4.21031    0.001
 6271.00    3.85087   4.21353    0.001
 6272.00    3.97448   4.22171    0.001
 6273.00    4.07743   4.23469    0.001
 6274.00    4.05734   4.25089    0.001
 6275.00    4.02798   4.26791    0.001
 6276.00    4.17785   4.28292    0.001
 6277.00    4.33492   4.29332    0.001
 6278.00    4.38453   4.29775    0.001
 6279.00    4.42321   4.29501    0.001
 6280.00    4.05143   4.28408    0.000
 6281.00    3.70819   4.26664    0.000
 6282.00    3.85114   4.24800    0.000
 6283.00    4.00888   4.23594    0.000
 6284.00    4.32215   4.23751    0.000
 6285.00    4.57160   4.25491    0.000
 6286.00    4.34472   4.28549    0.000
 6287.00    4.18271   4.32379    0.000
 6288.00    4.38963   4.36375    0.000
 6289.00    4.55788   4.40057    0.000
 6290.00    4.55106   4.42921    0.000
 6291.00    4.49787   4.44452    0.000
 6292.00    4.27258   4.44327    0.000
 6293.00    4.02884   4.42618    0.000
 6294.00    3.72784   4.39873    0.000
 6295.00    3.42143   4.36723    0.000
 6296.00    3.10076   4.33498    0.000
 6297.00    2.94996   4.30286    0.000
 6298.00    3.18382   4.27151    0.000
 6299.00    3.43466   4.24297    0.000
 6300.00    3.71878   4.22002    0.000
 6301.00    3.75092   4.20402    0.000
 6302.00    3.35224   4.19469    0.000
 6303.00    3.12454   4.19112    0.000
 6304.00    3.15287   4.19372    0.000
 6305.00    3.47868   4.20492    0.000
 6306.00    4.19600   4.22820    0.000
 6307.00    4.50815   4.26495    0.000
 6308.00    4.35065   4.31136    0.000
 6309.00    4.06000   4.35934    0.000
 6310.00    3.63324   4.39858    0.000
 6311.00    3.51057   4.41988    0.000
 6312.00    3.66208   4.41904    0.000
 6313.00    3.55785   4.39842    0.000
 6314.00    3.25039   4.36456    0.000
 6315.00    2.97856   4.32499    0.000
 6316.00    2.73163   4.28564    0.000
 6317.00    2.69199   4.24836    0.000
 6318.00    2.77945   4.21345    0.000
 6319.00    2.85391   4.18460    0.000
 6320.00    2.92142   4.16776    0.000
 6321.00    3.01460   4.16779    0.001
 6322.00    3.11971   4.18685    0.001
 6323.00    3.31709   4.22301    0.001
 6324.00    3.55143   4.27015    0.001
 6325.00    3.67950   4.32024    0.001
 6326.00    3.77126   4.36679    0.001
 6327.00    3.73076   4.40584    0.001
 6328.00    3.65223   4.43619    0.001
 6329.00    3.75547   4.45819    0.001
 6330.00    3.90189   4.47253    0.001
 6331.00    3.91389   4.48113    0.001
 6332.00    3.90019   4.48570    0.001
 6333.00    3.62672   4.48555    0.001
 6334.00    3.31472   4.47701    0.001
 6335.00    3.18044   4.45496    0.001
 6336.00    3.06544   4.41769    0.001
 6337.00    3.31924   4.37071    0.001
 6338.00    3.59930   4.32558    0.001
 6339.00    3.52208   4.29597    0.001
 6340.00    3.43186   4.29081    0.001
 6341.00    3.40332   4.30794    0.001
 6342.00    3.37559   4.33500    0.001
 6343.00    3.36802   4.35709    0.001
 6344.00    3.34949   4.36491    0.001
 6345.00    3.15598   4.35943    0.001
 6346.00    2.99778   4.34983    0.001
 6347.00    3.19502   4.34771    0.001
 6348.00    3.40464   4.36092    0.001
 6349.00    3.70351   4.38917    0.001
 6350.00    3.96220   4.42513    0.001
 6351.00    3.99861   4.45959    0.001
 6352.00    3.98369   4.48487    0.001
 6353.00    3.74178   4.49574    0.001
 6354.00    3.61404   4.48941    0.001
 6355.00    3.90124   4.46623    0.001
 6356.00    4.08946   4.42951    0.001
 6357.00    3.97612   4.38360    0.001
 6358.00    3.81147   4.33213    0.001
 6359.00    3.51389   4.27776    0.001
 6360.00    3.19403   4.22209    0.001
 6361.00    2.82458   4.16673    0.001
 6362.00    2.62547   4.11600    0.001
 6363.00    2.75521   4.07725    0.001
 6364.00    2.89583   4.05803    0.001
 6365.00    3.05477   4.06348    0.001
 6366.00    3.05850   4.09506    0.001
 6367.00    2.83319   4.14983    0.001
 6368.00    2.63631   4.22067    0.001
 6369.00    2.47630   4.29741    0.001
 6370.00    2.49543   4.37019    0.001
 6371.00    2.71927   4.43282    0.001
 6372.00    3.09536   4.48365    0.001
 6373.00    3.62490   4.52438    0.001
 6374.00    4.05922   4.55750    0.001
 6375.00    4.40889   4.58424    0.001
 6376.00    4.32381   4.60360    0.001
 6377.00    3.89819   4.61298    0.001
 6378.00    3.74862   4.61039    0.001
 6379.00    3.78921   4.59665    0.001
 6380.00    3.78419   4.57522    0.001
 6381.00    3.75164   4.55140    0.001
 6382.00    3.57544   4.53129    0.001
 6383.00    3.32354   4.51926    0.001
 6384.00    3.31648   4.51630    0.001
 6385.00    3.42140   4.52109    0.001
 6386.00    3.33828   4.53145    0.001
 6387.00    3.18114   4.54535    0.001
 6388.00    3.00966   4.56137    0.001
 6389.00    2.83338   4.57776    0.001
 6390.00    2.64132   4.59081    0.001
 6391.00    2.44483   4.59445    0.001
 6392.00    2.47727   4.58231    0.001
 6393.00    2.56284   4.55194    0.001
 6394.00    2.87575   4.50898    0.001
 6395.00    3.23102   4.46664    0.001
 6396.00    3.39666   4.43986    0.001
 6397.00    3.53505   4.43701    0.001
 6398.00    3.43967   4.45334    0.001
 6399.00    3.31994   4.47235    0.001
 6400.00    3.06412   4.47815    0.001
 6401.00    2.79917   4.46815    0.001
 6402.00    2.69374   4.45390    0.001
 6403.00    2.59352   4.45263    0.001
 6404.00    2.88432   4.47535    0.001
 6405.00    3.16459   4.51790    0.001
 6406.00    3.11454   4.56358    0.001
 6407.00    3.07858   4.59389    0.001
 6408.00    3.25392   4.59984    0.001
 6409.00    3.43080   4.58504    0.001
 6410.00    3.62255   4.55987    0.001
 6411.00    3.76715   4.53444    0.001
 6412.00    3.58232   4.51531    0.001
 6413.00    3.39687   4.50416    0.001
 6414.00    3.20803   4.50018    0.001
 6415.00    3.12136   4.50353    0.001
 6416.00    3.47609   4.51444    0.001
 6417.00    3.69338   4.53002    0.001
 6418.00    3.42147   4.54360    0.001
 6419.00    3.10915   4.54675    0.001
 6420.00    2.67605   4.53399    0.001
 6421.00    2.35361   4.50793    0.001
 6422.00    2.31287   4.48014    0.001
 6423.00    2.42022   4.46574    0.001
 6424.00    2.85200   4.47516    0.001
 6425.00    3.24251   4.50916    0.001
 6426.00    3.55458   4.55888    0.001
 6427.00    3.78870   4.61027    0.001
 6428.00    3.89351   4.65006    0.001
 6429.00    3.86884   4.66880    0.001
 6430.00    3.65589   4.66183    0.001
 6431.00    3.31825   4.63109    0.001
 6432.00    2.82119   4.58670    0.001
 6433.00    2.61658   4.54472    0.001
 6434.00    2.74147   4.52111    0.001
 6435.00    3.04987   4.52367    0.001
 6436.00    3.54064   4.54714    0.001
 6437.00    3.62762   4.57594    0.001
 6438.00    3.36070   4.59343    0.001
 6439.00    2.94967   4.59227    0.001
 6440.00    2.42738   4.57863    0.001
 6441.00    2.46529   4.56757    0.001
 6442.00    2.88351   4.57391    0.001
 6443.00    3.23233   4.60425    0.001
 6444.00    3.53988   4.65316    0.001
 6445.00    3.44972   4.70704    0.001
 6446.00    3.15319   4.75102    0.001
 6447.00    3.00164   4.77287    0.001
 6448.00    2.91532   4.76359    0.001
 6449.00    3.09225   4.71829    0.001
 6450.00    3.37102   4.64100    0.001
 6451.00    3.50712   4.54831    0.001
 6452.00    3.59629   4.46587    0.001
 6453.00    3.40857   4.41848    0.001
 6454.00    3.14447   4.41751    0.001
 6455.00    3.11658   4.45479    0.001
 6456.00    3.14226   4.51043    0.001
 6457.00    3.34556   4.56599    0.001
 6458.00    3.58107   4.61319    0.001
 6459.00    3.71247   4.65286    0.001
 6460.00    3.82939   4.68642    0.001
 6461.00    3.53544   4.70905    0.001
 6462.00    3.20048   4.71140    0.001
 6463.00    3.06064   4.68903    0.001
 6464.00    2.93312   4.64914    0.001
 6465.00    2.99516   4.60901    0.001
 6466.00    3.06191   4.58782    0.001
 6467.00    2.89956   4.59586    0.001
 6468.00    2.74517   4.62853    0.001
 6469.00    2.81244   4.67049    0.001
 6470.00    2.89521   4.70486    0.001
 6471.00    3.19735   4.72178    0.001
 6472.00    3.46375   4.72160    0.001
 6473.00    3.39909   4.71207    0.001
 6474.00    3.32370   4.70201    0.001
 6475.00    3.17569   4.69721    0.001
 6476.00    3.06109   4.69894    0.001
 6477.00    3.12176   4.70490    0.001
 6478.00    3.14767   4.71152    0.001
 6479.00    3.02682   4.71544    0.001
 6480.00    2.89676   4.71260    0.001
 6481.00    2.73455   4.69816    0.001
 6482.00    2.66035   4.66953    0.001
 6483.00    2.84433   4.62990    0.001
 6484.00    3.02004   4.58865    0.001
 6485.00    3.17508   4.55825    0.001
 6486.00    3.25678   4.54854    0.001
 6487.00    3.18043   4.56143    0.001
 6488.00    3.18704   4.58956    0.001
 6489.00    3.34890   4.61959    0.001
 6490.00    3.43878   4.63772    0.001
 6491.00    3.41105   4.63357    0.001
 6492.00    3.43081   4.60082    0.001
 6493.00    3.51861   4.53627    0.001
 6494.00    3.53068   4.44086    0.001
 6495.00    3.44727   4.32238    0.001
 6496.00    3.38478   4.19695    0.001
 6497.00    3.34555   4.08669    0.001
 6498.00    3.43914   4.01357    0.001
 6499.00    3.66287   3.99090    0.001
 6500.00    3.76768   4.01883    0.001
 6501.00    3.76971   4.08617    0.001
 6502.00    3.60025   4.17687    0.001
 6503.00    3.30025   4.27612    0.001
 6504.00    3.14319   4.37290    0.001
 6505.00    3.08174   4.45986    0.001
 6506.00    3.21583   4.53244    0.001
 6507.00    3.46450   4.58789    0.001
 6508.00    3.67210   4.62521    0.001
 6509.00    3.85872   4.64601    0.001
 6510.00    3.82630   4.65471    0.001
 6511.00    3.69696   4.65767    0.001
 6512.00    3.59607   4.66090    0.001
 6513.00    3.50600   4.66740    0.001
 6514.00    3.54047   4.67546    0.001
 6515.00    3.61513   4.68019    0.001
 6516.00    3.69933   4.67683    0.001
 6517.00    3.78610   4.66342    0.001
 6518.00    3.44735   4.64209    0.001
 6519.00    3.01436   4.61906    0.001
 6520.00    2.74380   4.60257    0.001
 6521.00    2.50188   4.59939    0.001
 6522.00    2.89260   4.61228    0.001
 6523.00    3.36842   4.63856    0.001
 6524.00    3.68047   4.67098    0.001
 6525.00    3.97688   4.70060    0.001
 6526.00    4.11984   4.72008    0.001
 6527.00    4.25372   4.72631    0.001
 6528.00    3.95426   4.72104    0.000
 6529.00    3.64498   4.70942    0.000
 6530.00    3.48920   4.69738    0.000
 6531.00    3.34590   4.68858    0.000
 6532.00    3.51699   4.68293    0.000
 6533.00    3.66818   4.67843    0.000
 6534.00    3.55326   4.67452    0.000
 6535.00    3.43589   4.67361    0.000
 6536.00    3.29666   4.67958    0.000
 6537.00    3.20369   4.69434    0.000
 6538.00    3.41404   4.71621    0.000
 6539.00    3.59757   4.74091    0.000
 6540.00    3.64411   4.76384    0.000
 6541.00    3.66010   4.78131    0.000
 6542.00    3.55002   4.78993    0.000
 6543.00    3.38684   4.78608    0.000
 6544.00    3.04226   4.76699    0.000
 6545.00    2.74909   4.73262    0.000
 6546.00    2.60399   4.68719    0.000
 6547.00    2.57327   4.63903    0.000
 6548.00    2.82382   4.59789    0.000
 6549.00    3.03552   4.57162    0.000
 6550.00    3.16489   4.56271    0.000
 6551.00    3.39581   4.56660    0.000
 6552.00    3.81383   4.57342    0.000
 6553.00    4.09511   4.57274    0.000
 6554.00    4.15629   4.55836    0.000
 6555.00    4.01985   4.53087    0.000
 6556.00    3.60430   4.49650    0.000
 6557.00    3.21986   4.46358    0.000
 6558.00    2.87408   4.43807    0.000
 6559.00    2.78686   4.41943    0.000
 6560.00    2.98284   4.39807    0.000
 6561.00    3.52224   4.35723    0.000
 6562.00    4.39344   4.28181    0.000
 6563.00    5.53843   4.17176    0.000
 6564.00    6.91668   4.04896    0.000
 6565.00    7.99032   3.95181    0.000
 6566.00    8.83541   3.91877    0.000
 6567.00    8.58319   3.96643    0.000
 6568.00    7.60765   4.07905    0.000
 6569.00    6.46682   4.21770    0.000
 6570.00    5.23060   4.34115    0.000
 6571.00    4.39233   4.42370    0.000
 6572.00    3.75414   4.46076    0.000
 6573.00    3.15370   4.46261    0.000
 6574.00    2.56968   4.44497    0.000
 6575.00    2.39440   4.42314    0.000
 6576.00    2.37172   4.41002    0.000
 6577.00    2.73653   4.41486    0.000
 6578.00    3.22404   4.44074    0.000
 6579.00    3.44053   4.48249    0.000
 6580.00    3.58536   4.52811    0.000
 6581.00    3.74823   4.56480    0.000
 6582.00    3.91500   4.58557    0.000
 6583.00    4.39897   4.59233    0.000
 6584.00    4.93734   4.59309    0.000
 6585.00    5.12352   4.59633    0.000
 6586.00    5.26392   4.60631    0.000
 6587.00    4.98433   4.62270    0.000
 6588.00    4.66640   4.64239    0.000
 6589.00    4.51125   4.66146    0.000
 6590.00    4.36510   4.67490    0.000
 6591.00    4.37158   4.67565    0.000
 6592.00    4.37782   4.65620    0.000
 6593.00    4.05079   4.61360    0.000
 6594.00    3.71767   4.55371    0.000
 6595.00    3.24478   4.49141    0.000
 6596.00    2.79573   4.44480    0.000
 6597.00    2.64875   4.42632    0.000
 6598.00    2.55222   4.43706    0.000
 6599.00    2.88807   4.46829    0.000
 6600.00    3.17459   4.50865    0.000
 6601.00    3.14739   4.55008    0.000
 6602.00    3.13218   4.58886    0.000
 6603.00    3.17678   4.62238    0.000
 6604.00    3.23408   4.64637    0.000
 6605.00    3.34269   4.65561    0.000
 6606.00    3.44360   4.64678    0.000
 6607.00    3.51873   4.62089    0.000
 6608.00    3.58841   4.58333    0.000
 6609.00    3.64268   4.54274    0.001
 6610.00    3.70640   4.50918    0.001
 6611.00    3.79296   4.49170    0.001
 6612.00    3.88572   4.49567    0.001
 6613.00    3.99140   4.52045    0.001
 6614.00    4.00971   4.55927    0.001
 6615.00    3.86950   4.60227    0.001
 6616.00    3.62734   4.64099    0.001
 6617.00    3.22351   4.67151    0.001
 6618.00    2.96696   4.69373    0.001
 6619.00    2.91540   4.70939    0.001
 6620.00    3.00439   4.72021    0.001
 6621.00    3.26555   4.72681    0.001
 6622.00    3.56459   4.72798    0.001
 6623.00    3.90454   4.72051    0.001
 6624.00    4.00495   4.70126    0.001
 6625.00    3.87719   4.67034    0.001
 6626.00    3.76767   4.63287    0.001
 6627.00    3.67348   4.59777    0.001
 6628.00    3.48357   4.57332    0.001
 6629.00    3.22288   4.56214    0.001
 6630.00    3.10698   4.55979    0.001
 6631.00    3.08513   4.55760    0.001
 6632.00    3.02558   4.54774    0.001
 6633.00    2.94459   4.52717    0.001
 6634.00    2.52223   4.49916    0.001
 6635.00    1.93094   4.47180    0.001
 6636.00    1.78833   4.45482    0.001
 6637.00    1.83770   4.45516    0.001
 6638.00    2.19062   4.47332    0.001
 6639.00    2.65484   4.50294    0.001
 6640.00    3.18600   4.53402    0.001
 6641.00    3.73795   4.55777    0.001
 6642.00    3.98638   4.56986    0.001
 6643.00    4.15626   4.57068    0.001
 6644.00    3.79669   4.56357    0.001
 6645.00    3.32541   4.55296    0.001
 6646.00    3.20362   4.54359    0.001
 6647.00    3.14010   4.53939    0.001
 6648.00    3.32477   4.54196    0.001
 6649.00    3.54059   4.54992    0.001
 6650.00    3.51513   4.55993    0.001
 6651.00    3.46865   4.56860    0.001
 6652.00    3.38454   4.57369    0.001
 6653.00    3.29851   4.57464    0.001
 6654.00    3.15731   4.57242    0.001
 6655.00    3.01667   4.56891    0.001
 6656.00    2.98470   4.56598    0.001
 6657.00    2.95198   4.56443    0.001
 6658.00    2.90344   4.56361    0.001
 6659.00    2.84555   4.56165    0.001
 6660.00    2.67497   4.55611    0.001
 6661.00    2.55695   4.54451    0.001
 6662.00    2.87293   4.52503    0.001
 6663.00    3.15155   4.49769    0.001
 6664.00    3.19942   4.46521    0.001
 6665.00    3.22484   4.43303    0.001
 6666.00    3.14121   4.40788    0.001
 6667.00    2.97488   4.39525    0.001
 6668.00    2.48205   4.39755    0.001
 6669.00    2.17786   4.41393    0.001
 6670.00    2.49310   4.44161    0.001
 6671.00    2.82675   4.47680    0.001
 6672.00    3.21152   4.51501    0.001
 6673.00    3.43475   4.55090    0.001
 6674.00    3.27413   4.57898    0.001
 6675.00    3.18196   4.59437    0.001
 6676.00    3.23033   4.59349    0.001
 6677.00    3.35832   4.57463    0.001
 6678.00    3.62855   4.53922    0.001
 6679.00    3.59417   4.49362    0.001
 6680.00    3.08387   4.44917    0.001
 6681.00    2.62812   4.41860    0.001
 6682.00    2.24722   4.41047    0.001
 6683.00    2.22908   4.42493    0.001
 6684.00    2.64904   4.45471    0.001
 6685.00    2.85891   4.48980    0.001
 6686.00    2.84510   4.52187    0.001
 6687.00    2.84016   4.54628    0.001
 6688.00    2.84353   4.56181    0.001
 6689.00    2.97873   4.56976    0.001
 6690.00    3.22310   4.57286    0.001
 6691.00    3.41695   4.57404    0.001
 6692.00    3.57398   4.57500    0.001
 6693.00    3.55726   4.57519    0.001
 6694.00    3.42936   4.57193    0.001
 6695.00    3.33541   4.56180    0.001
 6696.00    3.26046   4.54272    0.000
 6697.00    3.01085   4.51592    0.000
 6698.00    2.67617   4.48677    0.000
 6699.00    2.56718   4.46347    0.000
 6700.00    2.55314   4.45348    0.000
 6701.00    2.58405   4.45952    0.000
 6702.00    2.63116   4.47767    0.000
 6703.00    2.53527   4.49907    0.000
 6704.00    2.39583   4.51482    0.000
 6705.00    2.48615   4.52063    0.000
 6706.00    2.63464   4.51843    0.000
 6707.00    3.32819   4.51404    0.000
 6708.00    4.13392   4.51267    0.000
 6709.00    4.44853   4.51561    0.000
 6710.00    4.68362   4.52003    0.000
 6711.00    4.46558   4.52132    0.000
 6712.00    4.19268   4.51579    0.000
 6713.00    3.99990   4.50172    0.000
 6714.00    3.81377   4.47885    0.000
 6715.00    3.62842   4.44755    0.000
 6716.00    3.44311   4.40910    0.000
 6717.00    4.21201   4.36712    0.000
 6718.00    4.98726   4.32846    0.000
 6719.00    5.36328   4.30191    0.000
 6720.00    5.67556   4.29490    0.000
 6721.00    4.74604   4.30958    0.000
 6722.00    3.85328   4.34154    0.000
 6723.00    3.38210   4.38180    0.000
 6724.00    2.97810   4.42088    0.000
 6725.00    3.10923   4.45224    0.000
 6726.00    3.16588   4.47327    0.000
 6727.00    2.77576   4.48471    0.000
 6728.00    2.42138   4.48969    0.000
 6729.00    2.23635   4.49273    0.000
 6730.00    2.26529   4.49800    0.000
 6731.00    3.12088   4.50738    0.000
 6732.00    3.90013   4.51947    0.000
 6733.00    4.43361   4.53068    0.000
 6734.00    4.71514   4.53755    0.000
 6735.00    4.30971   4.53861    0.000
 6736.00    3.88155   4.53460    0.000
 6737.00    3.40028   4.52701    0.000
 6738.00    3.05273   4.51661    0.000
 6739.00    2.97539   4.50331    0.000
 6740.00    2.97925   4.48756    0.000
 6741.00    3.12598   4.47121    0.000
 6742.00    3.17843   4.45702    0.000
 6743.00    3.08575   4.44702    0.000
 6744.00    3.05510   4.44142    0.000
 6745.00    3.10832   4.43885    0.000
 6746.00    3.27652   4.43750    0.000
 6747.00    3.58159   4.43578    0.000
 6748.00    3.91463   4.43241    0.000
 6749.00    4.27704   4.42645    0.000
 6750.00    4.25677   4.41815    0.000
 6751.00    3.88215   4.40917    0.000
 6752.00    3.62427   4.40175    0.000
 6753.00    3.46167   4.39794    0.001
 6754.00    3.62441   4.39940    0.001
 6755.00    4.02085   4.40745    0.001
 6756.00    4.03181   4.42346    0.001
 6757.00    3.79971   4.44838    0.001
 6758.00    3.43872   4.48139    0.001
 6759.00    3.00668   4.51943    0.001
 6760.00    2.88851   4.55742    0.001
 6761.00    2.92075   4.58986    0.001
 6762.00    3.15532   4.61255    0.002
 6763.00    3.47358   4.62376    0.002
 6764.00    3.61539   4.62412    0.002
 6765.00    3.69480   4.61560    0.002
 6766.00    3.66734   4.59989    0.002
 6767.00    3.60798   4.57817    0.002
 6768.00    3.57933   4.55199    0.001
 6769.00    3.55830   4.52452    0.001
 6770.00    3.61861   4.50041    0.001
 6771.00    3.69524   4.48403    0.001
 6772.00    3.58473   4.47818    0.001
 6773.00    3.44482   4.48405    0.001
 6774.00    3.51153   4.50177    0.001
 6775.00    3.60234   4.52999    0.001
 6776.00    3.68055   4.56541    0.001
 6777.00    3.75777   4.60292    0.001
 6778.00    3.73896   4.63694    0.001
 6779.00    3.71598   4.66300    0.001
 6780.00    3.62335   4.67834    0.001
 6781.00    3.52666   4.68096    0.001
 6782.00    3.27486   4.66863    0.001
 6783.00    3.01933   4.63969    0.001
 6784.00    2.69634   4.59524    0.001
 6785.00    2.43123   4.54138    0.001
 6786.00    2.79953   4.48889    0.001
 6787.00    3.14258   4.44982    0.001
 6788.00    3.29149   4.43257    0.001
 6789.00    3.36368   4.43835    0.001
 6790.00    2.98871   4.46093    0.001
 6791.00    2.62468   4.49022    0.001
 6792.00    2.31129   4.51652    0.001
 6793.00    2.14862   4.53353    0.001
 6794.00    2.55586   4.53931    0.001
 6795.00    2.87643   4.53588    0.001
 6796.00    2.92333   4.52776    0.001
 6797.00    3.12549   4.52018    0.001
 6798.00    3.74349   4.51749    0.001
 6799.00    4.16485   4.52179    0.001
 6800.00    4.13441   4.53251    0.001
 6801.00    4.04822   4.54741    0.001
 6802.00    3.85119   4.56347    0.001
 6803.00    3.81469   4.57781    0.001
 6804.00    4.05630   4.58818    0.001
 6805.00    4.06738   4.59346    0.001
 6806.00    3.72875   4.59396    0.001
 6807.00    3.29254   4.59078    0.001
 6808.00    2.72626   4.58550    0.001
 6809.00    2.50999   4.57981    0.001
 6810.00    2.70453   4.57475    0.001
 6811.00    3.13972   4.57081    0.001
 6812.00    3.82400   4.56826    0.001
 6813.00    4.33360   4.56678    0.001
 6814.00    4.68373   4.56550    0.001
 6815.00    4.47929   4.56393    0.001
 6816.00    3.82860   4.56288    0.001
 6817.00    3.52400   4.56450    0.001
 6818.00    3.46442   4.57050    0.001
 6819.00    3.56561   4.58051    0.001
 6820.00    3.76665   4.59215    0.001
 6821.00    3.80388   4.60287    0.001
 6822.00    3.75221   4.61223    0.001
 6823.00    3.73361   4.62217    0.001
 6824.00    3.73059   4.63485    0.001
 6825.00    3.57954   4.65012    0.001
 6826.00    3.36829   4.66468    0.001
 6827.00    3.13002   4.67353    0.001
 6828.00    2.88238   4.67284    0.001
 6829.00    3.24381   4.66274    0.001
 6830.00    3.78344   4.64763    0.001
 6831.00    3.72231   4.63416    0.001
 6832.00    3.51567   4.62770    0.001
 6833.00    3.44720   4.63013    0.001
 6834.00    3.40578   4.63971    0.001
 6835.00    3.14851   4.65246    0.001
 6836.00    2.85834   4.66369    0.001
 6837.00    3.65171   4.66873    0.001
 6838.00    4.56669   4.66359    0.001
 6839.00    4.72013   4.64542    0.001
 6840.00    4.81664   4.61348    0.001
 6841.00    4.32190   4.57085    0.001
 6842.00    3.80369   4.52487    0.001
 6843.00    3.18728   4.48573    0.001
 6844.00    2.59189   4.46349    0.001
 6845.00    2.85903   4.46409    0.001
 6846.00    3.09180   4.48684    0.001
 6847.00    2.74403   4.52490    0.001
 6848.00    2.47065   4.56822    0.001
 6849.00    2.97548   4.60740    0.001
 6850.00    3.38936   4.63632    0.001
 6851.00    3.12734   4.65305    0.001
 6852.00    2.89485   4.65841    0.001
 6853.00    2.82975   4.65398    0.001
 6854.00    2.78728   4.64068    0.001
 6855.00    2.84702   4.61891    0.001
 6856.00    2.88899   4.59031    0.001
 6857.00    2.86513   4.55908    0.001
 6858.00    2.94310   4.53071    0.001
 6859.00    3.33643   4.50968    0.001
 6860.00    3.59336   4.49756    0.001
 6861.00    3.49141   4.49238    0.001
 6862.00    3.43261   4.49163    0.001
 6863.00    3.47129   4.49525    0.001
 6864.00    3.53109   4.50510    0.001
 6865.00    3.63226   4.52189    0.001
 6866.00    3.82699   4.54232    0.001
 6867.00    4.18140   4.55953    0.001
 6868.00    4.46245   4.56671    0.001
 6869.00    4.63387   4.56187    0.001
 6870.00    5.03219   4.54944    0.000
 6871.00    5.72859   4.53643    0.000
 6872.00    6.22290   4.52801    0.000
 6873.00    6.48333   4.52573    0.000
 6874.00    6.40881   4.52845    0.000
 6875.00    5.99247   4.53462    0.000
 6876.00    5.44634   4.54401    0.000
 6877.00    4.78339   4.55764    0.000
 6878.00    4.06058   4.57590    0.000
 6879.00    3.29028   4.59677    0.000
 6880.00    2.75085   4.61590    0.000
 6881.00    2.37250   4.62828    0.000
 6882.00    2.59634   4.63044    0.001
 6883.00    3.18867   4.62274    0.001
 6884.00    3.66572   4.61020    0.001
 6885.00    4.08117   4.60031    0.001
 6886.00    4.14252   4.59940    0.001
 6887.00    4.03960   4.61043    0.001
 6888.00    3.82859   4.63275    0.001
 6889.00    3.57438   4.66283    0.001
 6890.00    3.38835   4.69596    0.001
 6891.00    3.22557   4.72788    0.001
 6892.00    3.27073   4.75484    0.001
 6893.00    3.37552   4.77374    0.001
 6894.00    3.45365   4.78336    0.001
 6895.00    3.52545   4.78432    0.001
 6896.00    3.55557   4.77893    0.001
 6897.00    3.57775   4.77080    0.001
 6898.00    3.54144   4.76368    0.001
 6899.00    3.49649   4.75971    0.001
 6900.00    3.37071   4.75923    0.001
 6901.00    3.23620   4.76174    0.001
 6902.00    2.92912   4.76682    0.001
 6903.00    2.60984   4.77400    0.001
 6904.00    2.29488   4.78260    0.001
 6905.00    1.98006   4.79188    0.001
 6906.00    1.94502   4.80117    0.001
 6907.00    1.91122   4.81021    0.001
 6908.00    1.88816   4.81920    0.001
 6909.00    1.87599   4.82816    0.001
 6910.00    2.03631   4.83613    0.001
 6911.00    2.22055   4.84072    0.001
 6912.00    2.64439   4.83881    0.001
 6913.00    3.07495   4.82833    0.001
 6914.00    3.55381   4.80951    0.001
 6915.00    3.96530   4.78562    0.001
 6916.00    4.00529   4.76217    0.001
 6917.00    3.97942   4.74457    0.001
 6918.00    3.66317   4.73676    0.001
 6919.00    3.35564   4.74030    0.001
 6920.00    3.07974   4.75380    0.001
 6921.00    2.99350   4.77333    0.001
 6922.00    3.48367   4.79314    0.001
 6923.00    3.80042   4.80649    0.001
 6924.00    3.66893   4.80728    0.001
 6925.00    3.48988   4.79292    0.001
 6926.00    3.20512   4.76641    0.001
 6927.00    2.90725   4.73589    0.001
 6928.00    2.58413   4.71117    0.001
 6929.00    2.58938   4.69944    0.001
 6930.00    3.14655   4.70224    0.001
 6931.00    3.60547   4.71524    0.001
 6932.00    3.91966   4.73103    0.001
 6933.00    3.92241   4.74310    0.001
 6934.00    3.52185   4.74924    0.001
 6935.00    3.23954   4.75173    0.001
 6936.00    3.09211   4.75456    0.001
 6937.00    2.95605   4.76074    0.001
 6938.00    2.83145   4.77133    0.001
 6939.00    2.91811   4.78544    0.001
 6940.00    3.19224   4.80117    0.001
 6941.00    3.24818   4.81607    0.001
 6942.00    3.13351   4.82674    0.001
 6943.00    3.03164   4.82905    0.001
 6944.00    2.93858   4.81982    0.001
 6945.00    2.87626   4.79929    0.001
 6946.00    2.83248   4.77279    0.001
 6947.00    2.68024   4.74950    0.001
 6948.00    2.47095   4.73770    0.001
 6949.00    2.55191   4.74068    0.001
 6950.00    2.76534   4.75488    0.001
 6951.00    2.62394   4.77164    0.001
 6952.00    2.34318   4.78200    0.001
 6953.00    1.64484   4.78146    0.001
 6954.00    0.80682   4.77152    0.001
 6955.00    1.44642   4.75862    0.001
 6956.00    2.50104   4.75076    0.001
 6957.00    2.70402   4.75337    0.001
 6958.00    2.70991   4.76727    0.001
 6959.00    2.69120   4.78943    0.001
 6960.00    2.66793   4.81503    0.001
 6961.00    2.77477   4.83977    0.001
 6962.00    2.90024   4.86125    0.001
 6963.00    3.06979   4.87884    0.001
 6964.00    3.24391   4.89277    0.001
 6965.00    3.12830   4.90308    0.001
 6966.00    2.99338   4.90982    0.001
 6967.00    2.76504   4.91429    0.001
 6968.00    2.53380   4.91881    0.001
 6969.00    2.71424   4.92497    0.001
 6970.00    2.88784   4.93245    0.001
 6971.00    2.85170   4.93933    0.001
 6972.00    2.85257   4.94346    0.001
 6973.00    3.40446   4.94360    0.001
 6974.00    3.88347   4.93860    0.001
 6975.00    3.66265   4.92646    0.001
 6976.00    3.42697   4.90420    0.001
 6977.00    3.08787   4.86854    0.001
 6978.00    2.78157   4.81845    0.001
 6979.00    2.65131   4.75932    0.001
 6980.00    2.53149   4.70404    0.001
 6981.00    2.45662   4.66822    0.001
 6982.00    2.42800   4.66350    0.001
 6983.00    2.56363   4.69298    0.001
 6984.00    2.81672   4.74965    0.001
 6985.00    3.42007   4.81891    0.001
 6986.00    3.76700   4.88498    0.001
 6987.00    3.46258   4.93622    0.001
 6988.00    3.16021   4.96706    0.001
 6989.00    2.86234   4.97798    0.001
 6990.00    2.69265   4.97413    0.001
 6991.00    2.76610   4.96334    0.001
 6992.00    2.88171   4.95326    0.001
 6993.00    3.06715   4.94881    0.001
 6994.00    3.37671   4.95092    0.001
 6995.00    3.86645   4.95722    0.001
 6996.00    4.13673   4.96376    0.001
 6997.00    4.12690   4.96691    0.001
 6998.00    3.90174   4.96411    0.001
 6999.00    3.43439   4.95393    0.001
 7000.00    3.03329   4.93673    0.001
 7001.00    2.69790   4.91554    0.001
 7002.00    2.42670   4.89502    0.001
 7003.00    2.21168   4.87925    0.001
 7004.00    2.35656   4.86966    0.001
 7005.00    2.77885   4.86518    0.001
 7006.00    3.12485   4.86341    0.001
 7007.00    3.41917   4.86277    0.001
 7008.00    3.27429   4.86387    0.001
 7009.00    2.86861   4.86875    0.001
 7010.00    2.76254   4.87846    0.001
 7011.00    2.81164   4.89144    0.001
 7012.00    2.91259   4.90433    0.001
 7013.00    3.03681   4.91311    0.001
 7014.00    2.87098   4.91357    0.001
 7015.00    2.59320   4.90210    0.001
 7016.00    2.87584   4.87787    0.001
 7017.00    3.34242   4.84585    0.001
 7018.00    3.41834   4.81676    0.001
 7019.00    3.38680   4.80225    0.001
 7020.00    3.25143   4.80939    0.001
 7021.00    3.09259   4.83679    0.001
 7022.00    3.36035   4.87396    0.001
 7023.00    3.70520   4.90559    0.001
 7024.00    2.96861   4.92015    0.001
 7025.00    2.08222   4.91570    0.001
 7026.00    1.75833   4.89960    0.001
 7027.00    1.49028   4.88343    0.001
 7028.00    1.91926   4.87721    0.001
 7029.00    2.39191   4.88541    0.001
 7030.00    2.71772   4.90607    0.001
 7031.00    3.03980   4.93284    0.001
 7032.00    3.47956   4.95877    0.001
 7033.00    3.87880   4.97929    0.001
 7034.00    3.16526   4.99297    0.001
 7035.00    2.54991   5.00074    0.001
 7036.00    3.31311   5.00420    0.001
 7037.00    3.90076   5.00350    0.001
 7038.00    2.86983   4.99772    0.001
 7039.00    2.03238   4.98887    0.001
 7040.00    2.49888   4.98382    0.001
 7041.00    2.95869   4.99097    0.001
 7042.00    3.38356   5.01562    0.001
 7043.00    3.63626   5.05634    0.001
 7044.00    3.16408   5.10416    0.001
 7045.00    2.84225   5.14685    0.001
 7046.00    3.04342   5.17645    0.001
 7047.00    3.09823   5.19292    0.001
 7048.00    2.72465   5.20201    0.001
 7049.00    2.68526   5.20971    0.001
 7050.00    3.48016   5.21706   -2.000
 7051.00    4.06737   5.21795   -2.000
 7052.00    4.20788   5.20178   -2.000
 7053.00    4.03600   5.15952   -2.000
 7054.00    3.28071   5.09020   -2.000
 7055.00    2.81356   5.00217   -2.000
 7056.00    2.81631   4.91034   -2.000
 7057.00    2.93046   4.82958   -2.000
 7058.00    3.20394   4.76849   -2.000
 7059.00    3.26805   4.72635   -2.000
 7060.00    3.06870   4.69627   -2.000
 7061.00    3.19912   4.67122   -2.000
 7062.00    3.69520   4.64818   -2.000
 7063.00    3.76063   4.62841   -2.000
 7064.00    3.40483   4.61545   -2.000
 7065.00    3.25603   4.61066   -2.000
 7066.00    3.28578   4.61029   -2.000
 7067.00    3.42666   4.60781   -2.000
 7068.00    3.65198   4.59833   -2.000
 7069.00    3.18409   4.58310   -2.000
 7070.00    2.25331   4.56980   -2.000
 7071.00    2.82135   4.56817   -2.000
 7072.00    4.26595   4.58410   -2.000
 7073.00    4.45984   4.61680   -2.000
 7074.00    4.01611   4.65946   -2.000
 7075.00    3.48726   4.70230   -2.000
 7076.00    2.92083   4.73771   -2.000
 7077.00    3.08029   4.76306   -2.000
 7078.00    3.51500   4.78029   -2.000
 7079.00    3.03728   4.79317   -2.000
 7080.00    2.26574   4.80460   -2.000
 7081.00    1.91137   4.81428   -2.000
 7082.00    1.66938   4.81753   -2.000
 7083.00    2.19111   4.80711   -2.000
 7084.00    2.88146   4.77712   -2.000
 7085.00    2.34943   4.72713   -2.000
 7086.00    1.60253   4.66358   -2.000
 7087.00    1.78964   4.59612   -2.000
 7088.00    2.10188   4.53380   -2.000
 7089.00    2.30692   4.48224   -2.000
 7090.00    2.50177   4.44261   -2.000
 7091.00    2.34915   4.41312   -2.000
 7092.00    2.17614   4.39168   -2.000
 7093.00    3.49431   4.37698   -2.000
 7094.00    4.83182   4.36883   -2.000
 7095.00    3.80270   4.36745   -2.000
 7096.00    2.78588   4.37242   -2.000
 7097.00    2.07472   4.38312   -2.000
 7098.00    1.44972   4.39886   -2.000
 7099.00    1.96914   4.41862   -2.000
 7100.00    2.48446   4.44054   -2.000
 7101.00    2.96337   4.46154   -2.000
 7102.00    3.41017   4.47829   -2.000
 7103.00    3.64713   4.48892   -2.000
 7104.00    3.73602   4.49424   -2.000
 7105.00    3.07072   4.49661   -2.000
 7106.00    2.52557   4.49770   -2.000
 7107.00    2.47494   4.49771   -2.000
 7108.00    2.47216   4.49596   -2.000
 7109.00    2.63245   4.49130   -2.000
 7110.00    2.77708   4.48242   -2.000
 7111.00    2.87673   4.46949   -2.000
 7112.00    3.04424   4.45528   -2.000
 7113.00    3.37824   4.44412   -2.000
 7114.00    3.39893   4.43982   -2.000
 7115.00    2.75661   4.44430   -2.000
 7116.00    2.43611   4.45719   -2.000
 7117.00    2.70737   4.47531   -2.000
 7118.00    2.74871   4.49367   -2.000
 7119.00    2.42063   4.50777   -2.000
 7120.00    2.21616   4.51488   -2.000
 7121.00    2.18593   4.51441   -2.000
 7122.00    2.82956   4.50737   -2.000
 7123.00    4.30902   4.49605   -2.000
 7124.00    4.28343   4.48267   -2.000
 7125.00    2.61233   4.46729   -2.000
 7126.00    2.11960   4.44862   -2.000
 7127.00    2.76324   4.42600   -2.000
 7128.00    2.74114   4.39986   -2.000
 7129.00    2.15292   4.37091   -2.000
 7130.00    1.62862   4.34018   -2.000
 7131.00    1.15218   4.31041   -2.000
 7132.00    1.17696   4.28618   -2.000
 7133.00    1.53152   4.27234   -2.000
 7134.00    1.92730   4.27271   -2.000
 7135.00    2.34683   4.28845   -2.000
 7136.00    2.80154   4.31693   -2.000
 7137.00    3.27390   4.35262   -2.000
 7138.00    3.31034   4.38800   -2.000
 7139.00    3.15748   4.41589   -2.000
 7140.00    3.27012   4.43361   -2.000
 7141.00    3.48165   4.44330   -2.000
 7142.00    3.24132   4.44847   -2.000
 7143.00    2.85825   4.45214   -2.000
 7144.00    2.91541   4.45605   -2.000
 7145.00    3.08866   4.45939   -2.000
 7146.00    2.81346   4.45941   -2.000
 7147.00    2.44160   4.45283   -2.000
 7148.00    2.77082   4.43785   -2.000
 7149.00    3.21986   4.41696   -2.000
 7150.00    2.86570   4.39617   -2.000
 7151.00    2.40758   4.38254   -2.000
 7152.00    2.49491   4.38239   -2.000
 7153.00    2.63177   4.39863   -2.000
 7154.00    3.04335   4.42816   -2.000
 7155.00    3.46996   4.46354   -2.000
 7156.00    3.08005   4.49767   -2.000
 7157.00    2.68097   4.52628   -2.000
 7158.00    3.00792   4.54660   -2.000
 7159.00    3.39195   4.55746   -2.000
 7160.00    5.07163   4.55970   -2.000
 7161.00    6.57415   4.55505   -2.000
 7162.00    5.84541   4.54517   -2.000
 7163.00    4.94282   4.53056   -2.000
 7164.00    2.55701   4.51076   -2.000
 7165.00    0.45062   4.48706   -2.000
 7166.00    0.11513   4.46427   -2.000
 7167.00    0.14920   4.44948   -2.000
 7168.00    2.01818   4.44902   -2.000
 7169.00    3.52245   4.46539   -2.000
 7170.00    3.55869   4.49622   -2.000
 7171.00    3.56278   4.53590   -2.000
 7172.00    3.45945   4.57755   -2.000
 7173.00    3.06549   4.61488   -2.000
 7174.00    1.85170   4.64349   -2.000
 7175.00    1.21682   4.66094   -2.000
 7176.00    1.97829   4.66654   -2.000
 7177.00    2.52813   4.66213   -2.000
 7178.00    2.63734   4.65136   -2.000
 7179.00    3.26464   4.63635   -2.000
 7180.00    4.82999   4.61740   -2.000
 7181.00    5.29078   4.59555   -2.000
 7182.00    4.00316   4.57439   -2.000
 7183.00    3.16116   4.55947   -2.000
 7184.00    2.93828   4.55454   -2.000
 7185.00    3.12925   4.55957   -2.000
 7186.00    3.82627   4.56949   -2.000
 7187.00    4.00652   4.57509   -2.000
 7188.00    3.62971   4.56874   -2.000
 7189.00    3.58881   4.54932   -2.000
 7190.00    3.86730   4.52256   -2.000
 7191.00    3.69560   4.49779   -2.000
 7192.00    3.14648   4.48261   -2.000
 7193.00    3.28969   4.48000   -2.000
 7194.00    3.94396   4.48908   -2.000
 7195.00    3.98176   4.50635   -2.000
 7196.00    3.61992   4.52674   -2.000
 7197.00    3.80955   4.54566   -2.000
 7198.00    4.31202   4.56125   -2.000
 7199.00    5.21065   4.57360   -2.000
 7200.00    6.30492   4.58317   -2.000
 7201.00    6.00944   4.59072   -2.000
 7202.00    5.12053   4.59763   -2.000
 7203.00    3.69888   4.60567   -2.000
 7204.00    2.08232   4.61538   -2.000
 7205.00    1.55800   4.62440   -2.000
 7206.00    1.37203   4.62718   -2.000
 7207.00    1.35688   4.61799   -2.000
 7208.00    1.38582   4.59616   -2.000
 7209.00    1.27482   4.56739   -2.000
 7210.00    1.13439   4.54182   -2.000
 7211.00    1.49363   4.52983   -2.000
 7212.00    1.93587   4.53595   -2.000
 7213.00    2.40450   4.55667   -2.000
 7214.00    2.87642   4.58372   -2.000
 7215.00    2.75883   4.60874   -2.000
 7216.00    2.59017   4.62753   -2.000
 7217.00    2.03220   4.64155   -2.000
 7218.00    1.45444   4.65540   -2.000
