###################################################################
## OUTPUT of StarlightChains_v04.for    [Cid@UFSC - 01/Apr/2007] ##
###################################################################

## Some input info
KUG0210-078._49_36.txt                   [arq_obs]
Base.CB07.vall.4m                        [arq_base]
Masks.EmLines.NEW.gm                     [arq_masks]
StCv04.C11.config                        [arq_config]
   66                                    [N_base]
    0                                    [N_YAV_components = # of components with extra extinction!]
    0                                    [i_FitPowerLaw (1/0 = Yes/No)]
-9.99                                    [alpha_PowerLaw]
CCM                                      [red_law_option]
 1.458241                                [q_norm = A(l_norm)/A(V)]

## (Re)Sampling Parameters
 3741.00                                 [l_ini (A)]
 7218.00                                 [l_fin (A)]
    1.00                                 [dl    (A)]     (OBS: dl_cushion =    50.00 A)

## Normalization info
 4020.00                                 [l_norm (A) - for base]
 4010.00                                 [llow_norm (A) - window for f_obs]
 4060.00                                 [lupp_norm (A) - window for f_obs]
9.959756E-18                             [fobs_norm (in input units)]

## S/N
 3691.00                                 [llow_SN (A) - window for S/N]
 7268.00                                 [lupp_SN (A) - window for S/N]
   2.247                                 [S/N in S/N window]
   3.283                                 [S/N in norm. window]
   0.008                                 [S/N_err in S/N window]
   0.012                                 [S/N_err in norm. window]
  1.0000                                 [fscale_chi2]

## etc...
    -2007941                             [idum_orig]
  2398                                   [NOl_eff]
  2384                                   [Nl_eff]
    14    NSIGMA                         [Ntot_cliped & clip_method]
  5678470                                [Nglobal_steps]
   7                                     [N_chains]
  43                                     [NEX0s_base = N_base in EX0s-fits]
 0   0   1       14   2.0   1.551E+03    [Clip-Bug, RC-Crash & Burn-In warning-flags, n_censored_weights, wei_nsig_threshold & wei_limit]
    76     75.492     74.732      0.760  [idt_all, wdt_TotTime, wdt_UsrTime & wdt_SysTime (sec)]

## Synthesis Results - Best model ##

 1.95317E-05                             [chi2/Nl_eff]
    36.02403                             [adev (%)]

   116.41632                             [sum-of-x (%)]
 3.61546E-18                             [Flux_tot (units of input spectrum!)]
 9.38754E-14                             [Mini_tot (???)]
 4.82462E-14                             [Mcor_tot (???)]

   0.00                                  [v0_min  (km/s)]
  90.83                                  [vd_min  (km/s)]
-0.8677                                  [AV_min  (mag)]
 0.0000                                  [YAV_min (mag)]

# j     x_j(%)      Mini_j(%)     Mcor_j(%)     age_j(yr)     Z_j      (L/M)_j    YAV?  Mstars   component_j        a/Fe...       SSP_chi2r SSP_adev(%)   SSP_AV   SSP_x(%)
  1      0.0000     0.0000E+00    0.0000E+00    1.000000E+06  0.00400  1.094E-02    0   1.0000   age020_m42            0.0000     2.5509E-05    43.8306   2.1130    94.1698
  2      0.0000     0.0000E+00    0.0000E+00    3.160000E+06  0.00400  4.007E-02    0   0.9999   age045_m42            0.0000     2.3005E-05    41.4443   1.3392   101.6592
  3      0.0000     0.0000E+00    0.0000E+00    5.010000E+06  0.00400  2.539E-02    0   0.9488   age055_m42            0.0000     2.4223E-05    42.6927   1.6864    98.5392
  4      0.0000     0.0000E+00    0.0000E+00    6.610000E+06  0.00400  2.620E-02    0   0.9220   age061_m42            0.0000     2.3152E-05    41.5535   1.2762   101.5036
  5      0.0000     0.0000E+00    0.0000E+00    1.000000E+07  0.00400  1.322E-02    0   0.8862   age070_m42            0.0000     2.4023E-05    43.6762   1.0679   101.5681
  6      0.7941     3.3327E-03    5.5580E-03    1.445000E+07  0.00400  7.883E-03    0   0.8571   age078_m42            0.0000     2.4625E-05    44.1820   1.3977    99.0273
  7      0.0000     0.0000E+00    0.0000E+00    2.512000E+07  0.00400  5.251E-03    0   0.8174   age090_m42            0.0000     2.4009E-05    43.9474   0.9474   101.8503
  8      0.0000     0.0000E+00    0.0000E+00    4.000000E+07  0.00400  3.649E-03    0   0.7851   age104_m42            0.0000     2.3484E-05    43.3074   0.7048   103.1222
  9      0.0000     0.0000E+00    0.0000E+00    5.500000E+07  0.00400  3.098E-03    0   0.7629   age110_m42            0.0000     2.2836E-05    41.8221   0.8144   104.2690
 10      0.0000     0.0000E+00    0.0000E+00    1.015200E+08  0.00400  2.228E-03    0   0.7207   age116_m42            0.0000     2.2405E-05    40.8007   0.8093   105.1168
 11      0.0000     0.0000E+00    0.0000E+00    2.861200E+08  0.00400  1.093E-03    0   0.6648   age125_m42            0.0000     2.2026E-05    40.8137   0.2496   107.7062
 12      6.9346     3.4776E-01    4.3069E-01    5.088000E+08  0.00400  6.597E-04    0   0.6365   age130_m42            0.0000     2.1228E-05    39.0886   0.1891   110.0871
 13      0.0000     0.0000E+00    0.0000E+00    1.434000E+09  0.00400  2.132E-04    0   0.5798   age139_m42            0.0000     1.9870E-05    37.3787  -0.8247   113.5303
 14      0.0000     0.0000E+00    0.0000E+00    4.250000E+09  0.00400  5.895E-05    0   0.5377   age158_m42            0.0000     2.0566E-05    44.2486  -1.0000   105.8687
 15      1.0934     1.0305E+00    1.0451E+00    7.500000E+09  0.00400  3.510E-05    0   0.5212   age171_m42            0.0000     2.1542E-05    49.1914  -1.0000   102.2324
 16      0.0491     8.0964E-02    7.9304E-02    1.300000E+10  0.00400  2.005E-05    0   0.5034   age193_m42            0.0000     2.3000E-05    53.7337  -1.0000    98.7625
 17      0.0000     0.0000E+00    0.0000E+00    1.800000E+10  0.00400  1.525E-05    0   0.4967   age213_m42            0.0000     2.3202E-05    54.4526  -1.0000    97.8539
 18      0.0000     0.0000E+00    0.0000E+00    1.000000E+06  0.00800  1.238E-02    0   1.0000   age020_m52            0.0000     2.5507E-05    43.6521   2.1071    94.3994
 19      0.6866     7.3896E-04    1.4330E-03    3.160000E+06  0.00800  3.074E-02    0   0.9966   age045_m52            0.0000     2.5344E-05    43.4018   2.0244    95.3895
 20      0.0319     3.9572E-05    7.2709E-05    5.010000E+06  0.00800  2.668E-02    0   0.9443   age055_m52            0.0000     2.4669E-05    42.9569   1.7777    97.4555
 21      0.2550     3.9501E-04    7.0534E-04    6.610000E+06  0.00800  2.136E-02    0   0.9177   age061_m52            0.0000     2.3776E-05    43.5420   0.5617   103.0763
 22      0.0000     0.0000E+00    0.0000E+00    1.000000E+07  0.00800  1.215E-02    0   0.8827   age070_m52            0.0000     2.4658E-05    44.5935   1.2712   100.7069
 23      0.0000     0.0000E+00    0.0000E+00    1.445000E+07  0.00800  8.717E-03    0   0.8552   age078_m52            0.0000     2.4431E-05    43.9654   1.3615   100.4221
 24      0.0000     0.0000E+00    0.0000E+00    2.512000E+07  0.00800  5.592E-03    0   0.8162   age090_m52            0.0000     2.3914E-05    43.8574   1.0103   103.0553
 25      0.6812     5.7840E-03    8.8245E-03    4.000000E+07  0.00800  3.896E-03    0   0.7841   age104_m52            0.0000     2.3280E-05    42.9757   0.8994   104.4628
 26      0.0000     0.0000E+00    0.0000E+00    1.015200E+08  0.00800  2.148E-03    0   0.7226   age116_m52            0.0000     2.2555E-05    41.3788   0.7961   105.3579
 27      0.0000     0.0000E+00    0.0000E+00    2.861200E+08  0.00800  9.925E-04    0   0.6683   age125_m52            0.0000     2.1214E-05    38.8683   0.2559   111.0055
 28      0.0000     0.0000E+00    0.0000E+00    9.047900E+08  0.00800  3.141E-04    0   0.6138   age135_m52            0.0000     1.9444E-05    36.1534  -0.6439   118.6274
 29      3.2233     6.2032E-01    7.0646E-01    1.434000E+09  0.00800  1.719E-04    0   0.5853   age139_m52            0.0000     1.9946E-05    41.4158  -1.0000   112.6031
 30      0.0000     0.0000E+00    0.0000E+00    2.500000E+09  0.00800  7.872E-05    0   0.5600   age150_m52            0.0000     2.1160E-05    48.2874  -1.0000   105.7273
 31      0.0000     0.0000E+00    0.0000E+00    4.250000E+09  0.00800  4.336E-05    0   0.5426   age158_m52            0.0000     2.1391E-05    48.8464  -1.0000   104.4775
 32      0.0000     0.0000E+00    0.0000E+00    6.250000E+09  0.00800  3.159E-05    0   0.5319   age166_m52            0.0000     2.3123E-05    53.9654  -1.0000   100.8260
 33      0.0000     0.0000E+00    0.0000E+00    1.300000E+10  0.00800  1.361E-05    0   0.5073   age193_m52            0.0000     2.9834E-05    65.9863  -1.0000    89.9765
 34      0.0079     2.6355E-02    2.5589E-02    1.800000E+10  0.00800  9.886E-06    0   0.4990   age213_m52            0.0000     3.2267E-05    68.2742  -1.0000    87.0164
 35      0.5526     1.1841E-03    2.3039E-03    1.000000E+06  0.02000  1.544E-02    0   1.0000   age020_m62            0.0000     2.5588E-05    43.6673   2.1057    94.5913
 36      0.0000     0.0000E+00    0.0000E+00    3.160000E+06  0.02000  3.762E-02    0   0.9858   age045_m62            0.0000     2.5633E-05    43.6105   2.0399    95.5586
 37      0.0000     0.0000E+00    0.0000E+00    5.010000E+06  0.02000  3.296E-02    0   0.9342   age055_m62            0.0000     2.3824E-05    41.8563   1.6311   100.1158
 38      0.0000     0.0000E+00    0.0000E+00    8.710000E+06  0.02000  1.154E-02    0   0.8861   age067_m62            0.0000     2.7273E-05    49.4380   0.8573    99.7816
 39      0.0000     0.0000E+00    0.0000E+00    1.445000E+07  0.02000  7.663E-03    0   0.8472   age078_m62            0.0000     2.5076E-05    45.9815   0.9541   101.9671
 40      0.0000     0.0000E+00    0.0000E+00    2.512000E+07  0.02000  4.532E-03    0   0.8099   age090_m62            0.0000     2.5120E-05    46.0444   0.9510   101.4187
 41      0.0000     0.0000E+00    0.0000E+00    5.500000E+07  0.02000  2.733E-03    0   0.7595   age110_m62            0.0000     2.3553E-05    43.1861   0.8901   103.4718
 42      0.0000     0.0000E+00    0.0000E+00    1.609000E+08  0.02000  1.369E-03    0   0.6985   age120_m62            0.0000     2.2174E-05    40.3531   0.6636   108.0263
 43      0.0412     1.5138E-03    1.9775E-03    2.861200E+08  0.02000  9.013E-04    0   0.6714   age125_m62            0.0000     2.1241E-05    38.3676   0.3639   112.5134
 44     17.7011     1.1647E+00    1.4615E+00    5.088000E+08  0.02000  5.028E-04    0   0.6449   age130_m62            0.0000     1.9795E-05    35.7169  -0.1123   118.4665
 45      0.0000     0.0000E+00    0.0000E+00    9.047900E+08  0.02000  2.428E-04    0   0.6179   age135_m62            0.0000     1.9264E-05    35.4440  -0.7338   118.8051
 46      0.0000     0.0000E+00    0.0000E+00    1.434000E+09  0.02000  1.263E-04    0   0.5908   age139_m62            0.0000     1.9608E-05    39.1742  -1.0000   114.4372
 47      0.0000     0.0000E+00    0.0000E+00    2.500000E+09  0.02000  5.985E-05    0   0.5673   age150_m62            0.0000     2.1452E-05    48.3779  -1.0000   106.9799
 48      7.5630     7.6491E+00    8.1382E+00    4.250000E+09  0.02000  3.271E-05    0   0.5468   age158_m62            0.0000     2.4637E-05    55.9469  -1.0000   100.1852
 49      0.0000     0.0000E+00    0.0000E+00    1.000000E+10  0.02000  1.360E-05    0   0.5167   age181_m62            0.0000     3.0523E-05    64.3580  -1.0000    91.8494
 50     18.1076     8.4088E+01    8.2020E+01    1.800000E+10  0.02000  7.124E-06    0   0.5013   age213_m62            0.0000     3.5375E-05    68.8760  -1.0000    85.9001
 51      0.0000     0.0000E+00    0.0000E+00    1.000000E+06  0.05000  2.592E-02    0   0.9998   age020_m72            0.0000     2.5804E-05    43.7749   2.1020    94.5344
 52      0.0000     0.0000E+00    0.0000E+00    3.160000E+06  0.05000  4.845E-02    0   0.9577   age045_m72            0.0000     2.4942E-05    42.9059   1.9070    97.1415
 53      1.4901     1.6046E-03    2.8559E-03    5.010000E+06  0.05000  3.072E-02    0   0.9147   age055_m72            0.0000     2.5385E-05    45.0516   1.4968    99.1806
 54      0.0000     0.0000E+00    0.0000E+00    6.610000E+06  0.05000  1.455E-02    0   0.8877   age061_m72            0.0000     2.8732E-05    50.9899   0.9276    99.2737
 55      0.0000     0.0000E+00    0.0000E+00    1.000000E+07  0.05000  9.074E-03    0   0.8524   age070_m72            0.0000     2.5562E-05    45.1222   1.6690    98.8629
 56      0.0000     0.0000E+00    0.0000E+00    2.512000E+07  0.05000  4.250E-03    0   0.7902   age090_m72            0.0000     2.4544E-05    44.3490   1.3671   100.8394
 57      0.0000     0.0000E+00    0.0000E+00    4.000000E+07  0.05000  3.087E-03    0   0.7618   age104_m72            0.0000     2.4229E-05    44.2024   1.1447   102.3115
 58      0.0000     0.0000E+00    0.0000E+00    1.015200E+08  0.05000  1.700E-03    0   0.7096   age116_m72            0.0000     2.2625E-05    41.2608   0.8308   106.7924
 59     20.4689     9.1707E-01    1.1836E+00    2.861200E+08  0.05000  7.384E-04    0   0.6633   age125_m72            0.0000     2.0410E-05    36.7747   0.1785   115.6505
 60     35.4708     3.0727E+00    3.8096E+00    5.088000E+08  0.05000  3.819E-04    0   0.6372   age130_m72            0.0000     1.9319E-05    35.1399  -0.3901   119.9204
 61      0.0000     0.0000E+00    0.0000E+00    9.047900E+08  0.05000  1.676E-04    0   0.6110   age135_m72            0.0000     1.9200E-05    36.7863  -1.0000   117.4776
 62      0.0000     0.0000E+00    0.0000E+00    1.434000E+09  0.05000  8.837E-05    0   0.5874   age139_m72            0.0000     2.1429E-05    48.1902  -1.0000   108.7179
 63      1.2639     9.8779E-01    1.0759E+00    2.500000E+09  0.05000  4.233E-05    0   0.5598   age150_m72            0.0000     2.4815E-05    55.8552  -1.0000   101.2113
 64      0.0000     0.0000E+00    0.0000E+00    6.250000E+09  0.05000  1.435E-05    0   0.5249   age166_m72            0.0000     3.2494E-05    66.6434  -1.0000    89.1339
 65      0.0000     0.0000E+00    0.0000E+00    1.300000E+10  0.05000  6.513E-06    0   0.5036   age193_m72            0.0000     3.9536E-05    72.3406  -1.0000    82.6133
 66      0.0000     0.0000E+00    0.0000E+00    1.800000E+10  0.05000  4.527E-06    0   0.4945   age213_m72            0.0000     4.4129E-05    75.2310  -1.0000    78.0547


## Synthesis Results - Average & Chains ##

# j      x_j: min, <> & last-chain-values for 1 ...  7 chains
  1      0.0000      1.2708      0.0000      2.7568      4.8360      1.2566      0.0000      0.4199      0.0000
  2      0.0000      1.1479      4.5213      0.0000      0.5125      2.8029      3.3525      0.3910      0.3499
  3      0.0000      0.7607      0.0000      0.0000      2.2465      0.9901      1.0110      2.0372      0.0000
  4      0.0000      1.0315      0.0000      1.2181      2.7508      0.1570      1.7176      1.5012      1.2041
  5      0.0000      0.9992      0.0000      1.5540      2.9639      1.4305      0.0000      0.8594      2.7316
  6      0.7941      0.8266      1.6214      1.5549      3.3646      0.1134      0.0000      0.0000      3.0639
  7      0.0000      1.0234      0.1057      1.1211      2.6477      1.9022      1.8909      1.2708      0.0000
  8      0.0000      1.2347      0.8610      3.2029      0.9456      0.1125      0.0000      0.0000      1.9842
  9      0.0000      0.7192      0.0000      0.0000      0.1709      1.5176      0.3557      2.9717      0.6863
 10      0.0000      1.0381      4.5739      0.0000      0.3583      2.2429      0.0000      0.2886      2.6168
 11      0.0000      0.7748      1.0718      0.0000      0.0000      0.4947     10.6756      0.0000      1.5818
 12      6.9346      1.2268      7.0889      1.2129      3.9042      1.4701      2.1000      0.0000      1.8597
 13      0.0000      0.7390      0.0000      0.0000      0.8949      0.0000      0.0000      1.5139      0.2355
 14      0.0000      0.7974      0.0000      0.0000      0.0000      0.0000      0.0000      0.5078      0.5770
 15      1.0934      1.2865      0.0000      0.7700      2.6788      1.0090      0.3257      1.7136      0.0362
 16      0.0491      1.1176      2.0447      2.3049      1.2827      1.7077      0.2550      0.0000      0.0000
 17      0.0000      1.0760      0.2241      2.6035      0.7252      0.0000      1.7526      1.5773      0.9250
 18      0.0000      0.8091      3.0013      0.0000      0.0000      1.3896      0.0000      0.0000      1.4951
 19      0.6866      1.0877      0.0000      0.0000      3.4082      1.8940      0.3742      0.0000      4.0226
 20      0.0319      1.0257      1.3574      2.3631      1.5709      6.2406      5.3444      3.6733      1.6178
 21      0.2550      1.1266      1.8562      2.1732      1.7579      1.5308      0.4419      0.0472      3.8789
 22      0.0000      0.9884      0.0000      1.4383      0.0000      1.4349      0.0023      0.0264      0.2630
 23      0.0000      0.9495      0.8335      0.0000      3.9499      2.9560      0.0609      3.0798      1.6991
 24      0.0000      1.0338      1.7115      4.0830      0.3052      0.8624      0.0000      2.3726      1.7648
 25      0.6812      1.0586      1.1345      1.5940      1.3981      1.1274      0.2155      0.0000      2.0953
 26      0.0000      0.9538      0.0000      5.1212      0.0000      0.8898      1.3047      0.5928      0.4608
 27      0.0000      0.7861      0.3412      0.0000      0.0136      0.0000      0.0000      7.3342      2.7826
 28      0.0000      1.0302      0.5918      0.8920      0.0000      0.2396      3.3413      0.0000      3.3210
 29      3.2233      1.1113      1.6762      1.7541      3.2214      1.1118      0.7757      0.0359      1.8864
 30      0.0000      1.2608      0.0000      1.3356      1.5754      2.4128      1.0341      0.0000      0.0000
 31      0.0000      1.0972      3.2435      0.0000      1.8464      0.5642      1.3296      2.1038      1.5215
 32      0.0000      1.0360      0.0000      3.8687      1.0094      1.2130      0.0000      0.0000      1.4702
 33      0.0000      0.7857      0.0000      0.0000      0.0000      1.8559      0.0000      0.2260      1.9546
 34      0.0079      0.9234      1.7168      3.5165      2.3839      0.0000      3.6965      0.0000      0.0000
 35      0.5526      1.2108      3.5023      2.1813      0.6816      0.6076      0.0000      0.0000      0.7447
 36      0.0000      0.7435      0.0000      0.7604      2.9269      0.0000      0.0000      4.9655      1.5794
 37      0.0000      0.9243      0.8840      0.2552      0.0000      2.4063      0.0000      0.5277      3.2326
 38      0.0000      5.3928      3.8441      0.8824      0.0000      7.3362      6.4217      4.0532      5.5877
 39      0.0000      0.8599      0.0000      0.0000      0.0000      3.0144      4.4647      0.0000      0.9897
 40      0.0000      1.2470      6.2548      0.0000      1.7655      0.6715      3.9630      3.7050      0.6410
 41      0.0000      0.7384      0.9663      2.0461      1.7542      0.5254      1.5661      0.0000      1.4514
 42      0.0000      0.9557      1.0681      0.0843      2.8411      1.2567      1.4105      0.0000      2.9535
 43      0.0412      1.5017      3.8887      3.5822      1.3103      2.5287      2.9622      2.3437      0.8331
 44     17.7011      0.8355      3.9017      3.1614      2.9170      0.6128      0.8480      0.4175      1.2111
 45      0.0000      0.7457      3.1814      0.0000      0.0000      0.2869      0.0000      0.0000      1.0544
 46      0.0000      1.0181      0.3235      3.3782      1.4812      0.0000      2.0113      3.3188      0.0000
 47      0.0000      1.0007      0.0000      0.1478      0.0000      0.8586      2.1458      0.4846      0.0000
 48      7.5630      1.4512      1.8536      0.0000      1.5456      0.0000      0.8707      0.0000      1.0012
 49      0.0000      1.0423      0.7478      0.0000      0.0000      0.7609      0.0000      2.0826      0.2332
 50     18.1076      1.1040      0.0000      0.2719      0.7772      0.0000      0.4069      1.4116      1.9449
 51      0.0000      1.1167      0.0000      2.3387      1.7154      0.0000      0.4575      5.4837      1.1284
 52      0.0000      1.6205      4.5765      6.0057      0.0000      0.7613      2.2081      0.8027      2.0449
 53      1.4901      1.2698      1.3491      2.4267      3.1795      2.6014      3.4811      0.0000      2.3688
 54      0.0000     13.1667      3.9920      6.5061      2.9608      8.9136      2.2658      8.1821      7.7744
 55      0.0000      1.0593      2.0096      2.8297      1.1484      0.9565      2.5589      1.3719      5.5153
 56      0.0000      0.8151      1.9160      0.0000      3.6864      0.0000      0.1381      1.4685      0.0000
 57      0.0000      1.0149      0.0000      0.9302      4.6503      2.1203      1.6999      0.5615      1.9271
 58      0.0000      0.9346      2.9827      0.5372      0.6469      3.7196      0.0000      0.5041      0.0000
 59     20.4689      1.0871      0.7860      3.9074      1.4004      0.5859      2.6963      4.0368      1.1448
 60     35.4708      0.8222      0.4777      0.2539      0.7347      1.8460      2.5207      0.2407      0.0000
 61      0.0000      0.8874      1.4279      0.0000      0.0000      0.6682      2.4824      2.3012      1.2820
 62      0.0000      0.8184      0.0000      1.4911      0.0000      0.1133      1.0957      1.4986      0.0000
 63      1.2639      1.0329      4.6753      0.1431      0.7044      0.3234      0.4903      0.6386      1.9947
 64      0.0000      1.3782      2.5907      0.0000      4.1525      1.2187      1.2247      1.5509      1.3558
 65      0.0000      0.8494      0.0000      1.4787      0.0000      0.0000      1.2748      3.8367      0.0000
 66      0.0000     13.2142      0.0000      5.5101      0.4204      7.5279      2.7228      5.1958      0.7596

# j      m_j: min, <> & last-chain-values for 1 ...  7 chains
  1  0.0000E+00  5.9104E-03  0.0000E+00  2.1057E-02  7.4411E-02  1.0404E-02  0.0000E+00  2.9919E-03  0.0000E+00
  2  0.0000E+00  1.4575E-03  2.5172E-02  0.0000E+00  2.1529E-03  6.3352E-03  9.8634E-03  7.6061E-04  1.7103E-03
  3  0.0000E+00  1.4464E-03  0.0000E+00  0.0000E+00  1.4131E-02  3.3514E-03  4.4542E-03  5.9343E-03  0.0000E+00
  4  0.0000E+00  1.8471E-03  0.0000E+00  3.5819E-03  1.6295E-02  5.0029E-04  7.1265E-03  4.1182E-03  8.2989E-03
  5  0.0000E+00  3.4082E-03  0.0000E+00  8.7045E-03  3.3446E-02  8.6858E-03  0.0000E+00  4.4907E-03  3.5863E-02
  6  5.5580E-03  4.5731E-03  3.9330E-02  1.4127E-02  6.1580E-02  1.1171E-03  0.0000E+00  0.0000E+00  6.5244E-02
  7  0.0000E+00  8.1064E-03  3.6697E-03  1.4582E-02  6.9379E-02  2.6821E-02  3.4704E-02  1.5420E-02  0.0000E+00
  8  0.0000E+00  1.3517E-02  4.1328E-02  5.7583E-02  3.4249E-02  2.1925E-03  0.0000E+00  0.0000E+00  8.3612E-02
  9  0.0000E+00  9.0113E-03  0.0000E+00  0.0000E+00  7.0864E-03  3.3850E-02  1.0329E-02  5.7044E-02  3.3099E-02
 10  0.0000E+00  1.7087E-02  3.3009E-01  0.0000E+00  1.9511E-02  6.5716E-02  0.0000E+00  7.2782E-03  1.6578E-01
 11  0.0000E+00  2.3979E-02  1.4545E-01  0.0000E+00  0.0000E+00  2.7256E-02  7.6557E-01  0.0000E+00  1.8843E-01
 12  4.3069E-01  6.0227E-02  1.5260E+00  9.7789E-02  6.3410E-01  1.2847E-01  2.3889E-01  0.0000E+00  3.5142E-01
 13  0.0000E+00  1.0225E-01  0.0000E+00  0.0000E+00  4.0969E-01  0.0000E+00  0.0000E+00  3.2093E-01  1.2544E-01
 14  0.0000E+00  3.7007E-01  0.0000E+00  0.0000E+00  0.0000E+00  0.0000E+00  0.0000E+00  3.6106E-01  1.0307E+00
 15  1.0451E+00  9.7203E-01  0.0000E+00  9.5540E-01  6.6959E+00  1.3571E+00  5.7027E-01  1.9835E+00  1.0516E-01
 16  7.9304E-02  1.4278E+00  1.1453E+01  4.8356E+00  5.4214E+00  3.8835E+00  7.5480E-01  0.0000E+00  0.0000E+00
 17  0.0000E+00  1.7833E+00  1.6283E+00  7.0857E+00  3.9759E+00  0.0000E+00  6.7302E+00  4.0045E+00  5.9007E+00
 18  0.0000E+00  3.3256E-03  5.4087E-02  0.0000E+00  0.0000E+00  1.0167E-02  0.0000E+00  0.0000E+00  2.3652E-02
 19  1.4330E-03  1.7944E-03  0.0000E+00  0.0000E+00  1.8600E-02  5.5619E-03  1.4302E-03  0.0000E+00  2.5542E-02
 20  7.2709E-05  1.8472E-03  1.0718E-02  6.9888E-03  9.3591E-03  2.0006E-02  2.2302E-02  1.0135E-02  1.1214E-02
 21  7.0534E-04  2.4629E-03  1.7793E-02  7.8019E-03  1.2714E-02  5.9572E-03  2.2385E-03  1.5809E-04  3.2639E-02
 22  0.0000E+00  3.6538E-03  0.0000E+00  8.7315E-03  0.0000E+00  9.4426E-03  1.9741E-05  1.4955E-04  3.7425E-03
 23  0.0000E+00  4.7397E-03  1.8244E-02  0.0000E+00  6.5231E-02  2.6268E-02  7.0433E-04  2.3553E-02  3.2648E-02
 24  0.0000E+00  7.6777E-03  5.5734E-02  4.9798E-02  7.4994E-03  1.1402E-02  0.0000E+00  2.6994E-02  5.0448E-02
 25  8.8245E-03  1.0841E-02  5.0939E-02  2.6806E-02  4.7365E-02  2.0553E-02  5.1134E-03  0.0000E+00  8.2590E-02
 26  0.0000E+00  1.6326E-02  0.0000E+00  1.4396E-01  0.0000E+00  2.7112E-02  5.1747E-02  1.5546E-02  3.0360E-02
 27  0.0000E+00  2.6934E-02  5.1260E-02  0.0000E+00  1.5430E-03  0.0000E+00  0.0000E+00  3.8496E-01  3.6696E-01
 28  0.0000E+00  1.0244E-01  2.5800E-01  1.4566E-01  0.0000E+00  4.2412E-02  7.6984E-01  0.0000E+00  1.2711E+00
 29  7.0646E-01  1.9254E-01  1.2734E+00  4.9905E-01  1.8464E+00  3.4288E-01  3.1140E-01  9.5345E-03  1.2580E+00
 30  0.0000E+00  4.5637E-01  0.0000E+00  7.9393E-01  1.8865E+00  1.5547E+00  8.6735E-01  0.0000E+00  0.0000E+00
 31  0.0000E+00  6.9862E-01  9.0556E+00  0.0000E+00  3.8895E+00  6.3955E-01  1.9618E+00  2.0522E+00  3.7291E+00
 32  0.0000E+00  8.8757E-01  0.0000E+00  5.4430E+00  2.8611E+00  1.8500E+00  0.0000E+00  0.0000E+00  4.8482E+00
 33  0.0000E+00  1.4903E+00  0.0000E+00  0.0000E+00  0.0000E+00  6.2659E+00  0.0000E+00  6.5668E-01  1.4269E+01
 34  2.5589E-02  2.3716E+00  1.9334E+01  1.4832E+01  2.0255E+01  0.0000E+00  2.1998E+01  0.0000E+00  0.0000E+00
 35  2.3039E-03  3.9902E-03  5.0607E-02  1.1805E-02  7.4308E-03  3.5647E-03  0.0000E+00  0.0000E+00  9.4469E-03
 36  0.0000E+00  9.9127E-04  0.0000E+00  1.6649E-03  1.2911E-02  0.0000E+00  0.0000E+00  1.0143E-02  8.1060E-03
 37  0.0000E+00  1.3330E-03  5.5901E-03  6.0434E-04  0.0000E+00  6.1776E-03  0.0000E+00  1.1659E-03  1.7945E-02
 38  0.0000E+00  2.1070E-02  6.5853E-02  5.6618E-03  0.0000E+00  5.1023E-02  5.8136E-02  2.4261E-02  8.4031E-02
 39  0.0000E+00  4.8372E-03  0.0000E+00  0.0000E+00  0.0000E+00  3.0186E-02  5.8197E-02  0.0000E+00  2.1431E-02
 40  0.0000E+00  1.1339E-02  2.4938E-01  0.0000E+00  5.3110E-02  1.0869E-02  8.3500E-02  5.1613E-02  2.2434E-02
 41  0.0000E+00  1.0441E-02  5.9911E-02  4.7513E-02  8.2062E-02  1.3226E-02  5.1312E-02  0.0000E+00  7.8998E-02
 42  0.0000E+00  2.4812E-02  1.2158E-01  3.5935E-03  2.4402E-01  5.8081E-02  8.4853E-02  0.0000E+00  2.9514E-01
 43  1.9775E-03  5.6920E-02  6.4630E-01  2.2297E-01  1.6431E-01  1.7062E-01  2.6016E-01  1.3609E-01  1.2154E-01
 44  1.4615E+00  5.4524E-02  1.1165E+00  3.3882E-01  6.2980E-01  7.1195E-02  1.2824E-01  4.1742E-02  3.0423E-01
 45  0.0000E+00  9.6563E-02  1.8063E+00  0.0000E+00  0.0000E+00  6.6124E-02  0.0000E+00  0.0000E+00  5.2556E-01
 46  0.0000E+00  2.4232E-01  3.3761E-01  1.3204E+00  1.1663E+00  0.0000E+00  1.1093E+00  1.2102E+00  0.0000E+00
 47  0.0000E+00  4.8266E-01  0.0000E+00  1.1706E-01  0.0000E+00  7.3714E-01  2.3981E+00  3.5808E-01  0.0000E+00
 48  8.1382E+00  1.2344E+00  6.9132E+00  0.0000E+00  4.3494E+00  0.0000E+00  1.7160E+00  0.0000E+00  3.2779E+00
 49  0.0000E+00  2.0150E+00  6.3387E+00  0.0000E+00  0.0000E+00  2.6184E+00  0.0000E+00  6.1679E+00  1.7352E+00
 50  8.2020E+01  3.9530E+00  0.0000E+00  1.5990E+00  9.2067E+00  0.0000E+00  3.3762E+00  7.7433E+00  2.6803E+01
 51  0.0000E+00  2.1918E-03  0.0000E+00  7.5379E-03  1.1138E-02  0.0000E+00  2.0806E-03  1.6488E-02  8.5242E-03
 52  0.0000E+00  1.6299E-03  2.0183E-02  9.9197E-03  0.0000E+00  1.3631E-03  5.1459E-03  1.2368E-03  7.9164E-03
 53  2.8559E-03  1.9239E-03  8.9622E-03  6.0377E-03  1.5936E-02  7.0159E-03  1.2220E-02  0.0000E+00  1.3814E-02
 54  0.0000E+00  4.0874E-02  5.4338E-02  3.3168E-02  3.0407E-02  4.9258E-02  1.6298E-02  3.8913E-02  9.2897E-02
 55  0.0000E+00  5.0632E-03  4.2118E-02  2.2212E-02  1.8159E-02  8.1387E-03  2.8341E-02  1.0046E-02  1.0147E-01
 56  0.0000E+00  7.7111E-03  7.9480E-02  0.0000E+00  1.1538E-01  0.0000E+00  3.0280E-03  2.1284E-02  0.0000E+00
 57  0.0000E+00  1.2744E-02  0.0000E+00  1.9182E-02  1.9318E-01  4.7395E-02  4.9460E-02  1.0802E-02  9.3139E-02
 58  0.0000E+00  1.9851E-02  2.7777E-01  1.8737E-02  4.5454E-02  1.4063E-01  0.0000E+00  1.6401E-02  0.0000E+00
 59  1.1836E+00  4.9689E-02  1.5753E-01  2.9329E-01  2.1176E-01  4.7669E-02  2.8557E-01  2.8267E-01  2.0140E-01
 60  3.8096E+00  6.9802E-02  1.7783E-01  3.5397E-02  2.0636E-01  2.7898E-01  4.9587E-01  3.1310E-02  0.0000E+00
 61  0.0000E+00  1.6462E-01  1.1614E+00  0.0000E+00  0.0000E+00  2.2063E-01  1.0670E+00  6.5395E-01  9.1534E-01
 62  0.0000E+00  2.7680E-01  0.0000E+00  8.2818E-01  0.0000E+00  6.8224E-02  8.5871E-01  7.7650E-01  0.0000E+00
 63  1.0759E+00  6.9504E-01  1.3795E+01  1.5809E-01  1.5681E+00  3.8740E-01  7.6455E-01  6.5832E-01  5.1665E+00
 64  0.0000E+00  2.5652E+00  2.1142E+01  0.0000E+00  2.5568E+01  4.0378E+00  5.2815E+00  4.4222E+00  9.7128E+00
 65  0.0000E+00  3.3419E+00  0.0000E+00  9.5537E+00  0.0000E+00  0.0000E+00  1.1622E+01  2.3126E+01  0.0000E+00
 66  0.0000E+00  7.3446E+01  0.0000E+00  5.0294E+01  7.7293E+00  7.4482E+01  3.5066E+01  4.4242E+01  1.6250E+01

# AV, chi2 & Mass for <> & i_chain = 1 ...  7 solutions
AV      -0.8677      2.6615      2.5373      2.4007      2.3703      2.5715      2.4438      2.4449      2.5140
chi2 1.9532E-05  4.4990E-04  1.7475E-04  2.1505E-04  1.4347E-04  2.1223E-04  1.9534E-04  2.3104E-04  1.5255E-04
Mass 4.8246E-14  6.9848E-12  1.3482E-12  2.9962E-12  1.4277E-12  3.4769E-12  2.2501E-12  3.4080E-12  1.4884E-12
   0.00                                  [v0_min (km/s) before EX0s...]
  90.83                                  [vd_min (km/s) before EX0s...]


## Synthetic spectrum (Best Model) ##l_obs f_obs f_syn wei
 3478    [Nl_obs]
 3741.00    0.60826   0.67569    0.000
 3742.00    0.29209   0.66190    0.000
 3743.00   -0.33699   0.63056    0.000
 3744.00   -0.67906   0.59429    0.000
 3745.00   -0.85390   0.55659    0.000
 3746.00   -0.52532   0.51659    0.000
 3747.00    0.05891   0.47246    0.028
 3748.00    0.04926   0.42676    0.029
 3749.00   -0.22153   0.39715    0.000
 3750.00   -0.11035   0.40581    0.000
 3751.00    0.14504   0.45463    0.028
 3752.00    0.40150   0.52430    0.027
 3753.00    0.65829   0.59562    0.028
 3754.00    0.46799   0.65720    0.027
 3755.00    0.15787   0.69575    0.026
 3756.00    0.15758   0.69849    0.026
 3757.00    0.22529   0.67104    0.025
 3758.00    0.36571   0.64185    0.026
 3759.00    0.51882   0.63634    0.027
 3760.00    0.32618   0.65277    0.028
 3761.00    0.08760   0.67216    0.029
 3762.00    0.00988   0.68101    0.028
 3763.00   -0.05273   0.67769    0.000
 3764.00   -0.20431   0.66616    0.000
 3765.00   -0.36102   0.64635    0.000
 3766.00   -0.55611   0.61524    0.000
 3767.00   -0.74673   0.57903    0.000
 3768.00   -0.28386   0.54755    0.000
 3769.00    0.16992   0.52240    0.026
 3770.00    0.40315   0.50792    0.026
 3771.00    0.61980   0.51778    0.027
 3772.00    0.61930   0.55464    0.026
 3773.00    0.64067   0.60141    0.026
 3774.00    0.85406   0.64181    0.026
 3775.00    1.03739   0.67549    0.026
 3776.00    1.02585   0.70957    0.027
 3777.00    1.01173   0.74643    0.028
 3778.00    0.98456   0.78405    0.027
 3779.00    0.85794   0.82055    0.027
 3780.00    0.32425   0.85147    0.026
 3781.00   -0.12709   0.87156    0.000
 3782.00   -0.29908   0.88228    0.000
 3783.00   -0.27130   0.88752    0.000
 3784.00    0.32786   0.88157    0.026
 3785.00    0.72739   0.85370    0.026
 3786.00    0.63919   0.80822    0.026
 3787.00    0.32081   0.76434    0.027
 3788.00   -0.48276   0.73470    0.000
 3789.00   -0.90158   0.71892    0.000
 3790.00   -0.61565   0.71170    0.000
 3791.00   -0.41770   0.70369    0.000
 3792.00   -0.36056   0.68186    0.000
 3793.00   -0.24740   0.64058    0.000
 3794.00   -0.05556   0.58782    0.000
 3795.00    0.32137   0.53531    0.024
 3796.00    0.92707   0.48777    0.024
 3797.00    1.14523   0.44906    0.025
 3798.00    0.94119   0.43374    0.025
 3799.00    0.59449   0.45719    0.025
 3800.00    0.11072   0.51547    0.024
 3801.00   -0.38389   0.58797    0.000
 3802.00   -0.88768   0.65673    0.000
 3803.00   -0.68075   0.71244    0.000
 3804.00    0.05653   0.74855    0.026
 3805.00    0.43249   0.76384    0.025
 3806.00    0.57157   0.76856    0.025
 3807.00    0.53070   0.78099    0.025
 3808.00    0.38655   0.81196    0.025
 3809.00    0.41998   0.85315    0.026
 3810.00    0.54217   0.88474    0.026
 3811.00    0.58945   0.89058    0.027
 3812.00    0.60435   0.86778    0.028
 3813.00    0.55075   0.82953    0.027
 3814.00    0.47176   0.79724    0.025
 3815.00    0.58923   0.78594    0.025
 3816.00    0.76846   0.79679    0.025
 3817.00    0.96096   0.81572    0.030
 3818.00    1.15694   0.82048    0.039
 3819.00    1.00331   0.80248    0.032
 3820.00    0.77477   0.77885    0.025
 3821.00    0.75219   0.77078    0.024
 3822.00    0.76457   0.77365    0.025
 3823.00    0.63355   0.76344    0.025
 3824.00    0.48413   0.73077    0.024
 3825.00    0.36134   0.69120    0.024
 3826.00    0.24094   0.66090    0.023
 3827.00    0.32524   0.64052    0.025
 3828.00    0.42055   0.62367    0.026
 3829.00    0.43770   0.60539    0.026
 3830.00    0.45251   0.57987    0.025
 3831.00    0.40137   0.54045    0.024
 3832.00    0.36126   0.48858    0.023
 3833.00    0.56625   0.43714    0.024
 3834.00    0.73334   0.40070    0.025
 3835.00    0.42916   0.38754    0.024
 3836.00    0.11996   0.39725    0.024
 3837.00   -0.23168   0.42183    0.000
 3838.00   -0.51124   0.45316    0.000
 3839.00   -0.33730   0.48935    0.000
 3840.00   -0.15939   0.53357    0.000
 3841.00    0.03803   0.58878    0.024
 3842.00    0.24935   0.64982    0.024
 3843.00    0.51628   0.70389    0.025
 3844.00    0.64807   0.74247    0.025
 3845.00    0.33062   0.76826    0.025
 3846.00    0.04235   0.78952    0.025
 3847.00   -0.16398   0.80883    0.000
 3848.00   -0.24676   0.82044    0.000
 3849.00   -0.03279   0.82372    0.000
 3850.00    0.12431   0.83115    0.000
 3851.00    0.16346   0.85131    0.000
 3852.00    0.15753   0.87397    0.000
 3853.00    0.07027   0.88405    0.000
 3854.00    0.04670   0.87899    0.000
 3855.00    0.12355   0.86693    0.000
 3856.00    0.20780   0.85730    0.000
 3857.00    0.30229   0.85226    0.000
 3858.00    0.33029   0.84635    0.000
 3859.00    0.27726   0.84138    0.000
 3860.00    0.03562   0.85009    0.000
 3861.00   -0.40865   0.87614    0.000
 3862.00   -0.57248   0.90528    0.000
 3863.00   -0.47060   0.92224    0.000
 3864.00   -0.14114   0.92425    0.000
 3865.00    0.37843   0.91826    0.000
 3866.00    0.64223   0.91350    0.000
 3867.00    0.71789   0.91423    0.000
 3868.00    0.77854   0.91556    0.000
 3869.00    0.82951   0.90771    0.000
 3870.00    0.56308   0.88507    0.000
 3871.00    0.11729   0.85284    0.000
 3872.00    0.06653   0.82678    0.000
 3873.00    0.21007   0.82245    0.000
 3874.00    0.35387   0.83806    0.000
 3875.00    0.49777   0.85168    0.000
 3876.00    0.40769   0.84076    0.000
 3877.00    0.23239   0.80409    0.000
 3878.00    0.23178   0.76367    0.000
 3879.00    0.28504   0.74124    0.000
 3880.00    0.25447   0.73312    0.000
 3881.00    0.20238   0.72067    0.023
 3882.00    0.51028   0.69882    0.024
 3883.00    0.89344   0.67365    0.024
 3884.00    0.95146   0.64105    0.025
 3885.00    0.95586   0.59173    0.027
 3886.00    1.18778   0.53190    0.027
 3887.00    1.44787   0.47986    0.027
 3888.00    1.28981   0.44999    0.026
 3889.00    1.09595   0.45146    0.025
 3890.00    0.85216   0.48715    0.025
 3891.00    0.60588   0.54545    0.026
 3892.00    0.36816   0.60464    0.025
 3893.00    0.13603   0.64911    0.025
 3894.00    0.25514   0.67831    0.025
 3895.00    0.38205   0.70213    0.025
 3896.00    0.66844   0.72877    0.025
 3897.00    0.92785   0.75507    0.025
 3898.00    0.86833   0.77373    0.024
 3899.00    0.78598   0.78868    0.023
 3900.00    0.51764   0.81027    0.023
 3901.00    0.30164   0.83693    0.022
 3902.00    0.40528   0.85547    0.022
 3903.00    0.51119   0.86019    0.021
 3904.00    0.62807   0.85679    0.021
 3905.00    0.71690   0.85378    0.021
 3906.00    0.69585   0.86312    0.021
 3907.00    0.66028   0.89340    0.021
 3908.00    0.57735   0.93653    0.021
 3909.00    0.44949   0.97522    0.022
 3910.00    0.19769   1.00016    0.022
 3911.00    0.06107   1.01112    0.022
 3912.00    0.19641   1.00936    0.023
 3913.00    0.39747   0.99832    0.023
 3914.00    0.73268   0.98589    0.024
 3915.00    0.87920   0.97666    0.024
 3916.00    0.69061   0.96806    0.024
 3917.00    0.70788   0.95742    0.024
 3918.00    1.04504   0.94393    0.024
 3919.00    1.23738   0.92828    0.025
 3920.00    1.23215   0.91580    0.025
 3921.00    1.03762   0.91355    0.025
 3922.00    0.61571   0.92222    0.024
 3923.00    0.48373   0.93427    0.024
 3924.00    0.65883   0.93895    0.024
 3925.00    0.83098   0.92780    0.025
 3926.00    1.00040   0.89990    0.025
 3927.00    1.12538   0.86010    0.026
 3928.00    1.21375   0.81267    0.026
 3929.00    1.08636   0.75944    0.026
 3930.00    0.80254   0.69944    0.026
 3931.00    0.60615   0.63035    0.026
 3932.00    0.46538   0.55700    0.026
 3933.00    0.49919   0.50087    0.026
 3934.00    0.63015   0.49103    0.026
 3935.00    0.64709   0.53720    0.026
 3936.00    0.60883   0.61839    0.026
 3937.00    0.56588   0.70294    0.026
 3938.00    0.52097   0.77295    0.026
 3939.00    0.49617   0.82548    0.026
 3940.00    0.47856   0.85994    0.026
 3941.00    0.49680   0.87473    0.026
 3942.00    0.52586   0.87338    0.026
 3943.00    0.10315   0.86735    0.026
 3944.00   -0.43304   0.87195    0.000
 3945.00   -0.08568   0.89330    0.000
 3946.00    0.44185   0.91819    0.027
 3947.00   -0.00384   0.92896    0.000
 3948.00   -0.60536   0.92648    0.000
 3949.00   -0.29109   0.92471    0.000
 3950.00    0.13252   0.92801    0.027
 3951.00    0.48372   0.92876    0.027
 3952.00    0.82903   0.92507    0.027
 3953.00    1.16419   0.92397    0.027
 3954.00    1.49889   0.92351    0.027
 3955.00    1.31129   0.91070    0.027
 3956.00    1.11421   0.88468    0.027
 3957.00    0.76917   0.86165    0.026
 3958.00    0.45284   0.84929    0.025
 3959.00    0.68043   0.83327    0.026
 3960.00    0.90782   0.79586    0.000
 3961.00    1.13288   0.73955    0.000
 3962.00    1.34772   0.68308    0.000
 3963.00    1.48219   0.63632    0.000
 3964.00    1.55993   0.59075    0.000
 3965.00    1.30099   0.53374    0.000
 3966.00    0.98483   0.46282    0.000
 3967.00    0.39999   0.38815    0.000
 3968.00   -0.03624   0.32757    0.000
 3969.00    0.09705   0.29864    0.000
 3970.00    0.18844   0.30958    0.000
 3971.00    0.14588   0.35476    0.000
 3972.00    0.20164   0.41922    0.000
 3973.00    0.52368   0.48907    0.000
 3974.00    0.86334   0.55736    0.000
 3975.00    1.24391   0.62112    0.000
 3976.00    1.43285   0.67883    0.000
 3977.00    1.23693   0.73215    0.000
 3978.00    1.15628   0.78342    0.000
 3979.00    1.27724   0.82941    0.000
 3980.00    1.27349   0.86207    0.000
 3981.00    1.07879   0.87754    0.026
 3982.00    0.90014   0.88330    0.027
 3983.00    0.74305   0.89242    0.027
 3984.00    0.72829   0.91087    0.027
 3985.00    0.88206   0.93484    0.027
 3986.00    0.83717   0.95863    0.027
 3987.00    0.58481   0.98005    0.027
 3988.00    0.50860   0.99668    0.026
 3989.00    0.59462   1.00589    0.026
 3990.00    0.78654   1.01222    0.026
 3991.00    1.06443   1.02370    0.026
 3992.00    0.86356   1.03969    0.026
 3993.00    0.32063   1.05071    0.026
 3994.00    0.63471   1.04888    0.026
 3995.00    1.48614   1.03476    0.027
 3996.00    1.61904   1.01637    0.026
 3997.00    1.35818   1.00638    0.026
 3998.00    1.29461   1.01600    0.026
 3999.00    1.32502   1.04356    0.026
 4000.00    1.24104   1.07316    0.026
 4001.00    1.11005   1.09068    0.027
 4002.00    0.81323   1.09289    0.026
 4003.00    0.45816   1.07839    0.026
 4004.00    0.45776   1.04733    0.026
 4005.00    0.56243   1.01579    0.027
 4006.00    0.80592   1.00943    0.026
 4007.00    1.08352   1.03407    0.026
 4008.00    1.03482   1.06950    0.025
 4009.00    0.92125   1.09491    0.025
 4010.00    0.99218   1.10581    0.025
 4011.00    1.09178   1.10760    0.025
 4012.00    1.17288   1.10639    0.026
 4013.00    1.25185   1.10700    0.026
 4014.00    1.16690   1.11110    0.026
 4015.00    1.06927   1.11579    0.025
 4016.00    0.98264   1.11708    0.025
 4017.00    0.89648   1.11752    0.025
 4018.00    1.26698   1.12465    0.026
 4019.00    1.61855   1.13744    0.026
 4020.00    0.95777   1.14417    0.026
 4021.00    0.33945   1.13785    0.025
 4022.00    0.46989   1.12253    0.025
 4023.00    0.63941   1.10508    0.025
 4024.00    1.22943   1.09273    0.025
 4025.00    1.70451   1.09460    0.025
 4026.00    1.30698   1.11210    0.025
 4027.00    0.92793   1.13072    0.025
 4028.00    0.65545   1.12998    0.025
 4029.00    0.47351   1.10036    0.025
 4030.00    0.70649   1.05231    0.024
 4031.00    0.94350   1.00954    0.024
 4032.00    1.19563   0.98929    0.024
 4033.00    1.37711   0.99335    0.025
 4034.00    1.33706   1.01694    0.025
 4035.00    1.17179   1.05508    0.024
 4036.00    0.67338   1.09961    0.024
 4037.00    0.31283   1.13726    0.024
 4038.00    0.26712   1.15563    0.024
 4039.00    0.40685   1.15274    0.025
 4040.00    0.91321   1.13894    0.025
 4041.00    1.11873   1.12613    0.025
 4042.00    0.80596   1.11217    0.026
 4043.00    0.65758   1.08122    0.026
 4044.00    0.75718   1.02865    0.025
 4045.00    0.89022   0.98034    0.025
 4046.00    1.06762   0.97206    0.026
 4047.00    1.22287   1.00887    0.026
 4048.00    1.35226   1.06060    0.026
 4049.00    1.27833   1.09826    0.026
 4050.00    0.99507   1.11533    0.027
 4051.00    1.06399   1.11534    0.027
 4052.00    1.45274   1.10161    0.027
 4053.00    1.80226   1.08031    0.027
 4054.00    2.12037   1.06037    0.027
 4055.00    1.68128   1.04738    0.027
 4056.00    0.70901   1.03990    0.026
 4057.00    0.50208   1.03530    0.026
 4058.00    0.76790   1.03812    0.026
 4059.00    1.00000   1.05189    0.027
 4060.00    1.21391   1.06450    0.027
 4061.00    1.48274   1.05497    0.027
 4062.00    1.77730   1.01911    0.027
 4063.00    1.43498   0.98105    0.026
 4064.00    0.83534   0.96976    0.026
 4065.00    0.83360   0.98598    0.026
 4066.00    1.03802   1.00781    0.026
 4067.00    0.72795   1.02475    0.025
 4068.00    0.26847   1.04103    0.025
 4069.00   -0.15652   1.05023    0.000
 4070.00   -0.57322   1.03832    0.000
 4071.00    0.00737   1.01287    0.025
 4072.00    0.78120   1.00067    0.025
 4073.00    1.54194   1.00991    0.026
 4074.00    2.30071   1.01678    0.026
 4075.00    1.83051   0.99682    0.025
 4076.00    1.22437   0.95490    0.025
 4077.00    1.08821   0.92090    0.025
 4078.00    0.98647   0.92190    0.025
 4079.00    1.26873   0.95848    0.025
 4080.00    1.56569   1.00651    0.025
 4081.00    1.55272   1.03818    0.025
 4082.00    1.54220   1.04068    0.025
 4083.00    1.68883   1.02102    0.025
 4084.00    1.81228   0.99719    0.025
 4085.00    1.55387   0.98488    0.024
 4086.00    1.30273   0.98963    0.024
 4087.00    1.12656   1.00531    0.024
 4088.00    0.99023   1.01810    0.024
 4089.00    1.14635   1.01652    0.024
 4090.00    1.21702   0.99947    0.025
 4091.00    0.80832   0.97426    0.024
 4092.00    0.49009   0.94859    0.000
 4093.00    0.57677   0.92351    0.000
 4094.00    0.71392   0.89248    0.000
 4095.00    1.03646   0.85041    0.000
 4096.00    1.30250   0.80272    0.000
 4097.00    1.39476   0.75809    0.000
 4098.00    1.51608   0.71555    0.000
 4099.00    1.71335   0.66652    0.000
 4100.00    1.79594   0.61044    0.000
 4101.00    1.62101   0.56523    0.000
 4102.00    1.48442   0.55520    0.000
 4103.00    1.42243   0.58710    0.000
 4104.00    1.36421   0.64510    0.000
 4105.00    1.31238   0.70784    0.000
 4106.00    1.24489   0.76113    0.000
 4107.00    1.15413   0.79879    0.000
 4108.00    1.09304   0.82130    0.000
 4109.00    1.07069   0.83422    0.000
 4110.00    1.02997   0.84550    0.000
 4111.00    0.96810   0.86243    0.000
 4112.00    0.93415   0.88802    0.000
 4113.00    0.92857   0.91936    0.024
 4114.00    0.97452   0.95014    0.024
 4115.00    1.06662   0.97429    0.024
 4116.00    1.12173   0.98645    0.024
 4117.00    1.14765   0.98340    0.024
 4118.00    1.05906   0.97063    0.034
 4119.00    0.89101   0.96195    0.125
 4120.00    0.77222   0.96504   -1.000
 4121.00    0.68341   0.97400   -1.000
 4122.00    0.73465   0.98199   -1.000
 4123.00    0.86030   0.99146   -1.000
 4124.00    0.96500   1.00499   -1.000
 4125.00    1.06004   1.01522   -1.000
 4126.00    1.16493   1.01240   -1.000
 4127.00    1.27374   0.99733   -1.000
 4128.00    1.21403   0.98026    0.064
 4129.00    1.09729   0.96784    0.027
 4130.00    0.82514   0.95686    0.024
 4131.00    0.50878   0.94354    0.024
 4132.00    0.90115   0.93413    0.024
 4133.00    1.45991   0.94019    0.024
 4134.00    1.35200   0.96530    0.024
 4135.00    1.11824   1.00045    0.024
 4136.00    0.92021   1.03178    0.024
 4137.00    0.72739   1.05251    0.024
 4138.00    0.92231   1.06593    0.024
 4139.00    1.15843   1.07411    0.024
 4140.00    1.64632   1.06946    0.024
 4141.00    2.15162   1.04213    0.024
 4142.00    1.63892   0.99591    0.024
 4143.00    1.09110   0.95481    0.024
 4144.00    0.75175   0.94530    0.024
 4145.00    0.43070   0.96931    0.024
 4146.00    0.70046   1.00353    0.023
 4147.00    0.95866   1.02474    0.023
 4148.00    1.03800   1.02662    0.023
 4149.00    1.10217   1.01692    0.023
 4150.00    1.01672   1.00726    0.023
 4151.00    0.95454   1.00287    0.023
 4152.00    1.05757   0.99965    0.023
 4153.00    1.17882   0.99238    0.023
 4154.00    1.39957   0.98240    0.023
 4155.00    1.54686   0.97582    0.023
 4156.00    1.37311   0.97766    0.022
 4157.00    1.21187   0.98960    0.022
 4158.00    1.09566   1.00876    0.022
 4159.00    0.89963   1.02729    0.021
 4160.00    0.46280   1.03913    0.021
 4161.00    0.27405   1.04640    0.021
 4162.00    0.72242   1.05386    0.021
 4163.00    1.08519   1.06003    0.022
 4164.00    1.25889   1.05982    0.022
 4165.00    1.30816   1.05181    0.022
 4166.00    1.11910   1.03953    0.022
 4167.00    0.95438   1.03014    0.022
 4168.00    0.83038   1.02898    0.022
 4169.00    0.65624   1.02972    0.022
 4170.00    0.40867   1.01677    0.021
 4171.00    0.41964   0.98391    0.021
 4172.00    0.76362   0.94565    0.022
 4173.00    0.81349   0.92482    0.022
 4174.00    0.52960   0.92944    0.022
 4175.00    0.49101   0.94607    0.022
 4176.00    0.69792   0.95623    0.022
 4177.00    0.89161   0.95546    0.022
 4178.00    1.07362   0.95454    0.022
 4179.00    1.09112   0.96310    0.022
 4180.00    0.98066   0.97689    0.022
 4181.00    0.82003   0.98588    0.021
 4182.00    0.62509   0.98968    0.022
 4183.00    0.48146   0.99609    0.022
 4184.00    0.36858   1.00664    0.022
 4185.00    0.43367   1.01158    0.022
 4186.00    0.59184   1.00225    0.022
 4187.00    0.86881   0.98684    0.022
 4188.00    1.19966   0.98348    0.022
 4189.00    1.01769   0.99623    0.022
 4190.00    0.63561   1.01246    0.022
 4191.00    0.75187   1.02479    0.022
 4192.00    1.03364   1.03697    0.022
 4193.00    1.22159   1.04663    0.022
 4194.00    1.38340   1.04149    0.022
 4195.00    1.50471   1.01717    0.022
 4196.00    1.61673   0.98409    0.023
 4197.00    1.58482   0.95514    0.023
 4198.00    1.52647   0.93780    0.023
 4199.00    1.42357   0.93464    0.023
 4200.00    1.31437   0.94031    0.022
 4201.00    1.31973   0.94557    0.022
 4202.00    1.33677   0.94987    0.022
 4203.00    1.08105   0.95940    0.022
 4204.00    0.80757   0.97536    0.022
 4205.00    1.10297   0.99460    0.021
 4206.00    1.41592   1.01448    0.021
 4207.00    1.77560   1.03069    0.022
 4208.00    2.11174   1.03784    0.023
 4209.00    1.75667   1.03632    0.023
 4210.00    1.41967   1.03419    0.023
 4211.00    1.34577   1.03766    0.023
 4212.00    1.29665   1.04098    0.023
 4213.00    1.48183   1.03135    0.023
 4214.00    1.60785   1.00581    0.023
 4215.00    1.32730   0.98065    0.023
 4216.00    1.06809   0.97892    0.023
 4217.00    0.92239   1.00523    0.023
 4218.00    0.87678   1.04088    0.022
 4219.00    1.25863   1.06618    0.022
 4220.00    1.49840   1.07515    0.022
 4221.00    1.23757   1.06791    0.021
 4222.00    1.01298   1.04278    0.021
 4223.00    0.89569   0.99920    0.022
 4224.00    0.87198   0.94109    0.022
 4225.00    1.08444   0.87984    0.022
 4226.00    1.33356   0.83833    0.022
 4227.00    1.66233   0.84177    0.022
 4228.00    1.69564   0.89319    0.022
 4229.00    1.17177   0.96406    0.021
 4230.00    0.81738   1.01785    0.021
 4231.00    0.74199   1.03570    0.020
 4232.00    0.68243   1.02152    0.020
 4233.00    0.64571   0.99509    0.020
 4234.00    0.77415   0.97587    0.020
 4235.00    1.11227   0.96830    0.021
 4236.00    1.21440   0.96789    0.021
 4237.00    1.05251   0.97226    0.020
 4238.00    0.88639   0.98008    0.020
 4239.00    0.71608   0.99100    0.020
 4240.00    0.73673   1.00646    0.020
 4241.00    0.92358   1.02464    0.020
 4242.00    1.14714   1.04131    0.020
 4243.00    1.39884   1.05566    0.021
 4244.00    1.54082   1.06536    0.021
 4245.00    1.60886   1.06160    0.020
 4246.00    1.51409   1.04050    0.021
 4247.00    1.32318   1.01139    0.021
 4248.00    1.21607   0.98563    0.021
 4249.00    1.15209   0.96626    0.021
 4250.00    1.17219   0.95504    0.021
 4251.00    1.22980   0.95666    0.021
 4252.00    1.18492   0.96686    0.021
 4253.00    1.10075   0.97280    0.021
 4254.00    1.00111   0.97320    0.020
 4255.00    0.89642   0.98069    0.020
 4256.00    0.75854   0.99820    0.020
 4257.00    0.61159   1.00891    0.020
 4258.00    0.76428   0.99672    0.020
 4259.00    0.98411   0.96757    0.021
 4260.00    1.03352   0.94500    0.021
 4261.00    1.05244   0.94992    0.021
 4262.00    0.97237   0.98377    0.020
 4263.00    0.87876   1.02845    0.020
 4264.00    0.97080   1.06374    0.021
 4265.00    1.08099   1.08051    0.021
 4266.00    0.93964   1.07769    0.021
 4267.00    0.78292   1.05727    0.020
 4268.00    0.87137   1.02389    0.020
 4269.00    0.96573   0.98168    0.020
 4270.00    0.92228   0.93427    0.020
 4271.00    0.87202   0.89244    0.020
 4272.00    0.64152   0.87169    0.020
 4273.00    0.45925   0.87573    0.020
 4274.00    0.93987   0.89531    0.020
 4275.00    1.36087   0.92504    0.020
 4276.00    1.24031   0.96376    0.020
 4277.00    1.12902   1.00148    0.020
 4278.00    1.07943   1.02271    0.021
 4279.00    1.05376   1.02146    0.021
 4280.00    1.15195   1.00648    0.021
 4281.00    1.18175   0.99190    0.021
 4282.00    0.92605   0.98470   -2.000
 4283.00    0.73006   0.98276   -2.000
 4284.00    0.74019   0.98054   -2.000
 4285.00    0.81729   0.97453   -2.000
 4286.00    1.08900   0.96455   -2.000
 4287.00    1.34078   0.94808   -2.000
 4288.00    1.54311   0.92094   -2.000
 4289.00    1.64755   0.88992   -2.000
 4290.00    1.54268   0.87555   -2.000
 4291.00    1.34501   0.89071   -2.000
 4292.00    0.97503   0.92240   -2.000
 4293.00    0.67944   0.94531   -2.000
 4294.00    0.50449   0.94844   -2.000
 4295.00    0.56444   0.93898   -2.000
 4296.00    0.95856   0.92351   -2.000
 4297.00    1.04900   0.89901   -2.000
 4298.00    0.75937   0.86274    0.021
 4299.00    0.71611   0.82315    0.021
 4300.00    0.94464   0.79644    0.021
 4301.00    1.00450   0.79010    0.021
 4302.00    0.90027   0.79739    0.021
 4303.00    0.70110   0.80963    0.020
 4304.00    0.42048   0.82067    0.020
 4305.00    0.36410   0.82284    0.020
 4306.00    0.47717   0.81139    0.021
 4307.00    0.59559   0.79151    0.021
 4308.00    0.71756   0.77767    0.021
 4309.00    1.00482   0.78352    0.021
 4310.00    1.38820   0.80917    0.022
 4311.00    1.11322   0.84138    0.021
 4312.00    0.50457   0.86686    0.021
 4313.00    0.43905   0.88442    0.020
 4314.00    0.61186   0.90543    0.020
 4315.00    0.82417   0.94150    0.020
 4316.00    1.05137   0.98790    0.021
 4317.00    1.08674   1.02440    0.021
 4318.00    1.06078   1.03631    0.020
 4319.00    0.80362   1.02601    0.021
 4320.00    0.48467   1.00403    0.021
 4321.00    0.38808   0.97744    0.021
 4322.00    0.34013   0.94446    0.021
 4323.00    0.85136   0.89833    0.021
 4324.00    1.45987   0.84268    0.021
 4325.00    1.54005   0.79965    0.021
 4326.00    1.55036   0.79487    0.021
 4327.00    1.25727   0.83092    0.021
 4328.00    0.93582   0.88008    0.021
 4329.00    1.24568   0.91012    0.021
 4330.00    1.59165   0.91258    0.000
 4331.00    1.38481   0.90152    0.000
 4332.00    1.16731   0.89098    0.000
 4333.00    1.20270   0.88264    0.000
 4334.00    1.23420   0.86986    0.000
 4335.00    1.17216   0.84210    0.000
 4336.00    1.10755   0.78993    0.000
 4337.00    1.00930   0.71629    0.000
 4338.00    0.94162   0.63913    0.000
 4339.00    1.14099   0.57902    0.000
 4340.00    1.29779   0.55158    0.000
 4341.00    1.17955   0.56517    0.000
 4342.00    1.09662   0.61159    0.000
 4343.00    1.19176   0.66889    0.000
 4344.00    1.29214   0.72150    0.000
 4345.00    1.41389   0.76691    0.000
 4346.00    1.43320   0.80600    0.000
 4347.00    1.10592   0.83993    0.000
 4348.00    0.92107   0.86792    0.000
 4349.00    1.14265   0.88038    0.000
 4350.00    1.31335   0.86687    0.000
 4351.00    1.36000   0.83712    0.021
 4352.00    1.29064   0.82028    0.021
 4353.00    0.97725   0.83482    0.021
 4354.00    0.85614   0.87141    0.025
 4355.00    1.08653   0.91030    0.066
 4356.00    1.23438   0.93938   -1.000
 4357.00    1.25034   0.95333   -1.000
 4358.00    1.31231   0.95358   -1.000
 4359.00    1.43880   0.95211   -1.000
 4360.00    1.47534   0.96220   -1.000
 4361.00    1.40090   0.98369   -1.000
 4362.00    1.20907   1.00640    0.082
 4363.00    0.88956   1.02472    0.027
 4364.00    0.91704   1.03833    0.020
 4365.00    1.27738   1.04212    0.021
 4366.00    1.39263   1.02927    0.021
 4367.00    1.30057   1.00460    0.021
 4368.00    1.09661   0.98359    0.020
 4369.00    0.80931   0.97661    0.020
 4370.00    0.91830   0.98083    0.020
 4371.00    1.28661   0.98607    0.020
 4372.00    1.39841   0.98144    0.020
 4373.00    1.36331   0.96178    0.020
 4374.00    1.40853   0.93639    0.020
 4375.00    1.49382   0.92619    0.020
 4376.00    1.40116   0.94366    0.020
 4377.00    1.23170   0.97822    0.020
 4378.00    1.26297   1.00633    0.020
 4379.00    1.36850   1.01253    0.020
 4380.00    1.39246   0.99481    0.020
 4381.00    1.39085   0.95460    0.020
 4382.00    1.35861   0.89498    0.020
 4383.00    1.31837   0.83368    0.020
 4384.00    1.31864   0.80243    0.020
 4385.00    1.32756   0.81835    0.020
 4386.00    1.14689   0.86453    0.019
 4387.00    0.93415   0.90862    0.019
 4388.00    0.73913   0.93291    0.019
 4389.00    0.54637   0.94049    0.019
 4390.00    0.92753   0.94272    0.019
 4391.00    1.35991   0.94825    0.019
 4392.00    1.22127   0.95658    0.019
 4393.00    1.05222   0.96033    0.019
 4394.00    1.23285   0.95871    0.019
 4395.00    1.41762   0.96312    0.019
 4396.00    1.38319   0.98153    0.019
 4397.00    1.34373   1.00272    0.019
 4398.00    1.19354   1.00746    0.019
 4399.00    1.06099   0.99186    0.019
 4400.00    1.14629   0.97101    0.019
 4401.00    1.21252   0.96044    0.020
 4402.00    1.11826   0.95619    0.020
 4403.00    1.02171   0.94139    0.020
 4404.00    0.91077   0.91545    0.019
 4405.00    0.85457   0.89898    0.019
 4406.00    1.06762   0.90396    0.019
 4407.00    1.26095   0.92070    0.019
 4408.00    1.37558   0.93993    0.019
 4409.00    1.37431   0.96454    0.019
 4410.00    0.98867   0.99499    0.019
 4411.00    0.74376   1.02107    0.019
 4412.00    0.89312   1.02979    0.019
 4413.00    1.05678   1.01337    0.019
 4414.00    1.25470   0.97681    0.019
 4415.00    1.35908   0.94152    0.019
 4416.00    1.26986   0.92981    0.019
 4417.00    1.17274   0.94579    0.019
 4418.00    1.06141   0.97761    0.019
 4419.00    1.01648   1.00837    0.019
 4420.00    1.07606   1.02251    0.019
 4421.00    1.22181   1.01487    0.019
 4422.00    1.48663   0.99654    0.019
 4423.00    1.56390   0.98495    0.019
 4424.00    1.41307   0.98604    0.019
 4425.00    1.35727   0.99202    0.019
 4426.00    1.40338   0.99562    0.019
 4427.00    1.41858   0.99680    0.019
 4428.00    1.40456   0.99650    0.019
 4429.00    1.26861   0.99262    0.019
 4430.00    1.03097   0.98630    0.019
 4431.00    1.00838   0.98255    0.019
 4432.00    1.14367   0.97850    0.019
 4433.00    1.19265   0.96527    0.019
 4434.00    1.18600   0.94533    0.019
 4435.00    1.19453   0.93561    0.019
 4436.00    1.21163   0.95044    0.020
 4437.00    1.28529   0.98549    0.020
 4438.00    1.38672   1.02073    0.019
 4439.00    1.23272   1.03610    0.019
 4440.00    0.97035   1.02337    0.019
 4441.00    0.94176   0.99024    0.019
 4442.00    0.99813   0.95650    0.019
 4443.00    1.25745   0.94269    0.019
 4444.00    1.57919   0.95682    0.019
 4445.00    1.46098   0.98782    0.019
 4446.00    1.23012   1.01508    0.019
 4447.00    1.30063   1.02761    0.019
 4448.00    1.43395   1.02857    0.019
 4449.00    1.42212   1.02331    0.019
 4450.00    1.38643   1.01510    0.019
 4451.00    1.47591   1.00709    0.019
 4452.00    1.58081   0.99653    0.018
 4453.00    1.58517   0.97614    0.018
 4454.00    1.58099   0.94703    0.018
 4455.00    1.37838   0.92239    0.018
 4456.00    1.16598   0.91331    0.018
 4457.00    1.28527   0.91550    0.018
 4458.00    1.40995   0.91732    0.018
 4459.00    1.54151   0.91399    0.018
 4460.00    1.66102   0.90858    0.019
 4461.00    1.53661   0.90728    0.000
 4462.00    1.41391   0.91720    0.000
 4463.00    1.31135   0.93834    0.000
 4464.00    1.22005   0.95890    0.000
 4465.00    1.22004   0.96841    0.000
 4466.00    1.18837   0.96721    0.000
 4467.00    0.96396   0.96007    0.000
 4468.00    0.81991   0.95109    0.000
 4469.00    1.06135   0.94592    0.000
 4470.00    1.26636   0.95133    0.000
 4471.00    1.32908   0.96875    0.000
 4472.00    1.33299   0.99269    0.000
 4473.00    1.14565   1.01531    0.000
 4474.00    1.02427   1.03101    0.000
 4475.00    1.08437   1.04013    0.000
 4476.00    1.14096   1.04698    0.000
 4477.00    1.18930   1.04979    0.000
 4478.00    1.24137   1.03750    0.000
 4479.00    1.30101   1.00302    0.000
 4480.00    1.35765   0.95690    0.000
 4481.00    1.40898   0.92394    0.000
 4482.00    1.34288   0.92411    0.018
 4483.00    1.09464   0.95599    0.018
 4484.00    0.99517   0.99915    0.018
 4485.00    1.09832   1.03171    0.018
 4486.00    1.19154   1.04202    0.018
 4487.00    1.27287   1.02892    0.018
 4488.00    1.14681   1.00128    0.018
 4489.00    0.80150   0.97585    0.018
 4490.00    0.80936   0.96700    0.018
 4491.00    1.14656   0.97519    0.019
 4492.00    1.29167   0.98679    0.018
 4493.00    1.27886   0.98725    0.018
 4494.00    1.28971   0.97600    0.018
 4495.00    1.31767   0.96673    0.018
 4496.00    1.41809   0.97150    0.018
 4497.00    1.56456   0.98953    0.018
 4498.00    1.46608   1.01011    0.018
 4499.00    1.23156   1.02159    0.018
 4500.00    1.09038   1.02132    0.018
 4501.00    0.99428   1.01982    0.018
 4502.00    1.13772   1.03131    0.018
 4503.00    1.38108   1.05583    0.018
 4504.00    1.37332   1.07781    0.018
 4505.00    1.27593   1.08411    0.018
 4506.00    1.24033   1.07494    0.018
 4507.00    1.22336   1.06002    0.018
 4508.00    1.35612   1.05029    0.018
 4509.00    1.52638   1.05035    0.018
 4510.00    1.48798   1.05494    0.018
 4511.00    1.40716   1.05402    0.018
 4512.00    1.32523   1.04276    0.018
 4513.00    1.24313   1.02536    0.018
 4514.00    1.27481   1.00972    0.018
 4515.00    1.32001   1.00157    0.018
 4516.00    1.17911   1.00099    0.018
 4517.00    1.02315   1.00353    0.018
 4518.00    1.01310   1.00707    0.018
 4519.00    1.00969   1.01249    0.018
 4520.00    1.05781   1.01730    0.018
 4521.00    1.09961   1.01553    0.017
 4522.00    0.78666   1.00439    0.018
 4523.00    0.50860   0.98879    0.018
 4524.00    0.88539   0.97372    0.018
 4525.00    1.23014   0.95689    0.017
 4526.00    1.21592   0.93589    0.018
 4527.00    1.19674   0.91412    0.018
 4528.00    1.13870   0.89858    0.018
 4529.00    1.09008   0.89522    0.017
 4530.00    1.09709   0.90395    0.018
 4531.00    1.08252   0.91716    0.018
 4532.00    0.96688   0.92447    0.018
 4533.00    0.89960   0.92068    0.018
 4534.00    1.01713   0.91420    0.018
 4535.00    1.11489   0.92167    0.018
 4536.00    1.14967   0.94974    0.018
 4537.00    1.12494   0.98527    0.018
 4538.00    0.93942   1.00665    0.018
 4539.00    0.87724   1.00561    0.018
 4540.00    1.10088   0.99261    0.018
 4541.00    1.24705   0.98342    0.018
 4542.00    1.23792   0.98441    0.018
 4543.00    1.19247   0.98863    0.018
 4544.00    1.08360   0.98713    0.018
 4545.00    1.04608   0.98041    0.018
 4546.00    1.11759   0.97302    0.018
 4547.00    1.14645   0.96357    0.018
 4548.00    1.11809   0.94914    0.018
 4549.00    1.06221   0.93541    0.018
 4550.00    0.97382   0.93316    0.000
 4551.00    0.97975   0.94159    0.000
 4552.00    1.08398   0.94703    0.000
 4553.00    1.14687   0.94167    0.000
 4554.00    1.17175   0.93193    0.000
 4555.00    1.28237   0.93091    0.000
 4556.00    1.46249   0.94597    0.000
 4557.00    1.43626   0.97129    0.000
 4558.00    1.26288   0.99458    0.000
 4559.00    1.23394   1.00965    0.000
 4560.00    1.29541   1.01712    0.000
 4561.00    1.37036   1.01695    0.000
 4562.00    1.45268   1.00623    0.000
 4563.00    1.40485   0.98557    0.000
 4564.00    1.29516   0.96565    0.000
 4565.00    1.09491   0.96052    0.000
 4566.00    0.85753   0.97460    0.000
 4567.00    0.86063   0.99836    0.000
 4568.00    0.94799   1.01571    0.000
 4569.00    1.09173   1.01659    0.000
 4570.00    1.25214   1.00266    0.000
 4571.00    1.25833   0.98543    0.000
 4572.00    1.22675   0.97982    0.000
 4573.00    1.11315   0.98946    0.000
 4574.00    0.98330   1.00245    0.000
 4575.00    1.07239   1.00834    0.000
 4576.00    1.19536   1.00671    0.000
 4577.00    1.06624   0.99911    0.000
 4578.00    0.90828   0.98456    0.000
 4579.00    0.89005   0.96430    0.000
 4580.00    0.88256   0.94535    0.000
 4581.00    1.09491   0.93471    0.000
 4582.00    1.31642   0.93211    0.000
 4583.00    1.12648   0.93257    0.000
 4584.00    0.94052   0.93437    0.000
 4585.00    1.07799   0.93962    0.000
 4586.00    1.21500   0.94973    0.000
 4587.00    1.34392   0.96398    0.000
 4588.00    1.44239   0.97813    0.000
 4589.00    1.21500   0.98572    0.000
 4590.00    1.02732   0.98255    0.000
 4591.00    1.13972   0.97076    0.000
 4592.00    1.21250   0.95802    0.000
 4593.00    1.05759   0.95048    0.000
 4594.00    0.92818   0.94774    0.000
 4595.00    0.91525   0.94707    0.000
 4596.00    0.94369   0.94842    0.000
 4597.00    1.12685   0.95216    0.000
 4598.00    1.26966   0.95643    0.000
 4599.00    1.28626   0.95833    0.000
 4600.00    1.31386   0.95685    0.000
 4601.00    1.37069   0.95559    0.000
 4602.00    1.39293   0.95710    0.000
 4603.00    1.33634   0.95901    0.000
 4604.00    1.30665   0.95972    0.000
 4605.00    1.33006   0.96224    0.000
 4606.00    1.22466   0.97229    0.000
 4607.00    0.89778   0.99100    0.000
 4608.00    0.81832   1.01162    0.000
 4609.00    1.11143   1.02389    0.000
 4610.00    1.22906   1.02232    0.000
 4611.00    1.11451   1.01101    0.000
 4612.00    1.10928   0.99911    0.000
 4613.00    1.23147   0.99289    0.000
 4614.00    1.22939   0.99338    0.000
 4615.00    1.09960   0.99669    0.000
 4616.00    1.03449   0.99763    0.000
 4617.00    1.02804   0.99489    0.000
 4618.00    1.02021   0.98934    0.000
 4619.00    1.01128   0.98471    0.000
 4620.00    1.04080   0.98658    0.000
 4621.00    1.09735   0.99430    0.000
 4622.00    1.07890   1.00142    0.000
 4623.00    1.01420   1.00421    0.000
 4624.00    0.86946   1.00253    0.000
 4625.00    0.68161   0.99757    0.000
 4626.00    0.72349   0.99223    0.000
 4627.00    0.87282   0.98802    0.000
 4628.00    1.05926   0.98394    0.000
 4629.00    1.26067   0.98134    0.000
 4630.00    1.01109   0.98369    0.000
 4631.00    0.60637   0.98814    0.000
 4632.00    0.78481   0.98620    0.000
 4633.00    1.13216   0.97605    0.000
 4634.00    1.08255   0.96478    0.000
 4635.00    0.93785   0.95775    0.000
 4636.00    0.86662   0.95316    0.000
 4637.00    0.80958   0.94737    0.000
 4638.00    0.85818   0.94127    0.000
 4639.00    0.92265   0.93886    0.000
 4640.00    0.92234   0.94265    0.000
 4641.00    0.91490   0.95132    0.000
 4642.00    0.88741   0.95797    0.000
 4643.00    0.85847   0.95528    0.000
 4644.00    0.75519   0.94193    0.000
 4645.00    0.64909   0.92130    0.000
 4646.00    0.81622   0.90019    0.000
 4647.00    0.98132   0.88841    0.000
 4648.00    1.01975   0.89214    0.000
 4649.00    1.05708   0.90903    0.000
 4650.00    1.07643   0.93094    0.000
 4651.00    1.08823   0.94898    0.000
 4652.00    1.02273   0.95757    0.000
 4653.00    0.96064   0.95482    0.000
 4654.00    0.92343   0.94326    0.000
 4655.00    0.93224   0.93187    0.000
 4656.00    1.19836   0.93097    0.000
 4657.00    1.40968   0.94505    0.000
 4658.00    1.37655   0.96947    0.000
 4659.00    1.30533   0.99165    0.000
 4660.00    1.09456   0.99952    0.000
 4661.00    0.90574   0.98994    0.000
 4662.00    0.78426   0.96940    0.000
 4663.00    0.73421   0.94689    0.000
 4664.00    0.87046   0.92589    0.000
 4665.00    0.94906   0.90264    0.000
 4666.00    0.89845   0.87505    0.000
 4667.00    0.83219   0.85281    0.000
 4668.00    0.73552   0.85002    0.000
 4669.00    0.75300   0.86885    0.000
 4670.00    0.96381   0.89752    0.000
 4671.00    1.14950   0.92174    0.000
 4672.00    1.29794   0.93441    0.000
 4673.00    1.35856   0.93856    0.000
 4674.00    1.30465   0.94203    0.000
 4675.00    1.27920   0.94871    0.000
 4676.00    1.28646   0.95476    0.000
 4677.00    1.23782   0.95285    0.000
 4678.00    1.13256   0.94118    0.000
 4679.00    0.97071   0.92606    0.000
 4680.00    0.75830   0.91513    0.000
 4681.00    0.71898   0.91241    0.000
 4682.00    0.81598   0.91822    0.000
 4683.00    0.86374   0.92899    0.000
 4684.00    0.87739   0.93834    0.000
 4685.00    0.85432   0.94220    0.000
 4686.00    0.80894   0.94098    0.000
 4687.00    0.83240   0.93692    0.000
 4688.00    0.89235   0.93266    0.000
 4689.00    0.98548   0.92949    0.000
 4690.00    1.09387   0.92663    0.000
 4691.00    1.13260   0.92448    0.000
 4692.00    1.14372   0.92575    0.000
 4693.00    1.07023   0.93187    0.000
 4694.00    0.96816   0.94106    0.000
 4695.00    0.86807   0.94874    0.000
 4696.00    0.76855   0.94861    0.000
 4697.00    0.84167   0.93724    0.000
 4698.00    0.95520   0.91892    0.000
 4699.00    1.08147   0.90291    0.000
 4700.00    1.21014   0.89362    0.000
 4701.00    1.29135   0.88797    0.000
 4702.00    1.36566   0.88375    0.000
 4703.00    1.22954   0.88393    0.000
 4704.00    1.07117   0.89064    0.000
 4705.00    1.03137   0.89861    0.000
 4706.00    0.99971   0.90025    0.000
 4707.00    0.94143   0.89514    0.000
 4708.00    0.88225   0.89036    0.000
 4709.00    0.81764   0.89280    0.000
 4710.00    0.75998   0.90333    0.000
 4711.00    0.92873   0.91536    0.000
 4712.00    1.08853   0.91983    0.000
 4713.00    1.11104   0.91499    0.000
 4714.00    1.13481   0.90869    0.000
 4715.00    1.17093   0.91123    0.000
 4716.00    1.19107   0.92505    0.000
 4717.00    1.09831   0.94314    0.000
 4718.00    1.01386   0.95845    0.000
 4719.00    0.97469   0.96858    0.000
 4720.00    0.93556   0.97267    0.000
 4721.00    0.89664   0.97106    0.000
 4722.00    0.86900   0.96729    0.000
 4723.00    0.88184   0.96593    0.000
 4724.00    0.89267   0.96653    0.000
 4725.00    0.89750   0.96183    0.000
 4726.00    0.88617   0.94506    0.000
 4727.00    0.83348   0.91853    0.000
 4728.00    0.76296   0.89326    0.000
 4729.00    0.65314   0.87900    0.000
 4730.00    0.63387   0.87729    0.000
 4731.00    0.78771   0.88493    0.000
 4732.00    0.87983   0.89800    0.000
 4733.00    0.86898   0.91125    0.000
 4734.00    0.85479   0.91981    0.000
 4735.00    0.83574   0.92188    0.000
 4736.00    0.76872   0.91953    0.000
 4737.00    0.64005   0.91948    0.000
 4738.00    0.67314   0.92538    0.000
 4739.00    0.88947   0.93176    0.000
 4740.00    0.96787   0.93356    0.000
 4741.00    0.90847   0.93310    0.000
 4742.00    0.89949   0.93447    0.000
 4743.00    0.93494   0.93760    0.000
 4744.00    0.98329   0.94017    0.000
 4745.00    1.04165   0.94236    0.000
 4746.00    1.09735   0.94593    0.000
 4747.00    1.15124   0.94952    0.000
 4748.00    1.05595   0.95094    0.000
 4749.00    0.87139   0.95043    0.000
 4750.00    0.83824   0.94796    0.000
 4751.00    0.88411   0.94194    0.000
 4752.00    0.96906   0.93225    0.000
 4753.00    1.07169   0.92164    0.000
 4754.00    0.99569   0.91297    0.000
 4755.00    0.85012   0.90821    0.000
 4756.00    1.00305   0.90821    0.000
 4757.00    1.25488   0.91268    0.000
 4758.00    1.13413   0.91943    0.000
 4759.00    0.90980   0.92408    0.000
 4760.00    0.89867   0.92189    0.000
 4761.00    0.93631   0.91065    0.016
 4762.00    0.97144   0.89387    0.016
 4763.00    1.00612   0.87792    0.016
 4764.00    1.06727   0.86610    0.016
 4765.00    1.13215   0.85980    0.016
 4766.00    1.24059   0.86166    0.016
 4767.00    1.35344   0.87285    0.016
 4768.00    1.12723   0.88955    0.016
 4769.00    0.87910   0.90456    0.016
 4770.00    0.93668   0.91181    0.016
 4771.00    1.00342   0.91144    0.016
 4772.00    1.02348   0.91089    0.016
 4773.00    1.04283   0.91651    0.016
 4774.00    1.04144   0.92684    0.016
 4775.00    1.03150   0.93581    0.015
 4776.00    0.89796   0.94041    0.016
 4777.00    0.79655   0.94186    0.016
 4778.00    0.99741   0.94024    0.015
 4779.00    1.13891   0.93512    0.015
 4780.00    0.87405   0.92799    0.015
 4781.00    0.67505   0.91996    0.015
 4782.00    0.82497   0.91092    0.015
 4783.00    0.94182   0.90230    0.015
 4784.00    0.91781   0.89676    0.015
 4785.00    0.91070   0.89338    0.015
 4786.00    0.96302   0.88984    0.015
 4787.00    0.96223   0.88790    0.015
 4788.00    0.80455   0.88852    0.015
 4789.00    0.75829   0.89028    0.015
 4790.00    0.99258   0.89445    0.015
 4791.00    1.06844   0.90307    0.015
 4792.00    0.80072   0.91635    0.015
 4793.00    0.69812   0.93250    0.015
 4794.00    0.90631   0.94661    0.015
 4795.00    1.02351   0.95233    0.015
 4796.00    0.99120   0.94684    0.015
 4797.00    0.92087   0.93289    0.016
 4798.00    0.79574   0.91651    0.017
 4799.00    0.83574   0.90496    0.017
 4800.00    1.08501   0.90363    0.018
 4801.00    1.11324   0.91183    0.018
 4802.00    0.89459   0.92197    0.017
 4803.00    0.86481   0.92521    0.017
 4804.00    1.02109   0.91881    0.017
 4805.00    1.08004   0.90739    0.016
 4806.00    1.05445   0.89769    0.016
 4807.00    1.02825   0.89221    0.015
 4808.00    1.00158   0.89111    0.016
 4809.00    0.97124   0.89414    0.016
 4810.00    0.93844   0.89900    0.015
 4811.00    0.93105   0.90282    0.015
 4812.00    0.93864   0.90505    0.015
 4813.00    0.96095   0.90717    0.015
 4814.00    0.99083   0.91072    0.015
 4815.00    0.86625   0.91615    0.015
 4816.00    0.67289   0.92292    0.015
 4817.00    0.79521   0.92963    0.015
 4818.00    1.03831   0.93459    0.015
 4819.00    1.01270   0.93590    0.015
 4820.00    0.89972   0.93080    0.016
 4821.00    0.97960   0.91769    0.016
 4822.00    1.11198   0.89816    0.015
 4823.00    1.09434   0.87874    0.015
 4824.00    1.04319   0.86955    0.015
 4825.00    1.04497   0.87381    0.015
 4826.00    1.05620   0.88336    0.015
 4827.00    0.95831   0.88883    0.015
 4828.00    0.84556   0.88773    0.015
 4829.00    0.87917   0.88301    0.015
 4830.00    0.92700   0.87753    0.015
 4831.00    0.90468   0.87184    0.015
 4832.00    0.87812   0.86824    0.015
 4833.00    0.76425   0.86993    0.015
 4834.00    0.64971   0.87501    0.015
 4835.00    0.83206   0.87836    0.015
 4836.00    1.00629   0.87727    0.015
 4837.00    0.96858   0.87184    0.015
 4838.00    0.93087   0.86261    0.015
 4839.00    0.89301   0.85160    0.015
 4840.00    0.85481   0.84291    0.015
 4841.00    0.81360   0.83882    0.015
 4842.00    0.76770   0.83777    0.014
 4843.00    0.69077   0.83831    0.014
 4844.00    0.64937   0.84123    0.015
 4845.00    0.79128   0.84429    0.014
 4846.00    0.88594   0.84170    0.014
 4847.00    0.78386   0.83114    0.015
 4848.00    0.69967   0.81719    0.000
 4849.00    0.67706   0.80745    0.000
 4850.00    0.69773   0.80394    0.000
 4851.00    0.84393   0.80051    0.000
 4852.00    0.94687   0.79070    0.000
 4853.00    0.94275   0.77223    0.000
 4854.00    0.88359   0.74650    0.000
 4855.00    0.70700   0.71993    0.000
 4856.00    0.62647   0.69930    0.000
 4857.00    0.72394   0.68147    0.000
 4858.00    0.82289   0.65523    0.000
 4859.00    0.92423   0.61570    0.000
 4860.00    0.93103   0.57251    0.000
 4861.00    0.80359   0.54531    0.000
 4862.00    0.72853   0.54929    0.000
 4863.00    0.71890   0.58050    0.000
 4864.00    0.73214   0.62198    0.000
 4865.00    0.77056   0.66146    0.000
 4866.00    0.71634   0.69367    0.000
 4867.00    0.57215   0.71634    0.000
 4868.00    0.56883   0.72872    0.000
 4869.00    0.68615   0.73061    0.000
 4870.00    0.81400   0.72345    0.000
 4871.00    0.94979   0.71494    0.000
 4872.00    0.96861   0.71695    0.000
 4873.00    0.90990   0.73262    0.000
 4874.00    0.94165   0.75369    0.000
 4875.00    1.02589   0.77227    0.014
 4876.00    1.03387   0.78785    0.014
 4877.00    1.00328   0.80292    0.014
 4878.00    0.91789   0.81806    0.014
 4879.00    0.80851   0.83100    0.014
 4880.00    0.80159   0.83652    0.014
 4881.00    0.83318   0.83323    0.014
 4882.00    0.76435   0.82642    0.014
 4883.00    0.66350   0.81956    0.014
 4884.00    0.75200   0.81146    0.014
 4885.00    0.89097   0.80272    0.014
 4886.00    0.97011   0.79720    0.014
 4887.00    1.03619   0.79643    0.014
 4888.00    0.93883   0.79618    0.015
 4889.00    0.81315   0.79157    0.015
 4890.00    0.74347   0.78432    0.015
 4891.00    0.68117   0.78479    0.015
 4892.00    0.79656   0.80358    0.015
 4893.00    0.92846   0.83713    0.015
 4894.00    0.81879   0.87174    0.015
 4895.00    0.69544   0.89682    0.015
 4896.00    0.62440   0.90819    0.015
 4897.00    0.55672   0.90742    0.014
 4898.00    0.72501   0.89851    0.015
 4899.00    0.89123   0.88551    0.015
 4900.00    1.00837   0.87382    0.015
 4901.00    1.10341   0.86719    0.015
 4902.00    0.91252   0.86421    0.015
 4903.00    0.73540   0.86407    0.015
 4904.00    0.67791   0.86935    0.015
 4905.00    0.65578   0.87942    0.015
 4906.00    0.86116   0.88697    0.015
 4907.00    1.02920   0.88397    0.015
 4908.00    1.00944   0.86959    0.015
 4909.00    0.98534   0.85043    0.015
 4910.00    0.94358   0.83591    0.015
 4911.00    0.89680   0.83329    0.015
 4912.00    0.83306   0.84269    0.015
 4913.00    0.82709   0.85804    0.015
 4914.00    0.98560   0.87234    0.015
 4915.00    1.04642   0.87911    0.015
 4916.00    0.86958   0.87146    0.015
 4917.00    0.77498   0.84625    0.015
 4918.00    0.85303   0.80895    0.015
 4919.00    0.89459   0.77366    0.015
 4920.00    0.86956   0.75484    0.015
 4921.00    0.75709   0.75740    0.015
 4922.00    0.50516   0.77382    0.015
 4923.00    0.47260   0.79189    0.014
 4924.00    0.74707   0.80737    0.014
 4925.00    0.84237   0.82464    0.014
 4926.00    0.71700   0.84603    0.014
 4927.00    0.75415   0.86749    0.014
 4928.00    0.96776   0.88483    0.015
 4929.00    0.99984   0.89581    0.015
 4930.00    0.85809   0.89771    0.015
 4931.00    0.84409   0.88956    0.015
 4932.00    0.93796   0.87314    0.015
 4933.00    0.96495   0.85381    0.014
 4934.00    0.94222   0.84050    0.014
 4935.00    0.98832   0.83544    0.014
 4936.00    1.07938   0.83015    0.015
 4937.00    1.04677   0.81905    0.014
 4938.00    0.94348   0.80801    0.014
 4939.00    0.77957   0.80823    0.014
 4940.00    0.58548   0.82439    0.000
 4941.00    0.74767   0.84910    0.000
 4942.00    1.06328   0.87072    0.000
 4943.00    1.09509   0.88370    0.000
 4944.00    1.02212   0.88772    0.000
 4945.00    0.84851   0.88550    0.000
 4946.00    0.64342   0.88302    0.000
 4947.00    0.68069   0.88477    0.000
 4948.00    0.78119   0.88965    0.000
 4949.00    0.81203   0.89441    0.000
 4950.00    0.82803   0.89687    0.000
 4951.00    0.74122   0.89575    0.000
 4952.00    0.63708   0.89017    0.000
 4953.00    0.56618   0.88045    0.000
 4954.00    0.49951   0.86609    0.000
 4955.00    0.78458   0.84470    0.000
 4956.00    1.10084   0.81719    0.000
 4957.00    1.05302   0.79393    0.000
 4958.00    0.98598   0.79153    0.000
 4959.00    0.92157   0.81313    0.000
 4960.00    0.85819   0.84275    0.000
 4961.00    0.87097   0.86438    0.000
 4962.00    0.87945   0.87302    0.000
 4963.00    0.79437   0.87079    0.000
 4964.00    0.72843   0.86064    0.000
 4965.00    0.89761   0.84628    0.000
 4966.00    1.04573   0.83393    0.000
 4967.00    1.01759   0.82773    0.000
 4968.00    0.99354   0.82745    0.000
 4969.00    0.99501   0.83182    0.000
 4970.00    0.99725   0.83938    0.000
 4971.00    1.00324   0.84920    0.000
 4972.00    0.98596   0.85979    0.000
 4973.00    0.87608   0.86836    0.000
 4974.00    0.75561   0.87287    0.000
 4975.00    0.60012   0.87163    0.000
 4976.00    0.55280   0.86437    0.000
 4977.00    0.80785   0.85268    0.000
 4978.00    0.96751   0.83830    0.000
 4979.00    0.89899   0.82281    0.000
 4980.00    0.84444   0.80551    0.000
 4981.00    0.81876   0.78462    0.000
 4982.00    0.79642   0.76323    0.000
 4983.00    0.78008   0.75033    0.000
 4984.00    0.75804   0.75274    0.000
 4985.00    0.72704   0.76900    0.000
 4986.00    0.73888   0.79236    0.000
 4987.00    0.80980   0.81440    0.000
 4988.00    0.86230   0.82762    0.000
 4989.00    0.89244   0.83039    0.000
 4990.00    0.91079   0.82690    0.000
 4991.00    0.91653   0.82279    0.000
 4992.00    0.86034   0.82198    0.000
 4993.00    0.74567   0.82379    0.000
 4994.00    0.73475   0.82705    0.000
 4995.00    0.81021   0.83165    0.000
 4996.00    0.85189   0.83424    0.000
 4997.00    0.86882   0.83107    0.000
 4998.00    0.92648   0.82085    0.000
 4999.00    1.01035   0.80519    0.000
 5000.00    0.96296   0.78958    0.000
 5001.00    0.84167   0.77907    0.000
 5002.00    0.77366   0.77407    0.000
 5003.00    0.73177   0.77076    0.000
 5004.00    0.73258   0.76462    0.000
 5005.00    0.75147   0.75632    0.000
 5006.00    0.81773   0.75327    0.000
 5007.00    0.90116   0.76207    0.000
 5008.00    0.86443   0.77912    0.000
 5009.00    0.79085   0.79269    0.000
 5010.00    0.79424   0.79411    0.000
 5011.00    0.81728   0.78281    0.000
 5012.00    0.76448   0.76451    0.000
 5013.00    0.69593   0.74832    0.000
 5014.00    0.63602   0.74052    0.000
 5015.00    0.57751   0.74116    0.000
 5016.00    0.64899   0.74481    0.000
 5017.00    0.73642   0.74603    0.000
 5018.00    0.52133   0.74610    0.000
 5019.00    0.28067   0.74955    0.000
 5020.00    0.52368   0.75620    0.000
 5021.00    0.79033   0.76288    0.000
 5022.00    0.82363   0.76913    0.000
 5023.00    0.85056   0.77728    0.000
 5024.00    0.70957   0.78634    0.000
 5025.00    0.57961   0.79163    0.000
 5026.00    0.67112   0.79127    0.000
 5027.00    0.75105   0.78804    0.000
 5028.00    0.69576   0.78861    0.000
 5029.00    0.64792   0.79645    0.014
 5030.00    0.66029   0.80837    0.014
 5031.00    0.67182   0.82065    0.014
 5032.00    0.67822   0.83010    0.014
 5033.00    0.68915   0.83229    0.014
 5034.00    0.72173   0.82400    0.014
 5035.00    0.76497   0.80747    0.014
 5036.00    0.84972   0.79027    0.014
 5037.00    0.91698   0.77701    0.014
 5038.00    0.92755   0.76304    0.014
 5039.00    0.91692   0.74420    0.014
 5040.00    0.84808   0.72571    0.014
 5041.00    0.79248   0.71933    0.014
 5042.00    0.76802   0.73411    0.013
 5043.00    0.77393   0.76526    0.013
 5044.00    0.84160   0.79833    0.013
 5045.00    0.83833   0.82175    0.013
 5046.00    0.70955   0.82932    0.013
 5047.00    0.61886   0.82048    0.013
 5048.00    0.58716   0.80153    0.013
 5049.00    0.56468   0.78281    0.013
 5050.00    0.55474   0.77214    0.013
 5051.00    0.57614   0.77118    0.013
 5052.00    0.63508   0.77817    0.013
 5053.00    0.71378   0.79022    0.013
 5054.00    0.81335   0.80296    0.013
 5055.00    0.83665   0.81277    0.013
 5056.00    0.78895   0.81911    0.013
 5057.00    0.71882   0.82413    0.013
 5058.00    0.63026   0.82957    0.013
 5059.00    0.60918   0.83513    0.013
 5060.00    0.63681   0.83980    0.013
 5061.00    0.70538   0.84102    0.013
 5062.00    0.79988   0.83480    0.013
 5063.00    0.83778   0.81973    0.013
 5064.00    0.84429   0.79967    0.013
 5065.00    0.82926   0.78306    0.013
 5066.00    0.80386   0.77578    0.013
 5067.00    0.75822   0.77566    0.013
 5068.00    0.70415   0.77863    0.013
 5069.00    0.66989   0.78275    0.013
 5070.00    0.64268   0.78592    0.013
 5071.00    0.68939   0.78559    0.013
 5072.00    0.75833   0.78266    0.013
 5073.00    0.72452   0.78123    0.013
 5074.00    0.66504   0.78205    0.013
 5075.00    0.65989   0.78269    0.013
 5076.00    0.66575   0.78101    0.013
 5077.00    0.62081   0.77427    0.013
 5078.00    0.56781   0.76003    0.013
 5079.00    0.60735   0.74134    0.013
 5080.00    0.65784   0.72808    0.013
 5081.00    0.66197   0.72688    0.013
 5082.00    0.66237   0.73528    0.013
 5083.00    0.63934   0.74744    0.013
 5084.00    0.61525   0.76010    0.013
 5085.00    0.74487   0.77163    0.013
 5086.00    0.87414   0.78026    0.013
 5087.00    0.89566   0.78564    0.013
 5088.00    0.91416   0.78948    0.012
 5089.00    0.87648   0.79345    0.013
 5090.00    0.83606   0.79800    0.013
 5091.00    0.76511   0.80328    0.013
 5092.00    0.69657   0.80891    0.013
 5093.00    0.64681   0.81225    0.013
 5094.00    0.60994   0.80947    0.013
 5095.00    0.64906   0.79867    0.013
 5096.00    0.71212   0.78112    0.013
 5097.00    0.88695   0.76098    0.013
 5098.00    0.98886   0.74451    0.013
 5099.00    0.81283   0.73809    0.013
 5100.00    0.66958   0.74456    0.013
 5101.00    0.63056   0.75882    0.013
 5102.00    0.59951   0.77183    0.013
 5103.00    0.58991   0.77785    0.013
 5104.00    0.62841   0.77668    0.013
 5105.00    0.77809   0.77105    0.013
 5106.00    0.85206   0.76327    0.013
 5107.00    0.77457   0.75503    0.013
 5108.00    0.70417   0.74910    0.013
 5109.00    0.64611   0.74755    0.013
 5110.00    0.62113   0.75073    0.013
 5111.00    0.64660   0.75884    0.013
 5112.00    0.71683   0.76945    0.013
 5113.00    0.84704   0.77910    0.013
 5114.00    0.86719   0.78709    0.013
 5115.00    0.75747   0.79390    0.013
 5116.00    0.74639   0.80010    0.013
 5117.00    0.83796   0.80513    0.013
 5118.00    0.77649   0.80608    0.013
 5119.00    0.57454   0.80076    0.013
 5120.00    0.52555   0.78921    0.013
 5121.00    0.60029   0.77309    0.013
 5122.00    0.67631   0.75533    0.013
 5123.00    0.75323   0.73905    0.013
 5124.00    0.74920   0.72810    0.013
 5125.00    0.69461   0.72424    0.013
 5126.00    0.70303   0.72501    0.013
 5127.00    0.74585   0.72689    0.013
 5128.00    0.75155   0.72876    0.013
 5129.00    0.73964   0.73181    0.013
 5130.00    0.69765   0.73753    0.013
 5131.00    0.64336   0.74547    0.013
 5132.00    0.52988   0.75332    0.013
 5133.00    0.39571   0.75983    0.013
 5134.00    0.41591   0.76462    0.012
 5135.00    0.48161   0.76618    0.012
 5136.00    0.60520   0.76119    0.012
 5137.00    0.74292   0.75032    0.013
 5138.00    0.76211   0.73896    0.013
 5139.00    0.75788   0.73161    0.013
 5140.00    0.69411   0.73016    0.012
 5141.00    0.62116   0.73116    0.012
 5142.00    0.70861   0.73054    0.012
 5143.00    0.81433   0.73018    0.013
 5144.00    0.69127   0.73125    0.012
 5145.00    0.55075   0.73087    0.012
 5146.00    0.57269   0.72838    0.012
 5147.00    0.60132   0.72622    0.013
 5148.00    0.70389   0.72655    0.013
 5149.00    0.80169   0.72877    0.012
 5150.00    0.67287   0.72942    0.013
 5151.00    0.55514   0.72687    0.013
 5152.00    0.62964   0.72323    0.013
 5153.00    0.70312   0.72184    0.013
 5154.00    0.76571   0.72569    0.013
 5155.00    0.81531   0.73597    0.013
 5156.00    0.76702   0.75013    0.013
 5157.00    0.71006   0.76372    0.013
 5158.00    0.60348   0.77291    0.013
 5159.00    0.52886   0.77585    0.013
 5160.00    0.59985   0.77325    0.013
 5161.00    0.64257   0.76582    0.013
 5162.00    0.57976   0.75357    0.013
 5163.00    0.53452   0.73640    0.013
 5164.00    0.54408   0.71152    0.013
 5165.00    0.57214   0.67693    0.013
 5166.00    0.64920   0.63818    0.013
 5167.00    0.69084   0.60722    0.013
 5168.00    0.65195   0.59460    0.013
 5169.00    0.60440   0.59868    0.013
 5170.00    0.53979   0.60609    0.013
 5171.00    0.50866   0.60574    0.013
 5172.00    0.53498   0.60251    0.013
 5173.00    0.54605   0.61205    0.013
 5174.00    0.53419   0.64077    0.013
 5175.00    0.56001   0.67817    0.013
 5176.00    0.63560   0.70955    0.013
 5177.00    0.63808   0.72842    0.013
 5178.00    0.55550   0.73489    0.013
 5179.00    0.57632   0.72965    0.013
 5180.00    0.70322   0.71181    0.013
 5181.00    0.66711   0.68148    0.013
 5182.00    0.48349   0.64482    0.013
 5183.00    0.48689   0.61628    0.013
 5184.00    0.63944   0.61224    0.013
 5185.00    0.67258   0.63585    0.013
 5186.00    0.62196   0.67258    0.013
 5187.00    0.59414   0.70506    0.013
 5188.00    0.58036   0.72439    0.013
 5189.00    0.56782   0.73045    0.012
 5190.00    0.55593   0.72564    0.000
 5191.00    0.69686   0.71248    0.000
 5192.00    0.90913   0.69883    0.000
 5193.00    0.83001   0.69340    0.000
 5194.00    0.63368   0.69665    0.000
 5195.00    0.61816   0.70391    0.000
 5196.00    0.66469   0.71310    0.000
 5197.00    0.71557   0.72384    0.000
 5198.00    0.76770   0.73513    0.000
 5199.00    0.70589   0.74496    0.000
 5200.00    0.61686   0.75020    0.000
 5201.00    0.67632   0.74857    0.000
 5202.00    0.76436   0.73923    0.000
 5203.00    0.72553   0.72274    0.000
 5204.00    0.66773   0.70130    0.000
 5205.00    0.64249   0.67996    0.000
 5206.00    0.62082   0.66493    0.000
 5207.00    0.66653   0.65877    0.000
 5208.00    0.71711   0.66074    0.000
 5209.00    0.74384   0.67187    0.000
 5210.00    0.76969   0.69166    0.000
 5211.00    0.82653   0.71527    0.012
 5212.00    0.88131   0.73593    0.013
 5213.00    0.85591   0.74681    0.012
 5214.00    0.82495   0.74598    0.012
 5215.00    0.70373   0.73808    0.012
 5216.00    0.59346   0.73214    0.012
 5217.00    0.59456   0.73477    0.012
 5218.00    0.60781   0.74566    0.012
 5219.00    0.70945   0.75925    0.012
 5220.00    0.80304   0.76906    0.012
 5221.00    0.85179   0.77113    0.012
 5222.00    0.87661   0.76328    0.012
 5223.00    0.79501   0.74488    0.012
 5224.00    0.71976   0.71803    0.012
 5225.00    0.66771   0.68918    0.013
 5226.00    0.64202   0.66847    0.013
 5227.00    0.69703   0.66553    0.013
 5228.00    0.72021   0.68242    0.013
 5229.00    0.66055   0.70853    0.013
 5230.00    0.63364   0.72922    0.013
 5231.00    0.67995   0.73687    0.013
 5232.00    0.71055   0.73203    0.013
 5233.00    0.71068   0.72318    0.013
 5234.00    0.70341   0.72049    0.013
 5235.00    0.68364   0.72755    0.013
 5236.00    0.62626   0.74171    0.013
 5237.00    0.51316   0.75655    0.013
 5238.00    0.51511   0.76709    0.013
 5239.00    0.66685   0.77236    0.013
 5240.00    0.76760   0.77399    0.013
 5241.00    0.80985   0.77419    0.013
 5242.00    0.78802   0.77425    0.013
 5243.00    0.70137   0.77448    0.013
 5244.00    0.64083   0.77344    0.013
 5245.00    0.60360   0.76772    0.013
 5246.00    0.64530   0.75592    0.013
 5247.00    0.74907   0.74187    0.013
 5248.00    0.77567   0.73116    0.013
 5249.00    0.74890   0.72526    0.013
 5250.00    0.71260   0.72306    0.013
 5251.00    0.67052   0.72471    0.013
 5252.00    0.71907   0.72889    0.013
 5253.00    0.81559   0.73259    0.013
 5254.00    0.76003   0.73526    0.013
 5255.00    0.63463   0.74002    0.013
 5256.00    0.64886   0.75063    0.013
 5257.00    0.71830   0.76462    0.012
 5258.00    0.73961   0.77444    0.012
 5259.00    0.74473   0.77358    0.012
 5260.00    0.70416   0.75958    0.012
 5261.00    0.65067   0.73478    0.012
 5262.00    0.71019   0.70426    0.012
 5263.00    0.79610   0.67425    0.012
 5264.00    0.72843   0.65074    0.013
 5265.00    0.63195   0.63766    0.013
 5266.00    0.52958   0.63426    0.012
 5267.00    0.42635   0.63516    0.012
 5268.00    0.53806   0.63313    0.013
 5269.00    0.67238   0.62821    0.013
 5270.00    0.68890   0.63058    0.013
 5271.00    0.69739   0.64672    0.013
 5272.00    0.70772   0.66956    0.013
 5273.00    0.71811   0.68796    0.013
 5274.00    0.68577   0.69867    0.013
 5275.00    0.65270   0.70643    0.013
 5276.00    0.59746   0.71853    0.013
 5277.00    0.54813   0.73568    0.012
 5278.00    0.58860   0.75000    0.013
 5279.00    0.61758   0.75423    0.013
 5280.00    0.53442   0.74748    0.012
 5281.00    0.46255   0.73464    0.012
 5282.00    0.47010   0.72294    0.012
 5283.00    0.49412   0.71876    0.012
 5284.00    0.60740   0.72600    0.012
 5285.00    0.70494   0.74386    0.012
 5286.00    0.73411   0.76479    0.012
 5287.00    0.75354   0.78063    0.012
 5288.00    0.73809   0.78898    0.012
 5289.00    0.73019   0.79239    0.013
 5290.00    0.74499   0.79362    0.013
 5291.00    0.74398   0.79259    0.012
 5292.00    0.70254   0.78841    0.013
 5293.00    0.66229   0.78087    0.013
 5294.00    0.62465   0.76977    0.012
 5295.00    0.61112   0.75402    0.012
 5296.00    0.64360   0.73442    0.013
 5297.00    0.64196   0.71653    0.013
 5298.00    0.58350   0.70764    0.013
 5299.00    0.57632   0.71051    0.013
 5300.00    0.64396   0.72041    0.013
 5301.00    0.70196   0.73169    0.013
 5302.00    0.74758   0.74349    0.013
 5303.00    0.75723   0.75665    0.013
 5304.00    0.72619   0.76943    0.013
 5305.00    0.70096   0.77805    0.013
 5306.00    0.68152   0.78091    0.012
 5307.00    0.68593   0.78062    0.012
 5308.00    0.71133   0.78128    0.012
 5309.00    0.69057   0.78417    0.012
 5310.00    0.63405   0.78685    0.012
 5311.00    0.58356   0.78655    0.012
 5312.00    0.53717   0.78255    0.012
 5313.00    0.59528   0.77565    0.012
 5314.00    0.71580   0.76724    0.012
 5315.00    0.80418   0.75861    0.012
 5316.00    0.87580   0.75154    0.012
 5317.00    0.84977   0.74874    0.012
 5318.00    0.77961   0.75073    0.012
 5319.00    0.69089   0.75446    0.012
 5320.00    0.59495   0.75627    0.012
 5321.00    0.57736   0.75345    0.012
 5322.00    0.58567   0.74520    0.012
 5323.00    0.61144   0.73293    0.012
 5324.00    0.64205   0.71881    0.012
 5325.00    0.61353   0.70381    0.012
 5326.00    0.57152   0.68591    0.012
 5327.00    0.58049   0.66593    0.012
 5328.00    0.59878   0.65254    0.012
 5329.00    0.62409   0.65659    0.012
 5330.00    0.65039   0.67763    0.012
 5331.00    0.65605   0.70439    0.012
 5332.00    0.65964   0.72636    0.012
 5333.00    0.66648   0.74069    0.012
 5334.00    0.67352   0.74974    0.012
 5335.00    0.67114   0.75462    0.012
 5336.00    0.66892   0.75441    0.012
 5337.00    0.85082   0.74842    0.012
 5338.00    1.02104   0.73747    0.012
 5339.00    0.85748   0.72447    0.012
 5340.00    0.70426   0.71477    0.012
 5341.00    0.69960   0.71414    0.012
 5342.00    0.69321   0.72256    0.012
 5343.00    0.67066   0.73327    0.012
 5344.00    0.65105   0.73984    0.012
 5345.00    0.65152   0.74018    0.012
 5346.00    0.64335   0.73648    0.012
 5347.00    0.58960   0.73237    0.012
 5348.00    0.57731   0.72970    0.012
 5349.00    0.74109   0.73080    0.012
 5350.00    0.85410   0.73743    0.012
 5351.00    0.78915   0.74832    0.012
 5352.00    0.75167   0.76014    0.012
 5353.00    0.79519   0.77060    0.012
 5354.00    0.82037   0.77976    0.012
 5355.00    0.79949   0.78760    0.012
 5356.00    0.77004   0.79307    0.012
 5357.00    0.72204   0.79552    0.012
 5358.00    0.63831   0.79462    0.012
 5359.00    0.48746   0.79015    0.012
 5360.00    0.40602   0.78197    0.012
 5361.00    0.43840   0.77080    0.012
 5362.00    0.48959   0.75867    0.012
 5363.00    0.56782   0.74817    0.012
 5364.00    0.65212   0.74022    0.012
 5365.00    0.74410   0.73441    0.012
 5366.00    0.77425   0.72988    0.012
 5367.00    0.73545   0.72393    0.012
 5368.00    0.73900   0.71405   -2.000
 5369.00    0.78418   0.70030   -2.000
 5370.00    0.83495   0.68757   -2.000
 5371.00    0.89056   0.68431   -2.000
 5372.00    0.87109   0.69540   -2.000
 5373.00    0.79425   0.71720   -2.000
 5374.00    0.76475   0.73975   -2.000
 5375.00    0.76703   0.75543   -2.000
 5376.00    0.71903   0.76228   -2.000
 5377.00    0.64147   0.76299   -2.000
 5378.00    0.62183   0.76124   -2.000
 5379.00    0.63188   0.75803   -2.000
 5380.00    0.65083   0.75315   -2.000
 5381.00    0.67374   0.74736   -2.000
 5382.00    0.69674   0.74274   -2.000
 5383.00    0.71976   0.74119    0.012
 5384.00    0.67401   0.74353    0.011
 5385.00    0.60596   0.74771    0.011
 5386.00    0.65710   0.74992    0.011
 5387.00    0.74061   0.74796    0.011
 5388.00    0.64975   0.74170    0.011
 5389.00    0.52005   0.73281    0.011
 5390.00    0.54760   0.72392    0.011
 5391.00    0.60307   0.71707    0.011
 5392.00    0.62335   0.71261    0.011
 5393.00    0.63885   0.70928    0.011
 5394.00    0.65808   0.70475    0.011
 5395.00    0.67766   0.69781    0.012
 5396.00    0.59001   0.69009    0.011
 5397.00    0.49591   0.68603    0.011
 5398.00    0.55131   0.68977    0.011
 5399.00    0.61046   0.69911    0.011
 5400.00    0.64627   0.70808    0.012
 5401.00    0.67970   0.71172    0.012
 5402.00    0.65196   0.70715    0.012
 5403.00    0.62697   0.69404    0.012
 5404.00    0.63937   0.67670    0.012
 5405.00    0.64902   0.66316    0.011
 5406.00    0.63387   0.65936    0.011
 5407.00    0.61925   0.66458    0.011
 5408.00    0.60810   0.67274    0.011
 5409.00    0.61445   0.67967    0.012
 5410.00    0.71081   0.68667    0.012
 5411.00    0.77404   0.69686    0.012
 5412.00    0.69971   0.70913    0.011
 5413.00    0.65595   0.71974    0.011
 5414.00    0.71723   0.72710    0.012
 5415.00    0.76500   0.73289    0.012
 5416.00    0.77372   0.73884    0.011
 5417.00    0.75586   0.74357    0.011
 5418.00    0.67235   0.74437    0.011
 5419.00    0.64041   0.74111    0.011
 5420.00    0.71824   0.73587    0.011
 5421.00    0.73421   0.73076    0.011
 5422.00    0.63580   0.72623    0.011
 5423.00    0.60323   0.72203    0.011
 5424.00    0.67706   0.72008    0.011
 5425.00    0.71476   0.72288    0.011
 5426.00    0.70122   0.72755    0.011
 5427.00    0.67540   0.72746    0.011
 5428.00    0.63428   0.71926    0.011
 5429.00    0.59404   0.70653    0.011
 5430.00    0.55476   0.69720    0.011
 5431.00    0.52269   0.69415    0.011
 5432.00    0.49760   0.69275    0.011
 5433.00    0.54136   0.68982    0.011
 5434.00    0.64398   0.68695    0.011
 5435.00    0.68778   0.68875    0.011
 5436.00    0.68729   0.69834    0.011
 5437.00    0.73107   0.71430    0.011
 5438.00    0.80415   0.73248    0.011
 5439.00    0.78973   0.74796    0.011
 5440.00    0.72463   0.75788    0.011
 5441.00    0.66090   0.76142    0.011
 5442.00    0.59786   0.75852    0.011
 5443.00    0.69106   0.74868    0.011
 5444.00    0.85254   0.73178    0.011
 5445.00    0.83568   0.71127    0.011
 5446.00    0.75194   0.69462    0.011
 5447.00    0.64360   0.68932    0.011
 5448.00    0.52744   0.69740    0.011
 5449.00    0.52304   0.71229    0.011
 5450.00    0.54835   0.72515    0.011
 5451.00    0.58671   0.73003    0.011
 5452.00    0.62791   0.72549    0.011
 5453.00    0.64971   0.71350    0.011
 5454.00    0.66815   0.69907    0.011
 5455.00    0.69736   0.68908    0.011
 5456.00    0.72798   0.68987    0.011
 5457.00    0.71435   0.70119    0.011
 5458.00    0.69664   0.71546    0.011
 5459.00    0.72685   0.72444    0.011
 5460.00    0.75976   0.72398    0.011
 5461.00    0.76997   0.71619    0.011
 5462.00    0.77961   0.70670    0.011
 5463.00    0.78382   0.70090    0.011
 5464.00    0.79029   0.70161    0.011
 5465.00    0.84994   0.70700    0.011
 5466.00    0.90169   0.71317    0.011
 5467.00    0.85211   0.71769    0.011
 5468.00    0.80042   0.71955    0.011
 5469.00    0.73046   0.71857    0.011
 5470.00    0.67130   0.71528    0.011
 5471.00    0.68144   0.71050    0.011
 5472.00    0.68945   0.70463    0.011
 5473.00    0.68680   0.69690    0.011
 5474.00    0.69110   0.68714    0.011
 5475.00    0.72359   0.67649    0.011
 5476.00    0.73928   0.66795    0.011
 5477.00    0.69841   0.66617    0.011
 5478.00    0.68060   0.67197   -2.000
 5479.00    0.72829   0.68010   -2.000
 5480.00    0.75970   0.68522   -2.000
 5481.00    0.75159   0.68715   -2.000
 5482.00    0.71287   0.69054   -2.000
 5483.00    0.61000   0.69813   -2.000
 5484.00    0.59808   0.70739   -2.000
 5485.00    0.75179   0.71334   -2.000
 5486.00    0.92056   0.71297   -2.000
 5487.00    1.11330   0.70836   -2.000
 5488.00    1.20799   0.70437   -2.000
 5489.00    1.16572   0.70419   -2.000
 5490.00    1.03751   0.70671   -2.000
 5491.00    0.80365   0.70955   -2.000
 5492.00    0.60951   0.71080   -2.000
 5493.00    0.45841   0.71022   -2.000
 5494.00    0.42505   0.70898   -2.000
 5495.00    0.50424   0.70770   -2.000
 5496.00    0.62356   0.70651   -2.000
 5497.00    0.77670   0.70617   -2.000
 5498.00    0.82890   0.70735   -2.000
 5499.00    0.80620   0.70865   -2.000
 5500.00    0.74064   0.70707   -2.000
 5501.00    0.64715   0.70217   -2.000
 5502.00    0.64309   0.69654    0.011
 5503.00    0.69006   0.69253    0.011
 5504.00    0.74656   0.69002    0.011
 5505.00    0.80780   0.68803    0.011
 5506.00    0.83483   0.68674    0.011
 5507.00    0.84717   0.68784    0.011
 5508.00    0.80888   0.69095    0.011
 5509.00    0.75194   0.69278    0.011
 5510.00    0.66676   0.69081    0.011
 5511.00    0.57276   0.68531    0.011
 5512.00    0.55504   0.67916    0.011
 5513.00    0.55717   0.67626    0.011
 5514.00    0.60335   0.67833    0.011
 5515.00    0.65889   0.68486    0.011
 5516.00    0.60206   0.69419    0.011
 5517.00    0.52638   0.70424    0.011
 5518.00    0.58200   0.71324    0.011
 5519.00    0.65425   0.71927    0.011
 5520.00    0.76159   0.72162    0.011
 5521.00    0.87202   0.72123    0.011
 5522.00    0.75458   0.71930    0.011
 5523.00    0.62523   0.71609    0.011
 5524.00    0.62137   0.71081    0.011
 5525.00    0.62026   0.70244    0.011
 5526.00    0.64939   0.69179    0.011
 5527.00    0.67977   0.68196    0.011
 5528.00    0.73704   0.67707    0.011
 5529.00    0.78715   0.67974    0.011
 5530.00    0.74997   0.68774    0.011
 5531.00    0.71272   0.69567    0.011
 5532.00    0.67498   0.69947    0.011
 5533.00    0.64456   0.69866    0.011
 5534.00    0.65962   0.69580    0.011
 5535.00    0.67845   0.69387    0.011
 5536.00    0.71566   0.69492    0.011
 5537.00    0.73545   0.69870    0.011
 5538.00    0.68604   0.70390    0.011
 5539.00    0.64983   0.70945    0.011
 5540.00    0.65715   0.71356    0.011
 5541.00    0.64307   0.71461    0.011
 5542.00    0.56928   0.71219    0.011
 5543.00    0.51250   0.70780    0.011
 5544.00    0.49631   0.70421    0.011
 5545.00    0.52522   0.70330    0.011
 5546.00    0.64712   0.70546    0.011
 5547.00    0.72675   0.71036    0.011
 5548.00    0.73057   0.71656    0.011
 5549.00    0.72979   0.72177    0.011
 5550.00    0.72181   0.72416    0.010
 5551.00    0.70992   0.72295    0.010
 5552.00    0.69265   0.71859    0.011
 5553.00    0.68033   0.71283    0.011
 5554.00    0.67401   0.70792    0.010
 5555.00    0.65431   0.70532    0.010
 5556.00    0.62034   0.70485    0.010
 5557.00    0.59216   0.70514    0.010
 5558.00    0.56945   0.70516    0.010
 5559.00    0.54371   0.70447    0.010
 5560.00    0.51545   0.70237    0.010
 5561.00    0.56345   0.69883    0.010
 5562.00    0.66724   0.69439    0.010
 5563.00    0.69149   0.69004    0.010
 5564.00    0.66466   0.68663    0.010
 5565.00    0.66352   0.68385    0.010
 5566.00    0.67681   0.68154    0.010
 5567.00    0.68794   0.68005    0.010
 5568.00    0.69801   0.67960    0.010
 5569.00    0.70408   0.68002    0.010
 5570.00    0.70846   0.68083    0.010
 5571.00    0.63672   0.68159    0.010
 5572.00    0.53744   0.68172    0.010
 5573.00    0.56420   0.68258    0.010
 5574.00    0.62953   0.68570    0.010
 5575.00    0.61178   0.68988    0.010
 5576.00    0.57286   0.69360    0.010
 5577.00    0.59365   0.69654    0.010
 5578.00    0.62681   0.69851    0.010
 5579.00    0.64771   0.69957    0.011
 5580.00    0.66663   0.69977    0.011
 5581.00    0.66316   0.69849    0.011
 5582.00    0.65697   0.69551    0.011
 5583.00    0.64246   0.69046    0.011
 5584.00    0.62726   0.68182    0.011
 5585.00    0.66280   0.66906    0.011
 5586.00    0.70080   0.65395    0.011
 5587.00    0.64930   0.64076    0.011
 5588.00    0.59737   0.63410    0.011
 5589.00    0.60019   0.63536    0.011
 5590.00    0.60201   0.64243    0.011
 5591.00    0.58409   0.65113    0.011
 5592.00    0.56888   0.65806    0.011
 5593.00    0.58513   0.66323    0.011
 5594.00    0.59060   0.66824    0.011
 5595.00    0.50954   0.67403    0.011
 5596.00    0.45661   0.67866    0.011
 5597.00    0.57355   0.67871    0.011
 5598.00    0.67190   0.67352    0.011
 5599.00    0.68159   0.66583    0.011
 5600.00    0.67638   0.65853    0.011
 5601.00    0.61332   0.65390    0.011
 5602.00    0.56242   0.65452    0.011
 5603.00    0.55091   0.66177    0.010
 5604.00    0.53998   0.67494    0.010
 5605.00    0.53066   0.68993    0.010
 5606.00    0.53395   0.70221    0.010
 5607.00    0.56681   0.70951    0.010
 5608.00    0.58901   0.71232    0.010
 5609.00    0.58961   0.71278    0.010
 5610.00    0.58641   0.71232    0.010
 5611.00    0.57653   0.71048    0.010
 5612.00    0.59048   0.70465    0.010
 5613.00    0.64125   0.69271    0.010
 5614.00    0.66107   0.67628    0.010
 5615.00    0.63889   0.66116    0.010
 5616.00    0.61347   0.65427    0.010
 5617.00    0.58415   0.65674    0.010
 5618.00    0.55712   0.66390    0.010
 5619.00    0.53251   0.67109    0.010
 5620.00    0.57139   0.67617    0.010
 5621.00    0.66928   0.67832    0.010
 5622.00    0.68708   0.67649    0.010
 5623.00    0.63925   0.67047    0.010
 5624.00    0.58554   0.66300    0.010
 5625.00    0.52759   0.65906    0.010
 5626.00    0.54541   0.66168    0.010
 5627.00    0.61117   0.66950    0.010
 5628.00    0.68050   0.67939    0.010
 5629.00    0.75179   0.68869    0.010
 5630.00    0.72311   0.69526    0.010
 5631.00    0.64634   0.69808    0.010
 5632.00    0.65262   0.69705    0.010
 5633.00    0.69341   0.69291    0.010
 5634.00    0.69072   0.68683    0.010
 5635.00    0.67259   0.68015    0.010
 5636.00    0.67023   0.67414    0.010
 5637.00    0.67260   0.66991    0.010
 5638.00    0.66975   0.66805    0.010
 5639.00    0.66559   0.66769    0.010
 5640.00    0.65084   0.66739    0.010
 5641.00    0.63396   0.66675    0.010
 5642.00    0.57349   0.66696    0.010
 5643.00    0.50612   0.66881    0.010
 5644.00    0.53237   0.67188    0.010
 5645.00    0.56965   0.67547    0.010
 5646.00    0.63990   0.67846    0.010
 5647.00    0.71279   0.68017    0.010
 5648.00    0.71008   0.68058    0.010
 5649.00    0.70400   0.68043    0.010
 5650.00    0.65534   0.68097    0.010
 5651.00    0.60815   0.68234    0.010
 5652.00    0.65637   0.68293    0.010
 5653.00    0.70068   0.68105    0.010
 5654.00    0.67307   0.67623    0.010
 5655.00    0.64894   0.66929    0.010
 5656.00    0.66328   0.66114    0.010
 5657.00    0.66790   0.65222    0.010
 5658.00    0.59710   0.64438    0.010
 5659.00    0.53987   0.64122    0.010
 5660.00    0.56223   0.64320    0.010
 5661.00    0.57733   0.64728    0.010
 5662.00    0.55861   0.65163    0.010
 5663.00    0.55415   0.65677    0.010
 5664.00    0.60388   0.66290    0.010
 5665.00    0.63211   0.66822    0.010
 5666.00    0.59215   0.67073    0.010
 5667.00    0.57783   0.67033    0.010
 5668.00    0.63249   0.66928    0.010
 5669.00    0.65569   0.66985    0.010
 5670.00    0.60633   0.67296    0.010
 5671.00    0.59208   0.67827    0.010
 5672.00    0.64795   0.68455    0.010
 5673.00    0.70873   0.68997    0.010
 5674.00    0.77806   0.69308    0.010
 5675.00    0.79854   0.69390    0.010
 5676.00    0.74465   0.69349    0.010
 5677.00    0.70996   0.69226    0.010
 5678.00    0.70097   0.68973    0.010
 5679.00    0.69414   0.68571    0.010
 5680.00    0.68986   0.68042    0.010
 5681.00    0.68028   0.67433    0.010
 5682.00    0.66518   0.66853    0.010
 5683.00    0.63495   0.66476    0.009
 5684.00    0.59086   0.66335    0.009
 5685.00    0.56189   0.66261    0.009
 5686.00    0.54515   0.66112    0.009
 5687.00    0.54669   0.65959    0.009
 5688.00    0.56124   0.66019    0.009
 5689.00    0.58525   0.66423    0.009
 5690.00    0.61518   0.67102    0.009
 5691.00    0.62132   0.67811    0.009
 5692.00    0.61452   0.68360    0.009
 5693.00    0.63599   0.68637    0.009
 5694.00    0.67086   0.68651    0.009
 5695.00    0.70437   0.68483    0.010
 5696.00    0.73733   0.68171    0.010
 5697.00    0.74673   0.67703    0.010
 5698.00    0.74790   0.67071    0.010
 5699.00    0.70508   0.66405    0.010
 5700.00    0.64931   0.65820    0.010
 5701.00    0.64971   0.65412    0.010
 5702.00    0.66378   0.65276    0.010
 5703.00    0.67667   0.65343    0.010
 5704.00    0.68933   0.65369    0.010
 5705.00    0.64732   0.65098    0.010
 5706.00    0.59692   0.64461    0.010
 5707.00    0.62925   0.63650    0.010
 5708.00    0.67095   0.62917    0.010
 5709.00    0.71436   0.62470    0.010
 5710.00    0.75790   0.62479    0.010
 5711.00    0.76995   0.62923    0.010
 5712.00    0.78072   0.63723    0.010
 5713.00    0.69257   0.64791    0.010
 5714.00    0.60501   0.65856    0.010
 5715.00    0.57342   0.66705    0.010
 5716.00    0.54407   0.67299    0.009
 5717.00    0.55332   0.67681    0.009
 5718.00    0.55921   0.67972    0.009
 5719.00    0.52962   0.68295    0.009
 5720.00    0.51091   0.68655    0.009
 5721.00    0.57378   0.69015    0.009
 5722.00    0.63116   0.69311    0.009
 5723.00    0.65727   0.69424    0.009
 5724.00    0.66802   0.69276    0.009
 5725.00    0.60907   0.68889    0.009
 5726.00    0.56272   0.68389    0.009
 5727.00    0.56328   0.67967    0.009
 5728.00    0.56841   0.67773    0.009
 5729.00    0.58777   0.67730    0.009
 5730.00    0.59841   0.67667    0.009
 5731.00    0.58599   0.67576    0.009
 5732.00    0.59502   0.67631    0.009
 5733.00    0.65269   0.67919    0.010
 5734.00    0.68007   0.68289    0.010
 5735.00    0.64794   0.68537    0.009
 5736.00    0.60364   0.68567    0.009
 5737.00    0.53852   0.68430    0.010
 5738.00    0.50409   0.68256    0.010
 5739.00    0.51572   0.68115    0.009
 5740.00    0.55228   0.68005    0.000
 5741.00    0.62171   0.67915    0.000
 5742.00    0.61981   0.67872    0.000
 5743.00    0.53509   0.67933    0.000
 5744.00    0.50680   0.68094    0.000
 5745.00    0.53630   0.68204    0.000
 5746.00    0.58400   0.68095    0.000
 5747.00    0.64813   0.67777    0.000
 5748.00    0.69604   0.67453    0.000
 5749.00    0.73103   0.67315    0.000
 5750.00    0.73826   0.67241    0.000
 5751.00    0.72605   0.66954    0.000
 5752.00    0.74271   0.66385    0.000
 5753.00    0.77710   0.65808    0.000
 5754.00    0.74814   0.65632    0.000
 5755.00    0.68519   0.66056    0.000
 5756.00    0.67011   0.66845    0.000
 5757.00    0.67732   0.67520    0.000
 5758.00    0.67687   0.67731    0.000
 5759.00    0.67335   0.67369    0.000
 5760.00    0.68734   0.66613    0.000
 5761.00    0.70733   0.65838    0.000
 5762.00    0.71064   0.65435    0.000
 5763.00    0.70915   0.65642    0.000
 5764.00    0.66927   0.66416    0.000
 5765.00    0.62024   0.67377    0.000
 5766.00    0.62743   0.68144    0.000
 5767.00    0.64540   0.68563    0.000
 5768.00    0.65992   0.68639    0.000
 5769.00    0.67392   0.68471    0.000
 5770.00    0.67190   0.68174    0.000
 5771.00    0.66813   0.67828    0.000
 5772.00    0.62283   0.67488    0.000
 5773.00    0.57455   0.67250    0.000
 5774.00    0.57166   0.67143    0.000
 5775.00    0.57045   0.67159    0.000
 5776.00    0.61906   0.67235    0.000
 5777.00    0.66764   0.67158    0.000
 5778.00    0.70800   0.66719    0.000
 5779.00    0.74353   0.65845    0.000
 5780.00    0.70138   0.64675    0.000
 5781.00    0.66202   0.63530    0.000
 5782.00    0.65096   0.62742    0.000
 5783.00    0.64472   0.62391    0.000
 5784.00    0.67336   0.62385    0.000
 5785.00    0.69272   0.62679    0.000
 5786.00    0.66053   0.63307    0.000
 5787.00    0.64373   0.64149    0.000
 5788.00    0.69519   0.64911    0.000
 5789.00    0.73442   0.65406    0.000
 5790.00    0.72911   0.65605    0.000
 5791.00    0.72675   0.65699   -2.000
 5792.00    0.73339   0.65954   -2.000
 5793.00    0.74788   0.66372   -2.000
 5794.00    0.78274   0.66777   -2.000
 5795.00    0.79218   0.66978   -2.000
 5796.00    0.74489   0.66899   -2.000
 5797.00    0.70581   0.66701   -2.000
 5798.00    0.68262   0.66699   -2.000
 5799.00    0.64880   0.67073   -2.000
 5800.00    0.59702   0.67649   -2.000
 5801.00    0.58750   0.68074   -2.000
 5802.00    0.64044   0.68125   -2.000
 5803.00    0.66660   0.67756   -2.000
 5804.00    0.65796   0.67155   -2.000
 5805.00    0.67815   0.66641   -2.000
 5806.00    0.73136   0.66405   -2.000
 5807.00    0.76303   0.66451   -2.000
 5808.00    0.77295   0.66680   -2.000
 5809.00    0.76576   0.66965   -2.000
 5810.00    0.74334   0.67224   -2.000
 5811.00    0.72898   0.67382    0.000
 5812.00    0.72095   0.67347    0.000
 5813.00    0.66584   0.67092    0.000
 5814.00    0.57823   0.66679    0.000
 5815.00    0.56115   0.66279    0.000
 5816.00    0.58675   0.66125    0.000
 5817.00    0.59128   0.66374    0.000
 5818.00    0.58468   0.66938    0.000
 5819.00    0.58970   0.67534    0.000
 5820.00    0.60005   0.67937    0.000
 5821.00    0.61958   0.68073    0.000
 5822.00    0.64273   0.68003    0.000
 5823.00    0.67059   0.67869    0.000
 5824.00    0.70005   0.67779    0.000
 5825.00    0.69891   0.67767    0.000
 5826.00    0.68914   0.67792    0.000
 5827.00    0.68621   0.67828    0.000
 5828.00    0.68488   0.67872    0.000
 5829.00    0.64744   0.67908    0.000
 5830.00    0.60326   0.67893    0.000
 5831.00    0.58907   0.67785    0.000
 5832.00    0.57920   0.67594    0.000
 5833.00    0.58900   0.67351    0.000
 5834.00    0.60085   0.67111    0.000
 5835.00    0.61523   0.66945    0.000
 5836.00    0.62977   0.66899    0.000
 5837.00    0.58160   0.66927    0.000
 5838.00    0.53135   0.67002    0.000
 5839.00    0.52343   0.67190    0.000
 5840.00    0.51597   0.67485    0.000
 5841.00    0.52219   0.67780    0.000
 5842.00    0.52831   0.67945    0.000
 5843.00    0.53277   0.67897    0.000
 5844.00    0.53894   0.67617    0.000
 5845.00    0.56166   0.67175    0.000
 5846.00    0.58841   0.66695    0.000
 5847.00    0.64342   0.66294    0.000
 5848.00    0.68444   0.66049    0.000
 5849.00    0.64983   0.65908    0.000
 5850.00    0.62453   0.65714    0.000
 5851.00    0.63955   0.65358    0.000
 5852.00    0.65259   0.64849    0.000
 5853.00    0.65859   0.64317    0.000
 5854.00    0.65306   0.63880    0.000
 5855.00    0.61295   0.63505    0.000
 5856.00    0.59351   0.63090    0.000
 5857.00    0.62680   0.62708    0.000
 5858.00    0.65671   0.62607    0.000
 5859.00    0.67918   0.62908    0.000
 5860.00    0.69477   0.63454    0.000
 5861.00    0.69722   0.64014    0.000
 5862.00    0.69238   0.64403    0.000
 5863.00    0.67541   0.64632    0.000
 5864.00    0.66317   0.64762    0.000
 5865.00    0.65782   0.64808    0.000
 5866.00    0.66763   0.64818    0.000
 5867.00    0.69687   0.64926    0.000
 5868.00    0.70465   0.65219    0.000
 5869.00    0.68820   0.65596    0.000
 5870.00    0.68112   0.65892    0.000
 5871.00    0.68337   0.66003    0.000
 5872.00    0.69571   0.65948    0.000
 5873.00    0.71691   0.65820    0.000
 5874.00    0.71928   0.65714    0.000
 5875.00    0.70710   0.65601    0.000
 5876.00    0.68243   0.65395    0.000
 5877.00    0.64926   0.65072    0.000
 5878.00    0.63808   0.64664    0.000
 5879.00    0.64000   0.64242    0.000
 5880.00    0.63914   0.63895    0.000
 5881.00    0.63684   0.63697    0.000
 5882.00    0.64241   0.63608    0.000
 5883.00    0.65153   0.63482    0.000
 5884.00    0.62050   0.63208    0.000
 5885.00    0.57390   0.62621    0.000
 5886.00    0.52691   0.61389    0.000
 5887.00    0.47978   0.59232    0.000
 5888.00    0.52749   0.56315    0.000
 5889.00    0.60141   0.53373    0.000
 5890.00    0.60685   0.51523    0.000
 5891.00    0.59673   0.51422    0.000
 5892.00    0.59480   0.52445    0.000
 5893.00    0.59437   0.53424    0.000
 5894.00    0.58372   0.53714    0.000
 5895.00    0.57163   0.53401    0.000
 5896.00    0.55928   0.53347    0.000
 5897.00    0.54689   0.54382    0.000
 5898.00    0.59067   0.56316    0.000
 5899.00    0.63802   0.58463    0.000
 5900.00    0.65527   0.60344    0.000
 5901.00    0.67156   0.61704    0.009
 5902.00    0.65663   0.62533    0.009
 5903.00    0.64126   0.62981    0.009
 5904.00    0.61353   0.63198    0.009
 5905.00    0.58703   0.63295    0.009
 5906.00    0.57793   0.63396    0.009
 5907.00    0.56471   0.63574    0.009
 5908.00    0.51305   0.63795    0.009
 5909.00    0.46888   0.63978    0.009
 5910.00    0.47564   0.64057    0.009
 5911.00    0.48716   0.63961    0.009
 5912.00    0.52374   0.63631    0.009
 5913.00    0.55353   0.63091    0.009
 5914.00    0.55458   0.62539    0.009
 5915.00    0.55185   0.62241    0.009
 5916.00    0.53592   0.62286    0.009
 5917.00    0.52045   0.62621    0.009
 5918.00    0.50633   0.63074    0.009
 5919.00    0.50075   0.63458    0.009
 5920.00    0.51655   0.63705    0.009
 5921.00    0.54099   0.63801    0.009
 5922.00    0.58406   0.63811    0.009
 5923.00    0.60583   0.63857    0.009
 5924.00    0.58766   0.63965    0.009
 5925.00    0.58377   0.64055    0.009
 5926.00    0.60327   0.64036    0.009
 5927.00    0.64140   0.63821    0.009
 5928.00    0.70629   0.63458    0.009
 5929.00    0.72987   0.63113    0.009
 5930.00    0.70128   0.62950    0.009
 5931.00    0.68544   0.63037    0.009
 5932.00    0.68377   0.63214    0.009
 5933.00    0.66908   0.63294    0.009
 5934.00    0.64159   0.63266    0.009
 5935.00    0.62862   0.63285    0.009
 5936.00    0.62822   0.63473    0.009
 5937.00    0.62790   0.63729    0.009
 5938.00    0.62762   0.63898    0.008
 5939.00    0.61886   0.63881    0.008
 5940.00    0.60441   0.63649    0.009
 5941.00    0.57665   0.63339    0.009
 5942.00    0.54107   0.63184    0.009
 5943.00    0.51297   0.63269    0.009
 5944.00    0.48869   0.63503    0.009
 5945.00    0.48803   0.63710    0.009
 5946.00    0.49784   0.63716    0.009
 5947.00    0.54260   0.63479    0.009
 5948.00    0.60067   0.63112    0.009
 5949.00    0.63556   0.62809    0.009
 5950.00    0.66295   0.62687    0.009
 5951.00    0.62447   0.62667    0.009
 5952.00    0.56816   0.62622    0.009
 5953.00    0.52701   0.62572    0.009
 5954.00    0.48922   0.62588    0.009
 5955.00    0.50118   0.62604    0.009
 5956.00    0.52195   0.62559    0.009
 5957.00    0.51755   0.62548    0.009
 5958.00    0.50975   0.62695    0.009
 5959.00    0.52327   0.63035    0.009
 5960.00    0.53883   0.63487    0.009
 5961.00    0.56886   0.63899    0.009
 5962.00    0.59974   0.64143    0.009
 5963.00    0.59239   0.64175    0.009
 5964.00    0.58423   0.64060    0.009
 5965.00    0.60189   0.63895    0.009
 5966.00    0.61969   0.63811    0.009
 5967.00    0.64076   0.63904    0.009
 5968.00    0.65734   0.64123    0.008
 5969.00    0.61358   0.64377    0.008
 5970.00    0.57147   0.64599    0.008
 5971.00    0.54416   0.64710    0.008
 5972.00    0.52289   0.64646    0.008
 5973.00    0.54142   0.64378    0.008
 5974.00    0.55969   0.63903    0.008
 5975.00    0.57659   0.63294    0.009
 5976.00    0.58716   0.62720    0.009
 5977.00    0.57155   0.62380    0.009
 5978.00    0.56233   0.62353    0.009
 5979.00    0.57499   0.62567    0.009
 5980.00    0.58239   0.62820    0.009
 5981.00    0.57461   0.62843    0.009
 5982.00    0.55678   0.62536    0.009
 5983.00    0.51421   0.62015    0.009
 5984.00    0.50521   0.61540    0.009
 5985.00    0.56756   0.61397    0.009
 5986.00    0.62103   0.61612    0.009
 5987.00    0.65812   0.61995    0.009
 5988.00    0.66736   0.62383    0.009
 5989.00    0.63169   0.62675    0.009
 5990.00    0.60067   0.62839    0.009
 5991.00    0.57624   0.62926    0.009
 5992.00    0.58293   0.63056    0.008
 5993.00    0.62835   0.63253    0.008
 5994.00    0.65281   0.63362    0.008
 5995.00    0.65426   0.63250    0.008
 5996.00    0.63676   0.62923    0.008
 5997.00    0.60091   0.62513    0.008
 5998.00    0.57311   0.62226    0.008
 5999.00    0.55218   0.62148    0.008
 6000.00    0.53109   0.62191    0.008
 6001.00    0.50988   0.62226    0.008
 6002.00    0.52339   0.62162    0.008
 6003.00    0.55983   0.62035    0.008
 6004.00    0.58609   0.61908    0.008
 6005.00    0.60645   0.61699    0.009
 6006.00    0.61503   0.61376    0.009
 6007.00    0.61767   0.61065    0.009
 6008.00    0.61910   0.60937    0.009
 6009.00    0.62000   0.61131    0.009
 6010.00    0.60310   0.61505    0.009
 6011.00    0.57954   0.61746    0.009
 6012.00    0.56002   0.61721    0.009
 6013.00    0.54178   0.61514    0.009
 6014.00    0.54346   0.61319    0.009
 6015.00    0.55043   0.61212    0.009
 6016.00    0.54964   0.61122    0.009
 6017.00    0.54718   0.61028    0.009
 6018.00    0.51317   0.60929    0.009
 6019.00    0.47373   0.60773    0.009
 6020.00    0.49315   0.60613    0.009
 6021.00    0.52025   0.60573    0.009
 6022.00    0.49294   0.60694    0.008
 6023.00    0.46063   0.60943    0.008
 6024.00    0.46776   0.61262    0.008
 6025.00    0.47708   0.61634    0.008
 6026.00    0.49039   0.61991    0.008
 6027.00    0.50388   0.62290    0.008
 6028.00    0.52631   0.62590    0.008
 6029.00    0.54826   0.62872    0.008
 6030.00    0.55922   0.63096    0.008
 6031.00    0.56996   0.63271    0.008
 6032.00    0.57794   0.63429    0.008
 6033.00    0.58652   0.63556    0.008
 6034.00    0.60032   0.63630    0.008
 6035.00    0.61682   0.63656    0.008
 6036.00    0.65066   0.63640    0.008
 6037.00    0.67648   0.63573    0.008
 6038.00    0.66226   0.63445    0.008
 6039.00    0.64601   0.63256    0.008
 6040.00    0.62157   0.63073    0.008
 6041.00    0.60126   0.62986    0.008
 6042.00    0.59487   0.63026    0.008
 6043.00    0.59751   0.63204    0.008
 6044.00    0.62573   0.63441    0.008
 6045.00    0.65350   0.63631    0.008
 6046.00    0.68016   0.63750    0.008
 6047.00    0.68472   0.63809    0.008
 6048.00    0.64304   0.63811    0.009
 6049.00    0.60841   0.63766    0.009
 6050.00    0.58657   0.63676    0.008
 6051.00    0.57901   0.63495    0.008
 6052.00    0.59414   0.63194    0.008
 6053.00    0.59834   0.62812    0.008
 6054.00    0.58730   0.62441    0.008
 6055.00    0.56205   0.62163    0.008
 6056.00    0.51934   0.62028    0.008
 6057.00    0.51227   0.62090    0.008
 6058.00    0.54375   0.62307    0.008
 6059.00    0.55168   0.62560    0.008
 6060.00    0.53713   0.62699    0.008
 6061.00    0.51964   0.62616    0.008
 6062.00    0.49968   0.62275    0.008
 6063.00    0.50518   0.61780    0.009
 6064.00    0.52953   0.61331    0.008
 6065.00    0.55630   0.61126    0.008
 6066.00    0.58464   0.61362    0.008
 6067.00    0.57555   0.61989    0.008
 6068.00    0.54514   0.62707    0.008
 6069.00    0.52622   0.63293    0.008
 6070.00    0.51300   0.63675    0.008
 6071.00    0.53850   0.63875    0.008
 6072.00    0.58062   0.63955    0.008
 6073.00    0.61221   0.63942    0.008
 6074.00    0.63994   0.63811    0.008
 6075.00    0.61520   0.63521    0.008
 6076.00    0.57413   0.63069    0.008
 6077.00    0.55144   0.62518    0.008
 6078.00    0.53352   0.61956    0.008
 6079.00    0.53152   0.61507    0.008
 6080.00    0.53290   0.61233    0.008
 6081.00    0.54561   0.61038    0.008
 6082.00    0.56022   0.60885    0.008
 6083.00    0.55024   0.60840    0.008
 6084.00    0.53716   0.60882    0.008
 6085.00    0.50426   0.60961    0.008
 6086.00    0.46961   0.61065    0.008
 6087.00    0.46530   0.61151    0.008
 6088.00    0.46257   0.61144    0.008
 6089.00    0.51306   0.60997    0.008
 6090.00    0.56393   0.60773    0.008
 6091.00    0.57120   0.60641    0.008
 6092.00    0.57707   0.60685    0.008
 6093.00    0.55328   0.60882    0.008
 6094.00    0.53320   0.61196    0.008
 6095.00    0.55814   0.61523    0.008
 6096.00    0.57847   0.61727    0.008
 6097.00    0.56062   0.61794    0.008
 6098.00    0.53922   0.61744    0.008
 6099.00    0.49574   0.61487    0.008
 6100.00    0.45813   0.60927    0.008
 6101.00    0.44913   0.60109    0.008
 6102.00    0.44546   0.59266    0.008
 6103.00    0.46290   0.58861    0.008
 6104.00    0.47393   0.59150    0.008
 6105.00    0.46388   0.59832    0.008
 6106.00    0.44450   0.60524    0.008
 6107.00    0.39917   0.61026    0.008
 6108.00    0.37449   0.61304    0.008
 6109.00    0.39898   0.61465    0.008
 6110.00    0.41878   0.61559    0.008
 6111.00    0.42892   0.61589    0.008
 6112.00    0.45025   0.61644    0.008
 6113.00    0.49163   0.61747    0.008
 6114.00    0.54295   0.61811    0.008
 6115.00    0.60984   0.61756    0.008
 6116.00    0.63763   0.61557    0.008
 6117.00    0.61169   0.61270    0.008
 6118.00    0.59395   0.60875    0.008
 6119.00    0.58615   0.60267    0.008
 6120.00    0.59096   0.59532    0.008
 6121.00    0.60922   0.58884    0.008
 6122.00    0.60810   0.58542    0.008
 6123.00    0.58873   0.58714    0.008
 6124.00    0.54570   0.59243    0.008
 6125.00    0.48303   0.59728    0.008
 6126.00    0.46566   0.60004    0.008
 6127.00    0.48137   0.60107    0.008
 6128.00    0.50472   0.60152    0.008
 6129.00    0.53295   0.60307    0.008
 6130.00    0.53307   0.60603    0.008
 6131.00    0.51741   0.60876    0.008
 6132.00    0.51138   0.60897    0.008
 6133.00    0.51006   0.60482    0.008
 6134.00    0.52361   0.59535    0.008
 6135.00    0.54342   0.58222    0.008
 6136.00    0.57446   0.56970    0.008
 6137.00    0.60954   0.56281    0.009
 6138.00    0.58422   0.56478    0.008
 6139.00    0.54045   0.57331    0.008
 6140.00    0.49718   0.58268    0.008
 6141.00    0.45403   0.58955    0.008
 6142.00    0.47082   0.59472    0.008
 6143.00    0.49998   0.60005    0.008
 6144.00    0.53262   0.60499    0.008
 6145.00    0.56582   0.60786    0.008
 6146.00    0.57067   0.60789    0.008
 6147.00    0.57208   0.60522    0.008
 6148.00    0.57670   0.60119    0.008
 6149.00    0.58160   0.59789    0.008
 6150.00    0.60866   0.59659    0.008
 6151.00    0.63679   0.59711    0.008
 6152.00    0.64950   0.59825    0.008
 6153.00    0.66151   0.59863    0.008
 6154.00    0.64572   0.59737    0.008
 6155.00    0.63048   0.59520    0.008
 6156.00    0.62603   0.59314    0.008
 6157.00    0.61512   0.59039    0.008
 6158.00    0.52954   0.58525    0.008
 6159.00    0.45172   0.57664    0.008
 6160.00    0.43598   0.56439    0.008
 6161.00    0.42596   0.55093    0.008
 6162.00    0.45041   0.54156    0.008
 6163.00    0.46597   0.54007    0.008
 6164.00    0.43927   0.54589    0.008
 6165.00    0.41801   0.55487    0.008
 6166.00    0.41788   0.56221    0.008
 6167.00    0.43107   0.56552    0.008
 6168.00    0.48721   0.56461    0.008
 6169.00    0.53564   0.56146    0.008
 6170.00    0.56299   0.56047    0.008
 6171.00    0.57118   0.56414    0.008
 6172.00    0.53449   0.57026    0.008
 6173.00    0.50494   0.57577    0.008
 6174.00    0.48983   0.57971    0.008
 6175.00    0.48574   0.58206    0.008
 6176.00    0.50111   0.58319    0.008
 6177.00    0.51122   0.58431    0.008
 6178.00    0.51324   0.58628    0.008
 6179.00    0.52128   0.58847    0.008
 6180.00    0.53746   0.59039    0.008
 6181.00    0.54633   0.59240    0.008
 6182.00    0.54645   0.59404    0.008
 6183.00    0.54064   0.59421    0.008
 6184.00    0.52859   0.59268    0.008
 6185.00    0.51597   0.58950    0.008
 6186.00    0.50285   0.58469    0.008
 6187.00    0.50213   0.57914    0.008
 6188.00    0.51157   0.57347    0.008
 6189.00    0.52629   0.56794    0.008
 6190.00    0.54481   0.56311    0.008
 6191.00    0.56744   0.56010    0.008
 6192.00    0.59266   0.56148    0.008
 6193.00    0.68250   0.56780    0.008
 6194.00    0.80803   0.57582    0.008
 6195.00    1.01413   0.58277    0.009
 6196.00    1.25890   0.58697   -2.000
 6197.00    1.28237   0.58754   -2.000
 6198.00    1.21410   0.58505   -2.000
 6199.00    0.93187   0.58138   -2.000
 6200.00    0.57381   0.57937   -2.000
 6201.00    0.27588   0.58065   -2.000
 6202.00   -0.00407   0.58430   -2.000
 6203.00    0.08531   0.58833   -2.000
 6204.00    0.26643   0.59135   -2.000
 6205.00    0.42443   0.59306   -2.000
 6206.00    0.57777   0.59379   -2.000
 6207.00    0.58851   0.59361   -2.000
 6208.00    0.57676   0.59248    0.009
 6209.00    0.54950   0.59016    0.009
 6210.00    0.52042   0.58602    0.008
 6211.00    0.54417   0.57995    0.008
 6212.00    0.57211   0.57234    0.008
 6213.00    0.59203   0.56396    0.008
 6214.00    0.61160   0.55702    0.008
 6215.00    0.58948   0.55341    0.008
 6216.00    0.56743   0.55310    0.008
 6217.00    0.57054   0.55492    0.008
 6218.00    0.57471   0.55675    0.008
 6219.00    0.59844   0.55730    0.008
 6220.00    0.62143   0.55756    0.008
 6221.00    0.63636   0.55884    0.008
 6222.00    0.64284   0.56129    0.008
 6223.00    0.58402   0.56408    0.008
 6224.00    0.52596   0.56628    0.008
 6225.00    0.47235   0.56773    0.008
 6226.00    0.42821   0.56784    0.009
 6227.00    0.42795   0.56554    0.009
 6228.00    0.41989   0.56068    0.009
 6229.00    0.38226   0.55378    0.009
 6230.00    0.35750   0.54677    0.009
 6231.00    0.37343   0.54345    0.009
 6232.00    0.40095   0.54584    0.009
 6233.00    0.45958   0.55248    0.008
 6234.00    0.49537   0.56089    0.008
 6235.00    0.47854   0.56771    0.008
 6236.00    0.46488   0.57012    0.008
 6237.00    0.45752   0.56803    0.008
 6238.00    0.46053   0.56328    0.008
 6239.00    0.48152   0.55775    0.008
 6240.00    0.49765   0.55284    0.008
 6241.00    0.50639   0.54954    0.008
 6242.00    0.51985   0.54706    0.008
 6243.00    0.53962   0.54459    0.008
 6244.00    0.54339   0.54356    0.008
 6245.00    0.52836   0.54463    0.008
 6246.00    0.51195   0.54738    0.008
 6247.00    0.49411   0.55199    0.008
 6248.00    0.48531   0.55703    0.008
 6249.00    0.48479   0.55977    0.008
 6250.00    0.47242   0.55893    0.008
 6251.00    0.45050   0.55461    0.008
 6252.00    0.45658   0.54808    0.008
 6253.00    0.48252   0.54193    0.008
 6254.00    0.48326   0.53755    0.008
 6255.00    0.46832   0.53452    0.008
 6256.00    0.47504   0.53224    0.008
 6257.00    0.49354   0.53093    0.008
 6258.00    0.57752   0.53150    0.008
 6259.00    0.69245   0.53526    0.009
 6260.00    0.72365   0.54214    0.009
 6261.00    0.72073   0.54984    0.010
 6262.00    0.60577   0.55666    0.010
 6263.00    0.45182   0.56152    0.011
 6264.00    0.38649   0.56334    0.010
 6265.00    0.34715   0.56293    0.010
 6266.00    0.38553   0.56248    0.010
 6267.00    0.44280   0.56269    0.009
 6268.00    0.45722   0.56286    0.009
 6269.00    0.46324   0.56298    0.008
 6270.00    0.47444   0.56352    0.008
 6271.00    0.48643   0.56469    0.008
 6272.00    0.51060   0.56636    0.008
 6273.00    0.53614   0.56811    0.008
 6274.00    0.54586   0.56925    0.008
 6275.00    0.55438   0.56969    0.008
 6276.00    0.56166   0.56933    0.008
 6277.00    0.56890   0.56786    0.008
 6278.00    0.53416   0.56548    0.008
 6279.00    0.49966   0.56266    0.008
 6280.00    0.48728   0.56026    0.000
 6281.00    0.47491   0.55972    0.000
 6282.00    0.46250   0.56144    0.000
 6283.00    0.45121   0.56469    0.000
 6284.00    0.45162   0.56853    0.000
 6285.00    0.45157   0.57189    0.000
 6286.00    0.44807   0.57474    0.000
 6287.00    0.44391   0.57704    0.000
 6288.00    0.43602   0.57812    0.000
 6289.00    0.43148   0.57747    0.000
 6290.00    0.44217   0.57503    0.000
 6291.00    0.45620   0.57173    0.000
 6292.00    0.48263   0.56880    0.000
 6293.00    0.50606   0.56648    0.000
 6294.00    0.52016   0.56456    0.000
 6295.00    0.53376   0.56227    0.000
 6296.00    0.54607   0.55907    0.000
 6297.00    0.55146   0.55587    0.000
 6298.00    0.54120   0.55365    0.000
 6299.00    0.52288   0.55226    0.000
 6300.00    0.48873   0.55105    0.000
 6301.00    0.46561   0.54992    0.000
 6302.00    0.46134   0.54989    0.000
 6303.00    0.46632   0.55200    0.000
 6304.00    0.48517   0.55588    0.000
 6305.00    0.49160   0.56038    0.000
 6306.00    0.48169   0.56494    0.000
 6307.00    0.48047   0.56896    0.000
 6308.00    0.48933   0.57114    0.000
 6309.00    0.49481   0.57086    0.000
 6310.00    0.49683   0.56852    0.000
 6311.00    0.49774   0.56492    0.000
 6312.00    0.49764   0.56106    0.000
 6313.00    0.49642   0.55739    0.000
 6314.00    0.49431   0.55328    0.000
 6315.00    0.49504   0.54890    0.000
 6316.00    0.49774   0.54556    0.000
 6317.00    0.50996   0.54341    0.000
 6318.00    0.52802   0.54254    0.000
 6319.00    0.53597   0.54427    0.000
 6320.00    0.53852   0.54843    0.000
 6321.00    0.53343   0.55331    0.008
 6322.00    0.52480   0.55789    0.008
 6323.00    0.52445   0.56214    0.008
 6324.00    0.52742   0.56580    0.008
 6325.00    0.49779   0.56835    0.008
 6326.00    0.45702   0.56971    0.008
 6327.00    0.43009   0.56999    0.008
 6328.00    0.40715   0.56983    0.008
 6329.00    0.41394   0.56959    0.008
 6330.00    0.42780   0.56909    0.008
 6331.00    0.45163   0.56853    0.008
 6332.00    0.47737   0.56749    0.008
 6333.00    0.50936   0.56479    0.008
 6334.00    0.54228   0.55983    0.008
 6335.00    0.52914   0.55364    0.008
 6336.00    0.51101   0.54897    0.008
 6337.00    0.49248   0.54800    0.008
 6338.00    0.47392   0.55026    0.008
 6339.00    0.48821   0.55386    0.008
 6340.00    0.50370   0.55726    0.008
 6341.00    0.48477   0.55878    0.008
 6342.00    0.46662   0.55753    0.008
 6343.00    0.48049   0.55449    0.008
 6344.00    0.49469   0.55167    0.008
 6345.00    0.51402   0.55087    0.008
 6346.00    0.53184   0.55221    0.008
 6347.00    0.53452   0.55506    0.008
 6348.00    0.53678   0.55893    0.008
 6349.00    0.53592   0.56270    0.008
 6350.00    0.53040   0.56516    0.008
 6351.00    0.49904   0.56587    0.008
 6352.00    0.46692   0.56467    0.008
 6353.00    0.43141   0.56168    0.008
 6354.00    0.41228   0.55749    0.008
 6355.00    0.45270   0.55313    0.008
 6356.00    0.49235   0.54927    0.008
 6357.00    0.52969   0.54526    0.008
 6358.00    0.56219   0.54042    0.008
 6359.00    0.58216   0.53555    0.008
 6360.00    0.57940   0.53167    0.008
 6361.00    0.52603   0.52901    0.008
 6362.00    0.48022   0.52816    0.008
 6363.00    0.44902   0.52995    0.008
 6364.00    0.42420   0.53430    0.008
 6365.00    0.41015   0.54018    0.008
 6366.00    0.40834   0.54634    0.008
 6367.00    0.42462   0.55176    0.008
 6368.00    0.44348   0.55574    0.008
 6369.00    0.46567   0.55803    0.008
 6370.00    0.48870   0.55932    0.008
 6371.00    0.51269   0.56093    0.008
 6372.00    0.52678   0.56349    0.008
 6373.00    0.53088   0.56622    0.008
 6374.00    0.54266   0.56802    0.008
 6375.00    0.56126   0.56847    0.008
 6376.00    0.55895   0.56767    0.008
 6377.00    0.54027   0.56568    0.008
 6378.00    0.51557   0.56290    0.008
 6379.00    0.48673   0.56039    0.008
 6380.00    0.48168   0.55886    0.008
 6381.00    0.49100   0.55834    0.008
 6382.00    0.48986   0.55874    0.008
 6383.00    0.48322   0.55948    0.008
 6384.00    0.46370   0.56013    0.008
 6385.00    0.43829   0.56113    0.008
 6386.00    0.39886   0.56271    0.008
 6387.00    0.35392   0.56422    0.008
 6388.00    0.35011   0.56489    0.008
 6389.00    0.36010   0.56412    0.008
 6390.00    0.39853   0.56142    0.008
 6391.00    0.44499   0.55684    0.008
 6392.00    0.48705   0.55137    0.008
 6393.00    0.52809   0.54712    0.008
 6394.00    0.51859   0.54655    0.008
 6395.00    0.49968   0.54955    0.008
 6396.00    0.46358   0.55303    0.008
 6397.00    0.42501   0.55425    0.008
 6398.00    0.45642   0.55231    0.008
 6399.00    0.49511   0.54824    0.008
 6400.00    0.51721   0.54542    0.008
 6401.00    0.53819   0.54731    0.008
 6402.00    0.51772   0.55290    0.008
 6403.00    0.49589   0.55854    0.008
 6404.00    0.48819   0.56186    0.008
 6405.00    0.48050   0.56188    0.008
 6406.00    0.47328   0.55911    0.008
 6407.00    0.46686   0.55514    0.007
 6408.00    0.47261   0.55182    0.008
 6409.00    0.47649   0.55035    0.008
 6410.00    0.46234   0.54975    0.008
 6411.00    0.45261   0.54894    0.008
 6412.00    0.47379   0.54886    0.008
 6413.00    0.49568   0.55000    0.008
 6414.00    0.52141   0.55151    0.008
 6415.00    0.53746   0.55289    0.008
 6416.00    0.51172   0.55354    0.008
 6417.00    0.48177   0.55254    0.008
 6418.00    0.43685   0.54987    0.008
 6419.00    0.40263   0.54646    0.008
 6420.00    0.40038   0.54399    0.008
 6421.00    0.40679   0.54438    0.008
 6422.00    0.43524   0.54837    0.008
 6423.00    0.47278   0.55440    0.008
 6424.00    0.53025   0.55993    0.008
 6425.00    0.57061   0.56375    0.008
 6426.00    0.57847   0.56561    0.008
 6427.00    0.57668   0.56510    0.008
 6428.00    0.55888   0.56192    0.008
 6429.00    0.55871   0.55653    0.008
 6430.00    0.58419   0.55042    0.008
 6431.00    0.57760   0.54632    0.008
 6432.00    0.53000   0.54624    0.008
 6433.00    0.47792   0.54938    0.008
 6434.00    0.42078   0.55334    0.008
 6435.00    0.39522   0.55583    0.008
 6436.00    0.40105   0.55558    0.008
 6437.00    0.42320   0.55278    0.008
 6438.00    0.45967   0.54909    0.008
 6439.00    0.47411   0.54748    0.008
 6440.00    0.47155   0.55008    0.008
 6441.00    0.47128   0.55564    0.008
 6442.00    0.47258   0.56145    0.008
 6443.00    0.47447   0.56598    0.008
 6444.00    0.47672   0.56842    0.008
 6445.00    0.47879   0.56825    0.008
 6446.00    0.48077   0.56501    0.008
 6447.00    0.47277   0.55845    0.008
 6448.00    0.46027   0.54925    0.008
 6449.00    0.44424   0.53969    0.008
 6450.00    0.42684   0.53378    0.008
 6451.00    0.40576   0.53396    0.008
 6452.00    0.38347   0.53819    0.008
 6453.00    0.38890   0.54290    0.008
 6454.00    0.40199   0.54582    0.008
 6455.00    0.43438   0.54665    0.008
 6456.00    0.47116   0.54740    0.008
 6457.00    0.45906   0.54994    0.008
 6458.00    0.43811   0.55342    0.008
 6459.00    0.41324   0.55533    0.008
 6460.00    0.38784   0.55400    0.008
 6461.00    0.39369   0.54940    0.008
 6462.00    0.40266   0.54359    0.008
 6463.00    0.42102   0.54055    0.008
 6464.00    0.43998   0.54234    0.008
 6465.00    0.46210   0.54707    0.008
 6466.00    0.48426   0.55212    0.008
 6467.00    0.48938   0.55567    0.008
 6468.00    0.49510   0.55666    0.008
 6469.00    0.51782   0.55532    0.008
 6470.00    0.53931   0.55308    0.008
 6471.00    0.54341   0.55113    0.008
 6472.00    0.54363   0.55030    0.008
 6473.00    0.50786   0.55075    0.008
 6474.00    0.47077   0.55145    0.008
 6475.00    0.42479   0.55198    0.008
 6476.00    0.38666   0.55278    0.008
 6477.00    0.38965   0.55358    0.008
 6478.00    0.39369   0.55323    0.008
 6479.00    0.40221   0.55120    0.008
 6480.00    0.40813   0.54756    0.008
 6481.00    0.40500   0.54283    0.008
 6482.00    0.41009   0.53882    0.008
 6483.00    0.43930   0.53759    0.008
 6484.00    0.46396   0.53941    0.008
 6485.00    0.47723   0.54281    0.008
 6486.00    0.48495   0.54612    0.008
 6487.00    0.48074   0.54807    0.008
 6488.00    0.47341   0.54786    0.008
 6489.00    0.46024   0.54492    0.008
 6490.00    0.44126   0.53902    0.008
 6491.00    0.41278   0.53030    0.008
 6492.00    0.39338   0.51907    0.008
 6493.00    0.38699   0.50602    0.008
 6494.00    0.39748   0.49344    0.008
 6495.00    0.42925   0.48506    0.008
 6496.00    0.45134   0.48308    0.008
 6497.00    0.46269   0.48700    0.008
 6498.00    0.46360   0.49486    0.008
 6499.00    0.45429   0.50421    0.008
 6500.00    0.42700   0.51372    0.008
 6501.00    0.38416   0.52253    0.008
 6502.00    0.37366   0.52985    0.008
 6503.00    0.38776   0.53553    0.008
 6504.00    0.41322   0.53965    0.008
 6505.00    0.44627   0.54232    0.008
 6506.00    0.47141   0.54367    0.008
 6507.00    0.49191   0.54388    0.008
 6508.00    0.50511   0.54339    0.008
 6509.00    0.51459   0.54310    0.008
 6510.00    0.51560   0.54345    0.008
 6511.00    0.51287   0.54394    0.008
 6512.00    0.51222   0.54375    0.008
 6513.00    0.51236   0.54248    0.008
 6514.00    0.50170   0.53988    0.008
 6515.00    0.48757   0.53616    0.008
 6516.00    0.46956   0.53241    0.008
 6517.00    0.45051   0.52991    0.008
 6518.00    0.43172   0.52925    0.008
 6519.00    0.41299   0.53075    0.008
 6520.00    0.40678   0.53407    0.008
 6521.00    0.40278   0.53778    0.008
 6522.00    0.42893   0.54049    0.008
 6523.00    0.45913   0.54170    0.008
 6524.00    0.46397   0.54150    0.008
 6525.00    0.46639   0.54011    0.008
 6526.00    0.44538   0.53791    0.008
 6527.00    0.42299   0.53596    0.008
 6528.00    0.41995   0.53512    0.000
 6529.00    0.41746   0.53501    0.000
 6530.00    0.42545   0.53469    0.000
 6531.00    0.43237   0.53366    0.000
 6532.00    0.41273   0.53229    0.000
 6533.00    0.39658   0.53152    0.000
 6534.00    0.42719   0.53201    0.000
 6535.00    0.45717   0.53350    0.000
 6536.00    0.48153   0.53508    0.000
 6537.00    0.50429   0.53614    0.000
 6538.00    0.51649   0.53685    0.000
 6539.00    0.52771   0.53726    0.000
 6540.00    0.53391   0.53674    0.000
 6541.00    0.53355   0.53464    0.000
 6542.00    0.50612   0.53089    0.000
 6543.00    0.48101   0.52597    0.000
 6544.00    0.46382   0.52057    0.000
 6545.00    0.44616   0.51537    0.000
 6546.00    0.42715   0.51140    0.000
 6547.00    0.40905   0.50969    0.000
 6548.00    0.39322   0.50982    0.000
 6549.00    0.37910   0.51011    0.000
 6550.00    0.36861   0.50910    0.000
 6551.00    0.36078   0.50622    0.000
 6552.00    0.35784   0.50172    0.000
 6553.00    0.36233   0.49611    0.000
 6554.00    0.37876   0.49002    0.000
 6555.00    0.39252   0.48423    0.000
 6556.00    0.40248   0.47920    0.000
 6557.00    0.41994   0.47387    0.000
 6558.00    0.44672   0.46566    0.000
 6559.00    0.50901   0.45225    0.000
 6560.00    0.61020   0.43355    0.000
 6561.00    0.66264   0.41205    0.000
 6562.00    0.66796   0.39358    0.000
 6563.00    0.62983   0.38701    0.000
 6564.00    0.55469   0.39693    0.000
 6565.00    0.50128   0.41789    0.000
 6566.00    0.46418   0.44100    0.000
 6567.00    0.45096   0.46049    0.000
 6568.00    0.45349   0.47368    0.000
 6569.00    0.44706   0.48070    0.000
 6570.00    0.43547   0.48396    0.000
 6571.00    0.40161   0.48540    0.000
 6572.00    0.35656   0.48587    0.000
 6573.00    0.32079   0.48639    0.000
 6574.00    0.28905   0.48829    0.000
 6575.00    0.28447   0.49240    0.000
 6576.00    0.29002   0.49847    0.000
 6577.00    0.30816   0.50488    0.000
 6578.00    0.33028   0.50982    0.000
 6579.00    0.37304   0.51249    0.000
 6580.00    0.42126   0.51323    0.000
 6581.00    0.45808   0.51326    0.000
 6582.00    0.49243   0.51386    0.000
 6583.00    0.47778   0.51516    0.000
 6584.00    0.45472   0.51664    0.000
 6585.00    0.43241   0.51797    0.000
 6586.00    0.41020   0.51927    0.000
 6587.00    0.38474   0.52080    0.000
 6588.00    0.35899   0.52196    0.000
 6589.00    0.37927   0.52151    0.000
 6590.00    0.40209   0.51863    0.000
 6591.00    0.43345   0.51340    0.000
 6592.00    0.46430   0.50701    0.000
 6593.00    0.42987   0.50215    0.000
 6594.00    0.39738   0.50129    0.000
 6595.00    0.40962   0.50410    0.000
 6596.00    0.42336   0.50822    0.000
 6597.00    0.45602   0.51200    0.000
 6598.00    0.48227   0.51517    0.000
 6599.00    0.45351   0.51823    0.000
 6600.00    0.43051   0.52139    0.000
 6601.00    0.44415   0.52399    0.000
 6602.00    0.45054   0.52511    0.000
 6603.00    0.42087   0.52437    0.000
 6604.00    0.38745   0.52201    0.000
 6605.00    0.33889   0.51866    0.000
 6606.00    0.30067   0.51520    0.000
 6607.00    0.29707   0.51228    0.000
 6608.00    0.30672   0.51043    0.000
 6609.00    0.35379   0.51034    0.008
 6610.00    0.39720   0.51255    0.008
 6611.00    0.43174   0.51628    0.008
 6612.00    0.44863   0.51981    0.008
 6613.00    0.42868   0.52233    0.008
 6614.00    0.41644   0.52422    0.008
 6615.00    0.41820   0.52596    0.008
 6616.00    0.42706   0.52727    0.008
 6617.00    0.44719   0.52803    0.008
 6618.00    0.45540   0.52860    0.008
 6619.00    0.44701   0.52905    0.008
 6620.00    0.43946   0.52895    0.008
 6621.00    0.43296   0.52780    0.008
 6622.00    0.42846   0.52543    0.008
 6623.00    0.42611   0.52212    0.008
 6624.00    0.42491   0.51875    0.008
 6625.00    0.42480   0.51659    0.008
 6626.00    0.41711   0.51621    0.008
 6627.00    0.40305   0.51674    0.008
 6628.00    0.41224   0.51706    0.008
 6629.00    0.43862   0.51641    0.008
 6630.00    0.44330   0.51444    0.008
 6631.00    0.43388   0.51137    0.008
 6632.00    0.42200   0.50789    0.008
 6633.00    0.40873   0.50510    0.008
 6634.00    0.40737   0.50434    0.008
 6635.00    0.41192   0.50620    0.008
 6636.00    0.38671   0.50964    0.008
 6637.00    0.34876   0.51304    0.008
 6638.00    0.32971   0.51527    0.008
 6639.00    0.31759   0.51597    0.008
 6640.00    0.35665   0.51555    0.008
 6641.00    0.41160   0.51463    0.008
 6642.00    0.43203   0.51312    0.008
 6643.00    0.44354   0.51129    0.008
 6644.00    0.43065   0.51042    0.008
 6645.00    0.41262   0.51107    0.008
 6646.00    0.41360   0.51247    0.008
 6647.00    0.41774   0.51381    0.008
 6648.00    0.41019   0.51496    0.008
 6649.00    0.40117   0.51586    0.008
 6650.00    0.41543   0.51624    0.008
 6651.00    0.43172   0.51609    0.008
 6652.00    0.39712   0.51571    0.008
 6653.00    0.35991   0.51538    0.008
 6654.00    0.35243   0.51518    0.008
 6655.00    0.34572   0.51510    0.008
 6656.00    0.35686   0.51492    0.008
 6657.00    0.36800   0.51452    0.008
 6658.00    0.37931   0.51374    0.008
 6659.00    0.38881   0.51214    0.008
 6660.00    0.37657   0.50955    0.008
 6661.00    0.36689   0.50625    0.008
 6662.00    0.37827   0.50273    0.008
 6663.00    0.38953   0.49976    0.008
 6664.00    0.39998   0.49844    0.008
 6665.00    0.40977   0.49890    0.008
 6666.00    0.41639   0.50034    0.008
 6667.00    0.41967   0.50236    0.008
 6668.00    0.40980   0.50500    0.008
 6669.00    0.39757   0.50808    0.008
 6670.00    0.37761   0.51106    0.008
 6671.00    0.36305   0.51332    0.008
 6672.00    0.36349   0.51445    0.008
 6673.00    0.37043   0.51419    0.008
 6674.00    0.39283   0.51233    0.008
 6675.00    0.40259   0.50880    0.008
 6676.00    0.38639   0.50386    0.008
 6677.00    0.38134   0.49853    0.008
 6678.00    0.39620   0.49491    0.008
 6679.00    0.40365   0.49484    0.008
 6680.00    0.39950   0.49770    0.008
 6681.00    0.40829   0.50152    0.008
 6682.00    0.43485   0.50520    0.008
 6683.00    0.46218   0.50821    0.008
 6684.00    0.49045   0.51022    0.008
 6685.00    0.50664   0.51123    0.008
 6686.00    0.50997   0.51152    0.008
 6687.00    0.49557   0.51142    0.008
 6688.00    0.46451   0.51126    0.008
 6689.00    0.43663   0.51125    0.008
 6690.00    0.41138   0.51129    0.008
 6691.00    0.40818   0.51105    0.008
 6692.00    0.42107   0.51017    0.008
 6693.00    0.43970   0.50852    0.008
 6694.00    0.46201   0.50607    0.008
 6695.00    0.47563   0.50308    0.008
 6696.00    0.48437   0.50042    0.000
 6697.00    0.45688   0.49925    0.000
 6698.00    0.41176   0.49988    0.000
 6699.00    0.37938   0.50169    0.000
 6700.00    0.35237   0.50371    0.000
 6701.00    0.37463   0.50484    0.000
 6702.00    0.41463   0.50460    0.000
 6703.00    0.42869   0.50335    0.000
 6704.00    0.43486   0.50205    0.000
 6705.00    0.43962   0.50158    0.000
 6706.00    0.44403   0.50198    0.000
 6707.00    0.46518   0.50259    0.000
 6708.00    0.48978   0.50282    0.000
 6709.00    0.49304   0.50236    0.000
 6710.00    0.49284   0.50117    0.000
 6711.00    0.45646   0.49948    0.000
 6712.00    0.41569   0.49725    0.000
 6713.00    0.41515   0.49425    0.000
 6714.00    0.41795   0.49069    0.000
 6715.00    0.43930   0.48706    0.000
 6716.00    0.46152   0.48408    0.000
 6717.00    0.48549   0.48269    0.000
 6718.00    0.50829   0.48375    0.000
 6719.00    0.46360   0.48702    0.000
 6720.00    0.41952   0.49094    0.000
 6721.00    0.38719   0.49421    0.000
 6722.00    0.35643   0.49654    0.000
 6723.00    0.34373   0.49802    0.000
 6724.00    0.33130   0.49857    0.000
 6725.00    0.32111   0.49828    0.000
 6726.00    0.31502   0.49782    0.000
 6727.00    0.33348   0.49796    0.000
 6728.00    0.35554   0.49879    0.000
 6729.00    0.39464   0.49991    0.000
 6730.00    0.42033   0.50088    0.000
 6731.00    0.39427   0.50128    0.000
 6732.00    0.36928   0.50100    0.000
 6733.00    0.34775   0.50029    0.000
 6734.00    0.33935   0.49954    0.000
 6735.00    0.36671   0.49879    0.000
 6736.00    0.39441   0.49778    0.000
 6737.00    0.42289   0.49624    0.000
 6738.00    0.44293   0.49438    0.000
 6739.00    0.44591   0.49283    0.000
 6740.00    0.45321   0.49198    0.000
 6741.00    0.46812   0.49161    0.000
 6742.00    0.47264   0.49121    0.000
 6743.00    0.46116   0.49080    0.000
 6744.00    0.42927   0.49066    0.000
 6745.00    0.36981   0.49051    0.000
 6746.00    0.31858   0.48997    0.000
 6747.00    0.27718   0.48906    0.000
 6748.00    0.28269   0.48797    0.000
 6749.00    0.33745   0.48694    0.000
 6750.00    0.37811   0.48629    0.000
 6751.00    0.40571   0.48630    0.000
 6752.00    0.44063   0.48682    0.000
 6753.00    0.48151   0.48782    0.009
 6754.00    0.44214   0.48961    0.010
 6755.00    0.34510   0.49194    0.010
 6756.00    0.29626   0.49446    0.010
 6757.00    0.27782   0.49702    0.010
 6758.00    0.27521   0.49933    0.010
 6759.00    0.28134   0.50100    0.010
 6760.00    0.33891   0.50185    0.010
 6761.00    0.42112   0.50185    0.010
 6762.00    0.47409   0.50112    0.010
 6763.00    0.51497   0.49988    0.010
 6764.00    0.51847   0.49811    0.010
 6765.00    0.50876   0.49570    0.010
 6766.00    0.50695   0.49288    0.010
 6767.00    0.50750   0.49028    0.010
 6768.00    0.52873   0.48865    0.010
 6769.00    0.55509   0.48822    0.010
 6770.00    0.54355   0.48853    0.010
 6771.00    0.52440   0.48946    0.010
 6772.00    0.46684   0.49132    0.009
 6773.00    0.40325   0.49408    0.009
 6774.00    0.39588   0.49709    0.009
 6775.00    0.39506   0.49970    0.009
 6776.00    0.39699   0.50153    0.009
 6777.00    0.39915   0.50248    0.009
 6778.00    0.46276   0.50264    0.009
 6779.00    0.52904   0.50195    0.010
 6780.00    0.47537   0.49998    0.010
 6781.00    0.42117   0.49661    0.010
 6782.00    0.40102   0.49225    0.010
 6783.00    0.38229   0.48780    0.010
 6784.00    0.38904   0.48448    0.009
 6785.00    0.39873   0.48320    0.009
 6786.00    0.44053   0.48393    0.009
 6787.00    0.48054   0.48608    0.009
 6788.00    0.50672   0.48866    0.009
 6789.00    0.52450   0.49065    0.009
 6790.00    0.49326   0.49162    0.010
 6791.00    0.46880   0.49163    0.010
 6792.00    0.47568   0.49077    0.010
 6793.00    0.48368   0.48936    0.010
 6794.00    0.49591   0.48812    0.010
 6795.00    0.50546   0.48756    0.010
 6796.00    0.50650   0.48773    0.010
 6797.00    0.51196   0.48851    0.010
 6798.00    0.52923   0.48959    0.010
 6799.00    0.53544   0.49072    0.010
 6800.00    0.51626   0.49171    0.010
 6801.00    0.48517   0.49235    0.010
 6802.00    0.43041   0.49242    0.010
 6803.00    0.39579   0.49192    0.010
 6804.00    0.39607   0.49115    0.010
 6805.00    0.37953   0.49048    0.010
 6806.00    0.33748   0.48988    0.010
 6807.00    0.33422   0.48936    0.009
 6808.00    0.38265   0.48907    0.009
 6809.00    0.39573   0.48882    0.009
 6810.00    0.36731   0.48852    0.009
 6811.00    0.37936   0.48834    0.010
 6812.00    0.43329   0.48818    0.010
 6813.00    0.50560   0.48785    0.010
 6814.00    0.59469   0.48749    0.010
 6815.00    0.55088   0.48755    0.010
 6816.00    0.40013   0.48832    0.010
 6817.00    0.36539   0.48934    0.010
 6818.00    0.41278   0.48992    0.010
 6819.00    0.42698   0.49001    0.010
 6820.00    0.42056   0.49014    0.010
 6821.00    0.41590   0.49092    0.010
 6822.00    0.41220   0.49230    0.010
 6823.00    0.38762   0.49360    0.010
 6824.00    0.35320   0.49418    0.010
 6825.00    0.37820   0.49372    0.010
 6826.00    0.42736   0.49231    0.010
 6827.00    0.39882   0.49035    0.010
 6828.00    0.34331   0.48859    0.010
 6829.00    0.32767   0.48791    0.010
 6830.00    0.32368   0.48841    0.010
 6831.00    0.42687   0.48947    0.010
 6832.00    0.55602   0.49042    0.010
 6833.00    0.52501   0.49105    0.010
 6834.00    0.46267   0.49131    0.010
 6835.00    0.48935   0.49087    0.010
 6836.00    0.52961   0.48925    0.010
 6837.00    0.43829   0.48633    0.010
 6838.00    0.33222   0.48237    0.010
 6839.00    0.33415   0.47793    0.011
 6840.00    0.34416   0.47392    0.011
 6841.00    0.30918   0.47132    0.011
 6842.00    0.27242   0.47098    0.010
 6843.00    0.27546   0.47307    0.010
 6844.00    0.28148   0.47684    0.010
 6845.00    0.39493   0.48095    0.010
 6846.00    0.49928   0.48429    0.010
 6847.00    0.44996   0.48643    0.010
 6848.00    0.40325   0.48750    0.010
 6849.00    0.38386   0.48772    0.010
 6850.00    0.36248   0.48735    0.010
 6851.00    0.32627   0.48645    0.009
 6852.00    0.29933   0.48494    0.009
 6853.00    0.32493   0.48269    0.009
 6854.00    0.35679   0.47975    0.010
 6855.00    0.41688   0.47690    0.010
 6856.00    0.45541   0.47517    0.010
 6857.00    0.41414   0.47464    0.010
 6858.00    0.37998   0.47470    0.010
 6859.00    0.36790   0.47489    0.010
 6860.00    0.35744   0.47493    0.010
 6861.00    0.35127   0.47510    0.010
 6862.00    0.36684   0.47615    0.010
 6863.00    0.43155   0.47819    0.010
 6864.00    0.47628   0.48012    0.010
 6865.00    0.48188   0.48072    0.010
 6866.00    0.44268   0.47972    0.010
 6867.00    0.32705   0.47781    0.010
 6868.00    0.27164   0.47609    0.010
 6869.00    0.30625   0.47537    0.010
 6870.00    0.36116   0.47547    0.010
 6871.00    0.44276   0.47561    0.010
 6872.00    0.45264   0.47559    0.010
 6873.00    0.37952   0.47582    0.010
 6874.00    0.30141   0.47650    0.009
 6875.00    0.21821   0.47756    0.010
 6876.00    0.20766   0.47897    0.009
 6877.00    0.26253   0.48049    0.009
 6878.00    0.31829   0.48141    0.009
 6879.00    0.37478   0.48113    0.010
 6880.00    0.41584   0.47966    0.010
 6881.00    0.44614   0.47752    0.010
 6882.00    0.47107   0.47567    0.010
 6883.00    0.49273   0.47507    0.010
 6884.00    0.49501   0.47600    0.010
 6885.00    0.48693   0.47787    0.010
 6886.00    0.42983   0.48006    0.010
 6887.00    0.34998   0.48251    0.010
 6888.00    0.36233   0.48502    0.010
 6889.00    0.41152   0.48712    0.010
 6890.00    0.38734   0.48855    0.010
 6891.00    0.33814   0.48919    0.010
 6892.00    0.32736   0.48892    0.010
 6893.00    0.32759   0.48797    0.010
 6894.00    0.34949   0.48679    0.010
 6895.00    0.37652   0.48565    0.010
 6896.00    0.37876   0.48492    0.010
 6897.00    0.37629   0.48477    0.010
 6898.00    0.40482   0.48496    0.010
 6899.00    0.43794   0.48514    0.010
 6900.00    0.47100   0.48531    0.010
 6901.00    0.50406   0.48574    0.010
 6902.00    0.49483   0.48634    0.010
 6903.00    0.48260   0.48677    0.010
 6904.00    0.44750   0.48701    0.010
 6905.00    0.41157   0.48734    0.010
 6906.00    0.40069   0.48794    0.010
 6907.00    0.39085   0.48865    0.010
 6908.00    0.41461   0.48902    0.010
 6909.00    0.43395   0.48873    0.010
 6910.00    0.38333   0.48757    0.010
 6911.00    0.33716   0.48555    0.010
 6912.00    0.33553   0.48297    0.010
 6913.00    0.33023   0.48035    0.010
 6914.00    0.29868   0.47827    0.010
 6915.00    0.28245   0.47736    0.010
 6916.00    0.35073   0.47766    0.010
 6917.00    0.40585   0.47885    0.010
 6918.00    0.40297   0.48069    0.010
 6919.00    0.39765   0.48272    0.010
 6920.00    0.38347   0.48426    0.010
 6921.00    0.36975   0.48466    0.010
 6922.00    0.35740   0.48359    0.010
 6923.00    0.34199   0.48119    0.010
 6924.00    0.31865   0.47824    0.010
 6925.00    0.30219   0.47605    0.010
 6926.00    0.30100   0.47555    0.010
 6927.00    0.30610   0.47666    0.010
 6928.00    0.32331   0.47844    0.010
 6929.00    0.33314   0.47988    0.010
 6930.00    0.33055   0.48049    0.010
 6931.00    0.36888   0.48023    0.010
 6932.00    0.46747   0.47947    0.010
 6933.00    0.50048   0.47883    0.010
 6934.00    0.44856   0.47899    0.010
 6935.00    0.40922   0.47993    0.010
 6936.00    0.38425   0.48107    0.010
 6937.00    0.34593   0.48212    0.010
 6938.00    0.29417   0.48306    0.010
 6939.00    0.29467   0.48378    0.010
 6940.00    0.34156   0.48391    0.010
 6941.00    0.34193   0.48302    0.010
 6942.00    0.30592   0.48094    0.010
 6943.00    0.28568   0.47811    0.010
 6944.00    0.27627   0.47541    0.010
 6945.00    0.31037   0.47385    0.010
 6946.00    0.37070   0.47406    0.010
 6947.00    0.34769   0.47556    0.010
 6948.00    0.28085   0.47713    0.010
 6949.00    0.25127   0.47785    0.010
 6950.00    0.23870   0.47734    0.010
 6951.00    0.24142   0.47589    0.010
 6952.00    0.25015   0.47448    0.010
 6953.00    0.23810   0.47383    0.010
 6954.00    0.21912   0.47415    0.010
 6955.00    0.27646   0.47541    0.010
 6956.00    0.35524   0.47722    0.010
 6957.00    0.37674   0.47899    0.010
 6958.00    0.38498   0.48030    0.010
 6959.00    0.39048   0.48123    0.010
 6960.00    0.39547   0.48187    0.010
 6961.00    0.25769   0.48238    0.010
 6962.00    0.09949   0.48274    0.010
 6963.00    0.26033   0.48288    0.010
 6964.00    0.45421   0.48285    0.010
 6965.00    0.45600   0.48270    0.010
 6966.00    0.44499   0.48271    0.010
 6967.00    0.35725   0.48320    0.010
 6968.00    0.26707   0.48384    0.010
 6969.00    0.32331   0.48403    0.010
 6970.00    0.37758   0.48358    0.010
 6971.00    0.37138   0.48267    0.010
 6972.00    0.36221   0.48155    0.010
 6973.00    0.30871   0.47988    0.010
 6974.00    0.26108   0.47687    0.010
 6975.00    0.26984   0.47228    0.010
 6976.00    0.28440   0.46675    0.010
 6977.00    0.33921   0.46139    0.010
 6978.00    0.37431   0.45768    0.010
 6979.00    0.30363   0.45727    0.010
 6980.00    0.27225   0.46064    0.010
 6981.00    0.41016   0.46636    0.010
 6982.00    0.50751   0.47245    0.010
 6983.00    0.46081   0.47750    0.010
 6984.00    0.41332   0.48076    0.010
 6985.00    0.36342   0.48216    0.010
 6986.00    0.34285   0.48208    0.010
 6987.00    0.39674   0.48112    0.010
 6988.00    0.42661   0.47986    0.010
 6989.00    0.40396   0.47890    0.010
 6990.00    0.38000   0.47875    0.010
 6991.00    0.35352   0.47942    0.010
 6992.00    0.35431   0.48030    0.010
 6993.00    0.40022   0.48081    0.010
 6994.00    0.41248   0.48071    0.010
 6995.00    0.37589   0.48014    0.010
 6996.00    0.33543   0.47917    0.010
 6997.00    0.29003   0.47768    0.010
 6998.00    0.29958   0.47561    0.010
 6999.00    0.37093   0.47330    0.010
 7000.00    0.39376   0.47151    0.010
 7001.00    0.36846   0.47075    0.010
 7002.00    0.38557   0.47064    0.010
 7003.00    0.43978   0.47039    0.010
 7004.00    0.42768   0.46978    0.010
 7005.00    0.36448   0.46930    0.010
 7006.00    0.32284   0.46944    0.010
 7007.00    0.29580   0.47034    0.010
 7008.00    0.30716   0.47169    0.010
 7009.00    0.34132   0.47298    0.010
 7010.00    0.35030   0.47364    0.010
 7011.00    0.34623   0.47340    0.010
 7012.00    0.35233   0.47230    0.010
 7013.00    0.36300   0.47026    0.010
 7014.00    0.38767   0.46724    0.010
 7015.00    0.41774   0.46379    0.010
 7016.00    0.41538   0.46140    0.010
 7017.00    0.40237   0.46171    0.010
 7018.00    0.34644   0.46477    0.010
 7019.00    0.27870   0.46875    0.010
 7020.00    0.25623   0.47166    0.010
 7021.00    0.24399   0.47240    0.010
 7022.00    0.39177   0.47092    0.010
 7023.00    0.56846   0.46826    0.011
 7024.00    0.43905   0.46609    0.011
 7025.00    0.26723   0.46560    0.010
 7026.00    0.29564   0.46681    0.010
 7027.00    0.34392   0.46885    0.010
 7028.00    0.37504   0.47098    0.010
 7029.00    0.40509   0.47274    0.010
 7030.00    0.30313   0.47392    0.010
 7031.00    0.19778   0.47445    0.010
 7032.00    0.18932   0.47443    0.010
 7033.00    0.18389   0.47410    0.010
 7034.00    0.26178   0.47361    0.010
 7035.00    0.33320   0.47296    0.010
 7036.00    0.31379   0.47216    0.010
 7037.00    0.30383   0.47126    0.010
 7038.00    0.38096   0.47105    0.010
 7039.00    0.43462   0.47281    0.010
 7040.00    0.33014   0.47672    0.010
 7041.00    0.26147   0.48126    0.010
 7042.00    0.37995   0.48478    0.011
 7043.00    0.46006   0.48647    0.011
 7044.00    0.37867   0.48653    0.011
 7045.00    0.32620   0.48605    0.011
 7046.00    0.37431   0.48614    0.011
 7047.00    0.39625   0.48694    0.011
 7048.00    0.34161   0.48757    0.011
 7049.00    0.31794   0.48692    0.011
 7050.00    0.37155   0.48423   -2.000
 7051.00    0.41745   0.47950   -2.000
 7052.00    0.44676   0.47344   -2.000
 7053.00    0.45785   0.46752   -2.000
 7054.00    0.43492   0.46326   -2.000
 7055.00    0.40569   0.46117   -2.000
 7056.00    0.36619   0.46071   -2.000
 7057.00    0.34009   0.46068   -2.000
 7058.00    0.33314   0.46003   -2.000
 7059.00    0.34330   0.45851   -2.000
 7060.00    0.37496   0.45686   -2.000
 7061.00    0.37186   0.45600   -2.000
 7062.00    0.33022   0.45614   -2.000
 7063.00    0.35133   0.45670   -2.000
 7064.00    0.43381   0.45691   -2.000
 7065.00    0.27828   0.45604   -2.000
 7066.00   -0.08255   0.45395   -2.000
 7067.00   -0.06535   0.45150   -2.000
 7068.00    0.23906   0.45002   -2.000
 7069.00    0.46019   0.45057   -2.000
 7070.00    0.62571   0.45313   -2.000
 7071.00    0.61878   0.45656   -2.000
 7072.00    0.51101   0.45963   -2.000
 7073.00    0.37114   0.46183   -2.000
 7074.00    0.21490   0.46311   -2.000
 7075.00    0.14287   0.46371   -2.000
 7076.00    0.10801   0.46401   -2.000
 7077.00    0.18451   0.46433   -2.000
 7078.00    0.30323   0.46467   -2.000
 7079.00    0.41541   0.46462   -2.000
 7080.00    0.52548   0.46366   -2.000
 7081.00    0.51866   0.46122   -2.000
 7082.00    0.48035   0.45703   -2.000
 7083.00    0.40659   0.45154   -2.000
 7084.00    0.32501   0.44591   -2.000
 7085.00    0.33710   0.44149   -2.000
 7086.00    0.36567   0.43879   -2.000
 7087.00    0.31643   0.43721   -2.000
 7088.00    0.25678   0.43604   -2.000
 7089.00    0.32530   0.43505   -2.000
 7090.00    0.40599   0.43419   -2.000
 7091.00    0.37701   0.43366   -2.000
 7092.00    0.34160   0.43355   -2.000
 7093.00    0.27981   0.43370   -2.000
 7094.00    0.21840   0.43417   -2.000
 7095.00    0.29671   0.43499   -2.000
 7096.00    0.37309   0.43622   -2.000
 7097.00    0.40137   0.43793   -2.000
 7098.00    0.42749   0.43994   -2.000
 7099.00    0.42492   0.44195   -2.000
 7100.00    0.42041   0.44334   -2.000
 7101.00    0.39872   0.44398   -2.000
 7102.00    0.37752   0.44414   -2.000
 7103.00    0.35958   0.44429   -2.000
 7104.00    0.32674   0.44461   -2.000
 7105.00    0.21807   0.44480   -2.000
 7106.00    0.16089   0.44436   -2.000
 7107.00    0.31560   0.44326   -2.000
 7108.00    0.41717   0.44182   -2.000
 7109.00    0.33762   0.44026   -2.000
 7110.00    0.28506   0.43870   -2.000
 7111.00    0.31005   0.43756   -2.000
 7112.00    0.33664   0.43743   -2.000
 7113.00    0.36716   0.43840   -2.000
 7114.00    0.35578   0.43996   -2.000
 7115.00    0.25573   0.44150   -2.000
 7116.00    0.21941   0.44260   -2.000
 7117.00    0.30030   0.44302   -2.000
 7118.00    0.37807   0.44275   -2.000
 7119.00    0.45085   0.44199   -2.000
 7120.00    0.52324   0.44100   -2.000
 7121.00    0.59509   0.44001   -2.000
 7122.00    0.65056   0.43915   -2.000
 7123.00    0.68574   0.43858   -2.000
 7124.00   -0.31568   0.43799   -2.000
 7125.00   -2.45044   0.43687   -2.000
 7126.00   -2.45490   0.43521   -2.000
 7127.00   -0.40498   0.43329   -2.000
 7128.00    0.52364   0.43134   -2.000
 7129.00    0.49872   0.42938   -2.000
 7130.00    0.53468   0.42780   -2.000
 7131.00    0.61624   0.42746   -2.000
 7132.00    0.56151   0.42887   -2.000
 7133.00    0.41712   0.43162   -2.000
 7134.00    0.31679   0.43485   -2.000
 7135.00    0.24183   0.43766   -2.000
 7136.00    0.20703   0.43955   -2.000
 7137.00    0.19237   0.44052   -2.000
 7138.00    0.36564   0.44060   -2.000
 7139.00    0.62053   0.44020   -2.000
 7140.00    0.63184   0.43998   -2.000
 7141.00    0.55240   0.44013   -2.000
 7142.00    0.45909   0.44024   -2.000
 7143.00    0.36140   0.43993   -2.000
 7144.00    0.42576   0.43901   -2.000
 7145.00    0.53287   0.43734   -2.000
 7146.00    0.54539   0.43508   -2.000
 7147.00    0.53752   0.43264   -2.000
 7148.00    0.49623   0.43084   -2.000
 7149.00    0.44923   0.43076   -2.000
 7150.00    0.31667   0.43254   -2.000
 7151.00    0.17304   0.43543   -2.000
 7152.00    0.36890   0.43859   -2.000
 7153.00    0.59559   0.44125   -2.000
 7154.00    0.63887   0.44288   -2.000
 7155.00    0.67211   0.44363   -2.000
 7156.00    0.46786   0.44406   -2.000
 7157.00    0.26283   0.44435   -2.000
 7158.00    0.44064   0.44407   -2.000
 7159.00    0.62044   0.44306   -2.000
 7160.00    0.84527   0.44153   -2.000
 7161.00    1.05902   0.43962   -2.000
 7162.00    1.13322   0.43727   -2.000
 7163.00    1.16707   0.43444   -2.000
 7164.00    0.85671   0.43180   -2.000
 7165.00    0.55079   0.43070   -2.000
 7166.00    0.27297   0.43198   -2.000
 7167.00    0.08982   0.43514   -2.000
 7168.00    0.37670   0.43890   -2.000
 7169.00    0.59167   0.44218   -2.000
 7170.00    0.51717   0.44466   -2.000
 7171.00    0.45621   0.44640   -2.000
 7172.00    0.44047   0.44745   -2.000
 7173.00    0.42515   0.44759   -2.000
 7174.00    0.41097   0.44676   -2.000
 7175.00    0.41591   0.44522   -2.000
 7176.00    0.46697   0.44342   -2.000
 7177.00    0.51210   0.44179   -2.000
 7178.00    0.54490   0.44017   -2.000
 7179.00    0.58466   0.43809   -2.000
 7180.00    0.63707   0.43585   -2.000
 7181.00    0.65094   0.43444   -2.000
 7182.00    0.60381   0.43461   -2.000
 7183.00    0.54679   0.43583   -2.000
 7184.00    0.47602   0.43662   -2.000
 7185.00    0.44044   0.43587   -2.000
 7186.00    0.44790   0.43352   -2.000
 7187.00    0.51406   0.43043   -2.000
 7188.00    0.64349   0.42800   -2.000
 7189.00    0.69179   0.42715   -2.000
 7190.00    0.66296   0.42781   -2.000
 7191.00    0.58171   0.42930   -2.000
 7192.00    0.45652   0.43079   -2.000
 7193.00    0.35659   0.43200   -2.000
 7194.00    0.27531   0.43316   -2.000
 7195.00    0.27975   0.43428   -2.000
 7196.00    0.33975   0.43512   -2.000
 7197.00   -0.08510   0.43568   -2.000
 7198.00   -0.78501   0.43631   -2.000
 7199.00   -1.82863   0.43700   -2.000
 7200.00   -3.04199   0.43750   -2.000
 7201.00   -3.55896   0.43777   -2.000
 7202.00   -3.77856   0.43793   -2.000
 7203.00   -2.94270   0.43792   -2.000
 7204.00   -1.72066   0.43722   -2.000
 7205.00   -0.71440   0.43519   -2.000
 7206.00    0.22503   0.43198   -2.000
 7207.00    0.38803   0.42889   -2.000
 7208.00    0.35062   0.42763   -2.000
 7209.00    0.41740   0.42877   -2.000
 7210.00    0.50610   0.43149   -2.000
 7211.00    0.46321   0.43441   -2.000
 7212.00    0.39845   0.43627   -2.000
 7213.00    0.37670   0.43682   -2.000
 7214.00    0.36032   0.43674   -2.000
 7215.00    0.42265   0.43686   -2.000
 7216.00    0.49179   0.43760   -2.000
 7217.00    0.35901   0.43886   -2.000
 7218.00    0.21598   0.44002   -2.000
