###################################################################
## OUTPUT of StarlightChains_v04.for    [Cid@UFSC - 01/Apr/2007] ##
###################################################################

## Some input info
KUG0210-078._44_45.txt                   [arq_obs]
Base.CB07.vall.4m                        [arq_base]
Masks.EmLines.NEW.gm                     [arq_masks]
StCv04.C11.config                        [arq_config]
   66                                    [N_base]
    0                                    [N_YAV_components = # of components with extra extinction!]
    0                                    [i_FitPowerLaw (1/0 = Yes/No)]
-9.99                                    [alpha_PowerLaw]
CCM                                      [red_law_option]
 1.458241                                [q_norm = A(l_norm)/A(V)]

## (Re)Sampling Parameters
 3741.00                                 [l_ini (A)]
 7218.00                                 [l_fin (A)]
    1.00                                 [dl    (A)]     (OBS: dl_cushion =    50.00 A)

## Normalization info
 4020.00                                 [l_norm (A) - for base]
 4010.00                                 [llow_norm (A) - window for f_obs]
 4060.00                                 [lupp_norm (A) - window for f_obs]
1.086926E-17                             [fobs_norm (in input units)]

## S/N
 3691.00                                 [llow_SN (A) - window for S/N]
 7268.00                                 [lupp_SN (A) - window for S/N]
   3.377                                 [S/N in S/N window]
   5.088                                 [S/N in norm. window]
   0.008                                 [S/N_err in S/N window]
   0.012                                 [S/N_err in norm. window]
  1.0000                                 [fscale_chi2]

## etc...
    -2007846                             [idum_orig]
  2419                                   [NOl_eff]
  2397                                   [Nl_eff]
    22    NSIGMA                         [Ntot_cliped & clip_method]
  1284990                                [Nglobal_steps]
   7                                     [N_chains]
  41                                     [NEX0s_base = N_base in EX0s-fits]
 0   0   1       22   2.0   2.129E+03    [Clip-Bug, RC-Crash & Burn-In warning-flags, n_censored_weights, wei_nsig_threshold & wei_limit]
    26     26.454     25.911      0.543  [idt_all, wdt_TotTime, wdt_UsrTime & wdt_SysTime (sec)]

## Synthesis Results - Best model ##

 2.05860E-05                             [chi2/Nl_eff]
    28.61657                             [adev (%)]

    90.54141                             [sum-of-x (%)]
 1.56734E-17                             [Flux_tot (units of input spectrum!)]
 1.69172E-13                             [Mini_tot (???)]
 8.52920E-14                             [Mcor_tot (???)]

  18.43                                  [v0_min  (km/s)]
 318.32                                  [vd_min  (km/s)]
 0.3465                                  [AV_min  (mag)]
 0.0000                                  [YAV_min (mag)]

# j     x_j(%)      Mini_j(%)     Mcor_j(%)     age_j(yr)     Z_j      (L/M)_j    YAV?  Mstars   component_j        a/Fe...       SSP_chi2r SSP_adev(%)   SSP_AV   SSP_x(%)
  1      0.0000     0.0000E+00    0.0000E+00    1.000000E+06  0.00400  1.094E-02    0   1.0000   age020_m42            0.0000     2.1382E-05    32.0634   2.1212    82.6989
  2      0.0000     0.0000E+00    0.0000E+00    3.160000E+06  0.00400  4.007E-02    0   0.9999   age045_m42            0.0000     2.1601E-05    31.3265   1.3178    89.7336
  3      5.9639     2.4035E-02    4.5232E-02    5.010000E+06  0.00400  2.539E-02    0   0.9488   age055_m42            0.0000     2.1325E-05    31.3070   1.6763    86.8889
  4      0.0000     0.0000E+00    0.0000E+00    6.610000E+06  0.00400  2.620E-02    0   0.9220   age061_m42            0.0000     2.1606E-05    30.8136   1.2492    89.7955
  5      0.0000     0.0000E+00    0.0000E+00    1.000000E+07  0.00400  1.322E-02    0   0.8862   age070_m42            0.0000     2.1163E-05    29.3621   1.0628    89.7822
  6      0.0000     0.0000E+00    0.0000E+00    1.445000E+07  0.00400  7.883E-03    0   0.8571   age078_m42            0.0000     2.1117E-05    29.7736   1.3968    87.4367
  7      2.1602     4.2095E-02    6.8247E-02    2.512000E+07  0.00400  5.251E-03    0   0.8174   age090_m42            0.0000     2.1164E-05    29.0425   0.9449    90.0462
  8      0.0000     0.0000E+00    0.0000E+00    4.000000E+07  0.00400  3.649E-03    0   0.7851   age104_m42            0.0000     2.1318E-05    29.1519   0.6928    91.2504
  9      0.5532     1.8273E-02    2.7650E-02    5.500000E+07  0.00400  3.098E-03    0   0.7629   age110_m42            0.0000     2.1773E-05    29.6361   0.7887    92.3823
 10      0.0000     0.0000E+00    0.0000E+00    1.015200E+08  0.00400  2.228E-03    0   0.7207   age116_m42            0.0000     2.2223E-05    29.7573   0.7718    93.2586
 11      4.0973     3.8359E-01    5.0580E-01    2.861200E+08  0.00400  1.093E-03    0   0.6648   age125_m42            0.0000     2.2473E-05    28.9423   0.2183    95.5197
 12      0.6935     1.0757E-01    1.3580E-01    5.088000E+08  0.00400  6.597E-04    0   0.6365   age130_m42            0.0000     2.3258E-05    29.5276   0.1451    97.5815
 13      0.0000     0.0000E+00    0.0000E+00    1.434000E+09  0.00400  2.132E-04    0   0.5798   age139_m42            0.0000     2.3677E-05    30.6083  -0.8704   100.2063
 14      0.0000     0.0000E+00    0.0000E+00    4.250000E+09  0.00400  5.895E-05    0   0.5377   age158_m42            0.0000     2.4195E-05    27.8102  -1.0000    92.8514
 15      0.2227     6.4917E-01    6.7110E-01    7.500000E+09  0.00400  3.510E-05    0   0.5212   age171_m42            0.0000     2.5522E-05    27.5790  -1.0000    89.6874
 16      0.0234     1.1959E-01    1.1941E-01    1.300000E+10  0.00400  2.005E-05    0   0.5034   age193_m42            0.0000     2.7021E-05    29.1333  -1.0000    86.6955
 17      0.0000     0.0000E+00    0.0000E+00    1.800000E+10  0.00400  1.525E-05    0   0.4967   age213_m42            0.0000     2.6988E-05    29.5176  -1.0000    85.9319
 18      0.0025     2.0906E-05    4.1467E-05    1.000000E+06  0.00800  1.238E-02    0   1.0000   age020_m52            0.0000     2.1366E-05    32.0348   2.1190    82.8671
 19      0.0000     0.0000E+00    0.0000E+00    3.160000E+06  0.00800  3.074E-02    0   0.9966   age045_m52            0.0000     2.1356E-05    31.8682   2.0340    83.7722
 20      0.0000     0.0000E+00    0.0000E+00    5.010000E+06  0.00800  2.668E-02    0   0.9443   age055_m52            0.0000     2.1288E-05    31.2849   1.7745    85.8707
 21      0.0000     0.0000E+00    0.0000E+00    6.610000E+06  0.00800  2.136E-02    0   0.9177   age061_m52            0.0000     2.1066E-05    30.0114   0.5656    90.7477
 22      1.5265     1.2856E-02    2.2508E-02    1.000000E+07  0.00800  1.215E-02    0   0.8827   age070_m52            0.0000     2.1003E-05    29.2035   1.2743    88.9470
 23      0.0000     0.0000E+00    0.0000E+00    1.445000E+07  0.00800  8.717E-03    0   0.8552   age078_m52            0.0000     2.1110E-05    29.6426   1.3579    88.7234
 24      0.0000     0.0000E+00    0.0000E+00    2.512000E+07  0.00800  5.592E-03    0   0.8162   age090_m52            0.0000     2.1185E-05    28.9159   1.0072    91.1353
 25      0.0000     0.0000E+00    0.0000E+00    4.000000E+07  0.00800  3.896E-03    0   0.7841   age104_m52            0.0000     2.1458E-05    29.1391   0.8807    92.5333
 26      0.0000     0.0000E+00    0.0000E+00    1.015200E+08  0.00800  2.148E-03    0   0.7226   age116_m52            0.0000     2.1976E-05    29.4783   0.7627    93.4717
 27      0.0000     0.0000E+00    0.0000E+00    2.861200E+08  0.00800  9.925E-04    0   0.6683   age125_m52            0.0000     2.3324E-05    29.4636   0.2114    98.4726
 28      0.0000     0.0000E+00    0.0000E+00    9.047900E+08  0.00800  3.141E-04    0   0.6138   age135_m52            0.0000     2.4700E-05    31.5827  -0.6984   104.6986
 29      0.0000     0.0000E+00    0.0000E+00    1.434000E+09  0.00800  1.719E-04    0   0.5853   age139_m52            0.0000     2.4230E-05    27.9252  -1.0000    98.8924
 30      0.0000     0.0000E+00    0.0000E+00    2.500000E+09  0.00800  7.872E-05    0   0.5600   age150_m52            0.0000     2.6039E-05    27.2877  -1.0000    92.7753
 31      0.0000     0.0000E+00    0.0000E+00    4.250000E+09  0.00800  4.336E-05    0   0.5426   age158_m52            0.0000     2.6212E-05    27.5432  -1.0000    91.6300
 32      0.0000     0.0000E+00    0.0000E+00    6.250000E+09  0.00800  3.159E-05    0   0.5319   age166_m52            0.0000     2.8604E-05    29.3660  -1.0000    88.4259
 33      0.0000     0.0000E+00    0.0000E+00    1.300000E+10  0.00800  1.361E-05    0   0.5073   age193_m52            0.0000     3.4879E-05    37.2147  -1.0000    79.0772
 34      6.2768     6.4969E+01    6.4302E+01    1.800000E+10  0.00800  9.886E-06    0   0.4990   age213_m52            0.0000     3.7763E-05    38.7429  -1.0000    76.3776
 35      0.0000     0.0000E+00    0.0000E+00    1.000000E+06  0.02000  1.544E-02    0   1.0000   age020_m62            0.0000     2.1368E-05    32.0359   2.1153    83.0531
 36      0.0000     0.0000E+00    0.0000E+00    3.160000E+06  0.02000  3.762E-02    0   0.9858   age045_m62            0.0000     2.1364E-05    31.8910   2.0518    83.8878
 37      0.0000     0.0000E+00    0.0000E+00    5.010000E+06  0.02000  3.296E-02    0   0.9342   age055_m62            0.0000     2.1421E-05    31.2374   1.6105    88.4906
 38     59.8130     5.3037E-01    9.3213E-01    8.710000E+06  0.02000  1.154E-02    0   0.8861   age067_m62            0.0000     2.0641E-05    28.7011   0.9025    87.8128
 39      0.0000     0.0000E+00    0.0000E+00    1.445000E+07  0.02000  7.663E-03    0   0.8472   age078_m62            0.0000     2.0842E-05    28.8150   0.9700    89.9327
 40      0.1965     4.4377E-03    7.1287E-03    2.512000E+07  0.02000  4.532E-03    0   0.8099   age090_m62            0.0000     2.0851E-05    28.4533   0.9655    89.5890
 41      0.0000     0.0000E+00    0.0000E+00    5.500000E+07  0.02000  2.733E-03    0   0.7595   age110_m62            0.0000     2.1342E-05    28.9737   0.8737    91.6988
 42      0.0000     0.0000E+00    0.0000E+00    1.609000E+08  0.02000  1.369E-03    0   0.6985   age120_m62            0.0000     2.2572E-05    29.1574   0.6157    96.0858
 43      0.1510     1.7142E-02    2.2828E-02    2.861200E+08  0.02000  9.013E-04    0   0.6714   age125_m62            0.0000     2.3812E-05    29.2867   0.3104    99.9575
 44      0.0000     0.0000E+00    0.0000E+00    5.088000E+08  0.02000  5.028E-04    0   0.6449   age130_m62            0.0000     2.5148E-05    31.1050  -0.1735   104.7997
 45      0.0000     0.0000E+00    0.0000E+00    9.047900E+08  0.02000  2.428E-04    0   0.6179   age135_m62            0.0000     2.4852E-05    32.7488  -0.7984   104.8483
 46      0.0000     0.0000E+00    0.0000E+00    1.434000E+09  0.02000  1.263E-04    0   0.5908   age139_m62            0.0000     2.5029E-05    29.5653  -1.0000   100.2358
 47      0.0233     3.9870E-02    4.4861E-02    2.500000E+09  0.02000  5.985E-05    0   0.5673   age150_m62            0.0000     2.7209E-05    27.6623  -1.0000    93.7828
 48      0.0000     0.0000E+00    0.0000E+00    4.250000E+09  0.02000  3.271E-05    0   0.5468   age158_m62            0.0000     3.1062E-05    30.7772  -1.0000    87.7928
 49      0.0000     0.0000E+00    0.0000E+00    1.000000E+10  0.02000  1.360E-05    0   0.5167   age181_m62            0.0000     3.7457E-05    36.2097  -1.0000    80.4129
 50      0.0000     0.0000E+00    0.0000E+00    1.800000E+10  0.02000  7.124E-06    0   0.5013   age213_m62            0.0000     4.2376E-05    39.1364  -1.0000    75.1262
 51      0.0000     0.0000E+00    0.0000E+00    1.000000E+06  0.05000  2.592E-02    0   0.9998   age020_m72            0.0000     2.1404E-05    31.9578   2.1176    82.9037
 52      0.0000     0.0000E+00    0.0000E+00    3.160000E+06  0.05000  4.845E-02    0   0.9577   age045_m72            0.0000     2.1328E-05    31.6910   1.9010    85.5942
 53      0.0000     0.0000E+00    0.0000E+00    5.010000E+06  0.05000  3.072E-02    0   0.9147   age055_m72            0.0000     2.1020E-05    29.8299   1.5174    87.3068
 54      6.6221     4.6571E-02    8.1998E-02    6.610000E+06  0.05000  1.455E-02    0   0.8877   age061_m72            0.0000     2.0808E-05    30.3904   1.0002    87.2421
 55      0.0000     0.0000E+00    0.0000E+00    1.000000E+07  0.05000  9.074E-03    0   0.8524   age070_m72            0.0000     2.1099E-05    30.3881   1.6890    87.0889
 56      0.0000     0.0000E+00    0.0000E+00    2.512000E+07  0.05000  4.250E-03    0   0.7902   age090_m72            0.0000     2.1171E-05    29.3020   1.3675    89.2180
 57      0.0000     0.0000E+00    0.0000E+00    4.000000E+07  0.05000  3.087E-03    0   0.7618   age104_m72            0.0000     2.1266E-05    28.8097   1.1396    90.6742
 58      0.0000     0.0000E+00    0.0000E+00    1.015200E+08  0.05000  1.700E-03    0   0.7096   age116_m72            0.0000     2.2300E-05    28.6410   0.7975    94.9221
 59      0.0000     0.0000E+00    0.0000E+00    2.861200E+08  0.05000  7.384E-04    0   0.6633   age125_m72            0.0000     2.4633E-05    30.1953   0.1182   102.5380
 60      0.0000     0.0000E+00    0.0000E+00    5.088000E+08  0.05000  3.819E-04    0   0.6372   age130_m72            0.0000     2.4994E-05    32.2722  -0.4640   106.0858
 61      0.1174     7.1701E-02    8.6893E-02    9.047900E+08  0.05000  1.676E-04    0   0.6110   age135_m72            0.0000     2.5653E-05    30.9560  -1.0000   102.7831
 62      0.0000     0.0000E+00    0.0000E+00    1.434000E+09  0.05000  8.837E-05    0   0.5874   age139_m72            0.0000     2.7797E-05    27.5355  -1.0000    95.2608
 63      0.0000     0.0000E+00    0.0000E+00    2.500000E+09  0.05000  4.233E-05    0   0.5598   age150_m72            0.0000     3.1752E-05    30.8711  -1.0000    88.6355
 64      0.0000     0.0000E+00    0.0000E+00    6.250000E+09  0.05000  1.435E-05    0   0.5249   age166_m72            0.0000     3.9175E-05    37.8399  -1.0000    78.0755
 65      2.0981     3.2964E+01    3.2927E+01    1.300000E+10  0.05000  6.513E-06    0   0.5036   age193_m72            0.0000     4.5789E-05    41.3865  -1.0000    72.3326
 66      0.0000     0.0000E+00    0.0000E+00    1.800000E+10  0.05000  4.527E-06    0   0.4945   age213_m72            0.0000     4.9928E-05    43.1079  -1.0000    68.3082


## Synthesis Results - Average & Chains ##

# j      x_j: min, <> & last-chain-values for 1 ...  7 chains
  1      0.0000      0.7827      2.1621      0.6468      0.7894      1.4931      4.8856      0.0000      0.0000
  2      0.0000      0.5726      1.2869      0.0000      3.0641      0.0000      1.6736      0.0000      0.4082
  3      5.9639      0.5149      0.9922      0.1066      0.9006      0.8547      0.0000      0.0988      0.6030
  4      0.0000      0.5349      0.0000      0.0000      1.6990      0.0000      0.4840      1.3737      0.0000
  5      0.0000      0.5907      0.8726      0.0000      1.3300      0.9279      0.3314      0.9966      0.4470
  6      0.0000      0.8662      0.9767      1.8709      2.8941      2.6732      1.8351      0.2843      0.0000
  7      2.1602      0.6236      0.5992      0.2377      0.9617      1.7524      0.3541      3.9906      1.4040
  8      0.0000      0.7055      0.6557      0.3016      0.0000      1.6909      0.8878      3.4355      0.9971
  9      0.5532      0.6969      0.4385      1.7490      0.0000      0.8307      0.1284      2.3320      1.4439
 10      0.0000      0.8508      0.0000      0.7061      1.0163      0.0000      0.1008      0.5784      0.0000
 11      4.0973      0.5664      0.0000      0.3736      0.7682      0.9200      0.0000      0.6003      1.2765
 12      0.6935      0.7374      0.0000      0.6537      0.0000      0.0750      0.5008      1.3520      1.8803
 13      0.0000      0.7411      2.1320      0.2029      0.1401      2.6285      1.3734      0.0000      0.0000
 14      0.0000      0.7983      2.1126      0.0000      0.0000      1.5658      2.4794      0.2733      0.0000
 15      0.2227      0.6827      0.2677      2.4431      0.1678      4.0471      0.0000      2.2456      0.9705
 16      0.0234      0.6058      0.0000      1.4670      0.0000      1.1797      0.0000      3.5060      2.4763
 17      0.0000      0.6904      0.4410      1.5685      0.8670      1.4561      1.5222      0.5435      1.1681
 18      0.0025      0.6790      0.0000      1.0186      0.0908      1.7759      1.1004      0.0000      2.6451
 19      0.0000      0.6719      0.4558      0.0000      2.8214      0.0000      1.4617      2.8438      1.5318
 20      0.0000      0.9364      0.0000      0.6163      0.2386      0.0000      0.9629      3.1591      2.1534
 21      0.0000      0.4665      0.2391      1.1654      1.4036      0.0000      0.0000      0.0000      0.7419
 22      1.5265      0.6502      0.2661      2.1849      1.3010      0.5200      0.8489      0.7831      1.0016
 23      0.0000      0.5363      0.0000      1.2202      0.0000      0.5874      2.2897      0.0000      1.0840
 24      0.0000      0.6379      0.0185      0.0000      0.6887      2.3163      0.9025      0.0000      2.4995
 25      0.0000      0.6104      0.3970      0.5797      0.9800      0.1469      0.1900      1.8510      0.1089
 26      0.0000      0.9415      1.0730      0.5776      0.0000      1.0842      0.6315      1.5032      0.6298
 27      0.0000      0.7296      0.6797      0.0302      1.6411      0.1072      0.3782      0.0000      0.1659
 28      0.0000      0.4884      0.0000      0.6947      1.1511      0.0000      0.3162      0.5918      0.7405
 29      0.0000      0.8240      0.1317      2.2984      1.0559      0.0000      1.8383      0.0000      0.0059
 30      0.0000      0.8268      0.0000      1.5457      0.7077      0.8487      0.3965      1.0391      0.0000
 31      0.0000      0.9693      2.9534      2.3918      2.4430      1.8557      1.1895      1.3400      3.9051
 32      0.0000      0.6679      1.5426      7.7165      1.6650      0.0000      0.0000      0.1072      2.1342
 33      0.0000      0.8494      1.9775      0.3657      2.3203      2.2659      0.5474      0.4118      3.8358
 34      6.2768      0.6970      0.0000      1.4360      1.6789      0.0000      4.7992      0.3242      4.1435
 35      0.0000      0.7490      0.8941      0.0000      0.9706      0.0000      3.6409      0.0000      0.0000
 36      0.0000      0.4775      0.0000      2.5238      0.2692      0.0000      1.5393      0.0000      0.0000
 37      0.0000      0.7397      0.2021      1.8063      1.2206      1.8647      0.5311      1.7502      0.4119
 38     59.8130      0.6926      0.8720      3.0130      0.0000      1.2223      0.0000      0.0000      2.8911
 39      0.0000      0.6086      1.0408      0.5280      0.6710      1.5381      0.6564      1.4856      0.1007
 40      0.1965      0.7923      1.7412      0.0000      0.6637      1.0309      2.9739      0.9752      1.9009
 41      0.0000      0.7277      2.0315      1.2386      0.0843      1.0420      1.3287      0.0000      0.0000
 42      0.0000      0.5590      0.7882      0.0432      0.1910      0.5223      0.0000      1.2207      1.3087
 43      0.1510      0.8052      1.6823      0.0000      0.0000      0.0000      0.0000      1.1820      1.7821
 44      0.0000      0.6578      1.2549      0.7417      0.1263      0.5103      0.2292      0.6349      0.2716
 45      0.0000      0.6471      0.4015      0.5458      0.6974      0.6603      0.0000      0.7345      0.0000
 46      0.0000      0.5713      1.1662      0.0000      0.6455      0.0000      1.3850      0.0000      0.6743
 47      0.0233      0.4800      0.0000      0.0000      1.5478      1.2479      2.0847      3.8676      0.8736
 48      0.0000      0.4868      0.2956      0.3255      0.4082      0.5350      0.0000      0.0000      1.1323
 49      0.0000      0.5598      0.0000      0.1704      0.0000      0.7853      0.0000      0.0000      3.2388
 50      0.0000      0.6088      1.7945      2.5117      3.0812      0.9460      0.0000      2.3033      0.0247
 51      0.0000      1.0018      2.0466      4.3617      1.0336      2.1489      0.0000      1.3016      1.8313
 52      0.0000      0.5942      1.0778      0.0000      1.4875      0.0000      0.0000      0.0000      0.1915
 53      0.0000      0.7085      2.5107      3.4978      1.1799      0.0000      0.0000      0.0000      0.2953
 54      6.6221      0.7696      0.4521      0.0587      2.7461      0.7586      2.2314      0.0000      4.0673
 55      0.0000      0.6415      1.8958      0.0000      0.0000      0.6376      0.0000      0.0000      0.0350
 56      0.0000      0.5877      0.7927      1.4647      0.0000      0.8475      0.9950      1.9446      0.0000
 57      0.0000      0.5678      1.4686      0.9783      0.0000      1.2043      0.0000      2.0508      0.0000
 58      0.0000      0.5589      1.1111      0.2915      0.4442      1.0549      0.9653      0.0000      0.0822
 59      0.0000      0.5727      1.5352      0.0000      0.2751      0.0000      0.0000      1.3622      0.6426
 60      0.0000      0.7550      1.7424      1.5866      0.0000      0.0000      1.7216      0.0000      0.1121
 61      0.1174     18.0289      7.7110      8.4388      9.2827      5.9960      3.6168      3.9324      2.4002
 62      0.0000      0.7290      2.3470      0.0000      0.1750      0.0203      1.7607      0.4100      1.3786
 63      0.0000      0.6848      2.2024      0.0000      0.2501      1.4521      0.4044      0.4332      0.9018
 64      0.0000      0.9939      4.3126      0.6862      1.4519      2.8467      0.7539      2.3264      0.0821
 65      2.0981      5.0455      2.6847      0.2879      4.2265      4.8166      5.5416      4.8134      4.1047
 66      0.0000      4.3126      1.3465      0.0000      2.3883      4.0734      3.9726      3.4939      0.0000

# j      m_j: min, <> & last-chain-values for 1 ...  7 chains
  1  0.0000E+00  5.8486E-03  2.1595E-02  8.8642E-03  6.0200E-03  1.0037E-02  3.3898E-02  0.0000E+00  0.0000E+00
  2  0.0000E+00  1.1681E-03  3.5089E-03  0.0000E+00  6.3794E-03  0.0000E+00  3.1701E-03  0.0000E+00  9.5455E-04
  3  4.5232E-02  1.5730E-03  4.0511E-03  5.9712E-04  2.8078E-03  2.3490E-03  0.0000E+00  2.9001E-04  2.1117E-03
  4  0.0000E+00  1.5387E-03  0.0000E+00  0.0000E+00  4.9883E-03  0.0000E+00  1.2929E-03  3.7986E-03  0.0000E+00
  5  0.0000E+00  3.2371E-03  6.3913E-03  0.0000E+00  7.4388E-03  4.5747E-03  1.6865E-03  5.2495E-03  2.8075E-03
  6  0.0000E+00  7.6989E-03  1.1604E-02  3.0497E-02  2.6254E-02  2.1376E-02  1.5145E-02  2.4292E-03  0.0000E+00
  7  6.8247E-02  7.9361E-03  1.0192E-02  5.5464E-03  1.2490E-02  2.0062E-02  4.1843E-03  4.8811E-02  2.0479E-02
  8  0.0000E+00  1.2409E-02  1.5415E-02  9.7299E-03  0.0000E+00  2.6757E-02  1.4499E-02  5.8080E-02  2.0102E-02
  9  2.7650E-02  1.4029E-02  1.1799E-02  6.4573E-02  0.0000E+00  1.5045E-02  2.4000E-03  4.5123E-02  3.3318E-02
 10  0.0000E+00  2.2498E-02  0.0000E+00  3.4244E-02  2.7427E-02  0.0000E+00  2.4757E-03  1.4700E-02  0.0000E+00
 11  5.0580E-01  2.8162E-02  0.0000E+00  3.4072E-02  3.8984E-02  4.1156E-02  0.0000E+00  2.8690E-02  7.2752E-02
 12  1.3580E-01  5.8163E-02  0.0000E+00  9.4559E-02  0.0000E+00  5.3252E-03  3.6678E-02  1.0250E-01  1.7000E-01
 13  0.0000E+00  1.6476E-01  6.3354E-01  8.2745E-02  3.1782E-02  5.2573E-01  2.8352E-01  0.0000E+00  0.0000E+00
 14  0.0000E+00  5.9527E-01  2.1055E+00  0.0000E+00  0.0000E+00  1.0504E+00  1.7167E+00  1.9588E-01  0.0000E+00
 15  6.7110E-01  8.2876E-01  4.3431E-01  5.4387E+00  2.0785E-01  4.4198E+00  0.0000E+00  2.6201E+00  1.3504E+00
 16  1.1941E-01  1.2433E+00  0.0000E+00  5.5221E+00  0.0000E+00  2.1784E+00  0.0000E+00  6.9167E+00  5.8260E+00
 17  0.0000E+00  1.8383E+00  1.5694E+00  7.6590E+00  2.3560E+00  3.4879E+00  3.7634E+00  1.3908E+00  3.5651E+00
 18  4.1467E-05  4.4839E-03  0.0000E+00  1.2335E-02  6.1190E-04  1.0550E-02  6.7471E-03  0.0000E+00  2.0021E-02
 19  0.0000E+00  1.7808E-03  1.6147E-03  0.0000E+00  7.6316E-03  0.0000E+00  3.5971E-03  7.2443E-03  4.6535E-03
 20  0.0000E+00  2.7093E-03  0.0000E+00  3.2703E-03  7.0448E-04  0.0000E+00  2.5868E-03  8.7857E-03  7.1420E-03
 21  0.0000E+00  1.6386E-03  1.1226E-03  7.5066E-03  5.0314E-03  0.0000E+00  0.0000E+00  0.0000E+00  2.9867E-03
 22  2.2508E-02  3.8613E-03  2.1123E-03  2.3797E-02  7.8859E-03  2.7786E-03  4.6814E-03  4.4706E-03  6.8187E-03
 23  0.0000E+00  4.3009E-03  0.0000E+00  1.7947E-02  0.0000E+00  4.2381E-03  1.7051E-02  0.0000E+00  9.9658E-03
 24  0.0000E+00  7.6115E-03  2.9496E-04  0.0000E+00  8.3869E-03  2.4865E-02  9.9992E-03  0.0000E+00  3.4186E-02
 25  0.0000E+00  1.0042E-02  8.7303E-03  1.7493E-02  1.6455E-02  2.1738E-03  2.9023E-03  2.9271E-02  2.0545E-03
 26  0.0000E+00  2.5891E-02  3.9440E-02  2.9131E-02  0.0000E+00  2.6824E-02  1.6124E-02  3.9734E-02  1.9854E-02
 27  0.0000E+00  4.0161E-02  5.0006E-02  3.0494E-03  9.2196E-02  5.3071E-03  1.9328E-02  0.0000E+00  1.0465E-02
 28  0.0000E+00  7.8026E-02  0.0000E+00  2.0354E-01  1.8767E-01  0.0000E+00  4.6908E-02  9.0869E-02  1.3560E-01
 29  0.0000E+00  2.2936E-01  4.9011E-02  1.1733E+00  2.9997E-01  0.0000E+00  4.7511E-01  0.0000E+00  1.8893E-03
 30  0.0000E+00  4.8080E-01  0.0000E+00  1.6485E+00  4.2003E-01  4.4406E-01  2.1408E-01  5.8084E-01  0.0000E+00
 31  0.0000E+00  9.9153E-01  4.0383E+00  4.4873E+00  2.5506E+00  1.7079E+00  1.1299E+00  1.3176E+00  4.5792E+00
 32  0.0000E+00  9.1928E-01  2.8380E+00  1.9479E+01  2.3389E+00  0.0000E+00  0.0000E+00  1.4178E-01  3.3673E+00
 33  0.0000E+00  2.5881E+00  8.0538E+00  2.0439E+00  7.2158E+00  6.2117E+00  1.5487E+00  1.2061E+00  1.3398E+01
 34  6.4302E+01  2.8759E+00  0.0000E+00  1.0867E+01  7.0701E+00  0.0000E+00  1.8388E+01  1.2860E+00  1.9598E+01
 35  0.0000E+00  3.9656E-03  6.3277E-03  0.0000E+00  5.2450E-03  0.0000E+00  1.7900E-02  0.0000E+00  0.0000E+00
 36  0.0000E+00  1.0229E-03  0.0000E+00  9.9150E-03  5.8857E-04  0.0000E+00  3.0617E-03  0.0000E+00  0.0000E+00
 37  0.0000E+00  1.7139E-03  6.2578E-04  7.6755E-03  2.8865E-03  3.8872E-03  1.1425E-03  3.8979E-03  1.0939E-03
 38  9.3213E-01  4.3476E-03  7.3164E-03  3.4685E-02  0.0000E+00  6.9027E-03  0.0000E+00  0.0000E+00  2.0802E-02
 39  0.0000E+00  5.5006E-03  1.2573E-02  8.7512E-03  6.1890E-03  1.2507E-02  5.5085E-03  1.2905E-02  1.0432E-03
 40  7.1287E-03  1.1575E-02  3.4000E-02  0.0000E+00  9.8952E-03  1.3550E-02  4.0341E-02  1.3693E-02  3.1833E-02
 41  0.0000E+00  1.6531E-02  6.1688E-02  5.1604E-02  1.9552E-03  2.1296E-02  2.8028E-02  0.0000E+00  0.0000E+00
 42  0.0000E+00  2.3314E-02  4.3945E-02  3.3033E-03  8.1298E-03  1.9600E-02  0.0000E+00  4.8940E-02  6.2571E-02
 43  2.2828E-02  4.9034E-02  1.3693E-01  0.0000E+00  0.0000E+00  0.0000E+00  0.0000E+00  6.9185E-02  1.2440E-01
 44  0.0000E+00  6.8969E-02  1.7587E-01  1.4263E-01  1.3510E-02  4.8139E-02  2.2316E-02  6.3986E-02  3.2639E-02
 45  0.0000E+00  1.3463E-01  1.1164E-01  2.0825E-01  1.4808E-01  1.2359E-01  0.0000E+00  1.4688E-01  0.0000E+00
 46  0.0000E+00  2.1848E-01  5.9605E-01  0.0000E+00  2.5191E-01  0.0000E+00  4.9179E-01  0.0000E+00  2.9558E-01
 47  4.4861E-02  3.7197E-01  0.0000E+00  0.0000E+00  1.2240E+00  8.6992E-01  1.4999E+00  2.8806E+00  7.7596E-01
 48  0.0000E+00  6.6522E-01  5.3997E-01  8.1564E-01  5.6926E-01  6.5780E-01  0.0000E+00  0.0000E+00  1.7737E+00
 49  0.0000E+00  1.7386E+00  0.0000E+00  9.7069E-01  0.0000E+00  2.1943E+00  0.0000E+00  0.0000E+00  1.1531E+01
 50  0.0000E+00  3.5021E+00  1.3798E+01  2.6498E+01  1.8089E+01  4.8959E+00  0.0000E+00  1.2736E+01  1.6305E-01
 51  0.0000E+00  3.1589E-03  8.6260E-03  2.5223E-02  3.3262E-03  6.0961E-03  0.0000E+00  3.9450E-03  6.6192E-03
 52  0.0000E+00  9.6009E-04  2.3279E-03  0.0000E+00  2.4531E-03  0.0000E+00  0.0000E+00  0.0000E+00  3.5473E-04
 53  0.0000E+00  1.7246E-03  8.1684E-03  1.5614E-02  2.9310E-03  0.0000E+00  0.0000E+00  0.0000E+00  8.2382E-04
 54  8.1998E-02  3.8382E-03  3.0136E-03  5.3697E-04  1.3978E-02  3.4039E-03  1.0334E-02  0.0000E+00  2.3253E-02
 55  0.0000E+00  4.9263E-03  1.9459E-02  0.0000E+00  0.0000E+00  4.4051E-03  0.0000E+00  0.0000E+00  3.0828E-04
 56  0.0000E+00  8.9329E-03  1.6103E-02  4.0829E-02  0.0000E+00  1.1590E-02  1.4043E-02  2.8409E-02  0.0000E+00
 57  0.0000E+00  1.1454E-02  3.9600E-02  3.6193E-02  0.0000E+00  2.1857E-02  0.0000E+00  3.9767E-02  0.0000E+00
 58  0.0000E+00  1.9073E-02  5.0678E-02  1.8243E-02  1.5468E-02  3.2385E-02  3.0584E-02  0.0000E+00  3.2157E-03
 59  0.0000E+00  4.2056E-02  1.5069E-01  0.0000E+00  2.0615E-02  0.0000E+00  0.0000E+00  9.6147E-02  5.4094E-02
 60  0.0000E+00  1.0298E-01  3.1767E-01  3.9689E-01  0.0000E+00  0.0000E+00  2.1804E-01  0.0000E+00  1.7528E-02
 61  8.6893E-02  5.3730E+00  3.0716E+00  4.6123E+00  2.8234E+00  1.6077E+00  1.0009E+00  1.1264E+00  8.1993E-01
 62  0.0000E+00  3.9610E-01  1.7046E+00  0.0000E+00  9.7073E-02  9.9479E-03  8.8839E-01  2.1416E-01  8.5868E-01
 63  0.0000E+00  7.4031E-01  3.1824E+00  0.0000E+00  2.7599E-01  1.4124E+00  4.0595E-01  4.5016E-01  1.1176E+00
 64  0.0000E+00  2.9720E+00  1.7237E+01  3.7631E+00  4.4310E+00  7.6582E+00  2.0932E+00  6.6865E+00  2.8129E-01
 65  3.2927E+01  3.1892E+01  2.2683E+01  3.3379E+00  2.7266E+01  2.7391E+01  3.2525E+01  2.9244E+01  2.9741E+01
 66  0.0000E+00  3.8510E+01  1.6072E+01  0.0000E+00  2.1766E+01  3.2725E+01  3.2939E+01  2.9989E+01  0.0000E+00

# AV, chi2 & Mass for <> & i_chain = 1 ...  7 solutions
AV       0.3465     -0.5208     -0.3430     -0.4184     -0.4176     -0.4345     -0.4340     -0.3863     -0.3932
chi2 2.0586E-05  3.2447E-05  3.0050E-05  3.0574E-05  3.1000E-05  2.9948E-05  3.0090E-05  2.9887E-05  2.9689E-05
Mass 8.5292E-14  6.6060E-14  6.2750E-14  4.1330E-14  7.4346E-14  8.2445E-14  7.9945E-14  8.2331E-14  6.8404E-14
  18.43                                  [v0_min (km/s) before EX0s...]
 318.32                                  [vd_min (km/s) before EX0s...]


## Synthetic spectrum (Best Model) ##l_obs f_obs f_syn wei
 3478    [Nl_obs]
 3741.00    0.36917   0.79548    0.000
 3742.00    0.79007   0.79853    0.000
 3743.00    1.41389   0.79652    0.000
 3744.00    1.77898   0.79001    0.000
 3745.00    1.99334   0.77898    0.040
 3746.00    1.38156   0.76547    0.040
 3747.00    0.35025   0.75185    0.039
 3748.00   -0.15256   0.74049    0.000
 3749.00   -0.42296   0.73302    0.000
 3750.00   -0.28602   0.73038    0.000
 3751.00    0.00472   0.73367    0.037
 3752.00    0.35920   0.74256    0.037
 3753.00    0.73412   0.75619    0.037
 3754.00    0.58600   0.77245    0.036
 3755.00    0.29772   0.78970    0.035
 3756.00    0.66848   0.80724    0.035
 3757.00    1.18389   0.82274    0.034
 3758.00    0.97947   0.83491    0.034
 3759.00    0.64940   0.84343    0.034
 3760.00    0.65986   0.84772    0.036
 3761.00    0.71555   0.84775    0.038
 3762.00    0.87494   0.84356    0.035
 3763.00    1.04407   0.83483    0.033
 3764.00    0.65975   0.82234    0.032
 3765.00    0.24349   0.80735    0.032
 3766.00    0.27028   0.79037    0.032
 3767.00    0.31200   0.77283    0.032
 3768.00    0.88959   0.75738    0.032
 3769.00    1.45106   0.74606    0.032
 3770.00    1.62097   0.73960    0.033
 3771.00    1.72368   0.73911    0.033
 3772.00    0.94595   0.74489    0.033
 3773.00    0.27280   0.75670    0.032
 3774.00    0.51782   0.77380    0.033
 3775.00    0.75753   0.79336    0.033
 3776.00    0.96278   0.81457    0.033
 3777.00    1.02608   0.83649    0.033
 3778.00    0.37095   0.85637    0.032
 3779.00    0.02248   0.87381    0.032
 3780.00    0.92923   0.88834    0.033
 3781.00    1.46404   0.89927    0.035
 3782.00    0.73730   0.90685    0.034
 3783.00    0.15321   0.91076    0.033
 3784.00   -0.02290   0.91127    0.000
 3785.00    0.02437   0.90865    0.035
 3786.00    0.61738   0.90280    0.035
 3787.00    1.16905   0.89371    0.035
 3788.00    1.63359   0.88158    0.035
 3789.00    1.78920   0.86665    0.035
 3790.00    1.37896   0.84866    0.034
 3791.00    1.01708   0.82786    0.033
 3792.00    0.73259   0.80527    0.033
 3793.00    0.53690   0.78170    0.032
 3794.00    0.46596   0.75820    0.031
 3795.00    0.44264   0.73706    0.031
 3796.00    0.47816   0.72056    0.030
 3797.00    0.77802   0.70990    0.030
 3798.00    1.36588   0.70585    0.031
 3799.00    1.51192   0.70877    0.032
 3800.00    1.23337   0.71872    0.032
 3801.00    0.87966   0.73483    0.032
 3802.00    0.46227   0.75471    0.031
 3803.00    0.26328   0.77608    0.031
 3804.00    0.22726   0.79881    0.031
 3805.00    0.11099   0.82116    0.032
 3806.00   -0.05790   0.84085    0.000
 3807.00    0.26386   0.85827    0.032
 3808.00    0.86716   0.87264    0.032
 3809.00    1.01732   0.88416    0.032
 3810.00    0.94099   0.89285    0.032
 3811.00    0.88634   0.89762    0.032
 3812.00    0.84106   0.89961    0.033
 3813.00    0.68042   0.89874    0.032
 3814.00    0.47700   0.89500    0.031
 3815.00    1.07040   0.88919    0.032
 3816.00    1.91428   0.88048    0.034
 3817.00    1.36146   0.87222    0.033
 3818.00    0.44225   0.86563    0.031
 3819.00    0.24091   0.85863    0.031
 3820.00    0.19337   0.85357    0.031
 3821.00    0.70629   0.84925    0.031
 3822.00    1.31432   0.84606    0.031
 3823.00    1.35585   0.84435    0.031
 3824.00    1.32468   0.84019    0.031
 3825.00    0.35685   0.83435    0.031
 3826.00   -0.69506   0.82599    0.000
 3827.00   -0.21053   0.81376    0.000
 3828.00    0.35659   0.79824    0.030
 3829.00    0.65468   0.77881    0.030
 3830.00    0.93763   0.75728    0.030
 3831.00    0.39834   0.73475    0.030
 3832.00   -0.11777   0.71248    0.000
 3833.00   -0.11886   0.69405    0.000
 3834.00   -0.10919   0.68001    0.000
 3835.00    0.03418   0.67172    0.030
 3836.00    0.17386   0.67125    0.030
 3837.00    0.28232   0.67743    0.030
 3838.00    0.41346   0.69091    0.031
 3839.00    0.68718   0.71007    0.031
 3840.00    0.90382   0.73235    0.030
 3841.00    0.83878   0.75713    0.031
 3842.00    0.78290   0.78187    0.032
 3843.00    0.76362   0.80520    0.032
 3844.00    0.81517   0.82643    0.032
 3845.00    1.10217   0.84459    0.032
 3846.00    1.36373   0.85971    0.032
 3847.00    1.55381   0.87165    0.000
 3848.00    1.75281   0.88086    0.000
 3849.00    1.97324   0.88810    0.000
 3850.00    1.81881   0.89314    0.000
 3851.00    0.88699   0.89648    0.000
 3852.00    0.37791   0.89872    0.000
 3853.00    0.63129   0.89978    0.000
 3854.00    1.05555   0.90065    0.000
 3855.00    1.74928   0.90085    0.000
 3856.00    1.75664   0.90018    0.000
 3857.00    0.81381   0.89954    0.000
 3858.00    0.40244   0.89880    0.000
 3859.00    0.63864   0.89811    0.000
 3860.00    0.71861   0.89721    0.000
 3861.00    0.63075   0.89612    0.000
 3862.00    0.44631   0.89492    0.000
 3863.00    0.17035   0.89384    0.000
 3864.00    0.10469   0.89208    0.000
 3865.00    0.21472   0.89023    0.000
 3866.00    0.48064   0.88867    0.000
 3867.00    0.86122   0.88612    0.000
 3868.00    0.89441   0.88346    0.000
 3869.00    0.70320   0.88040    0.000
 3870.00    0.62494   0.87761    0.000
 3871.00    0.61049   0.87507    0.000
 3872.00    0.77803   0.87141    0.000
 3873.00    1.03508   0.86733    0.000
 3874.00    0.89091   0.86314    0.000
 3875.00    0.57614   0.85846    0.000
 3876.00    0.39835   0.85257    0.000
 3877.00    0.27047   0.84521    0.000
 3878.00    0.64170   0.83587    0.000
 3879.00    1.16679   0.82454    0.000
 3880.00    1.46330   0.81115    0.000
 3881.00    1.70112   0.79520    0.029
 3882.00    1.16899   0.77689    0.029
 3883.00    0.47588   0.75660    0.029
 3884.00    0.28258   0.73529    0.029
 3885.00    0.17169   0.71431    0.029
 3886.00    0.38406   0.69533    0.029
 3887.00    0.63645   0.68053    0.029
 3888.00    0.78608   0.67064    0.030
 3889.00    0.92692   0.66703    0.030
 3890.00    0.52566   0.67011    0.030
 3891.00    0.09739   0.67948    0.029
 3892.00    0.16179   0.69517    0.029
 3893.00    0.23966   0.71469    0.030
 3894.00    0.66536   0.73645    0.029
 3895.00    1.07236   0.75872    0.029
 3896.00    1.09663   0.78019    0.029
 3897.00    1.09576   0.80048    0.029
 3898.00    0.79757   0.81842    0.027
 3899.00    0.58386   0.83398    0.026
 3900.00    1.05835   0.84701    0.026
 3901.00    1.39098   0.85797    0.026
 3902.00    0.85707   0.86729    0.025
 3903.00    0.41078   0.87497    0.024
 3904.00    0.38607   0.88153    0.024
 3905.00    0.43997   0.88687    0.024
 3906.00    0.80172   0.89155    0.024
 3907.00    1.07228   0.89540    0.024
 3908.00    1.04555   0.89834    0.024
 3909.00    0.84915   0.90090    0.025
 3910.00    0.18482   0.90280    0.025
 3911.00   -0.27714   0.90369    0.000
 3912.00   -0.26122   0.90379    0.000
 3913.00   -0.04179   0.90277    0.000
 3914.00    0.59301   0.90085    0.027
 3915.00    0.91941   0.89808    0.027
 3916.00    0.69807   0.89400    0.027
 3917.00    0.64047   0.88961    0.028
 3918.00    0.83729   0.88465    0.028
 3919.00    1.01212   0.87995    0.028
 3920.00    1.15696   0.87506    0.028
 3921.00    1.12674   0.86997    0.028
 3922.00    0.88624   0.86610    0.028
 3923.00    0.87006   0.86200    0.028
 3924.00    1.09146   0.85882    0.028
 3925.00    0.93015   0.85577    0.028
 3926.00    0.41133   0.85200    0.029
 3927.00    0.26440   0.84941    0.029
 3928.00    0.42374   0.84624    0.029
 3929.00    0.38017   0.84357    0.029
 3930.00    0.18950   0.84160    0.029
 3931.00    0.40026   0.83962    0.029
 3932.00    0.86649   0.83901    0.030
 3933.00    1.32277   0.83891    0.030
 3934.00    1.77350   0.83980    0.030
 3935.00    1.47814   0.84179    0.030
 3936.00    0.82161   0.84455    0.029
 3937.00    0.50592   0.84835    0.028
 3938.00    0.33273   0.85233    0.028
 3939.00    0.37060   0.85624    0.028
 3940.00    0.48397   0.86011    0.028
 3941.00    0.88491   0.86336    0.028
 3942.00    1.37276   0.86640    0.028
 3943.00    1.23246   0.86908    0.028
 3944.00    0.93440   0.87098    0.028
 3945.00    1.14675   0.87266    0.028
 3946.00    1.46318   0.87394    0.028
 3947.00    1.16509   0.87490    0.028
 3948.00    0.76861   0.87570    0.027
 3949.00    0.68401   0.87559    0.027
 3950.00    0.63666   0.87475    0.027
 3951.00    0.93925   0.87326    0.027
 3952.00    1.27034   0.87081    0.027
 3953.00    1.08297   0.86733    0.027
 3954.00    0.87177   0.86247    0.027
 3955.00    1.04849   0.85626    0.027
 3956.00    1.22858   0.84845    0.027
 3957.00    1.32594   0.83893    0.027
 3958.00    1.39153   0.82703    0.027
 3959.00    0.85520   0.81265    0.027
 3960.00    0.36867   0.79608    0.000
 3961.00    0.44342   0.77655    0.000
 3962.00    0.53141   0.75484    0.000
 3963.00    0.72349   0.73132    0.000
 3964.00    0.93304   0.70632    0.000
 3965.00    1.24622   0.68184    0.000
 3966.00    1.50728   0.65842    0.000
 3967.00    1.52359   0.63792    0.000
 3968.00    1.51723   0.62281    0.000
 3969.00    1.42397   0.61301    0.000
 3970.00    1.35702   0.60975    0.000
 3971.00    1.37420   0.61372    0.000
 3972.00    1.01954   0.62442    0.000
 3973.00   -0.34221   0.64182    0.000
 3974.00   -1.76439   0.66369    0.000
 3975.00   -3.32693   0.68782    0.000
 3976.00   -3.59507   0.71314    0.000
 3977.00   -1.26335   0.73811    0.000
 3978.00    0.40376   0.76154    0.000
 3979.00    0.90837   0.78269    0.000
 3980.00    1.17393   0.80108    0.000
 3981.00    1.07350   0.81682    0.029
 3982.00    1.03936   0.83021    0.029
 3983.00    1.09436   0.84131    0.029
 3984.00    1.11599   0.85053    0.029
 3985.00    1.09812   0.85843    0.029
 3986.00    1.21240   0.86523    0.029
 3987.00    1.46469   0.87106    0.028
 3988.00    1.41571   0.87583    0.027
 3989.00    1.08926   0.87956    0.027
 3990.00    0.96131   0.88261    0.027
 3991.00    0.99452   0.88478    0.026
 3992.00    1.06909   0.88622    0.025
 3993.00    1.17320   0.88741    0.026
 3994.00    0.95048   0.88813    0.025
 3995.00    0.52283   0.88864    0.025
 3996.00    0.46841   0.88892    0.025
 3997.00    0.61854   0.88905    0.025
 3998.00    0.92501   0.88933    0.025
 3999.00    1.30596   0.88937    0.026
 4000.00    1.26310   0.88873    0.026
 4001.00    1.04605   0.88788    0.026
 4002.00    1.10832   0.88631    0.026
 4003.00    1.26871   0.88422    0.026
 4004.00    1.25960   0.88169    0.025
 4005.00    1.20028   0.87890    0.025
 4006.00    1.12483   0.87642    0.025
 4007.00    1.04542   0.87432    0.025
 4008.00    1.33469   0.87350    0.026
 4009.00    1.69726   0.87353    0.026
 4010.00    1.30343   0.87470    0.025
 4011.00    0.79207   0.87646    0.025
 4012.00    0.67477   0.87931    0.025
 4013.00    0.60278   0.88294    0.026
 4014.00    0.74310   0.88575    0.026
 4015.00    0.89983   0.88808    0.027
 4016.00    0.69067   0.88902    0.027
 4017.00    0.46610   0.88891    0.026
 4018.00    0.82061   0.88732    0.027
 4019.00    1.16447   0.88368    0.027
 4020.00    0.81036   0.87859    0.027
 4021.00    0.50127   0.87202    0.027
 4022.00    0.98595   0.86518    0.026
 4023.00    1.41268   0.85795    0.026
 4024.00    1.21585   0.85164    0.027
 4025.00    1.03757   0.84667    0.027
 4026.00    1.00000   0.84268    0.027
 4027.00    0.93495   0.84093    0.027
 4028.00    0.71134   0.84069    0.027
 4029.00    0.50512   0.84352    0.026
 4030.00    0.37853   0.84788    0.026
 4031.00    0.39951   0.85235    0.026
 4032.00    0.97402   0.85720    0.026
 4033.00    1.44159   0.86196    0.026
 4034.00    1.57389   0.86718    0.026
 4035.00    1.52519   0.87173    0.026
 4036.00    0.99500   0.87561    0.025
 4037.00    0.76115   0.87873    0.025
 4038.00    1.20398   0.88100    0.025
 4039.00    1.46160   0.88234    0.025
 4040.00    1.35307   0.88243    0.026
 4041.00    1.35043   0.88144    0.026
 4042.00    1.53020   0.88016    0.026
 4043.00    1.58455   0.87847    0.025
 4044.00    1.44972   0.87717    0.025
 4045.00    1.28589   0.87618    0.025
 4046.00    1.08363   0.87529    0.025
 4047.00    1.03782   0.87520    0.025
 4048.00    1.17466   0.87556    0.025
 4049.00    1.12332   0.87660    0.025
 4050.00    0.87823   0.87755    0.025
 4051.00    0.90138   0.87815    0.025
 4052.00    1.16813   0.87822    0.025
 4053.00    1.31343   0.87787    0.025
 4054.00    1.36152   0.87687    0.025
 4055.00    1.26256   0.87534    0.025
 4056.00    1.06004   0.87355    0.025
 4057.00    0.94519   0.87135    0.025
 4058.00    0.88450   0.86916    0.024
 4059.00    0.89912   0.86677    0.024
 4060.00    0.95438   0.86450    0.025
 4061.00    1.03410   0.86241    0.025
 4062.00    1.12527   0.86037    0.025
 4063.00    1.07608   0.85852    0.025
 4064.00    0.97018   0.85655    0.025
 4065.00    0.77540   0.85444    0.025
 4066.00    0.54996   0.85234    0.025
 4067.00    0.47687   0.85046    0.025
 4068.00    0.44803   0.84863    0.025
 4069.00    0.76529   0.84627    0.025
 4070.00    1.16568   0.84392    0.025
 4071.00    1.18414   0.84167    0.025
 4072.00    1.12860   0.83940    0.025
 4073.00    1.05530   0.83779    0.025
 4074.00    0.97932   0.83646    0.025
 4075.00    0.97297   0.83641    0.025
 4076.00    0.97432   0.83684    0.026
 4077.00    1.13480   0.83701    0.025
 4078.00    1.30693   0.83788    0.025
 4079.00    1.09941   0.83915    0.025
 4080.00    0.87735   0.84056    0.025
 4081.00    0.91921   0.84175    0.026
 4082.00    0.96058   0.84261    0.026
 4083.00    0.92856   0.84282    0.026
 4084.00    0.91295   0.84192    0.026
 4085.00    1.16764   0.84036    0.025
 4086.00    1.36545   0.83784    0.025
 4087.00    0.97790   0.83430    0.025
 4088.00    0.65627   0.82974    0.025
 4089.00    0.81845   0.82371    0.025
 4090.00    0.89441   0.81560    0.025
 4091.00    0.48667   0.80525    0.025
 4092.00    0.20132   0.79295    0.000
 4093.00    0.46360   0.77839    0.000
 4094.00    0.69018   0.76134    0.000
 4095.00    0.78565   0.74223    0.000
 4096.00    0.85020   0.72205    0.000
 4097.00    0.81963   0.70152    0.000
 4098.00    0.84993   0.68228    0.000
 4099.00    1.03929   0.66567    0.000
 4100.00    1.10363   0.65300    0.000
 4101.00    0.88718   0.64489    0.000
 4102.00    0.73808   0.64185    0.000
 4103.00    0.72003   0.64406    0.000
 4104.00    0.75730   0.65197    0.000
 4105.00    0.88842   0.66540    0.000
 4106.00    0.94104   0.68156    0.000
 4107.00    0.87697   0.69938    0.000
 4108.00    0.83675   0.71784    0.000
 4109.00    0.82771   0.73539    0.000
 4110.00    0.94436   0.75147    0.000
 4111.00    1.20569   0.76558    0.000
 4112.00    1.21102   0.77768    0.000
 4113.00    0.95649   0.78728    0.023
 4114.00    0.80723   0.79469    0.023
 4115.00    0.75223   0.80034    0.023
 4116.00    0.63356   0.80428    0.023
 4117.00    0.46467   0.80734    0.023
 4118.00    0.38264   0.80958    0.023
 4119.00    0.36090   0.81173    0.023
 4120.00    0.51169   0.81376    0.023
 4121.00    0.76747   0.81555    0.023
 4122.00    0.77490   0.81780    0.035
 4123.00    0.65040   0.82017    0.147
 4124.00    0.59494   0.82312   -1.000
 4125.00    0.57130   0.82555   -1.000
 4126.00    0.49488   0.82713   -1.000
 4127.00    0.39749   0.82829   -1.000
 4128.00    0.37175   0.82858   -1.000
 4129.00    0.37026   0.82849   -1.000
 4130.00    0.50624   0.82804    0.060
 4131.00    0.68133   0.82802    0.026
 4132.00    0.71251   0.82774    0.024
 4133.00    0.70990   0.82760    0.024
 4134.00    0.77967   0.82754    0.024
 4135.00    0.86310   0.82746    0.024
 4136.00    0.84191   0.82708    0.024
 4137.00    0.80544   0.82589    0.024
 4138.00    0.55059   0.82370    0.024
 4139.00    0.27254   0.82064    0.024
 4140.00    0.67219   0.81753    0.024
 4141.00    1.11872   0.81419    0.024
 4142.00    1.07781   0.81094    0.024
 4143.00    1.02009   0.80837    0.024
 4144.00    1.16947   0.80643    0.024
 4145.00    1.31349   0.80532    0.025
 4146.00    1.26688   0.80583    0.024
 4147.00    1.21544   0.80841    0.024
 4148.00    1.08939   0.81107    0.024
 4149.00    0.97623   0.81388    0.024
 4150.00    0.99005   0.81668    0.024
 4151.00    1.00903   0.81899    0.024
 4152.00    1.06467   0.82111    0.024
 4153.00    1.10734   0.82327    0.024
 4154.00    1.07920   0.82540    0.024
 4155.00    1.07400   0.82703    0.023
 4156.00    1.16905   0.82894    0.023
 4157.00    1.14737   0.83074    0.023
 4158.00    0.70582   0.83229    0.023
 4159.00    0.40475   0.83362    0.023
 4160.00    0.52759   0.83466    0.023
 4161.00    0.64963   0.83524    0.023
 4162.00    0.76965   0.83499    0.023
 4163.00    0.87998   0.83426    0.023
 4164.00    0.96887   0.83288    0.023
 4165.00    0.95187   0.83129    0.023
 4166.00    0.73203   0.82917    0.022
 4167.00    0.60000   0.82676    0.022
 4168.00    0.61476   0.82444    0.022
 4169.00    0.69477   0.82218    0.022
 4170.00    0.87038   0.82004    0.022
 4171.00    0.98180   0.81829    0.022
 4172.00    1.01057   0.81709    0.022
 4173.00    0.87612   0.81621    0.022
 4174.00    0.55647   0.81550    0.022
 4175.00    0.52406   0.81545    0.022
 4176.00    0.77915   0.81584    0.022
 4177.00    0.99006   0.81646    0.022
 4178.00    1.16196   0.81737    0.022
 4179.00    1.07989   0.81821    0.022
 4180.00    0.80028   0.81894    0.022
 4181.00    0.68260   0.81963    0.022
 4182.00    0.67565   0.81996    0.021
 4183.00    0.52969   0.82014    0.021
 4184.00    0.30042   0.81985    0.022
 4185.00    0.31073   0.81966    0.022
 4186.00    0.44635   0.81936    0.022
 4187.00    0.63618   0.81893    0.022
 4188.00    0.85060   0.81881    0.022
 4189.00    0.79031   0.81834    0.022
 4190.00    0.62282   0.81826    0.022
 4191.00    0.49299   0.81798    0.022
 4192.00    0.37568   0.81757    0.022
 4193.00    0.25021   0.81712    0.022
 4194.00    0.12248   0.81614    0.022
 4195.00    0.51445   0.81518    0.022
 4196.00    1.02565   0.81373    0.022
 4197.00    1.25672   0.81219    0.023
 4198.00    1.43631   0.81072    0.023
 4199.00    0.98349   0.80967    0.023
 4200.00    0.44124   0.80901    0.022
 4201.00    0.53697   0.80900    0.022
 4202.00    0.69774   0.80966    0.022
 4203.00    0.60274   0.81080    0.022
 4204.00    0.49108   0.81237    0.022
 4205.00    0.62247   0.81420    0.022
 4206.00    0.76104   0.81620    0.022
 4207.00    0.70574   0.81786    0.022
 4208.00    0.65159   0.81936    0.023
 4209.00    0.63120   0.82035    0.022
 4210.00    0.61779   0.82090    0.022
 4211.00    0.70622   0.82099    0.023
 4212.00    0.78859   0.82073    0.023
 4213.00    0.81362   0.82017    0.023
 4214.00    0.83159   0.81963    0.022
 4215.00    0.80102   0.81859    0.022
 4216.00    0.75118   0.81767    0.022
 4217.00    0.59899   0.81610    0.022
 4218.00    0.51492   0.81433    0.022
 4219.00    0.72175   0.81228    0.022
 4220.00    0.83873   0.80939    0.022
 4221.00    0.63913   0.80621    0.022
 4222.00    0.48737   0.80222    0.021
 4223.00    0.47730   0.79838    0.022
 4224.00    0.40693   0.79430    0.022
 4225.00    0.18437   0.79084    0.021
 4226.00    0.15518   0.78805    0.021
 4227.00    0.54616   0.78617    0.021
 4228.00    0.72412   0.78545    0.021
 4229.00    0.50033   0.78559    0.021
 4230.00    0.42806   0.78697    0.020
 4231.00    0.60525   0.78878    0.020
 4232.00    0.61748   0.79081    0.020
 4233.00    0.39159   0.79290    0.020
 4234.00    0.28737   0.79476    0.019
 4235.00    0.33764   0.79638    0.019
 4236.00    0.49199   0.79801    0.020
 4237.00    0.76282   0.79977    0.020
 4238.00    0.84625   0.80129    0.020
 4239.00    0.74476   0.80302    0.020
 4240.00    0.60045   0.80477    0.020
 4241.00    0.41888   0.80628    0.020
 4242.00    0.46654   0.80759    0.020
 4243.00    0.68994   0.80836    0.020
 4244.00    0.75699   0.80856    0.020
 4245.00    0.71869   0.80815    0.020
 4246.00    0.76855   0.80701    0.021
 4247.00    0.87046   0.80516    0.021
 4248.00    0.97182   0.80261    0.021
 4249.00    1.07288   0.79982    0.022
 4250.00    1.06017   0.79695    0.021
 4251.00    0.99669   0.79426    0.021
 4252.00    0.93977   0.79190    0.021
 4253.00    0.88537   0.79006    0.021
 4254.00    0.70399   0.78900    0.021
 4255.00    0.48122   0.78839    0.020
 4256.00    0.41249   0.78837    0.020
 4257.00    0.38581   0.78901    0.020
 4258.00    0.49514   0.78988    0.020
 4259.00    0.63496   0.79099    0.020
 4260.00    0.71294   0.79165    0.020
 4261.00    0.77987   0.79225    0.021
 4262.00    0.91047   0.79232    0.021
 4263.00    1.04977   0.79191    0.021
 4264.00    1.04280   0.79092    0.021
 4265.00    1.02153   0.78937    0.021
 4266.00    0.97514   0.78725    0.021
 4267.00    0.92721   0.78450    0.021
 4268.00    0.77517   0.78144    0.021
 4269.00    0.61973   0.77799    0.020
 4270.00    0.34925   0.77525    0.020
 4271.00    0.09616   0.77297    0.020
 4272.00    0.30281   0.77121    0.019
 4273.00    0.50735   0.77027    0.019
 4274.00    0.68294   0.76993    0.020
 4275.00    0.81316   0.77055    0.021
 4276.00    0.53124   0.77163    0.021
 4277.00    0.33394   0.77314    0.021
 4278.00    0.70022   0.77480    0.021
 4279.00    0.98597   0.77636    0.021
 4280.00    0.85485   0.77764    0.021
 4281.00    0.72914   0.77838    0.021
 4282.00    0.62610   0.77827   -2.000
 4283.00    0.53852   0.77768   -2.000
 4284.00    0.50434   0.77654   -2.000
 4285.00    0.42707   0.77507   -2.000
 4286.00    0.22455   0.77358   -2.000
 4287.00    0.17588   0.77173   -2.000
 4288.00    0.50879   0.77019   -2.000
 4289.00    0.73350   0.76876   -2.000
 4290.00    0.72692   0.76743   -2.000
 4291.00    0.72728   0.76628   -2.000
 4292.00    0.74054   0.76502   -2.000
 4293.00    0.79299   0.76396   -2.000
 4294.00    0.90899   0.76262   -2.000
 4295.00    0.83077   0.76128   -2.000
 4296.00    0.47622   0.75913   -2.000
 4297.00    0.40949   0.75681   -2.000
 4298.00    0.70298   0.75402    0.021
 4299.00    0.81065   0.75090    0.022
 4300.00    0.71332   0.74780    0.021
 4301.00    0.61838   0.74456    0.021
 4302.00    0.52575   0.74167    0.021
 4303.00    0.46875   0.73924    0.021
 4304.00    0.44231   0.73742    0.021
 4305.00    0.58622   0.73620    0.021
 4306.00    0.85887   0.73595    0.021
 4307.00    0.93935   0.73642    0.021
 4308.00    0.89221   0.73792    0.021
 4309.00    0.90478   0.74046    0.021
 4310.00    0.95207   0.74370    0.022
 4311.00    0.93866   0.74794    0.021
 4312.00    0.89449   0.75266    0.021
 4313.00    0.89077   0.75793    0.020
 4314.00    0.90480   0.76310    0.020
 4315.00    0.77631   0.76793    0.020
 4316.00    0.59414   0.77193    0.021
 4317.00    0.39947   0.77488    0.021
 4318.00    0.20081   0.77668    0.021
 4319.00    0.31944   0.77698    0.021
 4320.00    0.52288   0.77620    0.021
 4321.00    0.59865   0.77395    0.021
 4322.00    0.64648   0.77098    0.021
 4323.00    0.75325   0.76718    0.020
 4324.00    0.87027   0.76333    0.020
 4325.00    0.98033   0.75923    0.020
 4326.00    1.08947   0.75529    0.021
 4327.00    0.93444   0.75118    0.021
 4328.00    0.75473   0.74678    0.021
 4329.00    0.81588   0.74191    0.020
 4330.00    0.89081   0.73580    0.000
 4331.00    0.81759   0.72825    0.000
 4332.00    0.74269   0.71866    0.000
 4333.00    0.87033   0.70692    0.000
 4334.00    0.98608   0.69334    0.000
 4335.00    0.81650   0.67844    0.000
 4336.00    0.66296   0.66318    0.000
 4337.00    0.71827   0.64841    0.000
 4338.00    0.77282   0.63540    0.000
 4339.00    0.82062   0.62513    0.000
 4340.00    0.82639   0.61855    0.000
 4341.00    0.56072   0.61623    0.000
 4342.00    0.34077   0.61818    0.000
 4343.00    0.35148   0.62459    0.000
 4344.00    0.39286   0.63438    0.000
 4345.00    0.55940   0.64676    0.000
 4346.00    0.65947   0.66077    0.000
 4347.00    0.53472   0.67500    0.000
 4348.00    0.48038   0.68872    0.000
 4349.00    0.62700   0.70152    0.000
 4350.00    0.75177   0.71322    0.000
 4351.00    0.82330   0.72367    0.020
 4352.00    0.81182   0.73305    0.019
 4353.00    0.62573   0.74149    0.019
 4354.00    0.54944   0.74904    0.019
 4355.00    0.67386   0.75597    0.019
 4356.00    0.74271   0.76230    0.019
 4357.00    0.72280   0.76824    0.019
 4358.00    0.70821   0.77351    0.025
 4359.00    0.70107   0.77799    0.069
 4360.00    0.73547   0.78182   -1.000
 4361.00    0.82112   0.78478   -1.000
 4362.00    0.89556   0.78705   -1.000
 4363.00    0.95779   0.78844   -1.000
 4364.00    0.97584   0.78924   -1.000
 4365.00    0.95150   0.78940   -1.000
 4366.00    0.96884   0.78878    0.069
 4367.00    1.02145   0.78782    0.024
 4368.00    0.92560   0.78618    0.019
 4369.00    0.71916   0.78453    0.019
 4370.00    0.63131   0.78246    0.019
 4371.00    0.62105   0.78046    0.019
 4372.00    0.61137   0.77848    0.019
 4373.00    0.60202   0.77672    0.019
 4374.00    0.51293   0.77482    0.019
 4375.00    0.38407   0.77291    0.019
 4376.00    0.39972   0.77069    0.019
 4377.00    0.47772   0.76821    0.019
 4378.00    0.54720   0.76512    0.019
 4379.00    0.61352   0.76158    0.019
 4380.00    0.66524   0.75755    0.019
 4381.00    0.71239   0.75320    0.020
 4382.00    0.51697   0.74865    0.019
 4383.00    0.25807   0.74417    0.019
 4384.00    0.31041   0.74040    0.019
 4385.00    0.42922   0.73749    0.019
 4386.00    0.45662   0.73597    0.019
 4387.00    0.46856   0.73564    0.019
 4388.00    0.51477   0.73707    0.019
 4389.00    0.56537   0.73988    0.019
 4390.00    0.54449   0.74396    0.019
 4391.00    0.51723   0.74846    0.018
 4392.00    0.41644   0.75333    0.019
 4393.00    0.31172   0.75849    0.019
 4394.00    0.48028   0.76337    0.019
 4395.00    0.65214   0.76729    0.019
 4396.00    0.65664   0.77062    0.019
 4397.00    0.65954   0.77279    0.019
 4398.00    0.62730   0.77391    0.019
 4399.00    0.58961   0.77401    0.019
 4400.00    0.48451   0.77330    0.019
 4401.00    0.40573   0.77212    0.019
 4402.00    0.54846   0.77024    0.020
 4403.00    0.68033   0.76820    0.020
 4404.00    0.74422   0.76623    0.020
 4405.00    0.78924   0.76468    0.020
 4406.00    0.74146   0.76378    0.020
 4407.00    0.70471   0.76338    0.020
 4408.00    0.71203   0.76330    0.020
 4409.00    0.71220   0.76375    0.020
 4410.00    0.68868   0.76464    0.019
 4411.00    0.67478   0.76561    0.019
 4412.00    0.68783   0.76641    0.019
 4413.00    0.71554   0.76724    0.019
 4414.00    0.77840   0.76806    0.019
 4415.00    0.85038   0.76883    0.019
 4416.00    0.94122   0.76967    0.019
 4417.00    1.03359   0.77074    0.019
 4418.00    1.12871   0.77181    0.020
 4419.00    1.10143   0.77297    0.020
 4420.00    0.88147   0.77440    0.020
 4421.00    0.75909   0.77572    0.020
 4422.00    0.77152   0.77679    0.020
 4423.00    0.78201   0.77758    0.020
 4424.00    0.79013   0.77776    0.020
 4425.00    0.76845   0.77765    0.019
 4426.00    0.71484   0.77702    0.019
 4427.00    0.62173   0.77620    0.019
 4428.00    0.49129   0.77521    0.019
 4429.00    0.49739   0.77406    0.019
 4430.00    0.61737   0.77281    0.019
 4431.00    0.56664   0.77162    0.019
 4432.00    0.39058   0.77059    0.019
 4433.00    0.39138   0.76986    0.020
 4434.00    0.50620   0.76932    0.020
 4435.00    0.58755   0.76920    0.020
 4436.00    0.65003   0.76952    0.020
 4437.00    0.69348   0.77008    0.020
 4438.00    0.72759   0.77095    0.020
 4439.00    0.92667   0.77200    0.020
 4440.00    1.19575   0.77321    0.020
 4441.00    1.05063   0.77451    0.020
 4442.00    0.75497   0.77577    0.020
 4443.00    0.62189   0.77698    0.020
 4444.00    0.53881   0.77794    0.020
 4445.00    0.68162   0.77866    0.020
 4446.00    0.88226   0.77907    0.020
 4447.00    0.82435   0.77918    0.020
 4448.00    0.71256   0.77888    0.020
 4449.00    0.77596   0.77817    0.020
 4450.00    0.86815   0.77684    0.020
 4451.00    0.82456   0.77500    0.020
 4452.00    0.76423   0.77269    0.020
 4453.00    0.67219   0.77011    0.020
 4454.00    0.57746   0.76732    0.019
 4455.00    0.67197   0.76456    0.019
 4456.00    0.77582   0.76204    0.019
 4457.00    0.82806   0.75966    0.019
 4458.00    0.87616   0.75782    0.019
 4459.00    0.71627   0.75619    0.019
 4460.00    0.55885   0.75505    0.019
 4461.00    0.45140   0.75410    0.000
 4462.00    0.36597   0.75322    0.000
 4463.00    0.53922   0.75240    0.000
 4464.00    0.68941   0.75129    0.000
 4465.00    0.65256   0.75014    0.000
 4466.00    0.61984   0.74874    0.000
 4467.00    0.61219   0.74752    0.000
 4468.00    0.60999   0.74650    0.000
 4469.00    0.63395   0.74595    0.000
 4470.00    0.63351   0.74621    0.000
 4471.00    0.53781   0.74723    0.000
 4472.00    0.50748   0.74924    0.000
 4473.00    0.68974   0.75199    0.000
 4474.00    0.83196   0.75536    0.000
 4475.00    0.86405   0.75895    0.000
 4476.00    0.88033   0.76253    0.000
 4477.00    0.85934   0.76589    0.000
 4478.00    0.76106   0.76874    0.000
 4479.00    0.50534   0.77123    0.000
 4480.00    0.40329   0.77311    0.000
 4481.00    0.57363   0.77467    0.000
 4482.00    0.71001   0.77595    0.018
 4483.00    0.79371   0.77728    0.019
 4484.00    0.72733   0.77835    0.019
 4485.00    0.45655   0.77947    0.019
 4486.00    0.47810   0.78024    0.018
 4487.00    0.85017   0.78097    0.018
 4488.00    0.98341   0.78128    0.018
 4489.00    0.86415   0.78149    0.018
 4490.00    0.81057   0.78123    0.018
 4491.00    0.81823   0.78094    0.018
 4492.00    0.87323   0.78052    0.018
 4493.00    0.96714   0.78038    0.018
 4494.00    0.86362   0.78042    0.018
 4495.00    0.61724   0.78101    0.019
 4496.00    0.54938   0.78202    0.018
 4497.00    0.59492   0.78363    0.018
 4498.00    0.73648   0.78560    0.018
 4499.00    0.93138   0.78796    0.018
 4500.00    0.83490   0.79044    0.018
 4501.00    0.59766   0.79303    0.018
 4502.00    0.62725   0.79552    0.018
 4503.00    0.76818   0.79776    0.018
 4504.00    0.73844   0.79953    0.018
 4505.00    0.64780   0.80078    0.018
 4506.00    0.61467   0.80135    0.018
 4507.00    0.59890   0.80130    0.018
 4508.00    0.69914   0.80066    0.018
 4509.00    0.82843   0.79959    0.018
 4510.00    0.73876   0.79808    0.018
 4511.00    0.60458   0.79628    0.018
 4512.00    0.58536   0.79436    0.018
 4513.00    0.58449   0.79245    0.018
 4514.00    0.59378   0.79065    0.018
 4515.00    0.60427   0.78902    0.018
 4516.00    0.54461   0.78749    0.018
 4517.00    0.47926   0.78606    0.018
 4518.00    0.81564   0.78454    0.018
 4519.00    1.17029   0.78289    0.018
 4520.00    0.90557   0.78091    0.018
 4521.00    0.63813   0.77857    0.018
 4522.00    0.62089   0.77575    0.018
 4523.00    0.60436   0.77249    0.018
 4524.00    0.60121   0.76885    0.018
 4525.00    0.59834   0.76504    0.018
 4526.00    0.59862   0.76128    0.018
 4527.00    0.59300   0.75770    0.018
 4528.00    0.54130   0.75472    0.018
 4529.00    0.50605   0.75224    0.017
 4530.00    0.56800   0.75078    0.017
 4531.00    0.61370   0.74999    0.017
 4532.00    0.58335   0.75028    0.017
 4533.00    0.57930   0.75119    0.017
 4534.00    0.67576   0.75291    0.018
 4535.00    0.77591   0.75501    0.018
 4536.00    0.88784   0.75750    0.018
 4537.00    0.91253   0.76006    0.018
 4538.00    0.70144   0.76253    0.018
 4539.00    0.59341   0.76478    0.017
 4540.00    0.72420   0.76656    0.017
 4541.00    0.76477   0.76796    0.017
 4542.00    0.62447   0.76878    0.017
 4543.00    0.52817   0.76917    0.017
 4544.00    0.50868   0.76908    0.017
 4545.00    0.53544   0.76859    0.018
 4546.00    0.63287   0.76784    0.017
 4547.00    0.63295   0.76683    0.017
 4548.00    0.50233   0.76586    0.017
 4549.00    0.48962   0.76493    0.017
 4550.00    0.61630   0.76429    0.000
 4551.00    0.72108   0.76402    0.000
 4552.00    0.80305   0.76417    0.000
 4553.00    0.75089   0.76488    0.000
 4554.00    0.57542   0.76604    0.000
 4555.00    0.46026   0.76776    0.000
 4556.00    0.39397   0.76968    0.000
 4557.00    0.46689   0.77186    0.000
 4558.00    0.63910   0.77391    0.000
 4559.00    0.69076   0.77586    0.000
 4560.00    0.66698   0.77739    0.000
 4561.00    0.66227   0.77852    0.000
 4562.00    0.66799   0.77925    0.000
 4563.00    0.70408   0.77955    0.000
 4564.00    0.75459   0.77959    0.000
 4565.00    0.77562   0.77939    0.000
 4566.00    0.78456   0.77913    0.000
 4567.00    0.77555   0.77876    0.000
 4568.00    0.76025   0.77849    0.000
 4569.00    0.80319   0.77818    0.000
 4570.00    0.86334   0.77795    0.000
 4571.00    0.74388   0.77764    0.000
 4572.00    0.58042   0.77731    0.000
 4573.00    0.51984   0.77684    0.000
 4574.00    0.47965   0.77626    0.000
 4575.00    0.58811   0.77551    0.000
 4576.00    0.71957   0.77462    0.000
 4577.00    0.63873   0.77358    0.000
 4578.00    0.53360   0.77250    0.000
 4579.00    0.61106   0.77140    0.000
 4580.00    0.70255   0.77039    0.000
 4581.00    0.73435   0.76951    0.000
 4582.00    0.76368   0.76882    0.000
 4583.00    0.69065   0.76836    0.000
 4584.00    0.61628   0.76804    0.000
 4585.00    0.52231   0.76790    0.000
 4586.00    0.43524   0.76774    0.000
 4587.00    0.46882   0.76765    0.000
 4588.00    0.49539   0.76732    0.000
 4589.00    0.44697   0.76693    0.000
 4590.00    0.42926   0.76625    0.000
 4591.00    0.64364   0.76548    0.000
 4592.00    0.84028   0.76450    0.000
 4593.00    0.93493   0.76351    0.000
 4594.00    0.97863   0.76250    0.000
 4595.00    0.78949   0.76159    0.000
 4596.00    0.64787   0.76087    0.000
 4597.00    0.68404   0.76034    0.000
 4598.00    0.73175   0.76011    0.000
 4599.00    0.81559   0.76009    0.000
 4600.00    0.86348   0.76047    0.000
 4601.00    0.81592   0.76101    0.000
 4602.00    0.75746   0.76202    0.000
 4603.00    0.67414   0.76316    0.000
 4604.00    0.65142   0.76476    0.000
 4605.00    0.74827   0.76639    0.000
 4606.00    0.74916   0.76838    0.000
 4607.00    0.58505   0.77026    0.000
 4608.00    0.52212   0.77230    0.000
 4609.00    0.61157   0.77409    0.000
 4610.00    0.67864   0.77580    0.000
 4611.00    0.71610   0.77718    0.000
 4612.00    0.72000   0.77831    0.000
 4613.00    0.68479   0.77917    0.000
 4614.00    0.62582   0.77971    0.000
 4615.00    0.54244   0.78011    0.000
 4616.00    0.48426   0.78022    0.000
 4617.00    0.44892   0.78034    0.000
 4618.00    0.49865   0.78022    0.000
 4619.00    0.61634   0.78022    0.000
 4620.00    0.70420   0.77999    0.000
 4621.00    0.77110   0.77989    0.000
 4622.00    0.77655   0.77954    0.000
 4623.00    0.74412   0.77926    0.000
 4624.00    0.71818   0.77869    0.000
 4625.00    0.69573   0.77811    0.000
 4626.00    0.65882   0.77722    0.000
 4627.00    0.61513   0.77625    0.000
 4628.00    0.70714   0.77498    0.000
 4629.00    0.85385   0.77356    0.000
 4630.00    0.84582   0.77189    0.000
 4631.00    0.78455   0.77000    0.000
 4632.00    0.75614   0.76792    0.000
 4633.00    0.73726   0.76558    0.000
 4634.00    0.80360   0.76310    0.000
 4635.00    0.89036   0.76043    0.000
 4636.00    0.92482   0.75769    0.000
 4637.00    0.94918   0.75489    0.000
 4638.00    0.94150   0.75209    0.000
 4639.00    0.92900   0.74938    0.000
 4640.00    0.83459   0.74671    0.000
 4641.00    0.73116   0.74426    0.000
 4642.00    0.79701   0.74185    0.000
 4643.00    0.87516   0.73975    0.000
 4644.00    0.78451   0.73774    0.000
 4645.00    0.68748   0.73620    0.000
 4646.00    0.67536   0.73487    0.000
 4647.00    0.66189   0.73421    0.000
 4648.00    0.58242   0.73394    0.000
 4649.00    0.50898   0.73451    0.000
 4650.00    0.53412   0.73553    0.000
 4651.00    0.57820   0.73739    0.000
 4652.00    0.81622   0.73958    0.000
 4653.00    1.00101   0.74237    0.000
 4654.00    0.79674   0.74521    0.000
 4655.00    0.63168   0.74822    0.000
 4656.00    0.68582   0.75093    0.000
 4657.00    0.73214   0.75332    0.000
 4658.00    0.74357   0.75512    0.000
 4659.00    0.71654   0.75621    0.000
 4660.00    0.54863   0.75656    0.000
 4661.00    0.44595   0.75606    0.000
 4662.00    0.54343   0.75495    0.000
 4663.00    0.63103   0.75318    0.000
 4664.00    0.69288   0.75115    0.000
 4665.00    0.72494   0.74891    0.000
 4666.00    0.69026   0.74689    0.000
 4667.00    0.70456   0.74508    0.000
 4668.00    0.81400   0.74386    0.000
 4669.00    0.88908   0.74304    0.000
 4670.00    0.90597   0.74289    0.000
 4671.00    0.85265   0.74304    0.000
 4672.00    0.69515   0.74367    0.000
 4673.00    0.65220   0.74430    0.000
 4674.00    0.75864   0.74515    0.000
 4675.00    0.80120   0.74572    0.000
 4676.00    0.77036   0.74630    0.000
 4677.00    0.72503   0.74650    0.000
 4678.00    0.66502   0.74665    0.000
 4679.00    0.65845   0.74648    0.000
 4680.00    0.69964   0.74631    0.000
 4681.00    0.70129   0.74599    0.000
 4682.00    0.67180   0.74575    0.000
 4683.00    0.66741   0.74551    0.000
 4684.00    0.68042   0.74541    0.000
 4685.00    0.69929   0.74538    0.000
 4686.00    0.72172   0.74551    0.000
 4687.00    0.67433   0.74570    0.000
 4688.00    0.58991   0.74600    0.000
 4689.00    0.60406   0.74629    0.000
 4690.00    0.66357   0.74657    0.000
 4691.00    0.66883   0.74674    0.000
 4692.00    0.65259   0.74674    0.000
 4693.00    0.62434   0.74652    0.000
 4694.00    0.59203   0.74597    0.000
 4695.00    0.60465   0.74515    0.000
 4696.00    0.63001   0.74394    0.000
 4697.00    0.63834   0.74252    0.000
 4698.00    0.64268   0.74080    0.000
 4699.00    0.66056   0.73903    0.000
 4700.00    0.68098   0.73714    0.000
 4701.00    0.74473   0.73543    0.000
 4702.00    0.81478   0.73375    0.000
 4703.00    0.67745   0.73244    0.000
 4704.00    0.51819   0.73120    0.000
 4705.00    0.47683   0.73045    0.000
 4706.00    0.44356   0.72970    0.000
 4707.00    0.52913   0.72953    0.000
 4708.00    0.61876   0.72928    0.000
 4709.00    0.68741   0.72971    0.000
 4710.00    0.75165   0.73004    0.000
 4711.00    0.67374   0.73116    0.000
 4712.00    0.59883   0.73221    0.000
 4713.00    0.56990   0.73413    0.000
 4714.00    0.53688   0.73596    0.000
 4715.00    0.46376   0.73856    0.000
 4716.00    0.42434   0.74096    0.000
 4717.00    0.62330   0.74381    0.000
 4718.00    0.79916   0.74623    0.000
 4719.00    0.84939   0.74863    0.000
 4720.00    0.86536   0.75035    0.000
 4721.00    0.73204   0.75164    0.000
 4722.00    0.61180   0.75211    0.000
 4723.00    0.53848   0.75197    0.000
 4724.00    0.50502   0.75111    0.000
 4725.00    0.59155   0.74976    0.000
 4726.00    0.67369   0.74799    0.000
 4727.00    0.74461   0.74610    0.000
 4728.00    0.79932   0.74417    0.000
 4729.00    0.81826   0.74252    0.000
 4730.00    0.80095   0.74114    0.000
 4731.00    0.71434   0.74029    0.000
 4732.00    0.64885   0.73979    0.000
 4733.00    0.61857   0.73984    0.000
 4734.00    0.62668   0.74015    0.000
 4735.00    0.69089   0.74083    0.000
 4736.00    0.77131   0.74161    0.000
 4737.00    0.87255   0.74255    0.000
 4738.00    0.87382   0.74348    0.000
 4739.00    0.76185   0.74442    0.000
 4740.00    0.67428   0.74532    0.000
 4741.00    0.61107   0.74617    0.000
 4742.00    0.64837   0.74697    0.000
 4743.00    0.77422   0.74770    0.000
 4744.00    0.79879   0.74833    0.000
 4745.00    0.74472   0.74885    0.000
 4746.00    0.77645   0.74918    0.000
 4747.00    0.86676   0.74935    0.000
 4748.00    0.88871   0.74920    0.000
 4749.00    0.86974   0.74888    0.000
 4750.00    0.82818   0.74815    0.000
 4751.00    0.77481   0.74729    0.000
 4752.00    0.74594   0.74602    0.000
 4753.00    0.72815   0.74470    0.000
 4754.00    0.76532   0.74303    0.000
 4755.00    0.82388   0.74137    0.000
 4756.00    0.82724   0.73944    0.000
 4757.00    0.81230   0.73756    0.000
 4758.00    0.80096   0.73548    0.000
 4759.00    0.79062   0.73350    0.000
 4760.00    0.86911   0.73142    0.000
 4761.00    0.96792   0.72952    0.016
 4762.00    0.82365   0.72766    0.016
 4763.00    0.63486   0.72613    0.016
 4764.00    0.61944   0.72483    0.016
 4765.00    0.62843   0.72396    0.016
 4766.00    0.58747   0.72348    0.016
 4767.00    0.54144   0.72342    0.016
 4768.00    0.61435   0.72375    0.016
 4769.00    0.69494   0.72439    0.016
 4770.00    0.69344   0.72529    0.016
 4771.00    0.68951   0.72629    0.016
 4772.00    0.71164   0.72731    0.016
 4773.00    0.73481   0.72822    0.016
 4774.00    0.78817   0.72894    0.016
 4775.00    0.83677   0.72938    0.016
 4776.00    0.81649   0.72950    0.016
 4777.00    0.79502   0.72927    0.016
 4778.00    0.76220   0.72872    0.016
 4779.00    0.72838   0.72787    0.016
 4780.00    0.68770   0.72683    0.015
 4781.00    0.66333   0.72565    0.015
 4782.00    0.72535   0.72448    0.015
 4783.00    0.77380   0.72340    0.015
 4784.00    0.76451   0.72256    0.015
 4785.00    0.76275   0.72200    0.015
 4786.00    0.78750   0.72184    0.015
 4787.00    0.76796   0.72207    0.015
 4788.00    0.61763   0.72274    0.015
 4789.00    0.54337   0.72376    0.015
 4790.00    0.66065   0.72509    0.015
 4791.00    0.74652   0.72661    0.015
 4792.00    0.76427   0.72820    0.015
 4793.00    0.74130   0.72975    0.015
 4794.00    0.64169   0.73111    0.015
 4795.00    0.58187   0.73224    0.015
 4796.00    0.58743   0.73304    0.015
 4797.00    0.62589   0.73351    0.015
 4798.00    0.71175   0.73366    0.015
 4799.00    0.76057   0.73349    0.015
 4800.00    0.76242   0.73312    0.015
 4801.00    0.74281   0.73250    0.015
 4802.00    0.69923   0.73182    0.015
 4803.00    0.62056   0.73099    0.015
 4804.00    0.50731   0.73020    0.015
 4805.00    0.59405   0.72936    0.015
 4806.00    0.85453   0.72862    0.015
 4807.00    0.84801   0.72795    0.015
 4808.00    0.63717   0.72742    0.015
 4809.00    0.59937   0.72706    0.015
 4810.00    0.67798   0.72685    0.015
 4811.00    0.72735   0.72685    0.015
 4812.00    0.75950   0.72696    0.015
 4813.00    0.72163   0.72723    0.015
 4814.00    0.64779   0.72754    0.015
 4815.00    0.66190   0.72786    0.015
 4816.00    0.71516   0.72810    0.015
 4817.00    0.70297   0.72818    0.015
 4818.00    0.66575   0.72809    0.015
 4819.00    0.58880   0.72772    0.015
 4820.00    0.49894   0.72715    0.015
 4821.00    0.55642   0.72630    0.015
 4822.00    0.65402   0.72529    0.015
 4823.00    0.75281   0.72412    0.015
 4824.00    0.85188   0.72287    0.015
 4825.00    0.78681   0.72164    0.015
 4826.00    0.69250   0.72038    0.015
 4827.00    0.73187   0.71930    0.015
 4828.00    0.78946   0.71823    0.015
 4829.00    0.76832   0.71740    0.015
 4830.00    0.73953   0.71657    0.015
 4831.00    0.71926   0.71596    0.015
 4832.00    0.69950   0.71531    0.015
 4833.00    0.76133   0.71476    0.015
 4834.00    0.82462   0.71413    0.015
 4835.00    0.76419   0.71347    0.015
 4836.00    0.71304   0.71270    0.015
 4837.00    0.90443   0.71178    0.015
 4838.00    1.06836   0.71076    0.015
 4839.00    0.85764   0.70955    0.015
 4840.00    0.67252   0.70825    0.015
 4841.00    0.71883   0.70674    0.014
 4842.00    0.76747   0.70509    0.014
 4843.00    0.83167   0.70320    0.014
 4844.00    0.86945   0.70103    0.014
 4845.00    0.77097   0.69846    0.014
 4846.00    0.69627   0.69539    0.014
 4847.00    0.72055   0.69169    0.014
 4848.00    0.72961   0.68719    0.000
 4849.00    0.68631   0.68180    0.000
 4850.00    0.64385   0.67531    0.000
 4851.00    0.60384   0.66779    0.000
 4852.00    0.56396   0.65906    0.000
 4853.00    0.52440   0.64947    0.000
 4854.00    0.49453   0.63890    0.000
 4855.00    0.48534   0.62806    0.000
 4856.00    0.50228   0.61689    0.000
 4857.00    0.56764   0.60640    0.000
 4858.00    0.66372   0.59664    0.000
 4859.00    0.80950   0.58869    0.000
 4860.00    0.86119   0.58250    0.000
 4861.00    0.77927   0.57896    0.000
 4862.00    0.71932   0.57775    0.000
 4863.00    0.68682   0.57933    0.000
 4864.00    0.70404   0.58312    0.000
 4865.00    0.77599   0.58908    0.000
 4866.00    0.76835   0.59652    0.000
 4867.00    0.68340   0.60502    0.000
 4868.00    0.64612   0.61409    0.000
 4869.00    0.64967   0.62327    0.000
 4870.00    0.67177   0.63225    0.000
 4871.00    0.70787   0.64080    0.000
 4872.00    0.70726   0.64875    0.000
 4873.00    0.68231   0.65604    0.000
 4874.00    0.62329   0.66264    0.000
 4875.00    0.54449   0.66858    0.014
 4876.00    0.55850   0.67380    0.014
 4877.00    0.61945   0.67828    0.014
 4878.00    0.76752   0.68205    0.014
 4879.00    0.95373   0.68506    0.014
 4880.00    0.89372   0.68742    0.014
 4881.00    0.74117   0.68902    0.014
 4882.00    0.69891   0.69012    0.014
 4883.00    0.69182   0.69062    0.014
 4884.00    0.71700   0.69097    0.014
 4885.00    0.75079   0.69108    0.015
 4886.00    0.72115   0.69136    0.014
 4887.00    0.67768   0.69181    0.014
 4888.00    0.67058   0.69270    0.014
 4889.00    0.66977   0.69405    0.014
 4890.00    0.70856   0.69594    0.014
 4891.00    0.75256   0.69834    0.015
 4892.00    0.70029   0.70109    0.015
 4893.00    0.63907   0.70422    0.014
 4894.00    0.67398   0.70729    0.014
 4895.00    0.71435   0.71040    0.014
 4896.00    0.68547   0.71308    0.015
 4897.00    0.65541   0.71546    0.015
 4898.00    0.66991   0.71720    0.014
 4899.00    0.68472   0.71849    0.014
 4900.00    0.70708   0.71917    0.014
 4901.00    0.72784   0.71939    0.014
 4902.00    0.72806   0.71919    0.014
 4903.00    0.72516   0.71869    0.014
 4904.00    0.69512   0.71797    0.014
 4905.00    0.68363   0.71711    0.014
 4906.00    0.79148   0.71616    0.015
 4907.00    0.84174   0.71511    0.015
 4908.00    0.60239   0.71396    0.015
 4909.00    0.44460   0.71269    0.015
 4910.00    0.61879   0.71118    0.015
 4911.00    0.73578   0.70937    0.015
 4912.00    0.65972   0.70723    0.015
 4913.00    0.60836   0.70451    0.015
 4914.00    0.62728   0.70164    0.015
 4915.00    0.63911   0.69799    0.015
 4916.00    0.63365   0.69468    0.015
 4917.00    0.64303   0.69068    0.015
 4918.00    0.68354   0.68766    0.015
 4919.00    0.73347   0.68424    0.015
 4920.00    0.80060   0.68256    0.015
 4921.00    0.77195   0.68101    0.015
 4922.00    0.59057   0.68136    0.015
 4923.00    0.52444   0.68229    0.015
 4924.00    0.61963   0.68471    0.015
 4925.00    0.64133   0.68771    0.014
 4926.00    0.57252   0.69138    0.014
 4927.00    0.59615   0.69521    0.015
 4928.00    0.72011   0.69878    0.015
 4929.00    0.77016   0.70220    0.015
 4930.00    0.74942   0.70464    0.015
 4931.00    0.72636   0.70656    0.015
 4932.00    0.70135   0.70729    0.014
 4933.00    0.70168   0.70768    0.015
 4934.00    0.72087   0.70716    0.015
 4935.00    0.78128   0.70677    0.015
 4936.00    0.86860   0.70576    0.014
 4937.00    0.80520   0.70538    0.014
 4938.00    0.65563   0.70485    0.015
 4939.00    0.63504   0.70517    0.015
 4940.00    0.67867   0.70557    0.000
 4941.00    0.69189   0.70686    0.000
 4942.00    0.69201   0.70826    0.000
 4943.00    0.77052   0.71022    0.000
 4944.00    0.87798   0.71214    0.000
 4945.00    0.88314   0.71418    0.000
 4946.00    0.85629   0.71588    0.000
 4947.00    0.84407   0.71719    0.000
 4948.00    0.83568   0.71801    0.000
 4949.00    0.81117   0.71806    0.000
 4950.00    0.78323   0.71757    0.000
 4951.00    0.85904   0.71602    0.000
 4952.00    0.95233   0.71416    0.000
 4953.00    0.82514   0.71168    0.000
 4954.00    0.66991   0.70907    0.000
 4955.00    0.69616   0.70618    0.000
 4956.00    0.73852   0.70342    0.000
 4957.00    0.75773   0.70090    0.000
 4958.00    0.77572   0.69866    0.000
 4959.00    0.77290   0.69688    0.000
 4960.00    0.76999   0.69546    0.000
 4961.00    0.79047   0.69457    0.000
 4962.00    0.81024   0.69392    0.000
 4963.00    0.81431   0.69372    0.000
 4964.00    0.80500   0.69365    0.000
 4965.00    0.63156   0.69387    0.000
 4966.00    0.48683   0.69421    0.000
 4967.00    0.58252   0.69465    0.000
 4968.00    0.67031   0.69525    0.000
 4969.00    0.70871   0.69577    0.000
 4970.00    0.75149   0.69634    0.000
 4971.00    0.81579   0.69669    0.000
 4972.00    0.85614   0.69682    0.000
 4973.00    0.80112   0.69661    0.000
 4974.00    0.73857   0.69594    0.000
 4975.00    0.65112   0.69483    0.000
 4976.00    0.60783   0.69312    0.000
 4977.00    0.68796   0.69108    0.000
 4978.00    0.74097   0.68862    0.000
 4979.00    0.72914   0.68608    0.000
 4980.00    0.71729   0.68353    0.000
 4981.00    0.70543   0.68122    0.000
 4982.00    0.71478   0.67922    0.000
 4983.00    0.76224   0.67770    0.000
 4984.00    0.77082   0.67672    0.000
 4985.00    0.71829   0.67617    0.000
 4986.00    0.66758   0.67628    0.000
 4987.00    0.61937   0.67659    0.000
 4988.00    0.59985   0.67736    0.000
 4989.00    0.61517   0.67812    0.000
 4990.00    0.63033   0.67894    0.000
 4991.00    0.64533   0.67958    0.000
 4992.00    0.64121   0.67997    0.000
 4993.00    0.61903   0.67997    0.000
 4994.00    0.59698   0.67948    0.000
 4995.00    0.57503   0.67867    0.000
 4996.00    0.59899   0.67717    0.000
 4997.00    0.65658   0.67570    0.000
 4998.00    0.72339   0.67346    0.000
 4999.00    0.79613   0.67152    0.000
 5000.00    0.76315   0.66888    0.000
 5001.00    0.67067   0.66673    0.000
 5002.00    0.73156   0.66419    0.000
 5003.00    0.86761   0.66222    0.000
 5004.00    0.88164   0.66017    0.000
 5005.00    0.84401   0.65848    0.000
 5006.00    0.81898   0.65678    0.000
 5007.00    0.79852   0.65523    0.000
 5008.00    0.84555   0.65377    0.000
 5009.00    0.91328   0.65215    0.000
 5010.00    0.87694   0.65092    0.000
 5011.00    0.81401   0.64930    0.000
 5012.00    0.73269   0.64844    0.000
 5013.00    0.64755   0.64725    0.000
 5014.00    0.53195   0.64691    0.000
 5015.00    0.41136   0.64641    0.000
 5016.00    0.58449   0.64678    0.000
 5017.00    0.79366   0.64726    0.000
 5018.00    0.68450   0.64836    0.000
 5019.00    0.54843   0.64977    0.000
 5020.00    0.64153   0.65169    0.000
 5021.00    0.74583   0.65366    0.000
 5022.00    0.69739   0.65591    0.000
 5023.00    0.64782   0.65812    0.000
 5024.00    0.67297   0.66033    0.000
 5025.00    0.70040   0.66263    0.000
 5026.00    0.77372   0.66461    0.000
 5027.00    0.83167   0.66657    0.000
 5028.00    0.71001   0.66807    0.000
 5029.00    0.59514   0.66941    0.014
 5030.00    0.53510   0.67003    0.014
 5031.00    0.49161   0.67035    0.014
 5032.00    0.54838   0.66980    0.014
 5033.00    0.59771   0.66919    0.014
 5034.00    0.61149   0.66773    0.014
 5035.00    0.62890   0.66609    0.014
 5036.00    0.66049   0.66392    0.014
 5037.00    0.68726   0.66184    0.014
 5038.00    0.69839   0.65990    0.014
 5039.00    0.66893   0.65854    0.014
 5040.00    0.52803   0.65730    0.014
 5041.00    0.44015   0.65677    0.014
 5042.00    0.47693   0.65660    0.014
 5043.00    0.53462   0.65687    0.014
 5044.00    0.63481   0.65748    0.014
 5045.00    0.70778   0.65832    0.014
 5046.00    0.73256   0.65963    0.014
 5047.00    0.75715   0.66070    0.014
 5048.00    0.78143   0.66227    0.014
 5049.00    0.76909   0.66345    0.014
 5050.00    0.70693   0.66516    0.014
 5051.00    0.66513   0.66626    0.014
 5052.00    0.64770   0.66798    0.014
 5053.00    0.62573   0.66916    0.014
 5054.00    0.59897   0.67102    0.014
 5055.00    0.63701   0.67215    0.014
 5056.00    0.73534   0.67361    0.014
 5057.00    0.70668   0.67462    0.014
 5058.00    0.57379   0.67543    0.014
 5059.00    0.53861   0.67577    0.014
 5060.00    0.57402   0.67551    0.014
 5061.00    0.70831   0.67494    0.014
 5062.00    0.90529   0.67405    0.014
 5063.00    0.86839   0.67287    0.014
 5064.00    0.70184   0.67125    0.014
 5065.00    0.59506   0.66963    0.014
 5066.00    0.51711   0.66795    0.013
 5067.00    0.54775   0.66636    0.013
 5068.00    0.62360   0.66458    0.013
 5069.00    0.61260   0.66322    0.013
 5070.00    0.57069   0.66190    0.014
 5071.00    0.60628   0.66065    0.013
 5072.00    0.66518   0.65942    0.013
 5073.00    0.60908   0.65819    0.013
 5074.00    0.52425   0.65714    0.013
 5075.00    0.58030   0.65555    0.013
 5076.00    0.66490   0.65434    0.014
 5077.00    0.68704   0.65304    0.013
 5078.00    0.69925   0.65208    0.013
 5079.00    0.70923   0.65108    0.013
 5080.00    0.71894   0.65050    0.013
 5081.00    0.68478   0.65032    0.013
 5082.00    0.64710   0.65039    0.013
 5083.00    0.68175   0.65105    0.013
 5084.00    0.71965   0.65182    0.013
 5085.00    0.73831   0.65320    0.013
 5086.00    0.75478   0.65446    0.013
 5087.00    0.67417   0.65608    0.012
 5088.00    0.59728   0.65743    0.012
 5089.00    0.58968   0.65890    0.012
 5090.00    0.58720   0.65995    0.013
 5091.00    0.64176   0.66062    0.013
 5092.00    0.67975   0.66085    0.013
 5093.00    0.58860   0.66061    0.013
 5094.00    0.50899   0.66005    0.013
 5095.00    0.49745   0.65887    0.013
 5096.00    0.49562   0.65779    0.013
 5097.00    0.53919   0.65633    0.013
 5098.00    0.58865   0.65497    0.013
 5099.00    0.66054   0.65341    0.013
 5100.00    0.71370   0.65195    0.013
 5101.00    0.70726   0.65062    0.013
 5102.00    0.69419   0.64944    0.013
 5103.00    0.66325   0.64840    0.013
 5104.00    0.61987   0.64752    0.013
 5105.00    0.54772   0.64704    0.013
 5106.00    0.53523   0.64657    0.013
 5107.00    0.64212   0.64667    0.013
 5108.00    0.68222   0.64687    0.013
 5109.00    0.60596   0.64735    0.013
 5110.00    0.58029   0.64816    0.013
 5111.00    0.63178   0.64904    0.013
 5112.00    0.66315   0.65006    0.013
 5113.00    0.66757   0.65106    0.014
 5114.00    0.67198   0.65199    0.014
 5115.00    0.67637   0.65254    0.014
 5116.00    0.64206   0.65284    0.014
 5117.00    0.56749   0.65249    0.014
 5118.00    0.54274   0.65188    0.014
 5119.00    0.56372   0.65053    0.014
 5120.00    0.57694   0.64887    0.014
 5121.00    0.58387   0.64701    0.014
 5122.00    0.66521   0.64480    0.014
 5123.00    0.79953   0.64269    0.014
 5124.00    0.77027   0.64055    0.014
 5125.00    0.63883   0.63886    0.013
 5126.00    0.66023   0.63724    0.013
 5127.00    0.76508   0.63649    0.014
 5128.00    0.67121   0.63575    0.014
 5129.00    0.48307   0.63581    0.014
 5130.00    0.43257   0.63592    0.014
 5131.00    0.43839   0.63667    0.014
 5132.00    0.53305   0.63726    0.014
 5133.00    0.65877   0.63795    0.014
 5134.00    0.75958   0.63861    0.014
 5135.00    0.85303   0.63877    0.014
 5136.00    0.83804   0.63908    0.014
 5137.00    0.79656   0.63889    0.014
 5138.00    0.69273   0.63844    0.014
 5139.00    0.57657   0.63773    0.013
 5140.00    0.66923   0.63685    0.013
 5141.00    0.79408   0.63578    0.014
 5142.00    0.82415   0.63455    0.013
 5143.00    0.84343   0.63351    0.013
 5144.00    0.69001   0.63217    0.013
 5145.00    0.52343   0.63150    0.013
 5146.00    0.52988   0.63036    0.013
 5147.00    0.54345   0.62995    0.013
 5148.00    0.64726   0.62943    0.013
 5149.00    0.74708   0.62936    0.013
 5150.00    0.64745   0.62959    0.013
 5151.00    0.55308   0.63000    0.013
 5152.00    0.54967   0.63099    0.013
 5153.00    0.55094   0.63180    0.013
 5154.00    0.60199   0.63334    0.013
 5155.00    0.65201   0.63399    0.013
 5156.00    0.69422   0.63520    0.013
 5157.00    0.72006   0.63537    0.013
 5158.00    0.65217   0.63522    0.013
 5159.00    0.59822   0.63420    0.013
 5160.00    0.60776   0.63227    0.013
 5161.00    0.63052   0.62937    0.013
 5162.00    0.70258   0.62543    0.013
 5163.00    0.75179   0.62067    0.013
 5164.00    0.72965   0.61522    0.013
 5165.00    0.66963   0.60968    0.013
 5166.00    0.50924   0.60409    0.013
 5167.00    0.39916   0.59880    0.013
 5168.00    0.40345   0.59381    0.013
 5169.00    0.44643   0.58964    0.013
 5170.00    0.56561   0.58642    0.013
 5171.00    0.60720   0.58445    0.013
 5172.00    0.51566   0.58344    0.013
 5173.00    0.45945   0.58343    0.013
 5174.00    0.45634   0.58404    0.013
 5175.00    0.48390   0.58513    0.013
 5176.00    0.55198   0.58671    0.013
 5177.00    0.59638   0.58823    0.013
 5178.00    0.61321   0.58971    0.013
 5179.00    0.57738   0.59072    0.013
 5180.00    0.48753   0.59185    0.013
 5181.00    0.42911   0.59322    0.013
 5182.00    0.39913   0.59468    0.013
 5183.00    0.46092   0.59662    0.013
 5184.00    0.59588   0.59846    0.013
 5185.00    0.63864   0.60064    0.013
 5186.00    0.61674   0.60298    0.013
 5187.00    0.61392   0.60529    0.013
 5188.00    0.62286   0.60794    0.013
 5189.00    0.67485   0.61028    0.013
 5190.00    0.74998   0.61295    0.000
 5191.00    0.73614   0.61523    0.000
 5192.00    0.68077   0.61799    0.000
 5193.00    0.75473   0.62012    0.000
 5194.00    0.88072   0.62196    0.000
 5195.00    0.88219   0.62353    0.000
 5196.00    0.84092   0.62426    0.000
 5197.00    0.78269   0.62503    0.000
 5198.00    0.71955   0.62464    0.000
 5199.00    0.62752   0.62425    0.000
 5200.00    0.52859   0.62288    0.000
 5201.00    0.66078   0.62149    0.000
 5202.00    0.83746   0.61935    0.000
 5203.00    0.63507   0.61726    0.000
 5204.00    0.37601   0.61507    0.000
 5205.00    0.48078   0.61331    0.000
 5206.00    0.62539   0.61196    0.000
 5207.00    0.65170   0.61123    0.000
 5208.00    0.66947   0.61165    0.000
 5209.00    0.66212   0.61256    0.000
 5210.00    0.65382   0.61480    0.000
 5211.00    0.54377   0.61714    0.013
 5212.00    0.44063   0.62039    0.013
 5213.00    0.60642   0.62367    0.013
 5214.00    0.76298   0.62740    0.013
 5215.00    0.76985   0.63103    0.013
 5216.00    0.77320   0.63428    0.013
 5217.00    0.74075   0.63742    0.013
 5218.00    0.70178   0.63949    0.013
 5219.00    0.61548   0.64125    0.013
 5220.00    0.54576   0.64187    0.013
 5221.00    0.56840   0.64196    0.013
 5222.00    0.59237   0.64132    0.013
 5223.00    0.62226   0.64035    0.013
 5224.00    0.64987   0.63959    0.013
 5225.00    0.66918   0.63889    0.013
 5226.00    0.68768   0.63855    0.013
 5227.00    0.70370   0.63867    0.013
 5228.00    0.72593   0.63881    0.013
 5229.00    0.76433   0.63952    0.013
 5230.00    0.74537   0.64049    0.013
 5231.00    0.59814   0.64174    0.013
 5232.00    0.55760   0.64373    0.013
 5233.00    0.72383   0.64583    0.013
 5234.00    0.80421   0.64836    0.013
 5235.00    0.73948   0.65079    0.013
 5236.00    0.66274   0.65314    0.013
 5237.00    0.56822   0.65498    0.013
 5238.00    0.54165   0.65643    0.013
 5239.00    0.60356   0.65759    0.013
 5240.00    0.65468   0.65810    0.013
 5241.00    0.69344   0.65837    0.013
 5242.00    0.73116   0.65811    0.013
 5243.00    0.76784   0.65738    0.013
 5244.00    0.77666   0.65617    0.013
 5245.00    0.76062   0.65446    0.013
 5246.00    0.71544   0.65274    0.013
 5247.00    0.64735   0.65121    0.013
 5248.00    0.66137   0.64948    0.013
 5249.00    0.73217   0.64818    0.013
 5250.00    0.74958   0.64709    0.013
 5251.00    0.73463   0.64619    0.013
 5252.00    0.73563   0.64574    0.013
 5253.00    0.74506   0.64495    0.013
 5254.00    0.75296   0.64469    0.013
 5255.00    0.76015   0.64432    0.013
 5256.00    0.75218   0.64388    0.013
 5257.00    0.73821   0.64259    0.013
 5258.00    0.73560   0.64065    0.013
 5259.00    0.73682   0.63833    0.013
 5260.00    0.76858   0.63514    0.014
 5261.00    0.80898   0.63166    0.014
 5262.00    0.74665   0.62748    0.014
 5263.00    0.66033   0.62379    0.013
 5264.00    0.71684   0.61995    0.014
 5265.00    0.80013   0.61653    0.014
 5266.00    0.71509   0.61364    0.014
 5267.00    0.60567   0.61110    0.014
 5268.00    0.54482   0.60981    0.014
 5269.00    0.48907   0.60985    0.014
 5270.00    0.67464   0.61115    0.014
 5271.00    0.87666   0.61294    0.014
 5272.00    0.78532   0.61591    0.014
 5273.00    0.68414   0.61941    0.014
 5274.00    0.64303   0.62340    0.014
 5275.00    0.60323   0.62807    0.014
 5276.00    0.60290   0.63229    0.014
 5277.00    0.59855   0.63652    0.014
 5278.00    0.53313   0.64067    0.014
 5279.00    0.48011   0.64446    0.014
 5280.00    0.54817   0.64770    0.014
 5281.00    0.61705   0.65075    0.014
 5282.00    0.69176   0.65354    0.013
 5283.00    0.74033   0.65632    0.013
 5284.00    0.64715   0.65888    0.013
 5285.00    0.57524   0.66096    0.013
 5286.00    0.59575   0.66243    0.013
 5287.00    0.60723   0.66364    0.013
 5288.00    0.58640   0.66461    0.013
 5289.00    0.59463   0.66501    0.013
 5290.00    0.69019   0.66518    0.013
 5291.00    0.76526   0.66458    0.013
 5292.00    0.78792   0.66385    0.013
 5293.00    0.82020   0.66251    0.013
 5294.00    0.87363   0.66071    0.013
 5295.00    0.85836   0.65880    0.013
 5296.00    0.71201   0.65705    0.013
 5297.00    0.63087   0.65597    0.013
 5298.00    0.65832   0.65528    0.013
 5299.00    0.65610   0.65489    0.013
 5300.00    0.61060   0.65520    0.013
 5301.00    0.58943   0.65612    0.013
 5302.00    0.59951   0.65760    0.013
 5303.00    0.60639   0.65934    0.013
 5304.00    0.60965   0.66131    0.013
 5305.00    0.60999   0.66347    0.013
 5306.00    0.60742   0.66561    0.013
 5307.00    0.64157   0.66781    0.013
 5308.00    0.70803   0.66946    0.013
 5309.00    0.73059   0.67067    0.013
 5310.00    0.71914   0.67157    0.013
 5311.00    0.69792   0.67182    0.013
 5312.00    0.67005   0.67164    0.013
 5313.00    0.64590   0.67093    0.013
 5314.00    0.62397   0.66983    0.013
 5315.00    0.62871   0.66841    0.013
 5316.00    0.64734   0.66662    0.013
 5317.00    0.66509   0.66438    0.013
 5318.00    0.68244   0.66175    0.013
 5319.00    0.72394   0.65900    0.013
 5320.00    0.77481   0.65593    0.013
 5321.00    0.76408   0.65271    0.013
 5322.00    0.73299   0.64923    0.013
 5323.00    0.65366   0.64611    0.013
 5324.00    0.56096   0.64294    0.013
 5325.00    0.66130   0.64005    0.013
 5326.00    0.80568   0.63709    0.013
 5327.00    0.83845   0.63555    0.013
 5328.00    0.85083   0.63475    0.014
 5329.00    0.84845   0.63450    0.013
 5330.00    0.84400   0.63483    0.013
 5331.00    0.79723   0.63548    0.013
 5332.00    0.74619   0.63696    0.013
 5333.00    0.70909   0.63834    0.013
 5334.00    0.67289   0.64011    0.013
 5335.00    0.74821   0.64170    0.013
 5336.00    0.82632   0.64342    0.013
 5337.00    0.68674   0.64476    0.013
 5338.00    0.55202   0.64547    0.013
 5339.00    0.55645   0.64606    0.013
 5340.00    0.56466   0.64697    0.013
 5341.00    0.62697   0.64733    0.013
 5342.00    0.68329   0.64784    0.013
 5343.00    0.68347   0.64818    0.013
 5344.00    0.68093   0.64863    0.013
 5345.00    0.65983   0.64957    0.013
 5346.00    0.64768   0.65059    0.013
 5347.00    0.68275   0.65211    0.013
 5348.00    0.70633   0.65412    0.013
 5349.00    0.68117   0.65654    0.013
 5350.00    0.66439   0.65916    0.012
 5351.00    0.67698   0.66145    0.012
 5352.00    0.70575   0.66419    0.014
 5353.00    0.78218   0.66671    0.034
 5354.00    0.82793   0.66880   -1.000
 5355.00    0.79659   0.67087   -1.000
 5356.00    0.76766   0.67225   -1.000
 5357.00    0.74397   0.67334   -1.000
 5358.00    0.74160   0.67344   -1.000
 5359.00    0.77927   0.67302   -1.000
 5360.00    0.78226   0.67178   -1.000
 5361.00    0.72835   0.67020   -1.000
 5362.00    0.67133   0.66824   -1.000
 5363.00    0.60983   0.66569   -1.000
 5364.00    0.60552   0.66330    0.056
 5365.00    0.67358   0.66059    0.017
 5366.00    0.66312   0.65811    0.013
 5367.00    0.56514   0.65556    0.012
 5368.00    0.56061   0.65340   -2.000
 5369.00    0.64796   0.65176   -2.000
 5370.00    0.72512   0.65088   -2.000
 5371.00    0.79344   0.65111   -2.000
 5372.00    0.92243   0.65149   -2.000
 5373.00    1.09777   0.65239   -2.000
 5374.00    1.10134   0.65348   -2.000
 5375.00    0.98958   0.65455   -2.000
 5376.00    0.87726   0.65614   -2.000
 5377.00    0.76460   0.65770   -2.000
 5378.00    0.71531   0.65929   -2.000
 5379.00    0.69851   0.66040   -2.000
 5380.00    0.67503   0.66123   -2.000
 5381.00    0.64858   0.66151   -2.000
 5382.00    0.69448   0.66122   -2.000
 5383.00    0.76800   0.66098    0.013
 5384.00    0.79125   0.66005    0.013
 5385.00    0.79820   0.65883    0.013
 5386.00    0.77902   0.65715    0.013
 5387.00    0.75274   0.65527    0.013
 5388.00    0.73112   0.65290    0.013
 5389.00    0.71053   0.65075    0.012
 5390.00    0.64595   0.64854    0.012
 5391.00    0.57355   0.64632    0.012
 5392.00    0.62115   0.64394    0.013
 5393.00    0.68504   0.64168    0.013
 5394.00    0.66945   0.63943    0.013
 5395.00    0.64619   0.63677    0.013
 5396.00    0.63093   0.63528    0.013
 5397.00    0.61615   0.63387    0.013
 5398.00    0.73508   0.63253    0.013
 5399.00    0.85610   0.63110    0.013
 5400.00    0.74590   0.63006    0.013
 5401.00    0.63943   0.62883    0.013
 5402.00    0.62908   0.62743    0.012
 5403.00    0.62205   0.62662    0.012
 5404.00    0.66012   0.62626    0.012
 5405.00    0.68960   0.62650    0.012
 5406.00    0.64181   0.62685    0.012
 5407.00    0.59796   0.62763    0.012
 5408.00    0.58024   0.62841    0.012
 5409.00    0.59072   0.63016    0.012
 5410.00    0.74633   0.63228    0.012
 5411.00    0.85873   0.63473    0.012
 5412.00    0.79177   0.63771    0.012
 5413.00    0.72115   0.64060    0.012
 5414.00    0.63789   0.64363    0.012
 5415.00    0.56939   0.64621    0.012
 5416.00    0.54359   0.64877    0.012
 5417.00    0.55285   0.65100    0.012
 5418.00    0.64872   0.65255    0.012
 5419.00    0.70494   0.65374    0.012
 5420.00    0.67675   0.65435    0.012
 5421.00    0.66435   0.65452    0.012
 5422.00    0.68116   0.65396    0.012
 5423.00    0.71062   0.65320    0.012
 5424.00    0.76051   0.65220    0.012
 5425.00    0.77621   0.65070    0.012
 5426.00    0.74345   0.64903    0.012
 5427.00    0.74930   0.64659    0.012
 5428.00    0.80332   0.64460    0.012
 5429.00    0.84881   0.64332    0.012
 5430.00    0.88494   0.64177    0.012
 5431.00    0.85486   0.64075    0.012
 5432.00    0.76059   0.63997    0.012
 5433.00    0.72418   0.63957    0.012
 5434.00    0.73724   0.63964    0.012
 5435.00    0.73792   0.64005    0.012
 5436.00    0.72929   0.64178    0.012
 5437.00    0.69444   0.64291    0.012
 5438.00    0.64223   0.64411    0.012
 5439.00    0.62471   0.64546    0.012
 5440.00    0.62729   0.64624    0.012
 5441.00    0.66609   0.64733    0.012
 5442.00    0.72318   0.64738    0.012
 5443.00    0.74856   0.64726    0.012
 5444.00    0.76007   0.64612    0.012
 5445.00    0.74304   0.64458    0.012
 5446.00    0.71531   0.64349    0.012
 5447.00    0.64962   0.64192    0.012
 5448.00    0.57185   0.64059    0.012
 5449.00    0.62185   0.63879    0.012
 5450.00    0.70581   0.63716    0.012
 5451.00    0.76829   0.63530    0.012
 5452.00    0.82611   0.63386    0.012
 5453.00    0.74026   0.63277    0.012
 5454.00    0.62959   0.63220    0.012
 5455.00    0.64400   0.63233    0.012
 5456.00    0.67481   0.63240    0.012
 5457.00    0.63068   0.63260    0.012
 5458.00    0.57962   0.63252    0.012
 5459.00    0.58685   0.63276    0.012
 5460.00    0.59735   0.63299    0.012
 5461.00    0.62092   0.63314    0.012
 5462.00    0.64456   0.63408    0.012
 5463.00    0.64619   0.63494    0.012
 5464.00    0.64917   0.63504    0.012
 5465.00    0.68367   0.63506    0.012
 5466.00    0.71771   0.63497    0.012
 5467.00    0.74582   0.63460    0.012
 5468.00    0.75660   0.63365    0.011
 5469.00    0.61748   0.63315    0.012
 5470.00    0.49723   0.63277    0.012
 5471.00    0.49800   0.63151    0.011
 5472.00    0.51577   0.63019    0.011
 5473.00    0.61869   0.62949    0.012
 5474.00    0.69467   0.62809    0.012
 5475.00    0.66131   0.62684    0.012
 5476.00    0.62692   0.62677    0.012
 5477.00    0.58910   0.62675    0.012
 5478.00    0.56534   0.62663   -2.000
 5479.00    0.58154   0.62609   -2.000
 5480.00    0.60178   0.62690   -2.000
 5481.00    0.63180   0.62749   -2.000
 5482.00    0.69138   0.62831   -2.000
 5483.00    0.81288   0.63013   -2.000
 5484.00    0.92315   0.63127   -2.000
 5485.00    1.01297   0.63219   -2.000
 5486.00    1.17893   0.63266   -2.000
 5487.00    1.46609   0.63404   -2.000
 5488.00    1.65934   0.63489   -2.000
 5489.00    1.72139   0.63568   -2.000
 5490.00    1.58902   0.63686   -2.000
 5491.00    1.21762   0.63693   -2.000
 5492.00    0.83032   0.63688   -2.000
 5493.00    0.42576   0.63682   -2.000
 5494.00    0.26891   0.63698   -2.000
 5495.00    0.34882   0.63653   -2.000
 5496.00    0.44171   0.63602   -2.000
 5497.00    0.54554   0.63606   -2.000
 5498.00    0.60094   0.63516   -2.000
 5499.00    0.62039   0.63405   -2.000
 5500.00    0.66450   0.63320   -2.000
 5501.00    0.72467   0.63245   -2.000
 5502.00    0.69868   0.63139    0.012
 5503.00    0.62351   0.63034    0.012
 5504.00    0.59564   0.62934    0.011
 5505.00    0.59128   0.62817    0.011
 5506.00    0.56930   0.62752    0.011
 5507.00    0.53976   0.62668    0.011
 5508.00    0.54817   0.62623    0.011
 5509.00    0.57057   0.62588    0.011
 5510.00    0.58513   0.62531    0.011
 5511.00    0.59725   0.62526    0.011
 5512.00    0.56562   0.62535    0.011
 5513.00    0.52261   0.62627    0.011
 5514.00    0.53722   0.62727    0.011
 5515.00    0.56407   0.62817    0.011
 5516.00    0.65194   0.62973    0.011
 5517.00    0.75006   0.63089    0.011
 5518.00    0.69931   0.63207    0.011
 5519.00    0.62970   0.63325    0.012
 5520.00    0.70217   0.63442    0.012
 5521.00    0.78718   0.63556    0.012
 5522.00    0.78427   0.63631    0.011
 5523.00    0.77677   0.63681    0.011
 5524.00    0.66078   0.63699    0.011
 5525.00    0.54563   0.63671    0.011
 5526.00    0.64686   0.63604    0.011
 5527.00    0.74089   0.63602    0.011
 5528.00    0.68003   0.63601    0.011
 5529.00    0.62728   0.63592    0.011
 5530.00    0.67356   0.63573    0.011
 5531.00    0.71563   0.63554    0.011
 5532.00    0.72270   0.63575    0.011
 5533.00    0.71588   0.63567    0.012
 5534.00    0.62267   0.63637    0.011
 5535.00    0.55056   0.63733    0.011
 5536.00    0.58156   0.63784    0.011
 5537.00    0.60840   0.63865    0.012
 5538.00    0.61870   0.63943    0.011
 5539.00    0.62632   0.64042    0.011
 5540.00    0.62505   0.64111    0.011
 5541.00    0.63863   0.64175    0.011
 5542.00    0.69363   0.64268    0.011
 5543.00    0.72899   0.64332    0.011
 5544.00    0.71744   0.64383    0.011
 5545.00    0.70600   0.64451    0.011
 5546.00    0.69479   0.64516    0.011
 5547.00    0.68469   0.64549    0.011
 5548.00    0.67659   0.64562    0.011
 5549.00    0.66561   0.64572    0.011
 5550.00    0.65010   0.64577    0.011
 5551.00    0.67368   0.64539    0.011
 5552.00    0.75106   0.64502    0.011
 5553.00    0.76476   0.64461    0.011
 5554.00    0.70125   0.64398    0.011
 5555.00    0.69887   0.64304    0.011
 5556.00    0.76178   0.64192    0.011
 5557.00    0.74563   0.64102    0.011
 5558.00    0.65496   0.63974    0.011
 5559.00    0.59731   0.63855    0.011
 5560.00    0.56709   0.63729    0.011
 5561.00    0.56951   0.63596    0.011
 5562.00    0.59581   0.63502    0.011
 5563.00    0.58426   0.63369    0.011
 5564.00    0.54841   0.63268    0.011
 5565.00    0.56032   0.63184    0.011
 5566.00    0.59908   0.63105    0.011
 5567.00    0.59020   0.63049    0.011
 5568.00    0.55803   0.62989    0.011
 5569.00    0.57238   0.63006    0.011
 5570.00    0.60637   0.62982    0.011
 5571.00    0.62322   0.62943    0.011
 5572.00    0.63387   0.62991    0.011
 5573.00    0.67038   0.63014    0.011
 5574.00    0.71480   0.63019    0.011
 5575.00    0.68566   0.63034    0.011
 5576.00    0.63778   0.63035    0.011
 5577.00    0.67025   0.63003    0.011
 5578.00    0.71935   0.62950    0.011
 5579.00    0.65451   0.62883    0.011
 5580.00    0.57108   0.62770    0.011
 5581.00    0.54067   0.62643    0.011
 5582.00    0.51674   0.62490    0.011
 5583.00    0.51100   0.62320    0.011
 5584.00    0.50678   0.62125    0.011
 5585.00    0.58605   0.61905    0.011
 5586.00    0.66936   0.61728    0.012
 5587.00    0.62005   0.61541    0.011
 5588.00    0.56919   0.61416    0.011
 5589.00    0.54531   0.61329    0.011
 5590.00    0.52397   0.61219    0.012
 5591.00    0.55331   0.61166    0.011
 5592.00    0.57989   0.61112    0.011
 5593.00    0.57442   0.61123    0.011
 5594.00    0.57317   0.61203    0.012
 5595.00    0.60575   0.61248    0.012
 5596.00    0.64348   0.61290    0.012
 5597.00    0.71235   0.61368    0.011
 5598.00    0.76872   0.61459    0.011
 5599.00    0.76548   0.61570    0.011
 5600.00    0.74661   0.61686    0.011
 5601.00    0.66702   0.61804    0.011
 5602.00    0.59833   0.61973    0.011
 5603.00    0.56494   0.62101    0.011
 5604.00    0.54436   0.62279    0.011
 5605.00    0.55884   0.62445    0.011
 5606.00    0.58237   0.62568    0.011
 5607.00    0.62714   0.62697    0.011
 5608.00    0.66817   0.62753    0.011
 5609.00    0.70166   0.62849    0.011
 5610.00    0.70285   0.62899    0.011
 5611.00    0.64700   0.62901    0.011
 5612.00    0.60643   0.62848    0.011
 5613.00    0.58947   0.62691    0.011
 5614.00    0.58868   0.62596    0.011
 5615.00    0.60984   0.62513    0.011
 5616.00    0.60712   0.62404    0.011
 5617.00    0.57587   0.62281    0.010
 5618.00    0.59747   0.62133    0.011
 5619.00    0.67473   0.62054    0.011
 5620.00    0.69765   0.61985    0.011
 5621.00    0.67007   0.61937    0.011
 5622.00    0.62204   0.61916    0.011
 5623.00    0.55725   0.61889    0.011
 5624.00    0.54716   0.61935    0.011
 5625.00    0.57652   0.61974    0.011
 5626.00    0.62317   0.62031    0.011
 5627.00    0.68078   0.62114    0.011
 5628.00    0.70043   0.62160    0.011
 5629.00    0.69908   0.62216    0.011
 5630.00    0.66647   0.62256    0.011
 5631.00    0.61881   0.62316    0.011
 5632.00    0.68516   0.62357    0.011
 5633.00    0.79887   0.62353    0.011
 5634.00    0.79632   0.62324    0.011
 5635.00    0.75247   0.62287    0.011
 5636.00    0.72849   0.62263    0.011
 5637.00    0.71048   0.62220    0.011
 5638.00    0.66234   0.62178    0.011
 5639.00    0.60669   0.62099    0.011
 5640.00    0.60959   0.62073    0.011
 5641.00    0.62431   0.62047    0.011
 5642.00    0.67818   0.62022    0.011
 5643.00    0.73826   0.62044    0.011
 5644.00    0.73193   0.62037    0.011
 5645.00    0.71777   0.62077    0.011
 5646.00    0.69448   0.62096    0.010
 5647.00    0.67045   0.62118    0.010
 5648.00    0.70082   0.62157    0.010
 5649.00    0.73362   0.62173    0.010
 5650.00    0.76127   0.62195    0.010
 5651.00    0.78683   0.62162    0.010
 5652.00    0.71301   0.62113    0.010
 5653.00    0.64307   0.62067    0.010
 5654.00    0.64474   0.62012    0.010
 5655.00    0.64843   0.61927    0.011
 5656.00    0.67452   0.61777    0.011
 5657.00    0.69640   0.61681    0.011
 5658.00    0.68563   0.61632    0.010
 5659.00    0.67441   0.61554    0.010
 5660.00    0.66048   0.61466    0.011
 5661.00    0.64188   0.61401    0.011
 5662.00    0.60158   0.61412    0.011
 5663.00    0.57279   0.61430    0.011
 5664.00    0.58778   0.61467    0.011
 5665.00    0.59499   0.61536    0.011
 5666.00    0.57748   0.61617    0.011
 5667.00    0.55821   0.61730    0.011
 5668.00    0.53422   0.61819    0.011
 5669.00    0.54715   0.61952    0.011
 5670.00    0.64531   0.62097    0.011
 5671.00    0.72801   0.62227    0.011
 5672.00    0.77984   0.62326    0.011
 5673.00    0.81703   0.62393    0.011
 5674.00    0.82876   0.62496    0.011
 5675.00    0.82439   0.62559    0.011
 5676.00    0.79550   0.62592    0.011
 5677.00    0.75481   0.62600    0.011
 5678.00    0.69833   0.62595    0.011
 5679.00    0.66049   0.62588    0.011
 5680.00    0.64460   0.62522    0.011
 5681.00    0.64408   0.62461    0.011
 5682.00    0.65952   0.62433    0.011
 5683.00    0.64675   0.62404    0.011
 5684.00    0.60812   0.62362    0.010
 5685.00    0.60137   0.62307    0.010
 5686.00    0.62036   0.62280    0.011
 5687.00    0.64587   0.62275    0.010
 5688.00    0.67600   0.62284    0.010
 5689.00    0.67350   0.62291    0.010
 5690.00    0.65065   0.62313    0.010
 5691.00    0.65885   0.62306    0.010
 5692.00    0.68396   0.62286    0.010
 5693.00    0.71629   0.62260    0.010
 5694.00    0.75203   0.62214    0.011
 5695.00    0.77132   0.62176    0.011
 5696.00    0.78390   0.62071    0.011
 5697.00    0.78094   0.61972    0.011
 5698.00    0.77256   0.61856    0.011
 5699.00    0.71702   0.61685    0.011
 5700.00    0.64761   0.61537    0.011
 5701.00    0.63105   0.61376    0.011
 5702.00    0.62737   0.61236    0.011
 5703.00    0.65763   0.61117    0.011
 5704.00    0.69457   0.60961    0.011
 5705.00    0.69826   0.60833    0.011
 5706.00    0.69684   0.60765    0.011
 5707.00    0.70892   0.60698    0.011
 5708.00    0.72252   0.60721    0.011
 5709.00    0.69387   0.60746    0.011
 5710.00    0.66202   0.60776    0.010
 5711.00    0.65590   0.60914    0.011
 5712.00    0.65083   0.61032    0.011
 5713.00    0.57027   0.61228    0.010
 5714.00    0.49168   0.61431    0.010
 5715.00    0.51863   0.61615    0.010
 5716.00    0.54945   0.61859    0.010
 5717.00    0.64682   0.62056    0.010
 5718.00    0.73819   0.62283    0.010
 5719.00    0.76608   0.62468    0.010
 5720.00    0.78589   0.62613    0.010
 5721.00    0.74502   0.62766    0.010
 5722.00    0.70155   0.62871    0.010
 5723.00    0.64325   0.62977    0.010
 5724.00    0.59790   0.63005    0.010
 5725.00    0.61138   0.63010    0.010
 5726.00    0.62182   0.63039    0.010
 5727.00    0.62099   0.63053    0.010
 5728.00    0.61315   0.63069    0.010
 5729.00    0.58353   0.63017    0.010
 5730.00    0.56923   0.62988    0.010
 5731.00    0.59544   0.62988    0.010
 5732.00    0.61385   0.62979    0.010
 5733.00    0.61456   0.63003    0.010
 5734.00    0.63687   0.62985    0.010
 5735.00    0.70163   0.62988    0.010
 5736.00    0.73277   0.62973    0.010
 5737.00    0.70631   0.62973    0.010
 5738.00    0.68982   0.63013    0.010
 5739.00    0.68827   0.63024    0.011
 5740.00    0.70083   0.63035    0.000
 5741.00    0.73199   0.62977    0.000
 5742.00    0.70438   0.62991    0.000
 5743.00    0.60853   0.63021    0.000
 5744.00    0.56387   0.63032    0.000
 5745.00    0.57162   0.63023    0.000
 5746.00    0.59885   0.62933    0.000
 5747.00    0.64367   0.62926    0.000
 5748.00    0.66749   0.62928    0.000
 5749.00    0.67458   0.62933    0.000
 5750.00    0.66722   0.62913    0.000
 5751.00    0.64974   0.62835    0.000
 5752.00    0.66950   0.62799    0.000
 5753.00    0.71214   0.62777    0.000
 5754.00    0.75315   0.62780    0.000
 5755.00    0.79330   0.62769    0.000
 5756.00    0.79539   0.62741    0.000
 5757.00    0.77976   0.62731    0.000
 5758.00    0.74600   0.62720    0.000
 5759.00    0.70498   0.62728    0.000
 5760.00    0.65549   0.62737    0.000
 5761.00    0.60310   0.62757    0.000
 5762.00    0.63143   0.62795    0.000
 5763.00    0.68303   0.62824    0.000
 5764.00    0.68430   0.62855    0.000
 5765.00    0.67360   0.62883    0.000
 5766.00    0.64357   0.62919    0.000
 5767.00    0.60983   0.62949    0.000
 5768.00    0.62842   0.62962    0.000
 5769.00    0.65481   0.62961    0.000
 5770.00    0.67164   0.62927    0.000
 5771.00    0.68743   0.62894    0.000
 5772.00    0.70464   0.62817    0.000
 5773.00    0.72195   0.62703    0.000
 5774.00    0.70241   0.62566    0.000
 5775.00    0.68152   0.62412    0.000
 5776.00    0.70191   0.62272    0.000
 5777.00    0.72383   0.62096    0.000
 5778.00    0.79407   0.61876    0.000
 5779.00    0.85623   0.61664    0.000
 5780.00    0.78830   0.61503    0.000
 5781.00    0.72384   0.61366    0.000
 5782.00    0.69448   0.61267    0.000
 5783.00    0.67132   0.61136    0.000
 5784.00    0.69303   0.61045    0.000
 5785.00    0.71258   0.61060    0.000
 5786.00    0.72006   0.61079    0.000
 5787.00    0.72644   0.61196    0.000
 5788.00    0.72790   0.61284    0.000
 5789.00    0.72728   0.61383    0.000
 5790.00    0.71903   0.61559    0.000
 5791.00    0.71719   0.61700   -2.000
 5792.00    0.73495   0.61936   -2.000
 5793.00    0.76669   0.62137   -2.000
 5794.00    0.83476   0.62298   -2.000
 5795.00    0.86420   0.62479   -2.000
 5796.00    0.80746   0.62606   -2.000
 5797.00    0.75363   0.62780   -2.000
 5798.00    0.70543   0.62940   -2.000
 5799.00    0.67603   0.63049   -2.000
 5800.00    0.67835   0.63154   -2.000
 5801.00    0.68697   0.63210   -2.000
 5802.00    0.70489   0.63260   -2.000
 5803.00    0.70083   0.63322   -2.000
 5804.00    0.66820   0.63347   -2.000
 5805.00    0.65643   0.63372   -2.000
 5806.00    0.66857   0.63376   -2.000
 5807.00    0.67092   0.63345   -2.000
 5808.00    0.66339   0.63337   -2.000
 5809.00    0.65098   0.63308   -2.000
 5810.00    0.63424   0.63289   -2.000
 5811.00    0.61735   0.63285    0.000
 5812.00    0.60035   0.63250    0.000
 5813.00    0.57461   0.63237    0.000
 5814.00    0.54284   0.63214    0.000
 5815.00    0.56893   0.63208    0.000
 5816.00    0.63003   0.63233    0.000
 5817.00    0.67833   0.63238    0.000
 5818.00    0.71986   0.63267    0.000
 5819.00    0.68517   0.63282    0.000
 5820.00    0.61556   0.63307    0.000
 5821.00    0.56679   0.63352    0.000
 5822.00    0.52625   0.63377    0.000
 5823.00    0.53491   0.63423    0.000
 5824.00    0.56011   0.63444    0.000
 5825.00    0.57797   0.63467    0.000
 5826.00    0.59378   0.63488    0.000
 5827.00    0.63501   0.63486    0.000
 5828.00    0.68216   0.63499    0.000
 5829.00    0.71061   0.63495    0.000
 5830.00    0.73556   0.63493    0.000
 5831.00    0.74691   0.63477    0.000
 5832.00    0.75630   0.63440    0.000
 5833.00    0.78595   0.63421    0.000
 5834.00    0.81773   0.63408    0.000
 5835.00    0.77327   0.63389    0.000
 5836.00    0.72365   0.63356    0.000
 5837.00    0.75907   0.63307    0.000
 5838.00    0.79729   0.63275    0.000
 5839.00    0.77056   0.63249    0.000
 5840.00    0.74354   0.63199    0.000
 5841.00    0.70870   0.63131    0.000
 5842.00    0.67375   0.63044    0.000
 5843.00    0.63717   0.62960    0.000
 5844.00    0.60405   0.62866    0.000
 5845.00    0.60441   0.62723    0.000
 5846.00    0.60976   0.62565    0.000
 5847.00    0.65013   0.62406    0.000
 5848.00    0.68990   0.62245    0.000
 5849.00    0.72644   0.62081    0.000
 5850.00    0.74876   0.61862    0.000
 5851.00    0.70947   0.61647    0.000
 5852.00    0.67809   0.61479    0.000
 5853.00    0.67494   0.61326    0.000
 5854.00    0.66734   0.61196    0.000
 5855.00    0.64640   0.61017    0.000
 5856.00    0.63383   0.60867    0.000
 5857.00    0.64260   0.60794    0.000
 5858.00    0.66632   0.60751    0.000
 5859.00    0.72283   0.60731    0.000
 5860.00    0.75807   0.60664    0.000
 5861.00    0.75280   0.60636    0.000
 5862.00    0.72497   0.60659    0.000
 5863.00    0.65965   0.60703    0.000
 5864.00    0.61673   0.60732    0.000
 5865.00    0.60646   0.60708    0.000
 5866.00    0.61360   0.60729    0.000
 5867.00    0.64305   0.60726    0.000
 5868.00    0.64941   0.60732    0.000
 5869.00    0.62973   0.60694    0.000
 5870.00    0.61986   0.60596    0.000
 5871.00    0.61977   0.60572    0.000
 5872.00    0.63611   0.60443    0.000
 5873.00    0.66686   0.60330    0.000
 5874.00    0.69703   0.60176    0.000
 5875.00    0.72675   0.59977    0.000
 5876.00    0.73726   0.59862    0.000
 5877.00    0.73471   0.59584    0.000
 5878.00    0.72673   0.59318    0.000
 5879.00    0.71551   0.59016    0.000
 5880.00    0.66051   0.58683    0.000
 5881.00    0.58274   0.58377    0.000
 5882.00    0.56056   0.57889    0.000
 5883.00    0.56344   0.57368    0.000
 5884.00    0.56498   0.56867    0.000
 5885.00    0.56601   0.56361    0.000
 5886.00    0.56124   0.55847    0.000
 5887.00    0.55457   0.55257    0.000
 5888.00    0.58548   0.54604    0.000
 5889.00    0.62678   0.54136    0.000
 5890.00    0.63802   0.53785    0.000
 5891.00    0.64242   0.53455    0.000
 5892.00    0.59415   0.53240    0.000
 5893.00    0.53629   0.52969    0.000
 5894.00    0.54144   0.52950    0.000
 5895.00    0.55539   0.53167    0.000
 5896.00    0.56543   0.53402    0.000
 5897.00    0.57508   0.53764    0.000
 5898.00    0.59062   0.54080    0.000
 5899.00    0.60653   0.54510    0.000
 5900.00    0.61500   0.55107    0.000
 5901.00    0.62306   0.55688    0.010
 5902.00    0.56644   0.56243    0.010
 5903.00    0.51338   0.56732    0.010
 5904.00    0.56055   0.57207    0.010
 5905.00    0.60702   0.57696    0.009
 5906.00    0.64352   0.58138    0.010
 5907.00    0.67624   0.58483    0.010
 5908.00    0.67386   0.58761    0.010
 5909.00    0.66605   0.58993    0.010
 5910.00    0.62147   0.59206    0.010
 5911.00    0.58458   0.59370    0.010
 5912.00    0.58820   0.59455    0.010
 5913.00    0.59757   0.59546    0.010
 5914.00    0.63126   0.59592    0.010
 5915.00    0.65280   0.59657    0.010
 5916.00    0.63183   0.59707    0.010
 5917.00    0.61560   0.59692    0.010
 5918.00    0.61332   0.59749    0.010
 5919.00    0.61263   0.59771    0.010
 5920.00    0.61593   0.59799    0.010
 5921.00    0.62825   0.59856    0.010
 5922.00    0.66004   0.59850    0.010
 5923.00    0.68828   0.59890    0.010
 5924.00    0.70985   0.59933    0.010
 5925.00    0.70673   0.59939    0.010
 5926.00    0.66316   0.59983    0.010
 5927.00    0.61801   0.59989    0.010
 5928.00    0.57061   0.59975    0.010
 5929.00    0.55490   0.60016    0.010
 5930.00    0.57920   0.60017    0.010
 5931.00    0.61091   0.60029    0.010
 5932.00    0.65086   0.60038    0.010
 5933.00    0.66999   0.59993    0.010
 5934.00    0.66869   0.60029    0.010
 5935.00    0.64330   0.60050    0.010
 5936.00    0.59708   0.60043    0.010
 5937.00    0.59029   0.60062    0.010
 5938.00    0.61357   0.60027    0.010
 5939.00    0.63540   0.60043    0.010
 5940.00    0.65627   0.60077    0.010
 5941.00    0.67014   0.60064    0.010
 5942.00    0.67991   0.60073    0.010
 5943.00    0.70267   0.60053    0.009
 5944.00    0.73208   0.60041    0.009
 5945.00    0.72454   0.60053    0.009
 5946.00    0.70061   0.60023    0.009
 5947.00    0.63637   0.59996    0.009
 5948.00    0.55678   0.59976    0.009
 5949.00    0.54725   0.59962    0.009
 5950.00    0.56038   0.59944    0.009
 5951.00    0.57059   0.59893    0.010
 5952.00    0.58001   0.59877    0.010
 5953.00    0.55046   0.59891    0.010
 5954.00    0.51225   0.59908    0.010
 5955.00    0.52591   0.59917    0.010
 5956.00    0.54875   0.59905    0.010
 5957.00    0.58650   0.59966    0.010
 5958.00    0.62627   0.60049    0.010
 5959.00    0.63594   0.60107    0.010
 5960.00    0.64272   0.60175    0.010
 5961.00    0.63523   0.60223    0.010
 5962.00    0.62689   0.60332    0.010
 5963.00    0.65549   0.60429    0.010
 5964.00    0.68486   0.60480    0.010
 5965.00    0.68794   0.60555    0.010
 5966.00    0.69086   0.60593    0.010
 5967.00    0.69001   0.60652    0.010
 5968.00    0.68851   0.60682    0.010
 5969.00    0.67840   0.60665    0.010
 5970.00    0.66943   0.60672    0.010
 5971.00    0.67067   0.60638    0.010
 5972.00    0.67054   0.60597    0.009
 5973.00    0.66136   0.60534    0.009
 5974.00    0.64866   0.60442    0.009
 5975.00    0.61787   0.60378    0.009
 5976.00    0.59291   0.60285    0.009
 5977.00    0.59202   0.60188    0.009
 5978.00    0.60106   0.60107    0.009
 5979.00    0.64406   0.60016    0.009
 5980.00    0.68216   0.59960    0.009
 5981.00    0.70611   0.59902    0.009
 5982.00    0.72696   0.59830    0.009
 5983.00    0.74017   0.59829    0.009
 5984.00    0.74541   0.59837    0.010
 5985.00    0.73370   0.59845    0.010
 5986.00    0.72145   0.59867    0.009
 5987.00    0.70823   0.59866    0.009
 5988.00    0.69224   0.59936    0.009
 5989.00    0.67180   0.60021    0.010
 5990.00    0.65826   0.60051    0.010
 5991.00    0.65449   0.60099    0.010
 5992.00    0.65528   0.60124    0.010
 5993.00    0.66175   0.60164    0.010
 5994.00    0.65829   0.60211    0.010
 5995.00    0.64395   0.60186    0.009
 5996.00    0.62741   0.60181    0.009
 5997.00    0.60872   0.60174    0.009
 5998.00    0.59749   0.60123    0.009
 5999.00    0.59261   0.60102    0.009
 6000.00    0.59252   0.60026    0.009
 6001.00    0.59602   0.59942    0.009
 6002.00    0.60942   0.59917    0.009
 6003.00    0.62934   0.59835    0.009
 6004.00    0.64028   0.59794    0.009
 6005.00    0.64603   0.59738    0.009
 6006.00    0.64746   0.59610    0.009
 6007.00    0.64672   0.59604    0.009
 6008.00    0.66619   0.59585    0.009
 6009.00    0.69446   0.59539    0.009
 6010.00    0.71034   0.59519    0.009
 6011.00    0.72159   0.59414    0.009
 6012.00    0.72473   0.59417    0.009
 6013.00    0.72530   0.59474    0.010
 6014.00    0.68542   0.59433    0.010
 6015.00    0.63482   0.59426    0.010
 6016.00    0.59550   0.59401    0.010
 6017.00    0.55861   0.59418    0.010
 6018.00    0.55732   0.59517    0.010
 6019.00    0.56215   0.59531    0.010
 6020.00    0.57483   0.59563    0.010
 6021.00    0.58853   0.59651    0.010
 6022.00    0.60833   0.59718    0.010
 6023.00    0.62869   0.59849    0.009
 6024.00    0.63450   0.59952    0.010
 6025.00    0.63949   0.60042    0.010
 6026.00    0.62539   0.60194    0.010
 6027.00    0.61112   0.60305    0.009
 6028.00    0.62059   0.60452    0.010
 6029.00    0.62993   0.60580    0.010
 6030.00    0.63619   0.60668    0.009
 6031.00    0.64097   0.60809    0.009
 6032.00    0.62683   0.60910    0.009
 6033.00    0.61358   0.61014    0.009
 6034.00    0.60810   0.61093    0.009
 6035.00    0.60501   0.61139    0.009
 6036.00    0.61716   0.61245    0.009
 6037.00    0.62673   0.61299    0.009
 6038.00    0.62345   0.61342    0.009
 6039.00    0.62373   0.61397    0.009
 6040.00    0.63836   0.61418    0.009
 6041.00    0.64905   0.61489    0.009
 6042.00    0.64653   0.61519    0.009
 6043.00    0.64736   0.61525    0.009
 6044.00    0.65771   0.61568    0.009
 6045.00    0.65540   0.61578    0.009
 6046.00    0.62245   0.61592    0.009
 6047.00    0.59915   0.61589    0.009
 6048.00    0.59602   0.61563    0.009
 6049.00    0.60178   0.61552    0.009
 6050.00    0.62370   0.61519    0.009
 6051.00    0.63161   0.61459    0.009
 6052.00    0.61727   0.61398    0.009
 6053.00    0.62017   0.61340    0.010
 6054.00    0.64712   0.61285    0.010
 6055.00    0.67280   0.61199    0.010
 6056.00    0.69695   0.61115    0.010
 6057.00    0.69636   0.61069    0.010
 6058.00    0.66902   0.61013    0.010
 6059.00    0.65571   0.60975    0.010
 6060.00    0.65581   0.60918    0.009
 6061.00    0.65846   0.60884    0.009
 6062.00    0.66327   0.60932    0.009
 6063.00    0.67930   0.60916    0.010
 6064.00    0.70365   0.60949    0.010
 6065.00    0.71344   0.61011    0.010
 6066.00    0.71376   0.61041    0.009
 6067.00    0.70513   0.61147    0.009
 6068.00    0.69138   0.61160    0.009
 6069.00    0.70533   0.61212    0.009
 6070.00    0.73301   0.61344    0.009
 6071.00    0.74862   0.61354    0.009
 6072.00    0.75905   0.61380    0.009
 6073.00    0.73929   0.61374    0.009
 6074.00    0.70843   0.61340    0.009
 6075.00    0.66979   0.61349    0.009
 6076.00    0.62872   0.61259    0.009
 6077.00    0.64281   0.61155    0.009
 6078.00    0.67123   0.61099    0.009
 6079.00    0.68905   0.60983    0.009
 6080.00    0.70464   0.60850    0.009
 6081.00    0.68207   0.60734    0.009
 6082.00    0.65311   0.60623    0.009
 6083.00    0.60472   0.60547    0.009
 6084.00    0.55387   0.60454    0.009
 6085.00    0.52174   0.60323    0.009
 6086.00    0.49125   0.60280    0.009
 6087.00    0.52335   0.60255    0.009
 6088.00    0.55870   0.60164    0.009
 6089.00    0.56406   0.60137    0.009
 6090.00    0.56934   0.60124    0.009
 6091.00    0.60811   0.60117    0.009
 6092.00    0.64586   0.60090    0.009
 6093.00    0.66205   0.60019    0.009
 6094.00    0.67485   0.60036    0.009
 6095.00    0.64664   0.60041    0.009
 6096.00    0.62033   0.60002    0.009
 6097.00    0.60979   0.59953    0.009
 6098.00    0.60107   0.59909    0.009
 6099.00    0.60363   0.59947    0.009
 6100.00    0.61300   0.59870    0.009
 6101.00    0.65559   0.59792    0.009
 6102.00    0.68492   0.59821    0.009
 6103.00    0.66176   0.59808    0.009
 6104.00    0.64650   0.59867    0.009
 6105.00    0.65722   0.59822    0.009
 6106.00    0.66971   0.59726    0.009
 6107.00    0.68712   0.59860    0.009
 6108.00    0.68526   0.59945    0.009
 6109.00    0.63749   0.59937    0.009
 6110.00    0.60725   0.59966    0.009
 6111.00    0.61310   0.59927    0.009
 6112.00    0.62992   0.59961    0.009
 6113.00    0.66637   0.60036    0.009
 6114.00    0.70412   0.59929    0.009
 6115.00    0.74389   0.59863    0.009
 6116.00    0.74431   0.59859    0.009
 6117.00    0.69064   0.59741    0.009
 6118.00    0.63727   0.59687    0.009
 6119.00    0.58425   0.59584    0.009
 6120.00    0.55538   0.59425    0.009
 6121.00    0.55226   0.59427    0.009
 6122.00    0.56203   0.59343    0.009
 6123.00    0.58394   0.59232    0.009
 6124.00    0.58889   0.59208    0.009
 6125.00    0.57976   0.59099    0.009
 6126.00    0.58534   0.59091    0.009
 6127.00    0.60164   0.59103    0.009
 6128.00    0.61689   0.59050    0.009
 6129.00    0.63147   0.59045    0.009
 6130.00    0.62787   0.59002    0.009
 6131.00    0.61407   0.58945    0.009
 6132.00    0.61568   0.58876    0.009
 6133.00    0.62481   0.58864    0.009
 6134.00    0.63047   0.58878    0.009
 6135.00    0.63467   0.58794    0.009
 6136.00    0.61432   0.58760    0.009
 6137.00    0.58511   0.58762    0.009
 6138.00    0.59783   0.58778    0.010
 6139.00    0.62335   0.58798    0.009
 6140.00    0.62423   0.58739    0.009
 6141.00    0.61885   0.58810    0.009
 6142.00    0.60425   0.58980    0.009
 6143.00    0.58775   0.59046    0.009
 6144.00    0.59733   0.59035    0.009
 6145.00    0.61114   0.59029    0.009
 6146.00    0.63521   0.59110    0.009
 6147.00    0.66052   0.59167    0.009
 6148.00    0.64022   0.59124    0.009
 6149.00    0.61611   0.59043    0.009
 6150.00    0.60366   0.58960    0.009
 6151.00    0.59177   0.58868    0.009
 6152.00    0.57015   0.58675    0.009
 6153.00    0.54871   0.58441    0.009
 6154.00    0.54572   0.58254    0.009
 6155.00    0.54381   0.58025    0.009
 6156.00    0.56347   0.57737    0.009
 6157.00    0.58495   0.57417    0.009
 6158.00    0.62756   0.57108    0.009
 6159.00    0.66443   0.56822    0.009
 6160.00    0.65543   0.56532    0.009
 6161.00    0.64715   0.56251    0.009
 6162.00    0.64323   0.56047    0.009
 6163.00    0.63907   0.55891    0.009
 6164.00    0.63373   0.55643    0.009
 6165.00    0.61876   0.55483    0.009
 6166.00    0.56649   0.55490    0.009
 6167.00    0.52388   0.55482    0.009
 6168.00    0.51243   0.55509    0.009
 6169.00    0.50996   0.55563    0.009
 6170.00    0.53202   0.55675    0.009
 6171.00    0.54770   0.55857    0.009
 6172.00    0.54846   0.55928    0.009
 6173.00    0.55052   0.56036    0.009
 6174.00    0.55523   0.56286    0.009
 6175.00    0.56244   0.56464    0.009
 6176.00    0.57406   0.56583    0.009
 6177.00    0.58729   0.56718    0.009
 6178.00    0.60301   0.56816    0.009
 6179.00    0.60624   0.56925    0.009
 6180.00    0.59256   0.56986    0.009
 6181.00    0.57856   0.56970    0.009
 6182.00    0.56421   0.57001    0.009
 6183.00    0.56765   0.56973    0.009
 6184.00    0.58983   0.56897    0.009
 6185.00    0.61341   0.56870    0.009
 6186.00    0.63829   0.56722    0.009
 6187.00    0.64087   0.56623    0.009
 6188.00    0.62521   0.56620    0.009
 6189.00    0.60701   0.56458    0.009
 6190.00    0.58698   0.56377    0.009
 6191.00    0.56493   0.56361    0.009
 6192.00    0.54160   0.56314    0.009
 6193.00    0.54998   0.56363    0.009
 6194.00    0.57585   0.56281    0.009
 6195.00    0.71210   0.56264    0.010
 6196.00    0.90135   0.56438   -2.000
 6197.00    1.08404   0.56464   -2.000
 6198.00    1.26400   0.56506   -2.000
 6199.00    1.24653   0.56599   -2.000
 6200.00    1.15908   0.56643   -2.000
 6201.00    0.97549   0.56747   -2.000
 6202.00    0.76314   0.56750   -2.000
 6203.00    0.56552   0.56712   -2.000
 6204.00    0.37156   0.56791   -2.000
 6205.00    0.35900   0.56767   -2.000
 6206.00    0.38297   0.56690   -2.000
 6207.00    0.44302   0.56646   -2.000
 6208.00    0.50878   0.56488    0.010
 6209.00    0.51871   0.56358    0.009
 6210.00    0.52209   0.56235    0.009
 6211.00    0.52232   0.56003    0.009
 6212.00    0.52229   0.55865    0.009
 6213.00    0.51421   0.55689    0.009
 6214.00    0.50577   0.55436    0.009
 6215.00    0.50219   0.55317    0.009
 6216.00    0.49923   0.55120    0.008
 6217.00    0.52319   0.54922    0.009
 6218.00    0.54649   0.54841    0.009
 6219.00    0.55770   0.54667    0.009
 6220.00    0.56931   0.54587    0.009
 6221.00    0.58520   0.54562    0.009
 6222.00    0.59836   0.54417    0.009
 6223.00    0.59034   0.54379    0.009
 6224.00    0.58100   0.54358    0.009
 6225.00    0.56396   0.54264    0.009
 6226.00    0.55045   0.54265    0.009
 6227.00    0.55334   0.54234    0.009
 6228.00    0.55164   0.54177    0.009
 6229.00    0.53250   0.54214    0.009
 6230.00    0.52979   0.54177    0.009
 6231.00    0.57905   0.54155    0.009
 6232.00    0.61348   0.54187    0.009
 6233.00    0.60808   0.54109    0.009
 6234.00    0.59923   0.54093    0.009
 6235.00    0.58246   0.54101    0.009
 6236.00    0.57047   0.54078    0.009
 6237.00    0.56800   0.54104    0.009
 6238.00    0.56079   0.54033    0.009
 6239.00    0.54536   0.54028    0.009
 6240.00    0.54628   0.54039    0.009
 6241.00    0.57206   0.53938    0.009
 6242.00    0.58734   0.53939    0.009
 6243.00    0.58862   0.53899    0.009
 6244.00    0.58213   0.53869    0.009
 6245.00    0.56650   0.53908    0.009
 6246.00    0.56539   0.53801    0.009
 6247.00    0.57934   0.53765    0.009
 6248.00    0.59290   0.53783    0.009
 6249.00    0.60612   0.53692    0.009
 6250.00    0.61220   0.53677    0.009
 6251.00    0.61252   0.53656    0.009
 6252.00    0.60669   0.53584    0.009
 6253.00    0.59649   0.53556    0.009
 6254.00    0.60419   0.53525    0.009
 6255.00    0.62303   0.53511    0.009
 6256.00    0.63877   0.53484    0.009
 6257.00    0.65283   0.53503    0.009
 6258.00    0.67663   0.53605    0.009
 6259.00    0.70504   0.53648    0.010
 6260.00    0.75944   0.53697    0.010
 6261.00    0.82445   0.53792    0.011
 6262.00    0.81155   0.53927    0.011
 6263.00    0.77153   0.54101    0.012
 6264.00    0.67891   0.54188    0.011
 6265.00    0.57086   0.54330    0.011
 6266.00    0.52551   0.54542    0.010
 6267.00    0.49540   0.54662    0.010
 6268.00    0.49144   0.54755    0.009
 6269.00    0.49261   0.54862    0.009
 6270.00    0.50455   0.55010    0.009
 6271.00    0.51815   0.55122    0.009
 6272.00    0.54160   0.55149    0.009
 6273.00    0.56616   0.55254    0.009
 6274.00    0.58787   0.55349    0.009
 6275.00    0.60936   0.55365    0.009
 6276.00    0.60701   0.55437    0.009
 6277.00    0.60370   0.55470    0.009
 6278.00    0.56473   0.55523    0.009
 6279.00    0.52693   0.55620    0.009
 6280.00    0.54707   0.55605    0.000
 6281.00    0.56643   0.55686    0.000
 6282.00    0.57243   0.55796    0.000
 6283.00    0.57899   0.55778    0.000
 6284.00    0.59137   0.55874    0.000
 6285.00    0.60019   0.55929    0.000
 6286.00    0.58248   0.55949    0.000
 6287.00    0.56376   0.56048    0.000
 6288.00    0.53920   0.56001    0.000
 6289.00    0.51961   0.56032    0.000
 6290.00    0.52253   0.56096    0.000
 6291.00    0.53291   0.56002    0.000
 6292.00    0.57095   0.56001    0.000
 6293.00    0.60174   0.55973    0.000
 6294.00    0.60999   0.55918    0.000
 6295.00    0.61311   0.55916    0.000
 6296.00    0.60270   0.55816    0.000
 6297.00    0.59657   0.55791    0.000
 6298.00    0.60014   0.55817    0.000
 6299.00    0.60578   0.55763    0.000
 6300.00    0.61553   0.55752    0.000
 6301.00    0.61621   0.55762    0.000
 6302.00    0.60141   0.55820    0.000
 6303.00    0.58609   0.55876    0.000
 6304.00    0.56999   0.55877    0.000
 6305.00    0.55027   0.55930    0.000
 6306.00    0.52580   0.55992    0.000
 6307.00    0.49474   0.56032    0.000
 6308.00    0.45604   0.56089    0.000
 6309.00    0.43638   0.56101    0.000
 6310.00    0.43617   0.56121    0.000
 6311.00    0.46331   0.56194    0.000
 6312.00    0.51509   0.56201    0.000
 6313.00    0.55196   0.56160    0.000
 6314.00    0.57700   0.56188    0.000
 6315.00    0.57296   0.56215    0.000
 6316.00    0.54859   0.56245    0.000
 6317.00    0.51605   0.56264    0.000
 6318.00    0.47850   0.56264    0.000
 6319.00    0.46941   0.56360    0.000
 6320.00    0.47556   0.56444    0.000
 6321.00    0.49700   0.56464    0.009
 6322.00    0.52555   0.56527    0.009
 6323.00    0.52700   0.56653    0.009
 6324.00    0.51759   0.56774    0.008
 6325.00    0.51618   0.56795    0.008
 6326.00    0.51749   0.56881    0.008
 6327.00    0.52535   0.57004    0.008
 6328.00    0.53509   0.57031    0.008
 6329.00    0.54580   0.57107    0.008
 6330.00    0.55674   0.57095    0.008
 6331.00    0.55268   0.57066    0.009
 6332.00    0.54576   0.57175    0.009
 6333.00    0.54441   0.57119    0.009
 6334.00    0.54389   0.57052    0.009
 6335.00    0.55057   0.57107    0.009
 6336.00    0.55804   0.57059    0.009
 6337.00    0.55760   0.57036    0.009
 6338.00    0.55661   0.56995    0.009
 6339.00    0.55421   0.56891    0.009
 6340.00    0.55175   0.56949    0.009
 6341.00    0.56162   0.56949    0.009
 6342.00    0.57113   0.56855    0.009
 6343.00    0.56647   0.56901    0.009
 6344.00    0.56035   0.56926    0.009
 6345.00    0.53096   0.56883    0.009
 6346.00    0.50627   0.56874    0.008
 6347.00    0.52904   0.56836    0.008
 6348.00    0.54890   0.56834    0.009
 6349.00    0.54782   0.56804    0.008
 6350.00    0.54678   0.56696    0.008
 6351.00    0.54598   0.56672    0.008
 6352.00    0.54700   0.56639    0.008
 6353.00    0.55611   0.56487    0.008
 6354.00    0.56267   0.56379    0.008
 6355.00    0.55996   0.56311    0.008
 6356.00    0.55607   0.56198    0.009
 6357.00    0.54858   0.56072    0.009
 6358.00    0.54532   0.55968    0.009
 6359.00    0.55302   0.55926    0.009
 6360.00    0.55593   0.55908    0.009
 6361.00    0.54816   0.55847    0.009
 6362.00    0.54650   0.55840    0.009
 6363.00    0.55665   0.55943    0.009
 6364.00    0.57024   0.56012    0.009
 6365.00    0.58963   0.56054    0.009
 6366.00    0.60129   0.56197    0.009
 6367.00    0.60158   0.56363    0.009
 6368.00    0.60100   0.56508    0.009
 6369.00    0.59930   0.56662    0.009
 6370.00    0.61071   0.56792    0.009
 6371.00    0.63709   0.56963    0.009
 6372.00    0.65074   0.57120    0.009
 6373.00    0.65155   0.57167    0.009
 6374.00    0.62472   0.57264    0.009
 6375.00    0.57331   0.57380    0.009
 6376.00    0.52938   0.57395    0.008
 6377.00    0.49130   0.57432    0.008
 6378.00    0.48957   0.57460    0.008
 6379.00    0.51288   0.57440    0.008
 6380.00    0.53894   0.57446    0.008
 6381.00    0.56665   0.57409    0.009
 6382.00    0.60423   0.57364    0.009
 6383.00    0.64700   0.57358    0.009
 6384.00    0.68298   0.57295    0.009
 6385.00    0.71586   0.57239    0.009
 6386.00    0.68857   0.57234    0.009
 6387.00    0.63759   0.57175    0.009
 6388.00    0.59199   0.57086    0.009
 6389.00    0.54820   0.57064    0.009
 6390.00    0.54286   0.57057    0.009
 6391.00    0.54835   0.56995    0.009
 6392.00    0.55767   0.56947    0.009
 6393.00    0.56789   0.56966    0.009
 6394.00    0.56824   0.56943    0.009
 6395.00    0.56675   0.56870    0.009
 6396.00    0.57718   0.56893    0.009
 6397.00    0.58933   0.56931    0.009
 6398.00    0.59226   0.56941    0.009
 6399.00    0.59424   0.56986    0.009
 6400.00    0.59121   0.56979    0.008
 6401.00    0.58784   0.57060    0.008
 6402.00    0.59900   0.57131    0.008
 6403.00    0.61063   0.57027    0.009
 6404.00    0.60716   0.57143    0.008
 6405.00    0.60400   0.57259    0.008
 6406.00    0.61103   0.57140    0.009
 6407.00    0.61603   0.57212    0.009
 6408.00    0.59066   0.57267    0.009
 6409.00    0.56775   0.57213    0.009
 6410.00    0.56862   0.57266    0.009
 6411.00    0.57227   0.57219    0.009
 6412.00    0.59543   0.57215    0.009
 6413.00    0.61354   0.57272    0.009
 6414.00    0.60450   0.57180    0.009
 6415.00    0.59776   0.57184    0.009
 6416.00    0.60095   0.57234    0.009
 6417.00    0.60638   0.57191    0.009
 6418.00    0.61978   0.57233    0.009
 6419.00    0.62860   0.57260    0.009
 6420.00    0.62370   0.57245    0.009
 6421.00    0.61376   0.57295    0.009
 6422.00    0.59098   0.57310    0.009
 6423.00    0.57837   0.57311    0.009
 6424.00    0.58807   0.57357    0.008
 6425.00    0.60124   0.57352    0.008
 6426.00    0.62100   0.57361    0.008
 6427.00    0.61333   0.57405    0.008
 6428.00    0.56015   0.57395    0.009
 6429.00    0.52682   0.57429    0.009
 6430.00    0.52235   0.57447    0.009
 6431.00    0.53416   0.57407    0.009
 6432.00    0.56679   0.57478    0.009
 6433.00    0.57629   0.57468    0.009
 6434.00    0.55972   0.57392    0.008
 6435.00    0.55281   0.57506    0.009
 6436.00    0.55549   0.57534    0.009
 6437.00    0.56544   0.57500    0.009
 6438.00    0.58177   0.57583    0.009
 6439.00    0.59349   0.57586    0.009
 6440.00    0.60166   0.57625    0.009
 6441.00    0.59687   0.57643    0.009
 6442.00    0.58326   0.57571    0.009
 6443.00    0.57929   0.57657    0.009
 6444.00    0.58104   0.57629    0.009
 6445.00    0.59231   0.57504    0.009
 6446.00    0.60853   0.57579    0.009
 6447.00    0.61832   0.57537    0.009
 6448.00    0.62521   0.57463    0.009
 6449.00    0.61115   0.57493    0.009
 6450.00    0.58900   0.57408    0.009
 6451.00    0.56769   0.57396    0.009
 6452.00    0.54666   0.57406    0.009
 6453.00    0.54845   0.57336    0.009
 6454.00    0.55654   0.57385    0.008
 6455.00    0.56916   0.57402    0.008
 6456.00    0.58282   0.57395    0.008
 6457.00    0.60248   0.57447    0.008
 6458.00    0.62323   0.57446    0.008
 6459.00    0.61983   0.57497    0.008
 6460.00    0.61307   0.57556    0.009
 6461.00    0.58785   0.57559    0.009
 6462.00    0.56079   0.57596    0.009
 6463.00    0.56951   0.57623    0.009
 6464.00    0.58048   0.57657    0.009
 6465.00    0.59335   0.57674    0.009
 6466.00    0.60626   0.57646    0.009
 6467.00    0.61189   0.57699    0.009
 6468.00    0.61783   0.57726    0.009
 6469.00    0.63234   0.57679    0.009
 6470.00    0.64689   0.57698    0.009
 6471.00    0.66197   0.57721    0.009
 6472.00    0.67095   0.57688    0.009
 6473.00    0.62346   0.57666    0.009
 6474.00    0.57509   0.57629    0.009
 6475.00    0.52084   0.57577    0.008
 6476.00    0.47840   0.57547    0.008
 6477.00    0.49792   0.57467    0.008
 6478.00    0.51934   0.57364    0.008
 6479.00    0.54878   0.57321    0.008
 6480.00    0.57303   0.57249    0.008
 6481.00    0.57922   0.57104    0.008
 6482.00    0.57911   0.56989    0.008
 6483.00    0.56048   0.56889    0.008
 6484.00    0.54851   0.56739    0.008
 6485.00    0.55315   0.56550    0.009
 6486.00    0.55757   0.56360    0.009
 6487.00    0.56151   0.56210    0.009
 6488.00    0.56593   0.55997    0.009
 6489.00    0.57126   0.55739    0.009
 6490.00    0.57538   0.55579    0.009
 6491.00    0.57751   0.55374    0.009
 6492.00    0.58436   0.55159    0.009
 6493.00    0.59798   0.55028    0.009
 6494.00    0.59787   0.54842    0.009
 6495.00    0.58045   0.54757    0.009
 6496.00    0.56567   0.54722    0.008
 6497.00    0.55384   0.54613    0.008
 6498.00    0.55777   0.54683    0.008
 6499.00    0.57716   0.54773    0.008
 6500.00    0.59189   0.54799    0.008
 6501.00    0.60260   0.54987    0.008
 6502.00    0.59740   0.55155    0.008
 6503.00    0.58008   0.55314    0.008
 6504.00    0.57323   0.55551    0.008
 6505.00    0.57338   0.55726    0.008
 6506.00    0.56279   0.55930    0.008
 6507.00    0.54589   0.56122    0.008
 6508.00    0.51910   0.56263    0.008
 6509.00    0.48725   0.56441    0.008
 6510.00    0.49361   0.56555    0.008
 6511.00    0.51688   0.56640    0.009
 6512.00    0.54862   0.56760    0.009
 6513.00    0.58357   0.56820    0.009
 6514.00    0.60296   0.56874    0.009
 6515.00    0.61732   0.56926    0.009
 6516.00    0.60969   0.56957    0.009
 6517.00    0.59613   0.57024    0.009
 6518.00    0.57921   0.57026    0.009
 6519.00    0.56156   0.57028    0.008
 6520.00    0.56295   0.57111    0.008
 6521.00    0.56771   0.57101    0.008
 6522.00    0.59186   0.57098    0.008
 6523.00    0.61863   0.57173    0.008
 6524.00    0.61920   0.57168    0.008
 6525.00    0.61728   0.57180    0.008
 6526.00    0.61690   0.57222    0.008
 6527.00    0.61661   0.57221    0.008
 6528.00    0.62635   0.57256    0.000
 6529.00    0.63609   0.57254    0.000
 6530.00    0.60895   0.57235    0.000
 6531.00    0.58149   0.57281    0.000
 6532.00    0.54559   0.57260    0.000
 6533.00    0.51106   0.57223    0.000
 6534.00    0.49481   0.57236    0.000
 6535.00    0.48304   0.57190    0.000
 6536.00    0.51119   0.57150    0.000
 6537.00    0.53859   0.57109    0.000
 6538.00    0.56116   0.56998    0.000
 6539.00    0.58567   0.56930    0.000
 6540.00    0.62015   0.56833    0.000
 6541.00    0.65885   0.56669    0.000
 6542.00    0.71502   0.56557    0.000
 6543.00    0.76566   0.56374    0.000
 6544.00    0.79742   0.56149    0.000
 6545.00    0.81566   0.55979    0.000
 6546.00    0.79498   0.55711    0.000
 6547.00    0.76405   0.55439    0.000
 6548.00    0.70789   0.55186    0.000
 6549.00    0.66209   0.54829    0.000
 6550.00    0.63826   0.54520    0.000
 6551.00    0.62075   0.54175    0.000
 6552.00    0.61490   0.53758    0.000
 6553.00    0.62817   0.53431    0.000
 6554.00    0.67222   0.52968    0.000
 6555.00    0.77503   0.52489    0.000
 6556.00    0.96083   0.52219    0.000
 6557.00    1.16445   0.51777    0.000
 6558.00    1.39023   0.51321    0.000
 6559.00    1.54133   0.51127    0.000
 6560.00    1.61063   0.50826    0.000
 6561.00    1.55489   0.50539    0.000
 6562.00    1.37835   0.50459    0.000
 6563.00    1.15999   0.50356    0.000
 6564.00    0.90600   0.50368    0.000
 6565.00    0.74832   0.50449    0.000
 6566.00    0.66288   0.50499    0.000
 6567.00    0.61462   0.50794    0.000
 6568.00    0.59087   0.51062    0.000
 6569.00    0.57003   0.51185    0.000
 6570.00    0.55088   0.51621    0.000
 6571.00    0.54409   0.52089    0.000
 6572.00    0.54351   0.52311    0.000
 6573.00    0.54443   0.52671    0.000
 6574.00    0.54600   0.53096    0.000
 6575.00    0.56300   0.53342    0.000
 6576.00    0.58576   0.53630    0.000
 6577.00    0.67539   0.53981    0.000
 6578.00    0.78620   0.54190    0.000
 6579.00    0.87391   0.54410    0.000
 6580.00    0.95552   0.54673    0.000
 6581.00    0.97271   0.54809    0.000
 6582.00    0.97598   0.54982    0.000
 6583.00    0.88677   0.55182    0.000
 6584.00    0.78170   0.55230    0.000
 6585.00    0.69864   0.55315    0.000
 6586.00    0.61844   0.55441    0.000
 6587.00    0.57848   0.55445    0.000
 6588.00    0.54219   0.55488    0.000
 6589.00    0.54005   0.55542    0.000
 6590.00    0.53979   0.55518    0.000
 6591.00    0.52020   0.55537    0.000
 6592.00    0.50044   0.55537    0.000
 6593.00    0.50479   0.55511    0.000
 6594.00    0.51008   0.55537    0.000
 6595.00    0.53721   0.55534    0.000
 6596.00    0.56308   0.55499    0.000
 6597.00    0.57289   0.55531    0.000
 6598.00    0.58101   0.55545    0.000
 6599.00    0.57460   0.55505    0.000
 6600.00    0.56664   0.55546    0.000
 6601.00    0.54878   0.55580    0.000
 6602.00    0.53420   0.55572    0.000
 6603.00    0.53602   0.55623    0.000
 6604.00    0.54119   0.55643    0.000
 6605.00    0.55989   0.55627    0.000
 6606.00    0.56471   0.55675    0.000
 6607.00    0.52303   0.55720    0.000
 6608.00    0.49727   0.55729    0.000
 6609.00    0.51647   0.55757    0.008
 6610.00    0.54101   0.55803    0.009
 6611.00    0.57843   0.55839    0.009
 6612.00    0.59391   0.55864    0.009
 6613.00    0.56361   0.55911    0.009
 6614.00    0.53404   0.55956    0.009
 6615.00    0.50579   0.55977    0.008
 6616.00    0.48414   0.55988    0.008
 6617.00    0.47297   0.56011    0.008
 6618.00    0.47060   0.56045    0.008
 6619.00    0.48049   0.56009    0.008
 6620.00    0.49974   0.55964    0.008
 6621.00    0.53048   0.55978    0.008
 6622.00    0.56554   0.55913    0.008
 6623.00    0.60528   0.55839    0.008
 6624.00    0.62216   0.55808    0.008
 6625.00    0.61728   0.55713    0.008
 6626.00    0.60556   0.55645    0.008
 6627.00    0.58809   0.55601    0.008
 6628.00    0.57429   0.55500    0.008
 6629.00    0.56319   0.55454    0.008
 6630.00    0.53768   0.55413    0.008
 6631.00    0.50279   0.55323    0.008
 6632.00    0.50164   0.55302    0.008
 6633.00    0.51966   0.55294    0.008
 6634.00    0.55552   0.55246    0.009
 6635.00    0.60020   0.55231    0.009
 6636.00    0.60903   0.55226    0.009
 6637.00    0.60251   0.55215    0.008
 6638.00    0.57492   0.55225    0.008
 6639.00    0.53960   0.55221    0.008
 6640.00    0.51081   0.55207    0.008
 6641.00    0.48405   0.55235    0.008
 6642.00    0.48963   0.55245    0.008
 6643.00    0.50358   0.55216    0.008
 6644.00    0.52585   0.55237    0.008
 6645.00    0.54987   0.55250    0.008
 6646.00    0.54522   0.55199    0.008
 6647.00    0.53579   0.55208    0.008
 6648.00    0.49934   0.55222    0.008
 6649.00    0.45949   0.55156    0.008
 6650.00    0.47927   0.55136    0.008
 6651.00    0.50425   0.55136    0.008
 6652.00    0.52607   0.55074    0.008
 6653.00    0.54773   0.55035    0.009
 6654.00    0.55115   0.55001    0.009
 6655.00    0.55423   0.54931    0.009
 6656.00    0.55516   0.54891    0.009
 6657.00    0.55471   0.54836    0.009
 6658.00    0.52480   0.54760    0.009
 6659.00    0.49636   0.54725    0.009
 6660.00    0.48546   0.54662    0.008
 6661.00    0.47644   0.54599    0.008
 6662.00    0.48288   0.54585    0.008
 6663.00    0.49032   0.54516    0.008
 6664.00    0.50390   0.54472    0.008
 6665.00    0.51873   0.54491    0.008
 6666.00    0.53960   0.54413    0.008
 6667.00    0.55382   0.54372    0.008
 6668.00    0.54178   0.54417    0.008
 6669.00    0.53112   0.54337    0.008
 6670.00    0.52502   0.54280    0.008
 6671.00    0.52047   0.54317    0.008
 6672.00    0.52021   0.54254    0.008
 6673.00    0.52020   0.54188    0.008
 6674.00    0.52079   0.54186    0.008
 6675.00    0.52856   0.54136    0.009
 6676.00    0.55110   0.54087    0.009
 6677.00    0.56015   0.54061    0.009
 6678.00    0.54508   0.54025    0.009
 6679.00    0.53374   0.54010    0.009
 6680.00    0.52822   0.54000    0.009
 6681.00    0.53131   0.53984    0.009
 6682.00    0.54623   0.54004    0.008
 6683.00    0.56263   0.54035    0.008
 6684.00    0.58082   0.54032    0.008
 6685.00    0.59492   0.54059    0.008
 6686.00    0.60466   0.54140    0.008
 6687.00    0.60196   0.54152    0.008
 6688.00    0.58759   0.54155    0.008
 6689.00    0.57202   0.54245    0.008
 6690.00    0.55547   0.54261    0.008
 6691.00    0.54780   0.54245    0.008
 6692.00    0.54660   0.54306    0.008
 6693.00    0.53607   0.54302    0.008
 6694.00    0.51956   0.54285    0.008
 6695.00    0.51541   0.54323    0.008
 6696.00    0.51819   0.54294    0.000
 6697.00    0.52807   0.54287    0.000
 6698.00    0.54142   0.54310    0.000
 6699.00    0.55614   0.54258    0.000
 6700.00    0.57145   0.54262    0.000
 6701.00    0.56366   0.54271    0.000
 6702.00    0.54757   0.54201    0.000
 6703.00    0.53831   0.54201    0.000
 6704.00    0.53113   0.54184    0.000
 6705.00    0.52208   0.54106    0.000
 6706.00    0.51256   0.54083    0.000
 6707.00    0.55213   0.54027    0.000
 6708.00    0.60182   0.53950    0.000
 6709.00    0.63535   0.53904    0.000
 6710.00    0.66626   0.53808    0.000
 6711.00    0.72311   0.53729    0.000
 6712.00    0.78310   0.53670    0.000
 6713.00    0.80784   0.53566    0.000
 6714.00    0.82965   0.53498    0.000
 6715.00    0.82109   0.53444    0.000
 6716.00    0.81108   0.53370    0.000
 6717.00    0.73022   0.53328    0.000
 6718.00    0.64874   0.53296    0.000
 6719.00    0.58934   0.53277    0.000
 6720.00    0.53265   0.53269    0.000
 6721.00    0.52857   0.53265    0.000
 6722.00    0.52908   0.53303    0.000
 6723.00    0.58215   0.53323    0.000
 6724.00    0.63506   0.53340    0.000
 6725.00    0.68662   0.53409    0.000
 6726.00    0.73587   0.53442    0.000
 6727.00    0.77126   0.53469    0.000
 6728.00    0.79051   0.53529    0.000
 6729.00    0.73326   0.53553    0.000
 6730.00    0.67892   0.53582    0.000
 6731.00    0.63579   0.53605    0.000
 6732.00    0.59126   0.53594    0.000
 6733.00    0.54221   0.53615    0.000
 6734.00    0.50532   0.53608    0.000
 6735.00    0.50160   0.53561    0.000
 6736.00    0.50577   0.53558    0.000
 6737.00    0.52840   0.53529    0.000
 6738.00    0.54159   0.53465    0.000
 6739.00    0.53574   0.53438    0.000
 6740.00    0.52646   0.53397    0.000
 6741.00    0.51116   0.53336    0.000
 6742.00    0.50541   0.53291    0.000
 6743.00    0.51434   0.53257    0.000
 6744.00    0.51833   0.53213    0.000
 6745.00    0.51565   0.53173    0.000
 6746.00    0.50046   0.53161    0.000
 6747.00    0.47037   0.53140    0.000
 6748.00    0.47064   0.53121    0.000
 6749.00    0.50278   0.53144    0.000
 6750.00    0.51319   0.53147    0.000
 6751.00    0.50347   0.53172    0.000
 6752.00    0.49188   0.53227    0.000
 6753.00    0.47875   0.53232    0.009
 6754.00    0.48757   0.53302    0.009
 6755.00    0.51214   0.53386    0.009
 6756.00    0.54166   0.53378    0.009
 6757.00    0.57430   0.53465    0.010
 6758.00    0.56739   0.53556    0.010
 6759.00    0.53869   0.53533    0.010
 6760.00    0.52422   0.53609    0.010
 6761.00    0.51656   0.53684    0.010
 6762.00    0.53495   0.53651    0.010
 6763.00    0.56411   0.53699    0.010
 6764.00    0.57388   0.53752    0.010
 6765.00    0.57679   0.53724    0.010
 6766.00    0.60646   0.53748    0.010
 6767.00    0.64411   0.53783    0.010
 6768.00    0.62731   0.53769    0.010
 6769.00    0.59701   0.53783    0.010
 6770.00    0.60205   0.53811    0.010
 6771.00    0.61418   0.53809    0.010
 6772.00    0.60650   0.53816    0.009
 6773.00    0.59570   0.53838    0.009
 6774.00    0.57880   0.53836    0.009
 6775.00    0.56119   0.53826    0.009
 6776.00    0.53965   0.53827    0.009
 6777.00    0.51781   0.53805    0.009
 6778.00    0.52668   0.53768    0.009
 6779.00    0.53690   0.53745    0.009
 6780.00    0.52854   0.53695    0.009
 6781.00    0.51995   0.53626    0.009
 6782.00    0.50950   0.53585    0.009
 6783.00    0.50084   0.53527    0.009
 6784.00    0.52475   0.53445    0.009
 6785.00    0.54657   0.53403    0.009
 6786.00    0.54546   0.53360    0.009
 6787.00    0.54720   0.53288    0.009
 6788.00    0.57084   0.53268    0.009
 6789.00    0.59179   0.53258    0.009
 6790.00    0.59706   0.53210    0.009
 6791.00    0.59539   0.53224    0.010
 6792.00    0.56163   0.53248    0.010
 6793.00    0.54383   0.53221    0.009
 6794.00    0.58639   0.53270    0.009
 6795.00    0.62215   0.53317    0.009
 6796.00    0.63641   0.53303    0.009
 6797.00    0.64658   0.53375    0.009
 6798.00    0.64575   0.53425    0.009
 6799.00    0.64179   0.53413    0.009
 6800.00    0.63063   0.53491    0.009
 6801.00    0.62448   0.53523    0.009
 6802.00    0.62828   0.53514    0.009
 6803.00    0.61300   0.53585    0.009
 6804.00    0.56466   0.53585    0.009
 6805.00    0.51437   0.53585    0.009
 6806.00    0.46113   0.53641    0.009
 6807.00    0.45532   0.53608    0.009
 6808.00    0.51270   0.53622    0.009
 6809.00    0.55234   0.53662    0.009
 6810.00    0.57113   0.53611    0.009
 6811.00    0.56235   0.53641    0.009
 6812.00    0.52502   0.53664    0.009
 6813.00    0.51619   0.53616    0.010
 6814.00    0.53338   0.53660    0.010
 6815.00    0.53700   0.53672    0.010
 6816.00    0.52969   0.53640    0.010
 6817.00    0.53609   0.53691    0.009
 6818.00    0.55219   0.53696    0.009
 6819.00    0.58787   0.53682    0.009
 6820.00    0.63570   0.53728    0.009
 6821.00    0.63908   0.53726    0.009
 6822.00    0.61834   0.53721    0.008
 6823.00    0.60143   0.53756    0.009
 6824.00    0.58633   0.53742    0.009
 6825.00    0.58577   0.53734    0.009
 6826.00    0.59113   0.53754    0.009
 6827.00    0.58159   0.53726    0.009
 6828.00    0.56688   0.53706    0.009
 6829.00    0.54331   0.53710    0.009
 6830.00    0.51714   0.53670    0.009
 6831.00    0.52265   0.53635    0.009
 6832.00    0.53583   0.53623    0.009
 6833.00    0.56541   0.53569    0.009
 6834.00    0.59820   0.53530    0.009
 6835.00    0.61027   0.53509    0.009
 6836.00    0.61920   0.53447    0.009
 6837.00    0.62474   0.53409    0.010
 6838.00    0.62990   0.53384    0.010
 6839.00    0.57973   0.53329    0.010
 6840.00    0.52543   0.53302    0.010
 6841.00    0.49781   0.53277    0.010
 6842.00    0.47125   0.53241    0.009
 6843.00    0.46639   0.53226    0.009
 6844.00    0.46365   0.53203    0.009
 6845.00    0.53997   0.53186    0.009
 6846.00    0.61103   0.53173    0.008
 6847.00    0.59314   0.53147    0.008
 6848.00    0.57855   0.53147    0.008
 6849.00    0.59849   0.53123    0.009
 6850.00    0.61209   0.53086    0.009
 6851.00    0.57862   0.53092    0.009
 6852.00    0.55044   0.53053    0.009
 6853.00    0.55228   0.53008    0.009
 6854.00    0.55137   0.53014    0.009
 6855.00    0.53801   0.52964    0.009
 6856.00    0.53327   0.52921    0.009
 6857.00    0.56046   0.52929    0.009
 6858.00    0.59192   0.52881    0.009
 6859.00    0.63661   0.52851    0.009
 6860.00    0.66144   0.52864    0.009
 6861.00    0.63404   0.52831    0.009
 6862.00    0.61858   0.52819    0.009
 6863.00    0.63008   0.52838    0.009
 6864.00    0.63106   0.52827    0.009
 6865.00    0.61145   0.52831    0.009
 6866.00    0.58780   0.52855    0.009
 6867.00    0.55724   0.52867    0.009
 6868.00    0.54304   0.52882    0.009
 6869.00    0.55329   0.52907    0.009
 6870.00    0.55749   0.52942    0.009
 6871.00    0.55372   0.52965    0.009
 6872.00    0.54567   0.52989    0.009
 6873.00    0.53268   0.53042    0.009
 6874.00    0.54661   0.53073    0.009
 6875.00    0.58803   0.53095    0.009
 6876.00    0.61506   0.53160    0.009
 6877.00    0.62913   0.53199    0.009
 6878.00    0.60137   0.53220    0.009
 6879.00    0.54043   0.53295    0.009
 6880.00    0.48712   0.53339    0.009
 6881.00    0.43913   0.53361    0.009
 6882.00    0.43365   0.53443    0.009
 6883.00    0.45419   0.53492    0.009
 6884.00    0.46370   0.53518    0.009
 6885.00    0.46733   0.53610    0.009
 6886.00    0.47955   0.53658    0.009
 6887.00    0.49576   0.53687    0.008
 6888.00    0.52227   0.53784    0.009
 6889.00    0.55290   0.53826    0.009
 6890.00    0.55694   0.53856    0.009
 6891.00    0.55192   0.53948    0.008
 6892.00    0.54118   0.53980    0.009
 6893.00    0.52880   0.54006    0.009
 6894.00    0.54471   0.54083    0.009
 6895.00    0.56732   0.54105    0.009
 6896.00    0.52339   0.54127    0.009
 6897.00    0.46679   0.54182    0.009
 6898.00    0.49670   0.54201    0.009
 6899.00    0.53940   0.54221    0.009
 6900.00    0.55018   0.54254    0.009
 6901.00    0.55751   0.54276    0.009
 6902.00    0.55214   0.54293    0.009
 6903.00    0.54587   0.54303    0.009
 6904.00    0.53258   0.54330    0.009
 6905.00    0.51905   0.54337    0.009
 6906.00    0.53592   0.54324    0.009
 6907.00    0.55291   0.54353    0.009
 6908.00    0.57071   0.54341    0.009
 6909.00    0.58794   0.54311    0.009
 6910.00    0.59631   0.54339    0.009
 6911.00    0.60337   0.54305    0.009
 6912.00    0.59739   0.54266    0.009
 6913.00    0.59070   0.54292    0.009
 6914.00    0.57886   0.54242    0.009
 6915.00    0.56396   0.54204    0.009
 6916.00    0.53215   0.54228    0.009
 6917.00    0.50651   0.54174    0.009
 6918.00    0.50808   0.54146    0.009
 6919.00    0.50736   0.54168    0.009
 6920.00    0.49829   0.54122    0.009
 6921.00    0.49318   0.54107    0.009
 6922.00    0.50009   0.54126    0.009
 6923.00    0.50974   0.54098    0.009
 6924.00    0.52647   0.54096    0.009
 6925.00    0.52134   0.54112    0.009
 6926.00    0.46761   0.54108    0.009
 6927.00    0.44053   0.54116    0.009
 6928.00    0.46478   0.54129    0.009
 6929.00    0.46713   0.54149    0.009
 6930.00    0.43264   0.54163    0.009
 6931.00    0.43899   0.54173    0.009
 6932.00    0.50548   0.54212    0.009
 6933.00    0.54855   0.54226    0.009
 6934.00    0.56128   0.54229    0.009
 6935.00    0.57932   0.54280    0.009
 6936.00    0.60343   0.54286    0.009
 6937.00    0.60494   0.54279    0.009
 6938.00    0.58371   0.54332    0.009
 6939.00    0.58444   0.54326    0.009
 6940.00    0.60467   0.54306    0.009
 6941.00    0.58577   0.54360    0.009
 6942.00    0.53625   0.54342    0.009
 6943.00    0.52924   0.54313    0.009
 6944.00    0.55145   0.54369    0.009
 6945.00    0.55092   0.54344    0.009
 6946.00    0.53667   0.54313    0.009
 6947.00    0.53955   0.54377    0.009
 6948.00    0.55144   0.54356    0.009
 6949.00    0.57051   0.54332    0.009
 6950.00    0.59287   0.54406    0.009
 6951.00    0.59761   0.54397    0.009
 6952.00    0.59544   0.54387    0.009
 6953.00    0.58769   0.54473    0.009
 6954.00    0.57808   0.54478    0.009
 6955.00    0.54703   0.54486    0.009
 6956.00    0.50996   0.54576    0.009
 6957.00    0.49061   0.54592    0.009
 6958.00    0.47536   0.54611    0.009
 6959.00    0.47798   0.54696    0.009
 6960.00    0.48391   0.54710    0.009
 6961.00    0.49116   0.54729    0.009
 6962.00    0.49859   0.54796    0.009
 6963.00    0.53726   0.54790    0.009
 6964.00    0.57916   0.54794    0.009
 6965.00    0.58188   0.54830    0.009
 6966.00    0.58199   0.54793    0.009
 6967.00    0.54681   0.54769    0.009
 6968.00    0.51050   0.54771    0.009
 6969.00    0.50885   0.54701    0.009
 6970.00    0.50689   0.54647    0.009
 6971.00    0.49535   0.54624    0.009
 6972.00    0.48276   0.54538    0.009
 6973.00    0.45436   0.54464    0.009
 6974.00    0.43322   0.54439    0.009
 6975.00    0.48180   0.54364    0.009
 6976.00    0.52167   0.54292    0.009
 6977.00    0.50102   0.54290    0.009
 6978.00    0.47898   0.54255    0.009
 6979.00    0.44945   0.54207    0.009
 6980.00    0.43745   0.54240    0.009
 6981.00    0.50095   0.54255    0.009
 6982.00    0.54546   0.54239    0.009
 6983.00    0.52258   0.54300    0.009
 6984.00    0.50308   0.54351    0.009
 6985.00    0.49364   0.54358    0.009
 6986.00    0.48966   0.54424    0.009
 6987.00    0.49951   0.54486    0.009
 6988.00    0.51959   0.54496    0.009
 6989.00    0.56201   0.54545    0.010
 6990.00    0.57053   0.54594    0.010
 6991.00    0.51474   0.54592    0.009
 6992.00    0.47999   0.54612    0.009
 6993.00    0.48009   0.54639    0.009
 6994.00    0.50667   0.54620    0.009
 6995.00    0.57169   0.54614    0.010
 6996.00    0.59063   0.54620    0.010
 6997.00    0.55078   0.54592    0.009
 6998.00    0.53493   0.54571    0.009
 6999.00    0.54607   0.54562    0.009
 7000.00    0.54324   0.54537    0.009
 7001.00    0.52654   0.54512    0.009
 7002.00    0.52641   0.54493    0.009
 7003.00    0.54077   0.54478    0.010
 7004.00    0.59018   0.54457    0.010
 7005.00    0.66659   0.54429    0.010
 7006.00    0.67087   0.54426    0.010
 7007.00    0.62629   0.54411    0.010
 7008.00    0.58716   0.54375    0.010
 7009.00    0.55128   0.54383    0.010
 7010.00    0.54111   0.54374    0.010
 7011.00    0.54426   0.54332    0.010
 7012.00    0.52756   0.54348    0.010
 7013.00    0.50195   0.54347    0.010
 7014.00    0.48569   0.54305    0.010
 7015.00    0.47305   0.54329    0.010
 7016.00    0.45736   0.54340    0.011
 7017.00    0.44068   0.54307    0.012
 7018.00    0.48461   0.54340    0.013
 7019.00    0.54522   0.54366    0.013
 7020.00    0.60062   0.54350    0.013
 7021.00    0.65483   0.54391    0.014
 7022.00    0.60911   0.54433    0.012
 7023.00    0.54532   0.54440    0.011
 7024.00    0.51148   0.54487    0.010
 7025.00    0.48179   0.54545    0.010
 7026.00    0.50308   0.54574    0.010
 7027.00    0.52943   0.54625    0.010
 7028.00    0.56131   0.54700    0.010
 7029.00    0.59354   0.54747    0.010
 7030.00    0.53357   0.54800    0.010
 7031.00    0.47132   0.54893    0.010
 7032.00    0.50030   0.54953    0.010
 7033.00    0.52847   0.55005    0.010
 7034.00    0.53451   0.55117    0.010
 7035.00    0.53603   0.55187    0.010
 7036.00    0.47411   0.55230    0.010
 7037.00    0.42164   0.55349    0.010
 7038.00    0.45641   0.55422    0.010
 7039.00    0.49152   0.55446    0.010
 7040.00    0.52904   0.55549    0.010
 7041.00    0.55990   0.55603    0.010
 7042.00    0.55594   0.55592    0.010
 7043.00    0.55574   0.55647    0.010
 7044.00    0.57136   0.55654    0.010
 7045.00    0.58596   0.55591    0.010
 7046.00    0.59705   0.55570    0.010
 7047.00    0.59778   0.55505    0.010
 7048.00    0.56822   0.55381    0.010
 7049.00    0.53751   0.55280    0.010
 7050.00    0.50391   0.55141   -2.000
 7051.00    0.48805   0.54962   -2.000
 7052.00    0.51036   0.54802   -2.000
 7053.00    0.52462   0.54615   -2.000
 7054.00    0.52384   0.54404   -2.000
 7055.00    0.53701   0.54225   -2.000
 7056.00    0.57294   0.54037   -2.000
 7057.00    0.57694   0.53827   -2.000
 7058.00    0.53530   0.53668   -2.000
 7059.00    0.50179   0.53524   -2.000
 7060.00    0.47852   0.53345   -2.000
 7061.00    0.49246   0.53233   -2.000
 7062.00    0.54766   0.53161   -2.000
 7063.00    0.53488   0.53032   -2.000
 7064.00    0.45562   0.52978   -2.000
 7065.00    0.46785   0.52982   -2.000
 7066.00    0.55899   0.52911   -2.000
 7067.00    0.58737   0.52904   -2.000
 7068.00    0.56807   0.52966   -2.000
 7069.00    0.53266   0.52942   -2.000
 7070.00    0.48650   0.52957   -2.000
 7071.00    0.51319   0.53042   -2.000
 7072.00    0.58248   0.53038   -2.000
 7073.00    0.59143   0.53040   -2.000
 7074.00    0.56961   0.53104   -2.000
 7075.00    0.58685   0.53084   -2.000
 7076.00    0.62133   0.53034   -2.000
 7077.00    0.57905   0.53043   -2.000
 7078.00    0.50766   0.52979   -2.000
 7079.00    0.55822   0.52856   -2.000
 7080.00    0.64805   0.52796   -2.000
 7081.00    0.58645   0.52680   -2.000
 7082.00    0.48406   0.52488   -2.000
 7083.00    0.45968   0.52375   -2.000
 7084.00    0.45253   0.52228   -2.000
 7085.00    0.49600   0.52000   -2.000
 7086.00    0.54837   0.51867   -2.000
 7087.00    0.55306   0.51726   -2.000
 7088.00    0.55135   0.51510   -2.000
 7089.00    0.54327   0.51393   -2.000
 7090.00    0.53459   0.51293   -2.000
 7091.00    0.48931   0.51128   -2.000
 7092.00    0.44189   0.51050   -2.000
 7093.00    0.52716   0.51007   -2.000
 7094.00    0.61443   0.50911   -2.000
 7095.00    0.52877   0.50876   -2.000
 7096.00    0.44859   0.50884   -2.000
 7097.00    0.50451   0.50853   -2.000
 7098.00    0.55679   0.50847   -2.000
 7099.00    0.56057   0.50887   -2.000
 7100.00    0.56483   0.50900   -2.000
 7101.00    0.57324   0.50909   -2.000
 7102.00    0.57236   0.50958   -2.000
 7103.00    0.51080   0.50995   -2.000
 7104.00    0.46148   0.51007   -2.000
 7105.00    0.47453   0.51051   -2.000
 7106.00    0.49631   0.51093   -2.000
 7107.00    0.55403   0.51106   -2.000
 7108.00    0.58323   0.51137   -2.000
 7109.00    0.51526   0.51176   -2.000
 7110.00    0.49270   0.51187   -2.000
 7111.00    0.60063   0.51203   -2.000
 7112.00    0.65504   0.51230   -2.000
 7113.00    0.57814   0.51230   -2.000
 7114.00    0.52071   0.51224   -2.000
 7115.00    0.50451   0.51231   -2.000
 7116.00    0.51057   0.51209   -2.000
 7117.00    0.55755   0.51170   -2.000
 7118.00    0.57459   0.51148   -2.000
 7119.00    0.54351   0.51094   -2.000
 7120.00    0.52124   0.51016   -2.000
 7121.00    0.51139   0.50960   -2.000
 7122.00    0.54909   0.50880   -2.000
 7123.00    0.64578   0.50772   -2.000
 7124.00    0.69781   0.50687   -2.000
 7125.00    0.70100   0.50599   -2.000
 7126.00    0.68228   0.50490   -2.000
 7127.00    0.64243   0.50393   -2.000
 7128.00    0.59654   0.50320   -2.000
 7129.00    0.54551   0.50245   -2.000
 7130.00    0.56551   0.50157   -2.000
 7131.00    0.63871   0.50115   -2.000
 7132.00    0.62306   0.50099   -2.000
 7133.00    0.54895   0.50035   -2.000
 7134.00    0.54106   0.50024   -2.000
 7135.00    0.57131   0.50070   -2.000
 7136.00    0.57724   0.50030   -2.000
 7137.00    0.57098   0.50039   -2.000
 7138.00    0.58858   0.50130   -2.000
 7139.00    0.61653   0.50109   -2.000
 7140.00    0.54185   0.50119   -2.000
 7141.00    0.42895   0.50237   -2.000
 7142.00    0.46819   0.50229   -2.000
 7143.00    0.55549   0.50229   -2.000
 7144.00    0.51165   0.50358   -2.000
 7145.00    0.43322   0.50367   -2.000
 7146.00    0.44854   0.50355   -2.000
 7147.00    0.48406   0.50485   -2.000
 7148.00    0.51802   0.50521   -2.000
 7149.00    0.55171   0.50502   -2.000
 7150.00    0.47173   0.50622   -2.000
 7151.00    0.37703   0.50688   -2.000
 7152.00    0.40834   0.50671   -2.000
 7153.00    0.45110   0.50766   -2.000
 7154.00    0.45083   0.50856   -2.000
 7155.00    0.44819   0.50845   -2.000
 7156.00    0.46533   0.50907   -2.000
 7157.00    0.48347   0.51005   -2.000
 7158.00    0.55594   0.51006   -2.000
 7159.00    0.63048   0.51037   -2.000
 7160.00    0.75218   0.51130   -2.000
 7161.00    0.86425   0.51145   -2.000
 7162.00    0.85487   0.51159   -2.000
 7163.00    0.83624   0.51243   -2.000
 7164.00    0.73870   0.51273   -2.000
 7165.00    0.65531   0.51284   -2.000
 7166.00    0.66162   0.51361   -2.000
 7167.00    0.64747   0.51402   -2.000
 7168.00    0.53176   0.51416   -2.000
 7169.00    0.44158   0.51484   -2.000
 7170.00    0.45423   0.51526   -2.000
 7171.00    0.49435   0.51538   -2.000
 7172.00    0.62631   0.51587   -2.000
 7173.00    0.69949   0.51617   -2.000
 7174.00    0.60685   0.51621   -2.000
 7175.00    0.54375   0.51639   -2.000
 7176.00    0.55188   0.51648   -2.000
 7177.00    0.53716   0.51641   -2.000
 7178.00    0.47486   0.51624   -2.000
 7179.00    0.46236   0.51609   -2.000
 7180.00    0.54002   0.51597   -2.000
 7181.00    0.56132   0.51554   -2.000
 7182.00    0.49341   0.51518   -2.000
 7183.00    0.48209   0.51512   -2.000
 7184.00    0.54940   0.51461   -2.000
 7185.00    0.52614   0.51412   -2.000
 7186.00    0.39213   0.51420   -2.000
 7187.00    0.36402   0.51382   -2.000
 7188.00    0.45005   0.51331   -2.000
 7189.00    0.50192   0.51352   -2.000
 7190.00    0.52132   0.51340   -2.000
 7191.00    0.54059   0.51297   -2.000
 7192.00    0.55976   0.51322   -2.000
 7193.00    0.53539   0.51337   -2.000
 7194.00    0.47888   0.51307   -2.000
 7195.00    0.49598   0.51322   -2.000
 7196.00    0.56081   0.51355   -2.000
 7197.00    0.56551   0.51340   -2.000
 7198.00    0.53610   0.51333   -2.000
 7199.00    0.54408   0.51371   -2.000
 7200.00    0.57053   0.51375   -2.000
 7201.00    0.52048   0.51343   -2.000
 7202.00    0.43776   0.51378   -2.000
 7203.00    0.41497   0.51407   -2.000
 7204.00    0.41409   0.51361   -2.000
 7205.00    0.45878   0.51391   -2.000
 7206.00    0.51757   0.51452   -2.000
 7207.00    0.43796   0.51416   -2.000
 7208.00    0.32261   0.51441   -2.000
 7209.00    0.36026   0.51541   -2.000
 7210.00    0.43008   0.51536   -2.000
 7211.00    0.48622   0.51558   -2.000
 7212.00    0.54009   0.51693   -2.000
 7213.00    0.54147   0.51736   -2.000
 7214.00    0.53629   0.51756   -2.000
 7215.00    0.44819   0.51909   -2.000
 7216.00    0.35291   0.52001   -2.000
 7217.00    0.41945   0.52024   -2.000
 7218.00    0.49421   0.52171   -2.000
