###################################################################
## OUTPUT of StarlightChains_v04.for    [Cid@UFSC - 01/Apr/2007] ##
###################################################################

## Some input info
KUG0210-078._47_40.txt                   [arq_obs]
Base.CB07.vall.4m                        [arq_base]
Masks.EmLines.NEW.gm                     [arq_masks]
StCv04.C11.config                        [arq_config]
   66                                    [N_base]
    0                                    [N_YAV_components = # of components with extra extinction!]
    0                                    [i_FitPowerLaw (1/0 = Yes/No)]
-9.99                                    [alpha_PowerLaw]
CCM                                      [red_law_option]
 1.458241                                [q_norm = A(l_norm)/A(V)]

## (Re)Sampling Parameters
 3741.00                                 [l_ini (A)]
 7218.00                                 [l_fin (A)]
    1.00                                 [dl    (A)]     (OBS: dl_cushion =    50.00 A)

## Normalization info
 4020.00                                 [l_norm (A) - for base]
 4010.00                                 [llow_norm (A) - window for f_obs]
 4060.00                                 [lupp_norm (A) - window for f_obs]
1.017839E-17                             [fobs_norm (in input units)]

## S/N
 3691.00                                 [llow_SN (A) - window for S/N]
 7268.00                                 [lupp_SN (A) - window for S/N]
   2.877                                 [S/N in S/N window]
   4.510                                 [S/N in norm. window]
   0.007                                 [S/N_err in S/N window]
   0.011                                 [S/N_err in norm. window]
  1.0000                                 [fscale_chi2]

## etc...
    -2007912                             [idum_orig]
  2363                                   [NOl_eff]
  2318                                   [Nl_eff]
    45    NSIGMA                         [Ntot_cliped & clip_method]
  1527890                                [Nglobal_steps]
   7                                     [N_chains]
  37                                     [NEX0s_base = N_base in EX0s-fits]
 0   0   1       45   2.0   2.930E+03    [Clip-Bug, RC-Crash & Burn-In warning-flags, n_censored_weights, wei_nsig_threshold & wei_limit]
    27     26.594     25.856      0.737  [idt_all, wdt_TotTime, wdt_UsrTime & wdt_SysTime (sec)]

## Synthesis Results - Best model ##

 2.22760E-05                             [chi2/Nl_eff]
    32.23437                             [adev (%)]

    91.50089                             [sum-of-x (%)]
 3.57450E-18                             [Flux_tot (units of input spectrum!)]
 5.45701E-14                             [Mini_tot (???)]
 2.97415E-14                             [Mcor_tot (???)]

-278.60                                  [v0_min  (km/s)]
  60.45                                  [vd_min  (km/s)]
-0.7130                                  [AV_min  (mag)]
 0.0000                                  [YAV_min (mag)]

# j     x_j(%)      Mini_j(%)     Mcor_j(%)     age_j(yr)     Z_j      (L/M)_j    YAV?  Mstars   component_j        a/Fe...       SSP_chi2r SSP_adev(%)   SSP_AV   SSP_x(%)
  1      0.0000     0.0000E+00    0.0000E+00    1.000000E+06  0.00400  1.094E-02    0   1.0000   age020_m42            0.0000     2.6519E-05    38.3120   2.5721    72.5096
  2      0.0000     0.0000E+00    0.0000E+00    3.160000E+06  0.00400  4.007E-02    0   0.9999   age045_m42            0.0000     2.4631E-05    36.1431   1.7819    78.7772
  3      0.0000     0.0000E+00    0.0000E+00    5.010000E+06  0.00400  2.539E-02    0   0.9488   age055_m42            0.0000     2.5747E-05    37.4788   2.1619    75.5412
  4      0.0000     0.0000E+00    0.0000E+00    6.610000E+06  0.00400  2.620E-02    0   0.9220   age061_m42            0.0000     2.4867E-05    36.1946   1.7376    78.1780
  5      0.0036     1.9330E-05    3.1431E-05    1.000000E+07  0.00400  1.322E-02    0   0.8862   age070_m42            0.0000     2.5420E-05    37.9085   1.5388    77.8680
  6      0.0000     0.0000E+00    0.0000E+00    1.445000E+07  0.00400  7.883E-03    0   0.8571   age078_m42            0.0000     2.5940E-05    38.4110   1.8736    75.7263
  7      0.0000     0.0000E+00    0.0000E+00    2.512000E+07  0.00400  5.251E-03    0   0.8174   age090_m42            0.0000     2.5323E-05    38.0501   1.4155    78.1392
  8      0.7660     1.5028E-02    2.1648E-02    4.000000E+07  0.00400  3.649E-03    0   0.7851   age104_m42            0.0000     2.4919E-05    37.4423   1.1670    79.3171
  9      2.6296     6.0765E-02    8.5057E-02    5.500000E+07  0.00400  3.098E-03    0   0.7629   age110_m42            0.0000     2.4344E-05    35.9696   1.2624    80.6610
 10      0.0000     0.0000E+00    0.0000E+00    1.015200E+08  0.00400  2.228E-03    0   0.7207   age116_m42            0.0000     2.4003E-05    34.9592   1.2506    81.5654
 11      4.3218     2.8306E-01    3.4527E-01    2.861200E+08  0.00400  1.093E-03    0   0.6648   age125_m42            0.0000     2.3679E-05    34.7792   0.6879    83.6762
 12      0.0000     0.0000E+00    0.0000E+00    5.088000E+08  0.00400  6.597E-04    0   0.6365   age130_m42            0.0000     2.3134E-05    33.3162   0.6080    86.0885
 13      0.0110     3.6974E-03    3.9333E-03    1.434000E+09  0.00400  2.132E-04    0   0.5798   age139_m42            0.0000     2.2488E-05    32.6669  -0.4297    89.3568
 14      0.0000     0.0000E+00    0.0000E+00    4.250000E+09  0.00400  5.895E-05    0   0.5377   age158_m42            0.0000     2.3218E-05    33.2432  -0.9001    86.5532
 15      0.0000     0.0000E+00    0.0000E+00    7.500000E+09  0.00400  3.510E-05    0   0.5212   age171_m42            0.0000     2.3360E-05    34.4715  -1.0000    85.5011
 16      1.2322     4.3996E+00    4.0637E+00    1.300000E+10  0.00400  2.005E-05    0   0.5034   age193_m42            0.0000     2.3933E-05    37.4627  -1.0000    83.2897
 17      0.3136     1.4719E+00    1.3415E+00    1.800000E+10  0.00400  1.525E-05    0   0.4967   age213_m42            0.0000     2.4082E-05    37.9342  -1.0000    82.4650
 18      0.0000     0.0000E+00    0.0000E+00    1.000000E+06  0.00800  1.238E-02    0   1.0000   age020_m52            0.0000     2.6654E-05    38.2827   2.5735    72.5297
 19      0.0000     0.0000E+00    0.0000E+00    3.160000E+06  0.00800  3.074E-02    0   0.9966   age045_m52            0.0000     2.6658E-05    38.3106   2.5040    72.9853
 20      0.0000     0.0000E+00    0.0000E+00    5.010000E+06  0.00800  2.668E-02    0   0.9443   age055_m52            0.0000     2.6194E-05    37.7871   2.2632    74.4286
 21      0.0000     0.0000E+00    0.0000E+00    6.610000E+06  0.00800  2.136E-02    0   0.9177   age061_m52            0.0000     2.5467E-05    38.1240   1.0278    79.0248
 22      0.0000     0.0000E+00    0.0000E+00    1.000000E+07  0.00800  1.215E-02    0   0.8827   age070_m52            0.0000     2.5935E-05    38.7730   1.7480    76.9905
 23      0.0000     0.0000E+00    0.0000E+00    1.445000E+07  0.00800  8.717E-03    0   0.8552   age078_m52            0.0000     2.5773E-05    38.2446   1.8381    76.8183
 24      1.5114     1.9348E-02    2.8975E-02    2.512000E+07  0.00800  5.592E-03    0   0.8162   age090_m52            0.0000     2.5266E-05    37.9918   1.4790    79.0571
 25      0.0000     0.0000E+00    0.0000E+00    4.000000E+07  0.00800  3.896E-03    0   0.7841   age104_m52            0.0000     2.4689E-05    37.0606   1.3556    80.5277
 26      0.0000     0.0000E+00    0.0000E+00    1.015200E+08  0.00800  2.148E-03    0   0.7226   age116_m52            0.0000     2.4194E-05    35.6255   1.2497    81.4287
 27      9.8782     7.1250E-01    8.7367E-01    2.861200E+08  0.00800  9.925E-04    0   0.6683   age125_m52            0.0000     2.3043E-05    33.1623   0.6724    86.9106
 28      0.0000     0.0000E+00    0.0000E+00    9.047900E+08  0.00800  3.141E-04    0   0.6138   age135_m52            0.0000     2.2132E-05    31.7099  -0.2733    94.1859
 29      0.0000     0.0000E+00    0.0000E+00    1.434000E+09  0.00800  1.719E-04    0   0.5853   age139_m52            0.0000     2.2202E-05    32.6902  -0.8495    92.1104
 30      0.0000     0.0000E+00    0.0000E+00    2.500000E+09  0.00800  7.872E-05    0   0.5600   age150_m52            0.0000     2.2836E-05    33.9950  -1.0000    88.8212
 31      5.6241     9.2853E+00    9.2442E+00    4.250000E+09  0.00800  4.336E-05    0   0.5426   age158_m52            0.0000     2.3106E-05    34.3355  -1.0000    87.7528
 32      0.0000     0.0000E+00    0.0000E+00    6.250000E+09  0.00800  3.159E-05    0   0.5319   age166_m52            0.0000     2.3821E-05    37.9310  -1.0000    85.6476
 33      0.0000     0.0000E+00    0.0000E+00    1.300000E+10  0.00800  1.361E-05    0   0.5073   age193_m52            0.0000     2.7687E-05    48.5781  -1.0000    78.0302
 34      0.0000     0.0000E+00    0.0000E+00    1.800000E+10  0.00800  9.886E-06    0   0.4990   age213_m52            0.0000     2.9468E-05    50.6761  -1.0000    75.8840
 35      0.0000     0.0000E+00    0.0000E+00    1.000000E+06  0.02000  1.544E-02    0   1.0000   age020_m62            0.0000     2.6819E-05    38.3807   2.5757    72.5371
 36      0.0000     0.0000E+00    0.0000E+00    3.160000E+06  0.02000  3.762E-02    0   0.9858   age045_m62            0.0000     2.6948E-05    38.5129   2.5218    72.9511
 37      0.0000     0.0000E+00    0.0000E+00    5.010000E+06  0.02000  3.296E-02    0   0.9342   age055_m62            0.0000     2.5575E-05    36.7168   2.1116    76.6114
 38      0.0000     0.0000E+00    0.0000E+00    8.710000E+06  0.02000  1.154E-02    0   0.8861   age067_m62            0.0000     2.7958E-05    43.2574   1.3502    75.3715
 39      0.2618     2.4455E-03    3.8014E-03    1.445000E+07  0.02000  7.663E-03    0   0.8472   age078_m62            0.0000     2.6190E-05    40.0083   1.4287    77.8552
 40      0.0000     1.4615E-07    2.1718E-07    2.512000E+07  0.02000  4.532E-03    0   0.8099   age090_m62            0.0000     2.6256E-05    40.0829   1.4361    77.2099
 41      0.0000     0.0000E+00    0.0000E+00    5.500000E+07  0.02000  2.733E-03    0   0.7595   age110_m62            0.0000     2.5079E-05    37.4992   1.3643    79.2800
 42      0.2435     1.2733E-02    1.6318E-02    1.609000E+08  0.02000  1.369E-03    0   0.6985   age120_m62            0.0000     2.3835E-05    34.5981   1.1086    83.7179
 43      0.0000     0.0000E+00    0.0000E+00    2.861200E+08  0.02000  9.013E-04    0   0.6714   age125_m62            0.0000     2.2894E-05    32.6056   0.7718    88.3442
 44      0.0000     0.0000E+00    0.0000E+00    5.088000E+08  0.02000  5.028E-04    0   0.6449   age130_m62            0.0000     2.1900E-05    30.9394   0.2439    94.5757
 45     12.4072     3.6581E+00    4.1473E+00    9.047900E+08  0.02000  2.428E-04    0   0.6179   age135_m62            0.0000     2.1831E-05    31.8316  -0.3889    95.0938
 46      0.5825     3.3019E-01    3.5793E-01    1.434000E+09  0.02000  1.263E-04    0   0.5908   age139_m62            0.0000     2.2188E-05    32.4283  -0.8398    93.7601
 47      0.0000     0.0000E+00    0.0000E+00    2.500000E+09  0.02000  5.985E-05    0   0.5673   age150_m62            0.0000     2.2908E-05    34.3860  -1.0000    90.5409
 48      0.0018     3.9495E-03    3.9624E-03    4.250000E+09  0.02000  3.271E-05    0   0.5468   age158_m62            0.0000     2.4835E-05    40.2523  -1.0000    85.8213
 49      1.7240     9.0747E+00    8.6033E+00    1.000000E+10  0.02000  1.360E-05    0   0.5167   age181_m62            0.0000     2.8736E-05    47.7870  -1.0000    80.0115
 50      0.0000     0.0000E+00    0.0000E+00    1.800000E+10  0.02000  7.124E-06    0   0.5013   age213_m62            0.0000     3.2296E-05    51.8102  -1.0000    75.5096
 51      0.0000     0.0000E+00    0.0000E+00    1.000000E+06  0.05000  2.592E-02    0   0.9998   age020_m72            0.0000     2.7124E-05    38.6058   2.5794    72.2855
 52      0.0000     0.0000E+00    0.0000E+00    3.160000E+06  0.05000  4.845E-02    0   0.9577   age045_m72            0.0000     2.6479E-05    37.8528   2.3976    74.0194
 53      0.0000     0.0000E+00    0.0000E+00    5.010000E+06  0.05000  3.072E-02    0   0.9147   age055_m72            0.0000     2.6672E-05    39.6690   1.9933    75.3735
 54      0.0000     0.0000E+00    0.0000E+00    6.610000E+06  0.05000  1.455E-02    0   0.8877   age061_m72            0.0000     2.8920E-05    44.9412   1.4324    74.7246
 55      0.0000     0.0000E+00    0.0000E+00    1.000000E+07  0.05000  9.074E-03    0   0.8524   age070_m72            0.0000     2.6691E-05    39.7327   2.1619    75.2673
 56      1.2825     2.1602E-02    3.1320E-02    2.512000E+07  0.05000  4.250E-03    0   0.7902   age090_m72            0.0000     2.5837E-05    38.6768   1.8536    76.9610
 57      0.0000     0.0000E+00    0.0000E+00    4.000000E+07  0.05000  3.087E-03    0   0.7618   age104_m72            0.0000     2.5561E-05    38.3166   1.6252    78.1894
 58      0.0000     0.0000E+00    0.0000E+00    1.015200E+08  0.05000  1.700E-03    0   0.7096   age116_m72            0.0000     2.4166E-05    35.4360   1.2858    82.5038
 59      0.0000     0.0000E+00    0.0000E+00    2.861200E+08  0.05000  7.384E-04    0   0.6633   age125_m72            0.0000     2.2371E-05    31.5606   0.5572    91.6576
 60      0.0000     0.0000E+00    0.0000E+00    5.088000E+08  0.05000  3.819E-04    0   0.6372   age130_m72            0.0000     2.1764E-05    31.4064  -0.0425    95.9696
 61     34.8490     1.4885E+01    1.6687E+01    9.047900E+08  0.05000  1.676E-04    0   0.6110   age135_m72            0.0000     2.1950E-05    32.5776  -0.8204    96.1931
 62      0.0000     0.0000E+00    0.0000E+00    1.434000E+09  0.05000  8.837E-05    0   0.5874   age139_m72            0.0000     2.2800E-05    34.3849  -1.0000    92.1794
 63      4.0541     6.8562E+00    7.0422E+00    2.500000E+09  0.05000  4.233E-05    0   0.5598   age150_m72            0.0000     2.4897E-05    40.2215  -1.0000    86.8854
 64      9.8030     4.8904E+01    4.7099E+01    6.250000E+09  0.05000  1.435E-05    0   0.5249   age166_m72            0.0000     2.9984E-05    49.7838  -1.0000    77.9621
 65      0.0000     0.0000E+00    0.0000E+00    1.300000E+10  0.05000  6.513E-06    0   0.5036   age193_m72            0.0000     3.5131E-05    54.7000  -1.0000    72.9761
 66      0.0000     0.0000E+00    0.0000E+00    1.800000E+10  0.05000  4.527E-06    0   0.4945   age213_m72            0.0000     3.8680E-05    57.1257  -1.0000    69.3015


## Synthesis Results - Average & Chains ##

# j      x_j: min, <> & last-chain-values for 1 ...  7 chains
  1      0.0000      0.3622      0.0000      0.0382      0.1876      0.6812      0.0000      0.2420      0.0000
  2      0.0000      0.3230      2.7038      0.0000      0.0000      1.6693      0.0000      0.5799      0.0000
  3      0.0000      0.3550      0.0000      0.0219      0.8806      0.0000      0.7920      2.5850      0.5421
  4      0.0000      0.3078      0.3317      0.0000      0.8476      1.3335      0.6730      0.5938      0.4779
  5      0.0036      0.2224      1.0625      0.3283      0.4692      0.4080      0.7884      0.4493      0.4621
  6      0.0000      0.3058      0.7289      1.9776      0.2823      2.1307      0.0000      0.2928      0.4614
  7      0.0000      0.3598      0.9396      0.5742      0.3479      0.0000      1.0573      0.1326      0.0572
  8      0.7660      0.2430      0.4077      0.3863      0.2499      1.2516      1.6297      0.0000      0.0889
  9      2.6296      0.3239      0.7034      1.9887      0.4341      0.0000      0.3779      0.2424      0.1520
 10      0.0000      0.3424      0.0000      0.9190      0.4510      0.0000      0.0926      1.4041      1.9798
 11      4.3218      0.2255      0.4909      0.7702      0.7247      1.7444      0.6585      1.1497      0.0000
 12      0.0000      0.2914      1.2900      0.1734      0.2694      0.0000      0.0000      0.4982      0.5133
 13      0.0110      0.3572      1.6742      0.9110      2.2214      0.3031      0.7640      0.5558      0.3887
 14      0.0000      0.2778      0.0000      0.0000      0.3888      0.6502      0.5273      0.5714      0.9559
 15      0.0000      0.2799      0.6156      0.0000      1.0607      0.0602      0.9441      0.1486      1.6497
 16      1.2322      0.2372      0.5472      0.3129      0.0000      0.3132      0.0000      1.5998      0.4955
 17      0.3136      0.3299      2.0757      0.7518      0.5885      0.0874      0.1543      0.7540      0.9374
 18      0.0000      0.2596      0.0000      0.0000      0.5182      0.0000      0.9203      0.1973      0.0000
 19      0.0000      0.4022      0.0000      0.5375      0.9760      0.4650      0.0000      0.2807      0.3557
 20      0.0000      0.2283      0.6231      0.5758      0.2941      0.3763      0.4459      0.0000      0.0000
 21      0.0000      0.1915      0.2057      0.0000      0.2330      0.6801      0.4864      0.1609      0.3836
 22      0.0000      0.2079      0.6622      0.0000      0.5449      0.0000      1.0421      0.2932      0.1124
 23      0.0000      0.3229      0.7304      0.0000      1.7596      0.0951      0.0000      0.2545      1.3120
 24      1.5114      0.2026      0.0000      0.4332      1.0111      0.0000      0.6416      0.0000      0.1604
 25      0.0000      0.3106      0.8242      0.0691      0.4781      0.0000      0.0540      0.5468      0.3851
 26      0.0000      0.2051      0.7636      1.1039      0.2571      0.0164      0.0000      0.8723      0.0000
 27      9.8782      0.2835      0.3313      0.3268      0.9465      0.1420      0.0000      0.0746      0.4408
 28      0.0000      0.3171      1.7352      0.0782      0.7651      0.0000      0.0000      0.6743      0.7844
 29      0.0000      0.2983      0.1086      0.1624      1.5981      0.0000      0.3717      0.0000      0.2162
 30      0.0000      0.3908      1.8267      1.2050      1.0042      0.0941      0.0264      0.4818      0.7898
 31      5.6241      0.2451      1.1612      0.3523      0.0000      1.9763      0.4440      0.8552      0.8542
 32      0.0000      0.3019      0.0000      0.0669      0.0000      1.6313      0.3978      0.0000      0.0000
 33      0.0000      0.3079      1.6028      0.1608      1.5313      0.6080      0.0000      0.0000      0.0000
 34      0.0000      0.3111      1.0648      0.0000      0.4015      0.0000      0.5771      0.0343      0.2503
 35      0.0000      0.2805      0.0000      0.0940      0.0000      0.0561      0.0000      0.2339      1.4791
 36      0.0000      0.2050      0.2969      0.4285      0.0000      0.0000      0.2469      0.0000      0.0000
 37      0.0000      0.3509      0.0000      0.6171      0.0000      2.2575      0.1048      0.0652      0.6997
 38      0.0000      0.3251      0.6371      0.4585      0.0000      0.0332      0.2885      0.2362      0.1574
 39      0.2618      0.3351      2.1204      1.1788      0.3015      0.4111      0.4799      0.4263      0.2949
 40      0.0000      0.3330      0.1782      0.9125      0.9362      0.3232      0.3081      0.0000      0.5717
 41      0.0000      0.3933      1.4373      2.1646      0.0762      0.0000      0.0000      1.0341      0.2483
 42      0.2435      0.2932      0.0000      0.7919      0.1356      0.0000      0.7797      0.1492      0.4930
 43      0.0000      0.3014      0.0000      0.0000      0.0000      0.2523      2.0061      0.0000      1.2886
 44      0.0000      0.3125      0.0000      0.0000      0.0000      1.5893      0.8331      0.5914      0.2391
 45     12.4072      0.2881      0.0926      0.6892      0.2128      0.0096      0.0000      0.0000      1.4273
 46      0.5825      0.3214      0.6919      1.5074      0.0000      0.3371      1.5443      0.6367      0.5808
 47      0.0000      0.3144      0.0000      0.0782      0.3100      0.1463      0.9868      0.0000      1.4871
 48      0.0018      0.4019      0.9697      0.9439      0.3061      0.1791      1.0813      1.4806      0.7174
 49      1.7240      0.2151      0.6725      0.6225      0.4023      0.0525      0.0726      0.0872      0.0000
 50      0.0000      0.2761      1.0637      0.0800      1.2057      0.6015      0.0000      0.0000      0.0000
 51      0.0000      0.2267      0.2041      1.0354      0.1029      0.5068      0.0000      0.1572      0.5681
 52      0.0000      0.3381      0.1094      1.0134      0.0000      0.8098      0.9285      1.3135      0.0000
 53      0.0000      0.2558      0.0000      0.1472      0.7404      0.0204      0.4644      0.0000      0.0000
 54      0.0000      0.5157      0.0000      0.1740      1.1421      2.3048      0.0000      0.7386      0.8952
 55      0.0000      0.4147      0.0000      0.0000      0.6435      0.3538      0.1490      0.4862      0.0186
 56      1.2825      4.2727      2.4668      4.3097      3.3603      3.6190      3.4517      3.8531      2.8103
 57      0.0000     10.6332      8.3948      8.4667      8.1547      9.1407     10.1945      9.0414      9.2365
 58      0.0000      0.2922      0.1487      0.0000      0.0589      0.8235      0.0000      0.1058      1.1881
 59      0.0000      0.2677      0.1146      0.1845      0.0000      0.0441      1.7388      0.1223      2.5570
 60      0.0000      0.2829      2.0748      0.0550      0.0767      0.3654      0.0000      0.0000      1.8060
 61     34.8490      0.4048      0.7467      0.6427      2.0857      0.0000      1.0903      0.0181      0.4147
 62      0.0000      0.3874      0.5522      0.0008      0.0640      0.8626      1.4615      0.1083      0.0585
 63      4.0541      0.3089      0.0000      1.3093      0.4402      0.4672      0.4658      0.6341      0.2060
 64      9.8030      0.4182      2.3498      3.2502      3.1960      0.0000      0.5871      0.0000      1.9746
 65      0.0000     46.1346     29.1425     34.5228     34.4022     37.7232     38.0043     41.0583     33.6714
 66      0.0000      1.2100      1.7128      2.2857      0.0000      2.3173      0.0000      2.3332      0.9283

# j      m_j: min, <> & last-chain-values for 1 ...  7 chains
  1  0.0000E+00  8.6377E-04  0.0000E+00  1.0987E-04  5.6384E-04  1.8675E-03  0.0000E+00  6.1995E-04  0.0000E+00
  2  0.0000E+00  2.1024E-04  2.3245E-03  0.0000E+00  0.0000E+00  1.2492E-03  0.0000E+00  4.0559E-04  0.0000E+00
  3  0.0000E+00  3.4613E-04  0.0000E+00  2.5835E-05  1.0820E-03  0.0000E+00  9.5618E-04  2.7077E-03  6.9013E-04
  4  0.0000E+00  2.8260E-04  4.0218E-04  0.0000E+00  9.8082E-04  1.4073E-03  7.6511E-04  5.8571E-04  5.7304E-04
  5  3.1431E-05  3.8886E-04  2.4539E-03  6.9307E-04  1.0342E-03  8.2027E-04  1.7074E-03  8.4432E-04  1.0554E-03
  6  0.0000E+00  8.6743E-04  2.7304E-03  6.7723E-03  1.0092E-03  6.9475E-03  0.0000E+00  8.9252E-04  1.7091E-03
  7  0.0000E+00  1.4611E-03  5.0391E-03  2.8153E-03  1.7805E-03  0.0000E+00  5.3170E-03  5.7843E-04  3.0341E-04
  8  2.1648E-02  1.3641E-03  3.0219E-03  2.6177E-03  1.7679E-03  8.0756E-03  1.1328E-02  0.0000E+00  6.5183E-04
  9  8.5057E-02  2.0809E-03  5.9681E-03  1.5425E-02  3.5152E-03  0.0000E+00  3.0068E-03  1.6732E-03  1.2751E-03
 10  0.0000E+00  2.8893E-03  0.0000E+00  9.3630E-03  4.7968E-03  0.0000E+00  9.6766E-04  1.2732E-02  2.1819E-02
 11  3.4527E-01  3.5783E-03  1.0286E-02  1.4755E-02  1.4493E-02  3.1818E-02  1.2939E-02  1.9601E-02  0.0000E+00
 12  0.0000E+00  7.3352E-03  4.2882E-02  5.2683E-03  8.5463E-03  0.0000E+00  0.0000E+00  1.3474E-02  1.6872E-02
 13  3.9333E-03  2.5344E-02  1.5686E-01  7.8028E-02  1.9865E-01  2.4722E-02  6.7127E-02  4.2368E-02  3.6013E-02
 14  0.0000E+00  6.6093E-02  0.0000E+00  0.0000E+00  1.1661E-01  1.7785E-01  1.5538E-01  1.4610E-01  2.9706E-01
 15  0.0000E+00  1.0844E-01  3.1492E-01  0.0000E+00  5.1789E-01  2.6826E-02  4.5288E-01  6.1860E-02  8.3461E-01
 16  4.0637E+00  1.5539E-01  4.7332E-01  2.4746E-01  0.0000E+00  2.3583E-01  0.0000E+00  1.1259E+00  4.2387E-01
 17  1.3415E+00  2.8031E-01  2.3292E+00  7.7126E-01  6.3030E-01  8.5401E-02  1.6239E-01  6.8838E-01  1.0403E+00
 18  0.0000E+00  5.4701E-04  0.0000E+00  0.0000E+00  1.3763E-03  0.0000E+00  2.4017E-03  4.4667E-04  0.0000E+00
 19  0.0000E+00  3.4015E-04  0.0000E+00  5.4880E-04  1.0405E-03  4.5207E-04  0.0000E+00  2.5508E-04  3.9291E-04
 20  0.0000E+00  2.1078E-04  7.5983E-04  6.4183E-04  3.4226E-04  3.9943E-04  5.0990E-04  0.0000E+00  0.0000E+00
 21  0.0000E+00  2.1464E-04  3.0447E-04  0.0000E+00  3.2913E-04  8.7633E-04  6.7509E-04  1.9372E-04  5.6153E-04
 22  0.0000E+00  3.9397E-04  1.6574E-03  0.0000E+00  1.3016E-03  0.0000E+00  2.4458E-03  5.9708E-04  2.7826E-04
 23  0.0000E+00  8.2647E-04  2.4687E-03  0.0000E+00  5.6765E-03  2.7973E-04  0.0000E+00  6.9997E-04  4.3853E-03
 24  2.8975E-02  7.7140E-04  0.0000E+00  1.9913E-03  4.8527E-03  0.0000E+00  3.0254E-03  0.0000E+00  7.9759E-04
 25  0.0000E+00  1.6307E-03  5.7150E-03  4.3802E-04  3.1641E-03  0.0000E+00  3.5084E-04  3.0845E-03  2.6407E-03
 26  0.0000E+00  1.7997E-03  8.8498E-03  1.1696E-02  2.8442E-03  1.6529E-04  0.0000E+00  8.2251E-03  0.0000E+00
 27  8.7367E-01  4.9804E-03  7.6849E-03  6.9302E-03  2.0957E-02  2.8674E-03  0.0000E+00  1.4078E-03  1.0113E-02
 28  0.0000E+00  1.6164E-02  1.1682E-01  4.8160E-03  4.9164E-02  0.0000E+00  0.0000E+00  3.6933E-02  5.2225E-02
 29  0.0000E+00  2.6494E-02  1.2737E-02  1.7418E-02  1.7893E-01  0.0000E+00  4.0885E-02  0.0000E+00  2.5080E-02
 30  0.0000E+00  7.2523E-02  4.4770E-01  2.6998E-01  2.3490E-01  2.0067E-02  6.0777E-03  9.6073E-02  1.9142E-01
 31  9.2442E+00  8.0018E-02  5.0063E-01  1.3885E-01  0.0000E+00  7.4165E-01  1.7951E-01  3.0000E-01  3.6421E-01
 32  0.0000E+00  1.3261E-01  0.0000E+00  3.5454E-02  0.0000E+00  8.2375E-01  2.1639E-01  0.0000E+00  0.0000E+00
 33  0.0000E+00  2.9939E-01  2.0583E+00  1.8874E-01  1.8768E+00  6.7965E-01  0.0000E+00  0.0000E+00  0.0000E+00
 34  0.0000E+00  4.0965E-01  1.8517E+00  0.0000E+00  6.6635E-01  0.0000E+00  9.4101E-01  4.8535E-02  4.3048E-01
 35  0.0000E+00  4.7396E-04  0.0000E+00  1.9165E-04  0.0000E+00  1.0888E-04  0.0000E+00  4.2471E-04  3.2637E-03
 36  0.0000E+00  1.4012E-04  2.6804E-04  3.5364E-04  0.0000E+00  0.0000E+00  2.0898E-04  0.0000E+00  0.0000E+00
 37  0.0000E+00  2.5943E-04  0.0000E+00  5.5085E-04  0.0000E+00  1.9189E-03  9.5979E-05  5.1776E-05  6.7567E-04
 38  0.0000E+00  6.5133E-04  1.6854E-03  1.1088E-03  0.0000E+00  7.6399E-05  7.1556E-04  5.0844E-04  4.1169E-04
 39  3.8014E-03  9.6661E-04  8.0766E-03  4.1049E-03  1.0960E-03  1.3629E-03  1.7139E-03  1.3210E-03  1.1109E-03
 40  2.1718E-07  1.5525E-03  1.0972E-03  5.1359E-03  5.5014E-03  1.7324E-03  1.7785E-03  0.0000E+00  3.4807E-03
 41  0.0000E+00  2.8517E-03  1.3761E-02  1.8946E-02  6.9623E-04  0.0000E+00  0.0000E+00  8.0556E-03  2.3511E-03
 42  1.6318E-02  3.9031E-03  0.0000E+00  1.2726E-02  2.2757E-03  0.0000E+00  1.2852E-02  2.1336E-03  8.5707E-03
 43  0.0000E+00  5.8570E-03  0.0000E+00  0.0000E+00  0.0000E+00  5.6365E-03  4.8277E-02  0.0000E+00  3.2705E-02
 44  0.0000E+00  1.0456E-02  0.0000E+00  0.0000E+00  0.0000E+00  6.1134E-02  3.4519E-02  2.1264E-02  1.0446E-02
 45  4.1473E+00  1.9127E-02  8.1147E-03  5.5240E-02  1.7811E-02  7.3398E-04  0.0000E+00  0.0000E+00  1.2376E-01
 46  3.5793E-01  3.9220E-02  1.1150E-01  2.2209E-01  0.0000E+00  4.7296E-02  2.3338E-01  8.3482E-02  9.2559E-02
 47  0.0000E+00  7.7747E-02  0.0000E+00  2.3343E-02  9.6634E-02  4.1579E-02  3.0217E-01  0.0000E+00  4.8025E-01
 48  3.9624E-03  1.7529E-01  5.5846E-01  4.9697E-01  1.6825E-01  8.9800E-02  5.8397E-01  6.9380E-01  4.0857E-01
 49  8.6033E+00  2.1318E-01  8.8026E-01  7.4484E-01  5.0264E-01  5.9817E-02  8.9070E-02  9.2833E-02  0.0000E+00
 50  0.0000E+00  5.0690E-01  2.5788E+00  1.7728E-01  2.7899E+00  1.2694E+00  0.0000E+00  0.0000E+00  0.0000E+00
 51  0.0000E+00  2.2810E-04  2.7126E-04  1.2578E-03  1.3049E-04  5.8620E-04  0.0000E+00  1.6993E-04  7.4655E-04
 52  0.0000E+00  1.7436E-04  7.4506E-05  6.3091E-04  0.0000E+00  4.8004E-04  5.9293E-04  7.2778E-04  0.0000E+00
 53  0.0000E+00  1.9869E-04  0.0000E+00  1.3807E-04  7.2489E-04  1.8208E-05  4.4670E-04  0.0000E+00  0.0000E+00
 54  0.0000E+00  8.2089E-04  0.0000E+00  3.3435E-04  2.2911E-03  4.2170E-03  0.0000E+00  1.2631E-03  1.8608E-03
 55  0.0000E+00  1.0164E-03  0.0000E+00  0.0000E+00  1.9878E-03  9.9682E-04  4.5215E-04  1.2802E-03  5.9489E-05
 56  3.1320E-02  2.0725E-02  1.5802E-02  2.5238E-02  2.0544E-02  2.0179E-02  2.0733E-02  2.0081E-02  1.7802E-02
 57  0.0000E+00  6.8456E-02  7.1373E-02  6.5808E-02  6.6172E-02  6.7647E-02  8.1274E-02  6.2542E-02  7.7658E-02
 58  0.0000E+00  3.1816E-03  2.1387E-03  0.0000E+00  8.0830E-04  1.0309E-02  0.0000E+00  1.2373E-03  1.6896E-02
 59  0.0000E+00  6.2736E-03  3.5461E-03  5.2192E-03  0.0000E+00  1.1880E-03  5.0459E-02  3.0791E-03  7.8257E-02
 60  0.0000E+00  1.2314E-02  1.1927E-01  2.8905E-03  4.2055E-03  1.8284E-02  0.0000E+00  0.0000E+00  1.0267E-01
 61  1.6687E+01  3.8495E-02  9.3783E-02  7.3796E-02  2.5002E-01  0.0000E+00  1.2841E-01  1.8452E-03  5.1514E-02
 62  0.0000E+00  6.7185E-02  1.2647E-01  1.6384E-04  1.3979E-02  1.7196E-01  3.1384E-01  2.0182E-02  1.3249E-02
 63  7.0422E+00  1.0657E-01  0.0000E+00  5.4537E-01  1.9144E-01  1.8529E-01  1.9899E-01  2.3507E-01  9.2823E-02
 64  4.7099E+01  3.9909E-01  2.9612E+00  3.7445E+00  3.8440E+00  0.0000E+00  6.9380E-01  0.0000E+00  2.4609E+00
 65  0.0000E+00  9.3063E+01  7.7633E+01  8.4076E+01  8.7468E+01  8.7474E+01  9.4934E+01  8.8989E+01  8.8703E+01
 66  0.0000E+00  3.4482E+00  6.4459E+00  7.8638E+00  0.0000E+00  7.5911E+00  0.0000E+00  7.1441E+00  3.4548E+00

# AV, chi2 & Mass for <> & i_chain = 1 ...  7 solutions
AV      -0.7130     -0.9896     -0.9249     -0.9818     -0.9583     -0.9969     -0.9554     -1.0000     -0.9033
chi2 2.2276E-05  2.4617E-05  2.4039E-05  2.3998E-05  2.4421E-05  2.4012E-05  2.4187E-05  2.4244E-05  2.4117E-05
Mass 2.9742E-14  1.0328E-13  8.5302E-14  8.6443E-14  8.5453E-14  8.8963E-14  8.7315E-14  9.4787E-14  8.8804E-14
-278.60                                  [v0_min (km/s) before EX0s...]
  60.45                                  [vd_min (km/s) before EX0s...]


## Synthetic spectrum (Best Model) ##l_obs f_obs f_syn wei
 3478    [Nl_obs]
 3741.00    0.83281   0.48965    0.000
 3742.00    0.67791   0.45869    0.000
 3743.00    0.43781   0.42426    0.000
 3744.00    0.32197   0.38295    0.000
 3745.00    0.27855   0.33946   -1.000
 3746.00    0.23559   0.32406   -1.000
 3747.00    0.19288   0.35801   -1.000
 3748.00    0.03206   0.42368   -1.000
 3749.00   -0.18069   0.49147    0.000
 3750.00    0.03617   0.55153   -1.000
 3751.00    0.41522   0.59959   -1.000
 3752.00    0.42500   0.61679   -1.000
 3753.00    0.31643   0.58846   -1.000
 3754.00    0.46487   0.53563   -1.000
 3755.00    0.68219   0.50376   -1.000
 3756.00    0.76362   0.51048   -1.000
 3757.00    0.81522   0.53444   -1.000
 3758.00    0.58118   0.55412   -1.000
 3759.00    0.29727   0.56322   -1.000
 3760.00    0.00242   0.56423   -1.000
 3761.00   -0.29389   0.56071    0.000
 3762.00   -0.20811   0.54405    0.000
 3763.00   -0.08643   0.51174    0.000
 3764.00    0.05373   0.48283   -1.000
 3765.00    0.19495   0.46383   -1.000
 3766.00    0.03682   0.44498   -1.000
 3767.00   -0.12395   0.43897    0.000
 3768.00    0.25511   0.46628   -1.000
 3769.00    0.61988   0.51256   -1.000
 3770.00    0.63745   0.54719   -1.000
 3771.00    0.63219   0.56483   -1.000
 3772.00    0.32765   0.58154   -1.000
 3773.00    0.08251   0.60630   -1.000
 3774.00    0.35878   0.63437   -1.000
 3775.00    0.63591   0.66313   -1.000
 3776.00    0.91862   0.69220   -1.000
 3777.00    1.15238   0.71218   -1.000
 3778.00    1.13838   0.71788   -1.000
 3779.00    1.07750   0.72013   -1.000
 3780.00    0.82469   0.72450   -1.000
 3781.00    0.61244   0.71222   -1.000
 3782.00    0.53779   0.66903   -1.000
 3783.00    0.46202   0.61855    0.296
 3784.00    0.38311   0.58793    0.061
 3785.00    0.39012   0.57446    0.039
 3786.00    0.60706   0.57054    0.039
 3787.00    0.57117   0.57510    0.038
 3788.00    0.00237   0.57556    0.036
 3789.00   -0.33816   0.55466    0.000
 3790.00   -0.26059   0.51479    0.000
 3791.00   -0.46282   0.47353    0.000
 3792.00   -1.11296   0.43805    0.000
 3793.00   -1.34206   0.40140    0.000
 3794.00   -0.97975   0.37082    0.000
 3795.00   -0.70674   0.37367    0.000
 3796.00   -0.54410   0.41964    0.000
 3797.00   -0.50735   0.48530    0.000
 3798.00   -0.60775   0.54680    0.000
 3799.00   -0.25581   0.59881    0.000
 3800.00    0.53084   0.63594    0.034
 3801.00    0.77398   0.64814    0.035
 3802.00    0.55657   0.63768    0.035
 3803.00   -0.08835   0.62532    0.000
 3804.00   -1.05226   0.63578    0.000
 3805.00   -1.19113   0.67143    0.000
 3806.00   -0.78913   0.70967    0.000
 3807.00   -0.31170   0.72681    0.000
 3808.00    0.20901   0.71124    0.035
 3809.00    0.03371   0.66814    0.035
 3810.00   -0.48948   0.62140    0.000
 3811.00   -0.60910   0.59477    0.000
 3812.00   -0.55420   0.59613    0.000
 3813.00   -0.36513   0.61953    0.000
 3814.00   -0.12630   0.64068    0.000
 3815.00   -0.15007   0.63173    0.000
 3816.00   -0.25638   0.59932    0.000
 3817.00   -0.37118   0.58197    0.000
 3818.00   -0.48820   0.59643    0.000
 3819.00   -0.13988   0.61019    0.000
 3820.00    0.30813   0.58988    0.033
 3821.00   -0.62378   0.54943    0.000
 3822.00   -1.78989   0.52078    0.000
 3823.00   -0.53631   0.50985    0.000
 3824.00    1.02777   0.50516    0.034
 3825.00    1.60273   0.50028    0.034
 3826.00    2.08890   0.49218    0.034
 3827.00    1.03302   0.47155    0.033
 3828.00   -0.10575   0.43114    0.000
 3829.00   -0.61399   0.38256    0.000
 3830.00   -1.09912   0.34529    0.000
 3831.00   -0.70028   0.32876    0.000
 3832.00   -0.31268   0.33474    0.000
 3833.00   -0.17468   0.35603    0.000
 3834.00   -0.03994   0.37926    0.000
 3835.00    0.05418   0.40097    0.033
 3836.00    0.18724   0.42793    0.033
 3837.00    0.64941   0.46734    0.033
 3838.00    1.02684   0.51873    0.033
 3839.00    0.87116   0.56718    0.033
 3840.00    0.70575   0.59828    0.033
 3841.00    0.49227   0.61346    0.033
 3842.00    0.31470   0.62387    0.033
 3843.00    0.28084   0.63890    0.033
 3844.00    0.18011   0.65246    0.033
 3845.00   -0.14289   0.64997    0.000
 3846.00   -0.32299   0.63999    0.000
 3847.00   -0.10183   0.64779    0.000
 3848.00    0.12205   0.67141    0.000
 3849.00    0.35244   0.68563    0.000
 3850.00    0.25492   0.68172    0.000
 3851.00   -0.52264   0.66813    0.000
 3852.00   -0.89214   0.65492    0.000
 3853.00   -0.52563   0.64929    0.000
 3854.00   -0.14673   0.64242    0.000
 3855.00    0.25171   0.62503    0.000
 3856.00    0.28966   0.61712    0.000
 3857.00   -0.17147   0.63956    0.000
 3858.00   -0.18777   0.67834    0.000
 3859.00    0.33794   0.70605    0.000
 3860.00    0.34794   0.71354    0.000
 3861.00   -0.19601   0.70739    0.000
 3862.00   -0.38289   0.69801    0.000
 3863.00   -0.23144   0.69466    0.000
 3864.00   -0.15058   0.69815    0.000
 3865.00   -0.12870   0.69900    0.000
 3866.00   -0.03540   0.68597    0.000
 3867.00    0.11042   0.65669    0.000
 3868.00    0.05121   0.62332    0.000
 3869.00   -0.14043   0.61004    0.000
 3870.00   -0.13010   0.63052    0.000
 3871.00   -0.00563   0.66503    0.000
 3872.00    0.34767   0.67853    0.000
 3873.00    0.81354   0.65554    0.000
 3874.00    0.53956   0.61410    0.000
 3875.00   -0.04901   0.59189    0.000
 3876.00   -0.11133   0.59890    0.000
 3877.00    0.01803   0.60215    0.000
 3878.00    0.29993   0.58381    0.000
 3879.00    0.62887   0.56479    0.000
 3880.00    0.41839   0.55291    0.000
 3881.00    0.06943   0.52487    0.030
 3882.00    0.33688   0.47402    0.030
 3883.00    0.73319   0.42470    0.031
 3884.00    0.17454   0.39278    0.031
 3885.00   -0.54159   0.38136    0.000
 3886.00   -0.05446   0.40163    0.000
 3887.00    0.58170   0.45400    0.032
 3888.00    0.33438   0.51339    0.032
 3889.00    0.01145   0.55454    0.031
 3890.00   -0.21375   0.57305    0.000
 3891.00   -0.43408   0.58128    0.000
 3892.00   -0.17737   0.59504    0.000
 3893.00    0.07692   0.61652    0.031
 3894.00   -0.32942   0.63043    0.000
 3895.00   -0.71539   0.63195    0.000
 3896.00   -0.68458   0.63977    0.000
 3897.00   -0.61311   0.66469    0.000
 3898.00   -0.06080   0.68632    0.000
 3899.00    0.38656   0.68529    0.028
 3900.00   -0.02104   0.67174    0.000
 3901.00   -0.34701   0.65676    0.000
 3902.00   -0.17440   0.64721    0.000
 3903.00    0.04117   0.66109    0.025
 3904.00    0.46354   0.69984    0.025
 3905.00    0.79257   0.73955    0.025
 3906.00    0.75606   0.76404    0.025
 3907.00    0.68423   0.77595    0.025
 3908.00    0.49732   0.77801    0.026
 3909.00    0.34527   0.76737    0.026
 3910.00    0.28936   0.75137    0.026
 3911.00    0.23627   0.74131    0.026
 3912.00    0.18980   0.73338    0.027
 3913.00    0.21378   0.72204    0.028
 3914.00    0.38152   0.70906    0.028
 3915.00    0.47274   0.69310    0.029
 3916.00    0.42804   0.67540    0.029
 3917.00    0.24842   0.66559    0.029
 3918.00   -0.14087   0.66966    0.000
 3919.00   -0.18922   0.68147    0.000
 3920.00    0.22760   0.68912    0.029
 3921.00    0.51811   0.68052    0.029
 3922.00    0.65690   0.65281    0.030
 3923.00    0.59068   0.61440    0.030
 3924.00    0.30732   0.57076    0.031
 3925.00    0.32877   0.52318    0.031
 3926.00    0.63496   0.47352    0.031
 3927.00    0.42165   0.42220    0.031
 3928.00   -0.21949   0.37043    0.000
 3929.00    0.03415   0.32663    0.031
 3930.00    0.93645   0.30759    0.031
 3931.00    1.31096   0.32506    0.031
 3932.00    1.34958   0.37303    0.031
 3933.00    1.06786   0.43404    0.031
 3934.00    0.60785   0.49465    0.031
 3935.00    0.31769   0.54984    0.030
 3936.00    0.10974   0.59353    0.030
 3937.00   -0.37848   0.61782    0.000
 3938.00   -0.98388   0.62390    0.000
 3939.00   -0.87849   0.62037    0.000
 3940.00   -0.51884   0.62102    0.000
 3941.00   -0.07201   0.64257    0.000
 3942.00    0.40117   0.67896    0.030
 3943.00    0.61385   0.69916    0.029
 3944.00    0.76111   0.69442    0.029
 3945.00    0.79167   0.69043    0.029
 3946.00    0.79844   0.70194    0.029
 3947.00    0.29617   0.71288    0.029
 3948.00   -0.28760   0.70993    0.000
 3949.00    0.06672   0.70806    0.029
 3950.00    0.53305   0.71992    0.029
 3951.00    1.08290   0.72321    0.029
 3952.00    1.63956   0.69991    0.029
 3953.00    1.33444   0.67432    0.029
 3954.00    0.98971   0.67223    0.029
 3955.00    1.21590   0.67899    0.029
 3956.00    1.44530   0.66082    0.030
 3957.00    1.46224   0.60885    0.029
 3958.00    1.43974   0.54985    0.029
 3959.00    0.66978   0.50806    0.029
 3960.00   -0.03094   0.47580    0.000
 3961.00    0.04862   0.43321    0.000
 3962.00    0.11072   0.37370    0.000
 3963.00    0.03551   0.30674    0.000
 3964.00   -0.02536   0.25007    0.000
 3965.00   -0.00117   0.22080    0.000
 3966.00    0.08037   0.22796    0.000
 3967.00    0.43115   0.26796    0.000
 3968.00    0.75559   0.32578    0.000
 3969.00    0.97911   0.38585    0.000
 3970.00    0.98361   0.44332    0.000
 3971.00    0.28806   0.49885    0.000
 3972.00   -0.22279   0.54821    0.000
 3973.00   -0.23342   0.59031    0.000
 3974.00   -0.04067   0.63228    0.000
 3975.00    0.62433   0.67556    0.000
 3976.00    1.05936   0.70868    0.000
 3977.00    1.03244   0.71897    0.000
 3978.00    1.13824   0.71178    0.000
 3979.00    1.47617   0.70825    0.000
 3980.00    1.42192   0.71984    0.000
 3981.00    0.76725   0.73935    0.030
 3982.00    0.58855   0.75559    0.030
 3983.00    1.04995   0.76892    0.030
 3984.00    1.18426   0.78348    0.029
 3985.00    0.93121   0.79120    0.029
 3986.00    0.73263   0.79009    0.029
 3987.00    0.59093   0.79540    0.028
 3988.00    0.57353   0.81270    0.028
 3989.00    0.67061   0.82837    0.029
 3990.00    0.74977   0.82861    0.028
 3991.00    0.81439   0.81253    0.028
 3992.00    1.07367   0.78797    0.027
 3993.00    1.47205   0.76682    0.027
 3994.00    1.58117   0.76693    0.027
 3995.00    1.50893   0.79673    0.027
 3996.00    1.26895   0.83541    0.027
 3997.00    0.93706   0.85674    0.027
 3998.00    0.90230   0.86151    0.027
 3999.00    1.00907   0.85656    0.027
 4000.00    1.04283   0.83023    0.027
 4001.00    1.04657   0.78484    0.027
 4002.00    0.53713   0.75941    0.027
 4003.00   -0.15255   0.77938    0.000
 4004.00   -0.52050   0.82045    0.000
 4005.00   -0.79313   0.84880    0.000
 4006.00   -0.24523   0.85937    0.000
 4007.00    0.50423   0.86220    0.027
 4008.00    0.50819   0.86233    0.027
 4009.00    0.36393   0.86265    0.027
 4010.00    0.64480   0.86672    0.027
 4011.00    0.99173   0.87453    0.027
 4012.00    0.81049   0.87846    0.027
 4013.00    0.56853   0.87363    0.028
 4014.00    0.76420   0.87384    0.028
 4015.00    0.99371   0.88931    0.028
 4016.00    1.20080   0.90232    0.028
 4017.00    1.40695   0.89637    0.029
 4018.00    1.76154   0.87942    0.029
 4019.00    2.09616   0.86184    0.029
 4020.00    1.49650   0.84564    0.028
 4021.00    0.93264   0.84177    0.028
 4022.00    1.00000   0.86176    0.028
 4023.00    1.06938   0.89166    0.028
 4024.00    1.16050   0.90332    0.028
 4025.00    1.22923   0.87998    0.029
 4026.00    1.12794   0.82688    0.028
 4027.00    1.02250   0.77354    0.028
 4028.00    0.89308   0.74714    0.028
 4029.00    0.78152   0.74780    0.027
 4030.00    0.75186   0.76689    0.027
 4031.00    0.69732   0.80147    0.027
 4032.00    0.54943   0.84732    0.026
 4033.00    0.53984   0.89237    0.026
 4034.00    0.96380   0.91874    0.026
 4035.00    1.18482   0.91695    0.025
 4036.00    0.86597   0.89658    0.026
 4037.00    0.69992   0.87992    0.026
 4038.00    0.88277   0.87718    0.026
 4039.00    1.05155   0.86542    0.026
 4040.00    1.19253   0.81752    0.026
 4041.00    1.32690   0.75328    0.026
 4042.00    1.44989   0.73014    0.026
 4043.00    1.32574   0.77136    0.026
 4044.00    0.82878   0.83388    0.026
 4045.00    0.53698   0.87237    0.026
 4046.00    0.51716   0.88658    0.026
 4047.00    0.64913   0.88702    0.025
 4048.00    0.95832   0.87290    0.025
 4049.00    1.04752   0.84834    0.025
 4050.00    0.91024   0.82447    0.025
 4051.00    0.89971   0.81091    0.026
 4052.00    1.00428   0.80743    0.026
 4053.00    1.02092   0.80357    0.026
 4054.00    0.96718   0.80136    0.026
 4055.00    1.07917   0.81663    0.026
 4056.00    1.30788   0.84383    0.027
 4057.00    1.32652   0.85048    0.027
 4058.00    1.21540   0.81618    0.026
 4059.00    1.36659   0.76446    0.026
 4060.00    1.65933   0.74420    0.026
 4061.00    1.56028   0.76772    0.026
 4062.00    1.27761   0.79605    0.027
 4063.00    1.41650   0.80745    0.027
 4064.00    1.72570   0.82331    0.027
 4065.00    1.82418   0.84694    0.027
 4066.00    1.85000   0.84495    0.026
 4067.00    1.74442   0.81000    0.027
 4068.00    1.60069   0.78529    0.027
 4069.00    1.33931   0.79925    0.027
 4070.00    1.04968   0.82112    0.026
 4071.00    1.00517   0.80869    0.027
 4072.00    1.00816   0.76072    0.027
 4073.00    1.16018   0.71263    0.027
 4074.00    1.33465   0.70324    0.027
 4075.00    1.29078   0.74037    0.026
 4076.00    1.22275   0.79803    0.026
 4077.00    1.41446   0.84255    0.026
 4078.00    1.62519   0.85297    0.026
 4079.00    1.59936   0.83271    0.026
 4080.00    1.56448   0.80504    0.026
 4081.00    1.19436   0.79061    0.026
 4082.00    0.84432   0.79797    0.025
 4083.00    1.32075   0.82428    0.025
 4084.00    1.74104   0.85287    0.026
 4085.00    1.23615   0.86431    0.025
 4086.00    0.76575   0.85482    0.025
 4087.00    0.65032   0.83497    0.025
 4088.00    0.58687   0.81634    0.025
 4089.00    0.90477   0.80439    0.025
 4090.00    1.21376   0.78989    0.025
 4091.00    1.47283   0.75779    0.025
 4092.00    1.69513   0.71460    0.000
 4093.00    1.75293   0.67902    0.000
 4094.00    1.60895   0.65191    0.000
 4095.00    0.72387   0.61740    0.000
 4096.00    0.15672   0.56405    0.000
 4097.00    0.56731   0.50659    0.000
 4098.00    0.86812   0.48343    0.000
 4099.00    0.88197   0.51378    0.000
 4100.00    0.84447   0.57569    0.000
 4101.00    0.69163   0.63864    0.000
 4102.00    0.74386   0.68715    0.000
 4103.00    1.19513   0.71552    0.000
 4104.00    1.34740   0.72554    0.000
 4105.00    0.99235   0.72472    0.000
 4106.00    0.86266   0.72295    0.000
 4107.00    1.06795   0.73012    0.000
 4108.00    1.15750   0.74971    0.000
 4109.00    1.09583   0.77675    0.000
 4110.00    0.90414   0.80324    0.000
 4111.00    0.56280   0.82453    0.000
 4112.00    0.55568   0.83683    0.000
 4113.00    0.88781   0.83106    0.024
 4114.00    1.06079   0.80597    0.024
 4115.00    1.09128   0.78295    0.025
 4116.00    1.03433   0.78112    0.025
 4117.00    0.90837   0.78975    0.024
 4118.00    0.66972   0.79248    0.035
 4119.00    0.35286   0.79539    0.127
 4120.00    0.45290   0.80924   -1.000
 4121.00    0.80664   0.82469   -1.000
 4122.00    0.77537   0.82353   -1.000
 4123.00    0.53957   0.80423   -1.000
 4124.00    0.38256   0.78331   -1.000
 4125.00    0.26188   0.77462   -1.000
 4126.00    0.62830   0.77221    0.068
 4127.00    1.18814   0.76113    0.028
 4128.00    0.99708   0.74328    0.024
 4129.00    0.55189   0.73830    0.024
 4130.00    0.68621   0.75788    0.024
 4131.00    0.98541   0.79486    0.024
 4132.00    0.92570   0.83002    0.024
 4133.00    0.78172   0.84955    0.024
 4134.00    1.13509   0.86138    0.024
 4135.00    1.58233   0.87463    0.024
 4136.00    1.48974   0.87869    0.024
 4137.00    1.31831   0.85666    0.024
 4138.00    1.26395   0.80521    0.024
 4139.00    1.22204   0.75021    0.024
 4140.00    0.90316   0.73381    0.024
 4141.00    0.56513   0.76494    0.023
 4142.00    0.64727   0.80802    0.024
 4143.00    0.74391   0.83100    0.024
 4144.00    0.99197   0.83042    0.024
 4145.00    1.22432   0.81674    0.024
 4146.00    0.92765   0.80458    0.023
 4147.00    0.63910   0.80229    0.023
 4148.00    0.47607   0.80273    0.023
 4149.00    0.35860   0.79568    0.023
 4150.00    0.69025   0.78202    0.023
 4151.00    0.97194   0.77166    0.023
 4152.00    0.89899   0.77090    0.023
 4153.00    0.86570   0.78116    0.024
 4154.00    1.04899   0.80187    0.023
 4155.00    1.22112   0.82322    0.023
 4156.00    1.34448   0.83361    0.023
 4157.00    1.35096   0.83680    0.023
 4158.00    0.93704   0.84521    0.022
 4159.00    0.63498   0.85636    0.022
 4160.00    0.67047   0.85891    0.022
 4161.00    0.69085   0.85204    0.022
 4162.00    0.67242   0.83849    0.022
 4163.00    0.73275   0.82386    0.022
 4164.00    0.96709   0.82177    0.022
 4165.00    1.13821   0.83164    0.022
 4166.00    1.18824   0.82818    0.022
 4167.00    1.16765   0.79311    0.022
 4168.00    1.02906   0.74244    0.022
 4169.00    0.91056   0.71192    0.023
 4170.00    0.82149   0.71848    0.023
 4171.00    0.72596   0.74424    0.022
 4172.00    0.62211   0.76013    0.022
 4173.00    0.53741   0.75675    0.022
 4174.00    0.47445   0.75108    0.022
 4175.00    0.62366   0.76250    0.022
 4176.00    0.98522   0.78430    0.023
 4177.00    1.08970   0.79359    0.023
 4178.00    0.96725   0.78793    0.022
 4179.00    0.93090   0.78686    0.022
 4180.00    0.96152   0.80006    0.022
 4181.00    0.90795   0.81460    0.022
 4182.00    0.79681   0.80898    0.023
 4183.00    0.97566   0.78596    0.023
 4184.00    1.32834   0.77782    0.023
 4185.00    1.24076   0.79628    0.023
 4186.00    0.92291   0.81573    0.023
 4187.00    0.62500   0.82291    0.023
 4188.00    0.33613   0.83488    0.022
 4189.00    0.49141   0.85468    0.022
 4190.00    0.82002   0.85604    0.022
 4191.00    0.89657   0.82716    0.022
 4192.00    0.88942   0.78886    0.022
 4193.00    0.69481   0.75981    0.022
 4194.00    0.44796   0.74226    0.022
 4195.00    0.53398   0.74110    0.023
 4196.00    0.69636   0.75321    0.023
 4197.00    0.66368   0.75891    0.023
 4198.00    0.59515   0.75591    0.023
 4199.00    0.97332   0.76060    0.023
 4200.00    1.41466   0.77436    0.022
 4201.00    1.33666   0.79014    0.022
 4202.00    1.20571   0.80926    0.022
 4203.00    1.36428   0.82922    0.022
 4204.00    1.54172   0.83965    0.022
 4205.00    1.02705   0.83628    0.022
 4206.00    0.49199   0.83074    0.022
 4207.00    0.51235   0.83732    0.022
 4208.00    0.53250   0.84997    0.022
 4209.00    0.54677   0.84737    0.022
 4210.00    0.56089   0.81852    0.022
 4211.00    0.57300   0.78046    0.021
 4212.00    0.61859   0.77051    0.021
 4213.00    0.98086   0.80254    0.021
 4214.00    1.25915   0.84609    0.021
 4215.00    0.96010   0.87108    0.021
 4216.00    0.69459   0.87834    0.020
 4217.00    0.60737   0.87439    0.021
 4218.00    0.58373   0.85377    0.021
 4219.00    0.83167   0.81420    0.021
 4220.00    0.97788   0.75951    0.021
 4221.00    0.76570   0.69443    0.020
 4222.00    0.63482   0.63987    0.020
 4223.00    0.74473   0.63547    0.021
 4224.00    0.78989   0.69608    0.021
 4225.00    0.67166   0.78175    0.020
 4226.00    0.62172   0.84226    0.020
 4227.00    0.72019   0.85938    0.020
 4228.00    0.83747   0.83834    0.020
 4229.00    0.99021   0.80347    0.019
 4230.00    1.06885   0.78324    0.019
 4231.00    1.02550   0.77776    0.019
 4232.00    0.89511   0.77560    0.019
 4233.00    0.63908   0.77878    0.019
 4234.00    0.48119   0.78548    0.019
 4235.00    0.44791   0.79233    0.019
 4236.00    0.54063   0.80719    0.019
 4237.00    0.77434   0.82985    0.018
 4238.00    0.82695   0.84782    0.018
 4239.00    0.70086   0.86088    0.019
 4240.00    0.60172   0.87338    0.019
 4241.00    0.52603   0.87113    0.019
 4242.00    0.59144   0.84430    0.019
 4243.00    0.76503   0.81115    0.019
 4244.00    0.87099   0.79166    0.019
 4245.00    0.93139   0.78023    0.020
 4246.00    0.97820   0.76943    0.021
 4247.00    1.01699   0.77291    0.021
 4248.00    0.97997   0.79190    0.021
 4249.00    0.90392   0.80030    0.020
 4250.00    0.81685   0.79133    0.021
 4251.00    0.72486   0.79208    0.021
 4252.00    0.78911   0.81528    0.021
 4253.00    0.91327   0.83425    0.021
 4254.00    1.01077   0.82105    0.021
 4255.00    1.09957   0.78302    0.021
 4256.00    0.72121   0.75145    0.021
 4257.00    0.21533   0.75484    0.020
 4258.00    0.39964   0.79609    0.020
 4259.00    0.73862   0.84753    0.021
 4260.00    1.12962   0.88233    0.021
 4261.00    1.52992   0.89680    0.021
 4262.00    1.31516   0.89347    0.021
 4263.00    1.01625   0.87211    0.021
 4264.00    0.89337   0.84058    0.021
 4265.00    0.78768   0.80523    0.021
 4266.00    0.85616   0.76076    0.021
 4267.00    0.93530   0.71403    0.021
 4268.00    0.92291   0.69241    0.021
 4269.00    0.90739   0.70263    0.020
 4270.00    0.76005   0.72229    0.021
 4271.00    0.62162   0.74647    0.021
 4272.00    0.71845   0.78619    0.021
 4273.00    0.80596   0.83004    0.020
 4274.00    0.76528   0.85308    0.021
 4275.00    0.74437   0.84654    0.021
 4276.00    0.90307   0.82432    0.021
 4277.00    1.01402   0.80700    0.021
 4278.00    0.80692   0.80111    0.021
 4279.00    0.68737   0.80195    0.022
 4280.00    1.02113   0.80242    0.021
 4281.00    1.28303   0.79645    0.021
 4282.00    1.24495   0.78667   -2.000
 4283.00    1.24751   0.77319   -2.000
 4284.00    1.39041   0.74463   -2.000
 4285.00    1.39708   0.70325   -2.000
 4286.00    1.00778   0.68151   -2.000
 4287.00    0.70201   0.70527   -2.000
 4288.00    0.60343   0.75331   -2.000
 4289.00    0.62242   0.78208   -2.000
 4290.00    0.89273   0.77931   -2.000
 4291.00    1.07877   0.76732   -2.000
 4292.00    1.10831   0.75799   -2.000
 4293.00    0.99198   0.73927   -2.000
 4294.00    0.63905   0.70011   -2.000
 4295.00    0.44151   0.65066   -2.000
 4296.00    0.46502   0.61984   -2.000
 4297.00    0.54959   0.61908   -2.000
 4298.00    0.71057   0.63144    0.020
 4299.00    0.91989   0.64713    0.020
 4300.00    1.18253   0.66472    0.020
 4301.00    1.19090   0.67197    0.020
 4302.00    0.95188   0.66093    0.020
 4303.00    0.90999   0.63761    0.020
 4304.00    1.03724   0.61858    0.020
 4305.00    1.00109   0.62450    0.020
 4306.00    0.84146   0.65779    0.020
 4307.00    0.68646   0.69705    0.020
 4308.00    0.53454   0.72050    0.019
 4309.00    0.61086   0.72705    0.019
 4310.00    0.81990   0.73706    0.019
 4311.00    0.79850   0.77410    0.019
 4312.00    0.66032   0.83265    0.019
 4313.00    0.58751   0.87722    0.019
 4314.00    0.54337   0.88742    0.018
 4315.00    0.57420   0.87318    0.018
 4316.00    0.63327   0.85023    0.018
 4317.00    0.69180   0.82932    0.018
 4318.00    0.75017   0.80960    0.019
 4319.00    0.74922   0.77319    0.019
 4320.00    0.73241   0.71353    0.019
 4321.00    0.76585   0.66015    0.019
 4322.00    0.81029   0.65684    0.019
 4323.00    0.81457   0.71162    0.019
 4324.00    0.81187   0.77991    0.019
 4325.00    0.76671   0.81254    0.018
 4326.00    0.71594   0.80590    0.018
 4327.00    0.50669   0.79148    0.018
 4328.00    0.28264   0.78867    0.018
 4329.00    0.51284   0.79146    0.019
 4330.00    0.76902   0.79097    0.000
 4331.00    0.88632   0.77608    0.000
 4332.00    0.99911   0.72822    0.000
 4333.00    0.96510   0.64883    0.000
 4334.00    0.94168   0.56772    0.000
 4335.00    1.17236   0.50779    0.000
 4336.00    1.37301   0.47978    0.000
 4337.00    1.18292   0.49878    0.000
 4338.00    0.99561   0.55678    0.000
 4339.00    0.83274   0.61667    0.000
 4340.00    0.68638   0.66132    0.000
 4341.00    0.64660   0.70025    0.000
 4342.00    0.63561   0.73463    0.000
 4343.00    0.76979   0.76243    0.000
 4344.00    0.88460   0.78854    0.000
 4345.00    0.92033   0.80077    0.000
 4346.00    0.96461   0.77484    0.000
 4347.00    1.03779   0.72195    0.000
 4348.00    1.07491   0.69290    0.000
 4349.00    1.00911   0.71395    0.000
 4350.00    0.92376   0.75857    0.000
 4351.00    0.79076   0.79709    0.019
 4352.00    0.77487   0.82407    0.019
 4353.00    1.00530   0.83368    0.019
 4354.00    1.20865   0.82126    0.024
 4355.00    1.36253   0.80702    0.062
 4356.00    1.26771   0.81666   -1.000
 4357.00    0.77555   0.84514   -1.000
 4358.00    0.56269   0.86928   -1.000
 4359.00    0.74145   0.88375   -1.000
 4360.00    0.93345   0.89689   -1.000
 4361.00    1.14180   0.90203   -1.000
 4362.00    1.29061   0.88330    0.081
 4363.00    1.37464   0.84678    0.026
 4364.00    1.24246   0.81935    0.019
 4365.00    0.90287   0.81497    0.019
 4366.00    0.79783   0.82459    0.019
 4367.00    0.89119   0.83494    0.019
 4368.00    0.88360   0.83289    0.019
 4369.00    0.80081   0.80652    0.019
 4370.00    0.85383   0.76680    0.020
 4371.00    0.99570   0.75025    0.020
 4372.00    0.90099   0.77832    0.020
 4373.00    0.67078   0.82900    0.019
 4374.00    0.68787   0.86335    0.019
 4375.00    0.82832   0.86674    0.019
 4376.00    0.87567   0.84940    0.019
 4377.00    0.88284   0.81432    0.019
 4378.00    0.66112   0.75095    0.019
 4379.00    0.35469   0.67378    0.019
 4380.00    0.43223   0.63325    0.020
 4381.00    0.63018   0.65875    0.020
 4382.00    0.80318   0.71969    0.019
 4383.00    0.96965   0.76618    0.019
 4384.00    0.80403   0.78277    0.019
 4385.00    0.56748   0.78300    0.018
 4386.00    0.85949   0.78161    0.018
 4387.00    1.24089   0.78870    0.019
 4388.00    1.10819   0.80220    0.019
 4389.00    0.90982   0.80474    0.019
 4390.00    0.64866   0.79198    0.019
 4391.00    0.38190   0.78937    0.019
 4392.00    0.68958   0.81563    0.019
 4393.00    1.02785   0.84772    0.019
 4394.00    0.79431   0.84990    0.019
 4395.00    0.55303   0.82011    0.019
 4396.00    0.59200   0.78990    0.019
 4397.00    0.63456   0.78882    0.019
 4398.00    0.75580   0.80485    0.018
 4399.00    0.86068   0.79674    0.018
 4400.00    0.76341   0.76123    0.018
 4401.00    0.69313   0.74149    0.018
 4402.00    0.84985   0.75386    0.019
 4403.00    0.98282   0.76925    0.019
 4404.00    0.96696   0.77613    0.018
 4405.00    0.90045   0.79503    0.018
 4406.00    0.58479   0.83049    0.018
 4407.00    0.36594   0.86305    0.018
 4408.00    0.53354   0.87601    0.018
 4409.00    0.70149   0.85804    0.018
 4410.00    0.87063   0.81045    0.018
 4411.00    0.95688   0.76465    0.018
 4412.00    0.81090   0.75404    0.018
 4413.00    0.73259   0.77753    0.018
 4414.00    0.81647   0.81650    0.018
 4415.00    0.85395   0.85389    0.018
 4416.00    0.79540   0.86918    0.018
 4417.00    0.79215   0.85289    0.018
 4418.00    0.88844   0.82475    0.018
 4419.00    0.87593   0.81369    0.018
 4420.00    0.69214   0.82283    0.018
 4421.00    0.63251   0.83300    0.018
 4422.00    0.74447   0.83488    0.018
 4423.00    0.81000   0.83536    0.018
 4424.00    0.81907   0.83702    0.018
 4425.00    0.79222   0.83131    0.018
 4426.00    0.72687   0.81984    0.018
 4427.00    0.76109   0.81733    0.018
 4428.00    0.88949   0.81969    0.018
 4429.00    0.81255   0.80586    0.018
 4430.00    0.56439   0.77693    0.018
 4431.00    0.54709   0.76236    0.018
 4432.00    0.69929   0.78515    0.018
 4433.00    0.77078   0.83458    0.018
 4434.00    0.79025   0.87876    0.018
 4435.00    0.71635   0.89296    0.018
 4436.00    0.58979   0.87063    0.017
 4437.00    0.58359   0.82377    0.018
 4438.00    0.63649   0.77878    0.018
 4439.00    0.73484   0.76358    0.018
 4440.00    0.85249   0.78879    0.018
 4441.00    1.00544   0.83403    0.018
 4442.00    1.17122   0.86501    0.018
 4443.00    1.00524   0.87226    0.018
 4444.00    0.73725   0.86969    0.017
 4445.00    0.67785   0.86236    0.017
 4446.00    0.67186   0.85125    0.018
 4447.00    0.80950   0.84561    0.017
 4448.00    0.97707   0.84168    0.017
 4449.00    0.83288   0.82086    0.017
 4450.00    0.63747   0.78229    0.017
 4451.00    0.58976   0.75218    0.017
 4452.00    0.56025   0.74946    0.017
 4453.00    0.44560   0.76086    0.017
 4454.00    0.32371   0.76564    0.017
 4455.00    0.34595   0.76157    0.017
 4456.00    0.37529   0.75393    0.017
 4457.00    0.62939   0.74876    0.017
 4458.00    0.88401   0.75968    0.016
 4459.00    0.94627   0.78816    0.016
 4460.00    1.00106   0.81243    0.017
 4461.00    0.90453   0.81894    0.000
 4462.00    0.81430   0.81460    0.000
 4463.00    0.79806   0.80508    0.000
 4464.00    0.77634   0.79094    0.000
 4465.00    0.71012   0.78076    0.000
 4466.00    0.64884   0.78692    0.000
 4467.00    0.61768   0.81037    0.000
 4468.00    0.59243   0.84176    0.000
 4469.00    0.59554   0.86974    0.000
 4470.00    0.61357   0.88528    0.000
 4471.00    0.68984   0.89022    0.000
 4472.00    0.72633   0.89664    0.000
 4473.00    0.63343   0.90477    0.000
 4474.00    0.60048   0.89509    0.000
 4475.00    0.73243   0.85490    0.000
 4476.00    0.78069   0.80021    0.000
 4477.00    0.63174   0.76521    0.000
 4478.00    0.52472   0.77326    0.000
 4479.00    0.50312   0.81600    0.000
 4480.00    0.59753   0.86388    0.000
 4481.00    0.89760   0.89459    0.000
 4482.00    1.07031   0.90006    0.017
 4483.00    1.04548   0.87868    0.017
 4484.00    0.97292   0.84000    0.017
 4485.00    0.83534   0.80820    0.016
 4486.00    0.80095   0.80419    0.016
 4487.00    0.89029   0.82461    0.017
 4488.00    0.97422   0.84404    0.017
 4489.00    1.05244   0.84023    0.017
 4490.00    0.99548   0.81897    0.017
 4491.00    0.81247   0.80586    0.017
 4492.00    0.70699   0.81524    0.017
 4493.00    0.66526   0.84098    0.017
 4494.00    0.71743   0.86693    0.017
 4495.00    0.83756   0.87644    0.017
 4496.00    0.75004   0.86639    0.017
 4497.00    0.53060   0.85789    0.017
 4498.00    0.55809   0.87591    0.017
 4499.00    0.72274   0.91365    0.017
 4500.00    0.75235   0.94058    0.017
 4501.00    0.71673   0.94143    0.017
 4502.00    0.71853   0.92399    0.017
 4503.00    0.73594   0.90363    0.017
 4504.00    0.78917   0.89444    0.017
 4505.00    0.85517   0.90120    0.017
 4506.00    0.76268   0.91281    0.017
 4507.00    0.62239   0.91256    0.017
 4508.00    0.59652   0.89646    0.017
 4509.00    0.59930   0.87414    0.017
 4510.00    0.65193   0.85719    0.017
 4511.00    0.71470   0.85190    0.016
 4512.00    0.77080   0.85413    0.016
 4513.00    0.82583   0.85491    0.016
 4514.00    0.58444   0.85593    0.016
 4515.00    0.30782   0.86439    0.016
 4516.00    0.48759   0.87549    0.017
 4517.00    0.70428   0.87493    0.017
 4518.00    0.78067   0.85885    0.017
 4519.00    0.85069   0.84055    0.017
 4520.00    0.81359   0.82732    0.017
 4521.00    0.77396   0.81096    0.016
 4522.00    0.67218   0.78763    0.016
 4523.00    0.57365   0.76393    0.016
 4524.00    0.53632   0.74872    0.017
 4525.00    0.50744   0.74871    0.017
 4526.00    0.57331   0.76317    0.016
 4527.00    0.64444   0.78206    0.016
 4528.00    0.75685   0.78940    0.016
 4529.00    0.83726   0.77653    0.016
 4530.00    0.72855   0.75973    0.016
 4531.00    0.64939   0.76856    0.017
 4532.00    0.70856   0.81092    0.017
 4533.00    0.77141   0.85924    0.016
 4534.00    0.84832   0.87907    0.016
 4535.00    0.90812   0.86570    0.016
 4536.00    0.91338   0.84258    0.017
 4537.00    0.83222   0.83380    0.017
 4538.00    0.51754   0.84182    0.017
 4539.00    0.37811   0.84781    0.016
 4540.00    0.64477   0.83995    0.016
 4541.00    0.75767   0.83000    0.016
 4542.00    0.56234   0.82838    0.016
 4543.00    0.45892   0.82417    0.017
 4544.00    0.51595   0.80580    0.017
 4545.00    0.62049   0.78719    0.017
 4546.00    0.79760   0.79013    0.017
 4547.00    0.80477   0.80693    0.017
 4548.00    0.58380   0.81186    0.016
 4549.00    0.51874   0.79849    0.016
 4550.00    0.63799   0.78257    0.000
 4551.00    0.76478   0.78395    0.000
 4552.00    0.89944   0.80899    0.000
 4553.00    0.93739   0.84234    0.000
 4554.00    0.88644   0.86472    0.000
 4555.00    0.89840   0.87425    0.000
 4556.00    0.96134   0.87905    0.000
 4557.00    0.92375   0.87899    0.000
 4558.00    0.81448   0.86458    0.000
 4559.00    0.71373   0.83524    0.000
 4560.00    0.61831   0.80993    0.000
 4561.00    0.58577   0.80953    0.000
 4562.00    0.58762   0.83510    0.000
 4563.00    0.70231   0.86737    0.000
 4564.00    0.87066   0.88520    0.000
 4565.00    0.75432   0.88054    0.000
 4566.00    0.52124   0.85701    0.000
 4567.00    0.50490   0.83300    0.000
 4568.00    0.56452   0.83356    0.000
 4569.00    0.64904   0.85591    0.000
 4570.00    0.74093   0.87249    0.000
 4571.00    0.82502   0.87323    0.000
 4572.00    0.90719   0.86851    0.000
 4573.00    0.69199   0.86131    0.000
 4574.00    0.41786   0.84429    0.000
 4575.00    0.61773   0.81834    0.000
 4576.00    0.89098   0.79735    0.000
 4577.00    0.95319   0.79091    0.000
 4578.00    0.99125   0.79254    0.000
 4579.00    0.92412   0.79359    0.000
 4580.00    0.84890   0.79588    0.000
 4581.00    0.77929   0.80325    0.000
 4582.00    0.70991   0.81636    0.000
 4583.00    0.89800   0.83411    0.000
 4584.00    1.07548   0.85043    0.000
 4585.00    0.70142   0.85578    0.000
 4586.00    0.36203   0.84562    0.000
 4587.00    0.62845   0.82684    0.000
 4588.00    0.86195   0.81338    0.000
 4589.00    0.74337   0.81105    0.000
 4590.00    0.63671   0.81288    0.000
 4591.00    0.62019   0.81362    0.000
 4592.00    0.60249   0.81603    0.000
 4593.00    0.57794   0.82192    0.000
 4594.00    0.55640   0.82739    0.000
 4595.00    0.54864   0.82580    0.000
 4596.00    0.57251   0.81858    0.000
 4597.00    0.71470   0.81653    0.000
 4598.00    0.83169   0.82207    0.000
 4599.00    0.86987   0.82660    0.000
 4600.00    0.88988   0.82584    0.000
 4601.00    0.86167   0.82652    0.000
 4602.00    0.81075   0.83856    0.000
 4603.00    0.70808   0.86294    0.000
 4604.00    0.69481   0.88814    0.000
 4605.00    0.85789   0.89884    0.000
 4606.00    0.91956   0.89039    0.000
 4607.00    0.80688   0.87304    0.000
 4608.00    0.74372   0.85940    0.000
 4609.00    0.75515   0.85564    0.000
 4610.00    0.81424   0.86032    0.000
 4611.00    0.93640   0.86491    0.000
 4612.00    0.90026   0.86473    0.000
 4613.00    0.67962   0.86087    0.000
 4614.00    0.59319   0.85282    0.000
 4615.00    0.64466   0.84729    0.000
 4616.00    0.68785   0.85453    0.000
 4617.00    0.72353   0.86869    0.000
 4618.00    0.74365   0.87712    0.000
 4619.00    0.75133   0.87770    0.000
 4620.00    0.72054   0.87244    0.000
 4621.00    0.66270   0.86445    0.000
 4622.00    0.68752   0.85990    0.000
 4623.00    0.76329   0.85752    0.000
 4624.00    0.67475   0.85096    0.000
 4625.00    0.49772   0.84652    0.000
 4626.00    0.53619   0.85471    0.000
 4627.00    0.67546   0.86551    0.000
 4628.00    0.73425   0.86068    0.000
 4629.00    0.76060   0.84382    0.000
 4630.00    0.74857   0.83205    0.000
 4631.00    0.72333   0.82927    0.000
 4632.00    0.86370   0.82624    0.000
 4633.00    1.05204   0.81865    0.000
 4634.00    0.98429   0.81193    0.000
 4635.00    0.85521   0.81192    0.000
 4636.00    0.83974   0.82094    0.000
 4637.00    0.84621   0.83482    0.000
 4638.00    0.71181   0.84172    0.000
 4639.00    0.55628   0.83471    0.000
 4640.00    0.72571   0.81634    0.000
 4641.00    0.93091   0.79032    0.000
 4642.00    0.93166   0.76519    0.000
 4643.00    0.91755   0.75563    0.000
 4644.00    0.84915   0.76769    0.000
 4645.00    0.77870   0.79310    0.000
 4646.00    0.64888   0.81832    0.000
 4647.00    0.52504   0.83476    0.000
 4648.00    0.63375   0.84000    0.000
 4649.00    0.74032   0.83152    0.000
 4650.00    0.81216   0.81186    0.000
 4651.00    0.87653   0.79539    0.000
 4652.00    0.86439   0.79680    0.000
 4653.00    0.84211   0.82017    0.000
 4654.00    0.74575   0.85524    0.000
 4655.00    0.68464   0.88086    0.000
 4656.00    0.82064   0.88209    0.000
 4657.00    0.92059   0.86169    0.000
 4658.00    0.85965   0.83456    0.000
 4659.00    0.78741   0.81453    0.000
 4660.00    0.67377   0.80079    0.000
 4661.00    0.56734   0.77792    0.000
 4662.00    0.48301   0.74133    0.000
 4663.00    0.42373   0.71367    0.000
 4664.00    0.42978   0.71815    0.000
 4665.00    0.45884   0.74973    0.000
 4666.00    0.53952   0.78622    0.000
 4667.00    0.64150   0.81033    0.000
 4668.00    0.78485   0.81748    0.000
 4669.00    0.84689   0.81669    0.000
 4670.00    0.77120   0.82117    0.000
 4671.00    0.73868   0.83357    0.000
 4672.00    0.77021   0.84248    0.000
 4673.00    0.80848   0.83544    0.000
 4674.00    0.85555   0.81544    0.000
 4675.00    0.86787   0.79648    0.000
 4676.00    0.84028   0.78693    0.000
 4677.00    0.83216   0.78814    0.000
 4678.00    0.84378   0.79967    0.000
 4679.00    0.89453   0.81549    0.000
 4680.00    0.98025   0.82573    0.000
 4681.00    0.91236   0.82740    0.000
 4682.00    0.72348   0.82394    0.000
 4683.00    0.55702   0.81884    0.000
 4684.00    0.40609   0.81507    0.000
 4685.00    0.47723   0.81234    0.000
 4686.00    0.68325   0.80791    0.000
 4687.00    0.78207   0.80447    0.000
 4688.00    0.82404   0.80761    0.000
 4689.00    0.82217   0.81708    0.000
 4690.00    0.80013   0.82909    0.000
 4691.00    0.73981   0.83831    0.000
 4692.00    0.66432   0.83546    0.000
 4693.00    0.61770   0.81618    0.000
 4694.00    0.58083   0.79210    0.000
 4695.00    0.59694   0.77952    0.000
 4696.00    0.62808   0.77749    0.000
 4697.00    0.63834   0.77300    0.000
 4698.00    0.64372   0.76485    0.000
 4699.00    0.65653   0.76536    0.000
 4700.00    0.67073   0.77839    0.000
 4701.00    0.72960   0.78915    0.000
 4702.00    0.79496   0.78449    0.000
 4703.00    0.81941   0.77026    0.000
 4704.00    0.83954   0.76236    0.000
 4705.00    0.62003   0.77055    0.000
 4706.00    0.38407   0.79159    0.000
 4707.00    0.43408   0.80991    0.000
 4708.00    0.49381   0.81054    0.000
 4709.00    0.67111   0.79627    0.000
 4710.00    0.84295   0.78590    0.000
 4711.00    0.83179   0.79463    0.000
 4712.00    0.83131   0.81698    0.000
 4713.00    0.99463   0.83676    0.000
 4714.00    1.11714   0.84879    0.000
 4715.00    0.83949   0.85626    0.000
 4716.00    0.61459   0.85807    0.000
 4717.00    0.76272   0.85316    0.000
 4718.00    0.87141   0.84827    0.000
 4719.00    0.76544   0.85134    0.000
 4720.00    0.66896   0.85819    0.000
 4721.00    0.61382   0.85345    0.000
 4722.00    0.56741   0.82799    0.000
 4723.00    0.55234   0.79225    0.000
 4724.00    0.58125   0.76672    0.000
 4725.00    0.74254   0.75949    0.000
 4726.00    0.85857   0.76426    0.000
 4727.00    0.85863   0.77576    0.000
 4728.00    0.84414   0.79141    0.000
 4729.00    0.79755   0.80546    0.000
 4730.00    0.74686   0.81194    0.000
 4731.00    0.68830   0.80822    0.000
 4732.00    0.64088   0.80088    0.000
 4733.00    0.61204   0.80444    0.000
 4734.00    0.60541   0.81838    0.000
 4735.00    0.63123   0.82557    0.000
 4736.00    0.68530   0.82175    0.000
 4737.00    0.77568   0.81942    0.000
 4738.00    0.86323   0.82462    0.000
 4739.00    0.94760   0.83017    0.000
 4740.00    0.88180   0.83086    0.000
 4741.00    0.66599   0.83188    0.000
 4742.00    0.59645   0.83690    0.000
 4743.00    0.65580   0.84059    0.000
 4744.00    0.62901   0.84063    0.000
 4745.00    0.53535   0.84052    0.000
 4746.00    0.59223   0.83880    0.000
 4747.00    0.75188   0.83071    0.000
 4748.00    0.88747   0.81768    0.000
 4749.00    1.00867   0.80538    0.000
 4750.00    1.08072   0.79720    0.000
 4751.00    1.12712   0.79433    0.000
 4752.00    1.05580   0.79719    0.000
 4753.00    0.93118   0.80539    0.000
 4754.00    0.77686   0.81591    0.000
 4755.00    0.61096   0.82179    0.000
 4756.00    0.65466   0.81449    0.000
 4757.00    0.76781   0.79324    0.000
 4758.00    0.74489   0.76962    0.000
 4759.00    0.68415   0.75416    0.000
 4760.00    0.77798   0.74608    0.000
 4761.00    0.90717   0.74398    0.015
 4762.00    0.61676   0.75223    0.015
 4763.00    0.24951   0.77173    0.015
 4764.00    0.27849   0.79477    0.015
 4765.00    0.36328   0.80996    0.015
 4766.00    0.57715   0.81022    0.015
 4767.00    0.80412   0.80188    0.015
 4768.00    0.82184   0.80124    0.015
 4769.00    0.82604   0.81420    0.014
 4770.00    0.83414   0.82943    0.014
 4771.00    0.84250   0.83636    0.014
 4772.00    0.92112   0.83784    0.014
 4773.00    0.99513   0.83827    0.014
 4774.00    0.93528   0.83438    0.014
 4775.00    0.86815   0.82627    0.014
 4776.00    0.69575   0.81936    0.014
 4777.00    0.55301   0.81239    0.014
 4778.00    0.68925   0.80196    0.014
 4779.00    0.78808   0.79376    0.014
 4780.00    0.63081   0.79162    0.014
 4781.00    0.48486   0.78856    0.014
 4782.00    0.39882   0.78292    0.014
 4783.00    0.36165   0.78151    0.013
 4784.00    0.53260   0.78347    0.013
 4785.00    0.66916   0.78539    0.013
 4786.00    0.68488   0.79076    0.013
 4787.00    0.68433   0.80223    0.013
 4788.00    0.63571   0.81939    0.014
 4789.00    0.61504   0.83974    0.014
 4790.00    0.66477   0.85492    0.014
 4791.00    0.69339   0.85604    0.014
 4792.00    0.67623   0.84255    0.014
 4793.00    0.68364   0.82111    0.014
 4794.00    0.73727   0.80093    0.014
 4795.00    0.76262   0.79205    0.014
 4796.00    0.74148   0.79977    0.014
 4797.00    0.74031   0.81770    0.014
 4798.00    0.76789   0.83034    0.014
 4799.00    0.75400   0.82662    0.014
 4800.00    0.68757   0.81095    0.014
 4801.00    0.68344   0.79684    0.014
 4802.00    0.74890   0.79040    0.014
 4803.00    0.76003   0.78866    0.014
 4804.00    0.71765   0.79090    0.014
 4805.00    0.64419   0.79724    0.014
 4806.00    0.54374   0.80321    0.014
 4807.00    0.57710   0.80559    0.014
 4808.00    0.71286   0.80668    0.013
 4809.00    0.75125   0.80982    0.013
 4810.00    0.72415   0.81560    0.014
 4811.00    0.75899   0.82290    0.014
 4812.00    0.83032   0.83054    0.014
 4813.00    0.79354   0.83744    0.014
 4814.00    0.70122   0.84249    0.014
 4815.00    0.69760   0.84347    0.014
 4816.00    0.73347   0.83676    0.014
 4817.00    0.74368   0.81841    0.014
 4818.00    0.74408   0.78995    0.014
 4819.00    0.77636   0.76702    0.014
 4820.00    0.81900   0.76750    0.014
 4821.00    0.83968   0.78638    0.014
 4822.00    0.85438   0.80188    0.014
 4823.00    0.90512   0.80322    0.014
 4824.00    0.96391   0.79716    0.014
 4825.00    0.77950   0.79210    0.014
 4826.00    0.55173   0.78681    0.014
 4827.00    0.57162   0.77961    0.014
 4828.00    0.62525   0.77777    0.013
 4829.00    0.58131   0.78535    0.013
 4830.00    0.52788   0.79416    0.013
 4831.00    0.69034   0.79666    0.013
 4832.00    0.86589   0.79428    0.013
 4833.00    0.91817   0.78801    0.013
 4834.00    0.96607   0.77605    0.013
 4835.00    0.81516   0.76360    0.013
 4836.00    0.66762   0.75924    0.013
 4837.00    0.60788   0.76124    0.013
 4838.00    0.55740   0.76248    0.014
 4839.00    0.63335   0.76512    0.013
 4840.00    0.70592   0.77387    0.013
 4841.00    0.74797   0.78105    0.013
 4842.00    0.77744   0.77440    0.013
 4843.00    0.72342   0.75514    0.013
 4844.00    0.68759   0.73948    0.013
 4845.00    0.74558   0.73947    0.013
 4846.00    0.78761   0.74772    0.013
 4847.00    0.76314   0.74946    0.013
 4848.00    0.73770   0.73824    0.000
 4849.00    0.70887   0.71295    0.000
 4850.00    0.66522   0.67939    0.000
 4851.00    0.57862   0.65494    0.000
 4852.00    0.54771   0.64852    0.000
 4853.00    0.65462   0.64263    0.000
 4854.00    0.81091   0.61299    0.000
 4855.00    1.07255   0.55791    0.000
 4856.00    1.26239   0.50449    0.000
 4857.00    1.31917   0.48863    0.000
 4858.00    1.38920   0.51869    0.000
 4859.00    1.48066   0.56788    0.000
 4860.00    1.47527   0.61091    0.000
 4861.00    1.33235   0.64404    0.000
 4862.00    1.20736   0.66965    0.000
 4863.00    1.10475   0.68697    0.000
 4864.00    0.98951   0.69385    0.000
 4865.00    0.86036   0.68523    0.000
 4866.00    0.77499   0.66297    0.000
 4867.00    0.73215   0.64734    0.000
 4868.00    0.73517   0.65651    0.000
 4869.00    0.77748   0.68143    0.000
 4870.00    0.75196   0.70211    0.000
 4871.00    0.67528   0.71389    0.000
 4872.00    0.61753   0.72397    0.000
 4873.00    0.57232   0.73796    0.000
 4874.00    0.67226   0.75595    0.000
 4875.00    0.85645   0.76858    0.013
 4876.00    0.80794   0.76549    0.013
 4877.00    0.64173   0.75279    0.013
 4878.00    0.57696   0.74332    0.013
 4879.00    0.55661   0.73603    0.013
 4880.00    0.52830   0.72453    0.013
 4881.00    0.49701   0.71352    0.013
 4882.00    0.60555   0.71187    0.013
 4883.00    0.75869   0.71740    0.013
 4884.00    0.88121   0.71756    0.013
 4885.00    0.99557   0.70430    0.013
 4886.00    0.90864   0.68871    0.013
 4887.00    0.77779   0.69539    0.013
 4888.00    0.73046   0.73136    0.013
 4889.00    0.69760   0.77653    0.013
 4890.00    0.64830   0.81000    0.013
 4891.00    0.59685   0.82593    0.014
 4892.00    0.53281   0.82788    0.014
 4893.00    0.46761   0.81969    0.013
 4894.00    0.60919   0.80326    0.014
 4895.00    0.76249   0.78561    0.014
 4896.00    0.76319   0.77704    0.014
 4897.00    0.75986   0.77578    0.014
 4898.00    0.69597   0.77304    0.014
 4899.00    0.63529   0.77254    0.014
 4900.00    0.65095   0.78381    0.014
 4901.00    0.66851   0.80125    0.014
 4902.00    0.71050   0.80778    0.013
 4903.00    0.74985   0.79501    0.013
 4904.00    0.76625   0.76887    0.014
 4905.00    0.77688   0.74267    0.014
 4906.00    0.75032   0.73097    0.014
 4907.00    0.73190   0.73946    0.014
 4908.00    0.75445   0.75956    0.014
 4909.00    0.77121   0.77988    0.014
 4910.00    0.76436   0.79525    0.014
 4911.00    0.76723   0.79941    0.014
 4912.00    0.80290   0.78241    0.014
 4913.00    0.77186   0.74208    0.014
 4914.00    0.55089   0.69281    0.014
 4915.00    0.43932   0.65828    0.014
 4916.00    0.59390   0.65440    0.014
 4917.00    0.70438   0.67569    0.014
 4918.00    0.72228   0.69912    0.014
 4919.00    0.75743   0.71099    0.014
 4920.00    0.82405   0.72187    0.014
 4921.00    0.79310   0.74407    0.014
 4922.00    0.60654   0.77098    0.013
 4923.00    0.52777   0.79193    0.013
 4924.00    0.59984   0.80590    0.013
 4925.00    0.65590   0.81282    0.013
 4926.00    0.69224   0.80994    0.013
 4927.00    0.69793   0.79417    0.013
 4928.00    0.67035   0.76732    0.014
 4929.00    0.68562   0.74514    0.014
 4930.00    0.74193   0.74272    0.014
 4931.00    0.72571   0.74905    0.014
 4932.00    0.64824   0.74114    0.014
 4933.00    0.61460   0.71788    0.014
 4934.00    0.61354   0.70280    0.013
 4935.00    0.68268   0.71560    0.013
 4936.00    0.79768   0.74889    0.013
 4937.00    0.78420   0.77984    0.013
 4938.00    0.69728   0.79736    0.014
 4939.00    0.77178   0.80279    0.014
 4940.00    0.92664   0.79815    0.000
 4941.00    0.79396   0.78999    0.000
 4942.00    0.53746   0.78896    0.000
 4943.00    0.51429   0.79625    0.000
 4944.00    0.57728   0.80416    0.000
 4945.00    0.75409   0.80868    0.000
 4946.00    0.96651   0.81016    0.000
 4947.00    0.90378   0.80671    0.000
 4948.00    0.76925   0.79831    0.000
 4949.00    0.76663   0.78900    0.000
 4950.00    0.79210   0.77632    0.000
 4951.00    0.76221   0.74894    0.000
 4952.00    0.72298   0.70896    0.000
 4953.00    0.83222   0.68775    0.000
 4954.00    0.96035   0.70894    0.000
 4955.00    0.89339   0.75219    0.000
 4956.00    0.80914   0.78267    0.000
 4957.00    0.83607   0.79190    0.000
 4958.00    0.86887   0.79072    0.000
 4959.00    0.84143   0.78299    0.000
 4960.00    0.81156   0.76661    0.000
 4961.00    0.68291   0.74853    0.000
 4962.00    0.56668   0.73900    0.000
 4963.00    0.72069   0.73863    0.000
 4964.00    0.86433   0.74253    0.000
 4965.00    0.88054   0.74849    0.000
 4966.00    0.88354   0.75754    0.000
 4967.00    0.77599   0.76951    0.000
 4968.00    0.66399   0.78109    0.000
 4969.00    0.52425   0.78937    0.000
 4970.00    0.43742   0.79201    0.000
 4971.00    0.61005   0.78750    0.000
 4972.00    0.74309   0.77613    0.000
 4973.00    0.71847   0.76004    0.000
 4974.00    0.71718   0.74402    0.000
 4975.00    0.79304   0.72932    0.000
 4976.00    0.82584   0.70885    0.000
 4977.00    0.73823   0.67965    0.000
 4978.00    0.68615   0.65514    0.000
 4979.00    0.71904   0.65140    0.000
 4980.00    0.71797   0.66893    0.000
 4981.00    0.64677   0.69797    0.000
 4982.00    0.62170   0.72825    0.000
 4983.00    0.67953   0.74864    0.000
 4984.00    0.71081   0.75265    0.000
 4985.00    0.70040   0.74493    0.000
 4986.00    0.70690   0.73650    0.000
 4987.00    0.73671   0.73444    0.000
 4988.00    0.73300   0.73596    0.000
 4989.00    0.68858   0.73800    0.000
 4990.00    0.67722   0.74362    0.000
 4991.00    0.70126   0.75153    0.000
 4992.00    0.74889   0.75427    0.000
 4993.00    0.81880   0.74654    0.000
 4994.00    0.83817   0.72875    0.000
 4995.00    0.81546   0.70808    0.000
 4996.00    0.78220   0.69428    0.000
 4997.00    0.74122   0.69134    0.000
 4998.00    0.72156   0.69422    0.000
 4999.00    0.71561   0.69183    0.000
 5000.00    0.76895   0.67791    0.000
 5001.00    0.85567   0.66323    0.000
 5002.00    0.97604   0.66717    0.000
 5003.00    1.11291   0.69209    0.000
 5004.00    1.17707   0.71786    0.000
 5005.00    1.21045   0.72552    0.000
 5006.00    1.14175   0.71258    0.000
 5007.00    1.03604   0.68719    0.000
 5008.00    0.90442   0.66194    0.000
 5009.00    0.76487   0.64915    0.000
 5010.00    0.69767   0.65326    0.000
 5011.00    0.64895   0.66460    0.000
 5012.00    0.71191   0.66804    0.000
 5013.00    0.79807   0.66315    0.000
 5014.00    0.80974   0.66383    0.000
 5015.00    0.80920   0.67447    0.000
 5016.00    0.77749   0.68420    0.000
 5017.00    0.74194   0.68752    0.000
 5018.00    0.70943   0.69276    0.000
 5019.00    0.67718   0.70508    0.000
 5020.00    0.68224   0.71634    0.000
 5021.00    0.68912   0.71670    0.000
 5022.00    0.75491   0.70750    0.000
 5023.00    0.81850   0.70178    0.000
 5024.00    0.69264   0.70862    0.000
 5025.00    0.57784   0.72235    0.000
 5026.00    0.68491   0.73562    0.000
 5027.00    0.78414   0.74895    0.000
 5028.00    0.79177   0.75961    0.000
 5029.00    0.79010   0.75643    0.013
 5030.00    0.71336   0.73519    0.013
 5031.00    0.65003   0.71034    0.013
 5032.00    0.66799   0.69798    0.013
 5033.00    0.69881   0.69233    0.013
 5034.00    0.79116   0.67584    0.013
 5035.00    0.82996   0.64654    0.013
 5036.00    0.66021   0.62459    0.013
 5037.00    0.56301   0.63309    0.013
 5038.00    0.70112   0.67142    0.013
 5039.00    0.79360   0.71639    0.013
 5040.00    0.76086   0.74926    0.013
 5041.00    0.69721   0.76386    0.013
 5042.00    0.56091   0.75703    0.013
 5043.00    0.52032   0.73212    0.013
 5044.00    0.67431   0.70432    0.013
 5045.00    0.75982   0.68808    0.013
 5046.00    0.72415   0.68510    0.013
 5047.00    0.74042   0.69166    0.013
 5048.00    0.83709   0.70652    0.013
 5049.00    0.78543   0.72558    0.013
 5050.00    0.53213   0.74027    0.013
 5051.00    0.41579   0.74682    0.013
 5052.00    0.46340   0.74974    0.013
 5053.00    0.55488   0.75381    0.013
 5054.00    0.69267   0.75909    0.013
 5055.00    0.72421   0.76492    0.013
 5056.00    0.65685   0.77056    0.013
 5057.00    0.67491   0.77045    0.013
 5058.00    0.76307   0.75648    0.013
 5059.00    0.74420   0.72951    0.013
 5060.00    0.64802   0.70481    0.012
 5061.00    0.66382   0.69620    0.012
 5062.00    0.75062   0.69901    0.013
 5063.00    0.70122   0.70229    0.013
 5064.00    0.57630   0.70639    0.013
 5065.00    0.57317   0.71297    0.013
 5066.00    0.62876   0.71426    0.013
 5067.00    0.62713   0.70773    0.013
 5068.00    0.60169   0.70332    0.013
 5069.00    0.68157   0.70575    0.012
 5070.00    0.79895   0.70888    0.012
 5071.00    0.75063   0.71004    0.012
 5072.00    0.65246   0.70860    0.013
 5073.00    0.61855   0.69590    0.013
 5074.00    0.60068   0.66869    0.012
 5075.00    0.61011   0.64439    0.012
 5076.00    0.62507   0.64145    0.012
 5077.00    0.63547   0.65524    0.012
 5078.00    0.64516   0.67040    0.012
 5079.00    0.62769   0.68337    0.012
 5080.00    0.60701   0.69721    0.012
 5081.00    0.52239   0.70852    0.012
 5082.00    0.43262   0.71324    0.012
 5083.00    0.46058   0.71504    0.012
 5084.00    0.49384   0.71870    0.012
 5085.00    0.60277   0.72345    0.012
 5086.00    0.71048   0.72833    0.011
 5087.00    0.71299   0.73540    0.012
 5088.00    0.71430   0.74329    0.012
 5089.00    0.69328   0.74537    0.012
 5090.00    0.66990   0.73676    0.012
 5091.00    0.62027   0.71819    0.012
 5092.00    0.58438   0.69328    0.012
 5093.00    0.65546   0.66826    0.012
 5094.00    0.71899   0.65421    0.012
 5095.00    0.73805   0.66076    0.012
 5096.00    0.74169   0.68330    0.012
 5097.00    0.67335   0.70469    0.012
 5098.00    0.62429   0.71300    0.012
 5099.00    0.64869   0.71035    0.012
 5100.00    0.66934   0.70363    0.012
 5101.00    0.67806   0.69478    0.012
 5102.00    0.66311   0.68397    0.012
 5103.00    0.58433   0.67492    0.012
 5104.00    0.53364   0.67090    0.012
 5105.00    0.54791   0.67272    0.012
 5106.00    0.55220   0.68181    0.012
 5107.00    0.53650   0.69644    0.012
 5108.00    0.51557   0.70968    0.012
 5109.00    0.48550   0.71748    0.012
 5110.00    0.48086   0.72227    0.012
 5111.00    0.51500   0.72808    0.012
 5112.00    0.53568   0.73549    0.012
 5113.00    0.53831   0.73991    0.013
 5114.00    0.59288   0.73627    0.013
 5115.00    0.70874   0.72448    0.013
 5116.00    0.79685   0.70773    0.013
 5117.00    0.85610   0.68789    0.013
 5118.00    0.84284   0.66745    0.013
 5119.00    0.76301   0.65291    0.013
 5120.00    0.72914   0.64957    0.013
 5121.00    0.73245   0.65386    0.013
 5122.00    0.71416   0.65748    0.013
 5123.00    0.68048   0.65725    0.012
 5124.00    0.64268   0.65707    0.012
 5125.00    0.60230   0.66206    0.012
 5126.00    0.62410   0.67193    0.013
 5127.00    0.67985   0.68138    0.013
 5128.00    0.69877   0.68800    0.013
 5129.00    0.70022   0.69502    0.013
 5130.00    0.61263   0.70169    0.013
 5131.00    0.48860   0.69976    0.013
 5132.00    0.60973   0.68582    0.013
 5133.00    0.81656   0.66808    0.013
 5134.00    0.84370   0.65821    0.013
 5135.00    0.81786   0.65999    0.013
 5136.00    0.70662   0.66454    0.013
 5137.00    0.57451   0.66233    0.013
 5138.00    0.62170   0.65907    0.013
 5139.00    0.70432   0.66311    0.013
 5140.00    0.72429   0.66744    0.013
 5141.00    0.73461   0.66366    0.013
 5142.00    0.66318   0.65740    0.013
 5143.00    0.58244   0.65779    0.012
 5144.00    0.59142   0.66387    0.012
 5145.00    0.60725   0.66702    0.012
 5146.00    0.59712   0.66263    0.012
 5147.00    0.58592   0.65465    0.012
 5148.00    0.69908   0.64911    0.012
 5149.00    0.80691   0.65030    0.012
 5150.00    0.64725   0.66108    0.012
 5151.00    0.50360   0.67948    0.012
 5152.00    0.63756   0.69790    0.012
 5153.00    0.76420   0.70930    0.012
 5154.00    0.81289   0.71253    0.012
 5155.00    0.85319   0.71016    0.012
 5156.00    0.83031   0.70297    0.012
 5157.00    0.82374   0.69147    0.012
 5158.00    0.91061   0.67823    0.012
 5159.00    0.97209   0.66039    0.012
 5160.00    0.91793   0.62852    0.012
 5161.00    0.87220   0.58187    0.012
 5162.00    0.85789   0.53776    0.012
 5163.00    0.83875   0.51964    0.012
 5164.00    0.80453   0.53371    0.012
 5165.00    0.74849   0.55649    0.012
 5166.00    0.63465   0.55713    0.012
 5167.00    0.54956   0.53745    0.012
 5168.00    0.52986   0.53350    0.012
 5169.00    0.52834   0.56754    0.012
 5170.00    0.56263   0.61957    0.012
 5171.00    0.52726   0.65837    0.012
 5172.00    0.37233   0.67645    0.012
 5173.00    0.30983   0.68251    0.012
 5174.00    0.38626   0.68076    0.012
 5175.00    0.46187   0.66855    0.012
 5176.00    0.53641   0.64087    0.012
 5177.00    0.57089   0.59585    0.012
 5178.00    0.55877   0.54852    0.012
 5179.00    0.60262   0.53076    0.012
 5180.00    0.70390   0.55861    0.012
 5181.00    0.70123   0.60938    0.012
 5182.00    0.60453   0.64827    0.012
 5183.00    0.59547   0.66536    0.012
 5184.00    0.65631   0.67108    0.012
 5185.00    0.67114   0.66878    0.012
 5186.00    0.65369   0.65215    0.012
 5187.00    0.67244   0.62908    0.012
 5188.00    0.71347   0.61989    0.012
 5189.00    0.68097   0.62720    0.012
 5190.00    0.60895   0.63655    0.000
 5191.00    0.57180   0.64300    0.000
 5192.00    0.55092   0.65235    0.000
 5193.00    0.54277   0.66584    0.000
 5194.00    0.53973   0.67919    0.000
 5195.00    0.50780   0.68767    0.000
 5196.00    0.46596   0.68828    0.000
 5197.00    0.55502   0.68110    0.000
 5198.00    0.68189   0.66594    0.000
 5199.00    0.70563   0.64199    0.000
 5200.00    0.70474   0.61538    0.000
 5201.00    0.69835   0.59823    0.000
 5202.00    0.69090   0.59372    0.000
 5203.00    0.71945   0.59546    0.000
 5204.00    0.75339   0.60334    0.000
 5205.00    0.72172   0.62254    0.000
 5206.00    0.68288   0.65024    0.000
 5207.00    0.64365   0.67689    0.000
 5208.00    0.60439   0.69261    0.000
 5209.00    0.60120   0.69051    0.000
 5210.00    0.59936   0.67423    0.000
 5211.00    0.61387   0.65913    0.012
 5212.00    0.63055   0.65943    0.012
 5213.00    0.72389   0.67518    0.012
 5214.00    0.80465   0.69522    0.012
 5215.00    0.68145   0.70945    0.012
 5216.00    0.56464   0.71447    0.012
 5217.00    0.51286   0.70963    0.012
 5218.00    0.47729   0.69329    0.012
 5219.00    0.55976   0.66487    0.012
 5220.00    0.62918   0.62820    0.012
 5221.00    0.62591   0.59526    0.012
 5222.00    0.63261   0.58516    0.012
 5223.00    0.68364   0.60741    0.012
 5224.00    0.71932   0.64659    0.012
 5225.00    0.69894   0.67664    0.012
 5226.00    0.67593   0.68497    0.012
 5227.00    0.64482   0.67403    0.012
 5228.00    0.63021   0.65571    0.012
 5229.00    0.65851   0.64647    0.012
 5230.00    0.67343   0.65445    0.012
 5231.00    0.65844   0.67407    0.012
 5232.00    0.68048   0.69394    0.012
 5233.00    0.77433   0.70577    0.012
 5234.00    0.82746   0.70932    0.012
 5235.00    0.81175   0.70950    0.012
 5236.00    0.78014   0.70927    0.012
 5237.00    0.72498   0.70867    0.012
 5238.00    0.69022   0.70958    0.012
 5239.00    0.68199   0.71311    0.012
 5240.00    0.66360   0.71183    0.012
 5241.00    0.63355   0.69774    0.012
 5242.00    0.63899   0.67760    0.011
 5243.00    0.68032   0.66475    0.011
 5244.00    0.69003   0.65981    0.012
 5245.00    0.67155   0.65663    0.012
 5246.00    0.62395   0.65773    0.012
 5247.00    0.55345   0.66572    0.012
 5248.00    0.59499   0.67244    0.012
 5249.00    0.71399   0.67131    0.012
 5250.00    0.71022   0.67011    0.012
 5251.00    0.63202   0.68111    0.012
 5252.00    0.57645   0.70276    0.012
 5253.00    0.53287   0.72047    0.012
 5254.00    0.58810   0.72275    0.012
 5255.00    0.68870   0.70754    0.012
 5256.00    0.73256   0.67848    0.012
 5257.00    0.75399   0.64247    0.012
 5258.00    0.70308   0.60779    0.012
 5259.00    0.62782   0.58099    0.012
 5260.00    0.62080   0.56690    0.012
 5261.00    0.63310   0.56888    0.013
 5262.00    0.70180   0.58024    0.013
 5263.00    0.78366   0.58159    0.013
 5264.00    0.70638   0.56623    0.013
 5265.00    0.59926   0.55817    0.013
 5266.00    0.61827   0.57896    0.013
 5267.00    0.65555   0.61399    0.013
 5268.00    0.72963   0.63568    0.013
 5269.00    0.80759   0.63838    0.013
 5270.00    0.76275   0.63673    0.013
 5271.00    0.70954   0.64739    0.013
 5272.00    0.58709   0.67279    0.013
 5273.00    0.46232   0.69667    0.013
 5274.00    0.60220   0.70265    0.013
 5275.00    0.73450   0.69115    0.013
 5276.00    0.61423   0.67297    0.013
 5277.00    0.51496   0.65656    0.013
 5278.00    0.73552   0.64745    0.013
 5279.00    0.91902   0.65321    0.013
 5280.00    0.74111   0.67708    0.013
 5281.00    0.58491   0.70710    0.013
 5282.00    0.58158   0.72591    0.012
 5283.00    0.59035   0.73037    0.012
 5284.00    0.66477   0.73049    0.012
 5285.00    0.73013   0.73270    0.012
 5286.00    0.75612   0.73361    0.012
 5287.00    0.80007   0.72896    0.012
 5288.00    0.90825   0.72079    0.012
 5289.00    0.95572   0.71209    0.012
 5290.00    0.82081   0.69881    0.012
 5291.00    0.72154   0.67540    0.012
 5292.00    0.71340   0.64847    0.012
 5293.00    0.70290   0.63545    0.012
 5294.00    0.68720   0.64394    0.012
 5295.00    0.62853   0.66086    0.012
 5296.00    0.48788   0.67152    0.012
 5297.00    0.45587   0.67869    0.012
 5298.00    0.60475   0.69202    0.012
 5299.00    0.72369   0.70981    0.012
 5300.00    0.79893   0.72127    0.012
 5301.00    0.80739   0.72111    0.012
 5302.00    0.73015   0.71578    0.012
 5303.00    0.70886   0.71529    0.012
 5304.00    0.75082   0.72162    0.012
 5305.00    0.71369   0.72805    0.012
 5306.00    0.59770   0.72864    0.012
 5307.00    0.54285   0.72360    0.012
 5308.00    0.54176   0.71630    0.012
 5309.00    0.55691   0.70858    0.012
 5310.00    0.58464   0.69921    0.012
 5311.00    0.59719   0.68901    0.012
 5312.00    0.59939   0.68433    0.012
 5313.00    0.61886   0.68848    0.012
 5314.00    0.64863   0.69576    0.012
 5315.00    0.70386   0.69968    0.012
 5316.00    0.77234   0.69821    0.012
 5317.00    0.81773   0.68998    0.012
 5318.00    0.85269   0.67505    0.012
 5319.00    0.83850   0.65952    0.012
 5320.00    0.80521   0.64898    0.012
 5321.00    0.63324   0.63535    0.012
 5322.00    0.41543   0.60827    0.012
 5323.00    0.44914   0.58175    0.012
 5324.00    0.55259   0.58426    0.012
 5325.00    0.61385   0.61819    0.012
 5326.00    0.66549   0.65567    0.012
 5327.00    0.62157   0.67589    0.012
 5328.00    0.56021   0.68345    0.012
 5329.00    0.63033   0.69011    0.012
 5330.00    0.71888   0.69619    0.012
 5331.00    0.72138   0.69630    0.012
 5332.00    0.71520   0.69034    0.012
 5333.00    0.61320   0.67979    0.012
 5334.00    0.50505   0.66362    0.012
 5335.00    0.62654   0.64773    0.012
 5336.00    0.75444   0.64620    0.012
 5337.00    0.71258   0.66219    0.012
 5338.00    0.67118   0.68107    0.012
 5339.00    0.64292   0.68874    0.012
 5340.00    0.61379   0.68481    0.012
 5341.00    0.57224   0.67774    0.012
 5342.00    0.54244   0.67262    0.012
 5343.00    0.62255   0.66785    0.012
 5344.00    0.70088   0.66571    0.012
 5345.00    0.76708   0.67321    0.012
 5346.00    0.81698   0.68906    0.012
 5347.00    0.78086   0.70356    0.012
 5348.00    0.73756   0.71294    0.012
 5349.00    0.66377   0.72169    0.012
 5350.00    0.61599   0.73130    0.012
 5351.00    0.65942   0.73797    0.012
 5352.00    0.69965   0.74022    0.011
 5353.00    0.73047   0.73960    0.012
 5354.00    0.75140   0.73618    0.012
 5355.00    0.74748   0.72782    0.012
 5356.00    0.74271   0.71404    0.012
 5357.00    0.73609   0.69906    0.012
 5358.00    0.74075   0.68783    0.011
 5359.00    0.76658   0.68044    0.011
 5360.00    0.78375   0.67555    0.011
 5361.00    0.78672   0.67342    0.011
 5362.00    0.72203   0.67150    0.011
 5363.00    0.56004   0.66402    0.011
 5364.00    0.51049   0.64695    0.011
 5365.00    0.60317   0.62572    0.011
 5366.00    0.68381   0.61676    0.011
 5367.00    0.75104   0.63223    0.011
 5368.00    0.77845   0.66461   -2.000
 5369.00    0.76671   0.69443   -2.000
 5370.00    0.77227   0.70996   -2.000
 5371.00    0.79283   0.71213   -2.000
 5372.00    0.79683   0.70863   -2.000
 5373.00    0.78817   0.70551   -2.000
 5374.00    0.81483   0.70186   -2.000
 5375.00    0.86519   0.69510   -2.000
 5376.00    0.86530   0.68720   -2.000
 5377.00    0.83585   0.68147   -2.000
 5378.00    0.72839   0.68042   -2.000
 5379.00    0.58091   0.68604   -2.000
 5380.00    0.60966   0.69495   -2.000
 5381.00    0.71671   0.69996   -2.000
 5382.00    0.77114   0.69799   -2.000
 5383.00    0.80550   0.69022    0.012
 5384.00    0.80203   0.67900    0.012
 5385.00    0.78628   0.66813    0.012
 5386.00    0.77515   0.66088    0.012
 5387.00    0.76526   0.65747    0.012
 5388.00    0.75677   0.65631    0.012
 5389.00    0.74858   0.65460    0.012
 5390.00    0.70734   0.64753    0.012
 5391.00    0.66022   0.63414    0.012
 5392.00    0.68770   0.62514    0.012
 5393.00    0.72531   0.63177    0.012
 5394.00    0.64580   0.64813    0.012
 5395.00    0.55497   0.66070    0.012
 5396.00    0.64589   0.66547    0.012
 5397.00    0.74774   0.66172    0.012
 5398.00    0.66093   0.64519    0.012
 5399.00    0.56928   0.61911    0.012
 5400.00    0.48821   0.59898    0.011
 5401.00    0.41499   0.59814    0.011
 5402.00    0.54412   0.61263    0.011
 5403.00    0.67232   0.62545    0.011
 5404.00    0.78811   0.62767    0.011
 5405.00    0.88668   0.62890    0.011
 5406.00    0.83046   0.64087    0.011
 5407.00    0.76533   0.65911    0.011
 5408.00    0.64139   0.67085    0.011
 5409.00    0.54662   0.67359    0.011
 5410.00    0.60193   0.67614    0.011
 5411.00    0.65681   0.68397    0.011
 5412.00    0.70988   0.69154    0.011
 5413.00    0.74702   0.69143    0.011
 5414.00    0.72942   0.68427    0.011
 5415.00    0.70543   0.67693    0.011
 5416.00    0.66299   0.67411    0.011
 5417.00    0.65015   0.67226    0.011
 5418.00    0.71044   0.66561    0.011
 5419.00    0.74876   0.65939    0.011
 5420.00    0.74033   0.66478    0.011
 5421.00    0.71539   0.67917    0.011
 5422.00    0.65995   0.68509    0.011
 5423.00    0.64020   0.67103    0.011
 5424.00    0.67812   0.64801    0.011
 5425.00    0.69633   0.63755    0.011
 5426.00    0.68661   0.64224    0.011
 5427.00    0.66232   0.64520    0.011
 5428.00    0.61990   0.63792    0.011
 5429.00    0.58399   0.62893    0.011
 5430.00    0.55526   0.62929    0.011
 5431.00    0.62615   0.64209    0.011
 5432.00    0.79363   0.66323    0.012
 5433.00    0.79759   0.68550    0.012
 5434.00    0.66175   0.70226    0.012
 5435.00    0.61193   0.71086    0.012
 5436.00    0.62690   0.71290    0.012
 5437.00    0.60902   0.71037    0.011
 5438.00    0.56941   0.70139    0.011
 5439.00    0.57220   0.68197    0.011
 5440.00    0.59955   0.65370    0.011
 5441.00    0.64265   0.62920    0.011
 5442.00    0.69370   0.62477    0.011
 5443.00    0.71020   0.64287    0.011
 5444.00    0.71160   0.66802    0.011
 5445.00    0.67697   0.68426    0.011
 5446.00    0.62883   0.68761    0.011
 5447.00    0.56979   0.68080    0.011
 5448.00    0.50729   0.66522    0.011
 5449.00    0.48868   0.64356    0.011
 5450.00    0.48173   0.62722    0.011
 5451.00    0.49709   0.63030    0.011
 5452.00    0.51729   0.65188    0.011
 5453.00    0.57529   0.67500    0.011
 5454.00    0.63982   0.68505    0.011
 5455.00    0.70700   0.68020    0.011
 5456.00    0.77452   0.66616    0.011
 5457.00    0.64171   0.65069    0.011
 5458.00    0.49039   0.64316    0.011
 5459.00    0.45689   0.64804    0.011
 5460.00    0.43002   0.65861    0.011
 5461.00    0.55431   0.66638    0.011
 5462.00    0.68105   0.67058    0.011
 5463.00    0.71105   0.67251    0.011
 5464.00    0.74010   0.67088    0.011
 5465.00    0.74696   0.66637    0.011
 5466.00    0.75417   0.66135    0.011
 5467.00    0.76586   0.65539    0.011
 5468.00    0.76327   0.64759    0.011
 5469.00    0.63716   0.63776    0.011
 5470.00    0.53126   0.62368    0.011
 5471.00    0.55495   0.60898    0.011
 5472.00    0.57461   0.60693    0.011
 5473.00    0.57406   0.62163    0.011
 5474.00    0.58492   0.63769    0.011
 5475.00    0.64208   0.64063    0.011
 5476.00    0.66715   0.63559    0.011
 5477.00    0.58418   0.63683    0.011
 5478.00    0.54098   0.64881   -2.000
 5479.00    0.61073   0.66404   -2.000
 5480.00    0.68166   0.67163   -2.000
 5481.00    0.75545   0.66663   -2.000
 5482.00    0.74626   0.65566   -2.000
 5483.00    0.56321   0.64993   -2.000
 5484.00    0.59569   0.65244   -2.000
 5485.00    1.02068   0.65829   -2.000
 5486.00    1.34157   0.66249   -2.000
 5487.00    1.49673   0.66262   -2.000
 5488.00    1.74026   0.66011   -2.000
 5489.00    2.10721   0.65895   -2.000
 5490.00    2.03451   0.65872   -2.000
 5491.00    1.42128   0.65583   -2.000
 5492.00    0.93915   0.65339   -2.000
 5493.00    0.59909   0.65740   -2.000
 5494.00    0.41621   0.66337   -2.000
 5495.00    0.38358   0.66092   -2.000
 5496.00    0.45795   0.65044   -2.000
 5497.00    0.62249   0.64238   -2.000
 5498.00    0.62519   0.64184   -2.000
 5499.00    0.50776   0.64309   -2.000
 5500.00    0.48368   0.63965   -2.000
 5501.00    0.52043   0.63489   -2.000
 5502.00    0.53059   0.63652    0.011
 5503.00    0.52558   0.64352    0.011
 5504.00    0.51043   0.64773    0.010
 5505.00    0.49024   0.64443    0.010
 5506.00    0.49900   0.63542    0.010
 5507.00    0.52020   0.62667    0.011
 5508.00    0.52143   0.62423    0.010
 5509.00    0.51531   0.62935    0.010
 5510.00    0.55348   0.63871    0.010
 5511.00    0.60547   0.64927    0.010
 5512.00    0.61430   0.66038    0.010
 5513.00    0.61189   0.67035    0.010
 5514.00    0.62594   0.67570    0.010
 5515.00    0.64348   0.67559    0.010
 5516.00    0.63610   0.67313    0.010
 5517.00    0.62453   0.67109    0.010
 5518.00    0.60723   0.66870    0.010
 5519.00    0.58920   0.66307    0.010
 5520.00    0.55708   0.65228    0.011
 5521.00    0.52372   0.63725    0.011
 5522.00    0.50471   0.62307    0.011
 5523.00    0.48646   0.61855    0.011
 5524.00    0.53353   0.62813    0.010
 5525.00    0.58186   0.64458    0.010
 5526.00    0.63376   0.65599    0.010
 5527.00    0.68407   0.65743    0.010
 5528.00    0.70016   0.65182    0.011
 5529.00    0.71433   0.64487    0.011
 5530.00    0.70516   0.64223    0.011
 5531.00    0.69176   0.64565    0.011
 5532.00    0.64318   0.65186    0.011
 5533.00    0.59969   0.65819    0.011
 5534.00    0.58797   0.66491    0.011
 5535.00    0.58707   0.67059    0.011
 5536.00    0.63909   0.67115    0.011
 5537.00    0.67306   0.66522    0.011
 5538.00    0.63536   0.65731    0.011
 5539.00    0.60351   0.65270    0.011
 5540.00    0.59094   0.65250    0.011
 5541.00    0.58254   0.65618    0.011
 5542.00    0.58573   0.66378    0.011
 5543.00    0.59291   0.67300    0.011
 5544.00    0.60957   0.67958    0.011
 5545.00    0.61952   0.68125    0.010
 5546.00    0.61563   0.67821    0.010
 5547.00    0.60467   0.67147    0.010
 5548.00    0.58105   0.66340    0.010
 5549.00    0.58879   0.65790    0.010
 5550.00    0.64571   0.65709    0.010
 5551.00    0.67394   0.65884    0.010
 5552.00    0.66265   0.66003    0.010
 5553.00    0.67207   0.66025    0.010
 5554.00    0.70660   0.65993    0.010
 5555.00    0.71627   0.65795    0.010
 5556.00    0.69938   0.65323    0.010
 5557.00    0.68571   0.64727    0.010
 5558.00    0.67509   0.64296    0.010
 5559.00    0.66789   0.64068    0.010
 5560.00    0.66355   0.63852    0.010
 5561.00    0.63471   0.63635    0.010
 5562.00    0.58795   0.63527    0.010
 5563.00    0.58880   0.63499    0.010
 5564.00    0.62024   0.63570    0.010
 5565.00    0.59632   0.63774    0.010
 5566.00    0.54129   0.63822    0.010
 5567.00    0.54017   0.63584    0.010
 5568.00    0.56542   0.63575    0.010
 5569.00    0.55394   0.64087    0.010
 5570.00    0.52694   0.64678    0.010
 5571.00    0.55730   0.65024    0.010
 5572.00    0.60841   0.65264    0.010
 5573.00    0.60105   0.65496    0.010
 5574.00    0.57581   0.65659    0.011
 5575.00    0.57002   0.65648    0.010
 5576.00    0.56919   0.65419    0.010
 5577.00    0.59663   0.65111    0.010
 5578.00    0.62994   0.64765    0.011
 5579.00    0.66508   0.64022    0.011
 5580.00    0.70052   0.62526    0.011
 5581.00    0.74741   0.60529    0.011
 5582.00    0.79569   0.58851    0.011
 5583.00    0.75306   0.58233    0.011
 5584.00    0.70280   0.58811    0.011
 5585.00    0.69735   0.60090    0.011
 5586.00    0.69408   0.61284    0.010
 5587.00    0.69720   0.61853    0.010
 5588.00    0.70120   0.61960    0.010
 5589.00    0.75219   0.62305    0.010
 5590.00    0.79910   0.63219    0.010
 5591.00    0.76490   0.64019    0.010
 5592.00    0.73318   0.63837    0.010
 5593.00    0.73033   0.62849    0.010
 5594.00    0.73231   0.61846    0.010
 5595.00    0.77305   0.61092    0.010
 5596.00    0.79655   0.60518    0.010
 5597.00    0.71586   0.60488    0.010
 5598.00    0.64962   0.61523    0.010
 5599.00    0.65227   0.63462    0.010
 5600.00    0.65865   0.65440    0.010
 5601.00    0.67957   0.66701    0.010
 5602.00    0.67610   0.67127    0.010
 5603.00    0.59376   0.67058    0.010
 5604.00    0.53077   0.66909    0.010
 5605.00    0.52082   0.66928    0.010
 5606.00    0.52446   0.67021    0.010
 5607.00    0.55996   0.66648    0.010
 5608.00    0.60264   0.65138    0.010
 5609.00    0.65986   0.62644    0.010
 5610.00    0.71286   0.60575    0.010
 5611.00    0.75839   0.60274    0.010
 5612.00    0.77025   0.61415    0.010
 5613.00    0.73009   0.62623    0.010
 5614.00    0.69693   0.63278    0.010
 5615.00    0.67327   0.63719    0.010
 5616.00    0.66494   0.64084    0.010
 5617.00    0.67493   0.63859    0.010
 5618.00    0.66449   0.62732    0.010
 5619.00    0.63254   0.61404    0.010
 5620.00    0.61838   0.60984    0.010
 5621.00    0.62077   0.61718    0.010
 5622.00    0.62475   0.62966    0.010
 5623.00    0.63003   0.64178    0.010
 5624.00    0.61138   0.65188    0.010
 5625.00    0.57548   0.65847    0.010
 5626.00    0.55810   0.65999    0.010
 5627.00    0.55245   0.65664    0.010
 5628.00    0.59163   0.65026    0.010
 5629.00    0.65561   0.64279    0.010
 5630.00    0.68115   0.63524    0.010
 5631.00    0.68820   0.62843    0.010
 5632.00    0.64988   0.62440    0.010
 5633.00    0.59272   0.62439    0.010
 5634.00    0.54534   0.62565    0.010
 5635.00    0.50144   0.62464    0.010
 5636.00    0.49594   0.62260    0.010
 5637.00    0.50196   0.62338    0.009
 5638.00    0.56212   0.62738    0.010
 5639.00    0.63578   0.63227    0.010
 5640.00    0.65846   0.63673    0.010
 5641.00    0.67084   0.64036    0.010
 5642.00    0.66396   0.64206    0.010
 5643.00    0.65403   0.64101    0.009
 5644.00    0.66399   0.63901    0.010
 5645.00    0.67630   0.63956    0.010
 5646.00    0.66760   0.64300    0.010
 5647.00    0.65724   0.64483    0.010
 5648.00    0.65113   0.64088    0.010
 5649.00    0.64522   0.63289    0.010
 5650.00    0.63628   0.62506    0.010
 5651.00    0.62780   0.61603    0.010
 5652.00    0.64291   0.60274    0.010
 5653.00    0.65285   0.59159    0.010
 5654.00    0.56736   0.59229    0.010
 5655.00    0.49505   0.60161    0.010
 5656.00    0.56860   0.60810    0.010
 5657.00    0.63485   0.61011    0.010
 5658.00    0.64456   0.61496    0.010
 5659.00    0.65575   0.62421    0.010
 5660.00    0.67560   0.63090    0.010
 5661.00    0.69435   0.63012    0.010
 5662.00    0.70794   0.62506    0.010
 5663.00    0.70880   0.62211    0.010
 5664.00    0.66121   0.62409    0.010
 5665.00    0.63358   0.63006    0.010
 5666.00    0.66932   0.63854    0.010
 5667.00    0.69433   0.64756    0.010
 5668.00    0.69053   0.65361    0.010
 5669.00    0.66348   0.65466    0.010
 5670.00    0.58278   0.65325    0.010
 5671.00    0.56267   0.65269    0.010
 5672.00    0.66352   0.65216    0.010
 5673.00    0.75052   0.64948    0.010
 5674.00    0.81345   0.64491    0.010
 5675.00    0.82946   0.63877    0.010
 5676.00    0.77405   0.63022    0.010
 5677.00    0.72772   0.62149    0.010
 5678.00    0.69356   0.61766    0.010
 5679.00    0.64565   0.61934    0.010
 5680.00    0.58154   0.62091    0.010
 5681.00    0.52506   0.61825    0.010
 5682.00    0.47650   0.61433    0.010
 5683.00    0.49671   0.61509    0.009
 5684.00    0.57993   0.62231    0.009
 5685.00    0.65281   0.63255    0.009
 5686.00    0.71733   0.64155    0.009
 5687.00    0.72742   0.64698    0.009
 5688.00    0.69884   0.64829    0.009
 5689.00    0.69165   0.64693    0.009
 5690.00    0.69778   0.64503    0.009
 5691.00    0.67583   0.64233    0.010
 5692.00    0.63860   0.63714    0.010
 5693.00    0.62698   0.62994    0.010
 5694.00    0.62750   0.62260    0.010
 5695.00    0.64583   0.61588    0.010
 5696.00    0.67143   0.61134    0.010
 5697.00    0.69121   0.61176    0.010
 5698.00    0.70897   0.61614    0.010
 5699.00    0.70471   0.61840    0.010
 5700.00    0.69397   0.61386    0.010
 5701.00    0.61436   0.60382    0.010
 5702.00    0.51796   0.59265    0.010
 5703.00    0.49510   0.58399    0.010
 5704.00    0.48672   0.58031    0.010
 5705.00    0.53351   0.58224    0.010
 5706.00    0.58878   0.58893    0.010
 5707.00    0.60179   0.60010    0.010
 5708.00    0.61002   0.61401    0.010
 5709.00    0.58054   0.62619    0.010
 5710.00    0.54819   0.63384    0.010
 5711.00    0.51987   0.63759    0.010
 5712.00    0.49172   0.63936    0.010
 5713.00    0.57780   0.64122    0.010
 5714.00    0.66331   0.64438    0.010
 5715.00    0.68868   0.64852    0.010
 5716.00    0.71420   0.65286    0.010
 5717.00    0.74226   0.65630    0.010
 5718.00    0.76047   0.65741    0.010
 5719.00    0.67453   0.65517    0.009
 5720.00    0.59661   0.64956    0.009
 5721.00    0.57884   0.64253    0.009
 5722.00    0.56628   0.63833    0.009
 5723.00    0.58345   0.63900    0.009
 5724.00    0.60218   0.64054    0.009
 5725.00    0.62798   0.63823    0.009
 5726.00    0.65203   0.63432    0.009
 5727.00    0.66953   0.63493    0.009
 5728.00    0.68054   0.64090    0.009
 5729.00    0.67137   0.64702    0.009
 5730.00    0.66388   0.64905    0.010
 5731.00    0.66086   0.64731    0.010
 5732.00    0.65680   0.64456    0.010
 5733.00    0.65040   0.64280    0.010
 5734.00    0.64514   0.64209    0.010
 5735.00    0.64211   0.64129    0.010
 5736.00    0.63050   0.63968    0.010
 5737.00    0.60420   0.63833    0.010
 5738.00    0.57675   0.63948    0.010
 5739.00    0.54757   0.64335    0.010
 5740.00    0.54541   0.64594    0.000
 5741.00    0.57888   0.64284    0.000
 5742.00    0.58641   0.63563    0.000
 5743.00    0.56382   0.63140    0.000
 5744.00    0.53332   0.63353    0.000
 5745.00    0.49474   0.63641    0.000
 5746.00    0.50875   0.63222    0.000
 5747.00    0.57026   0.62082    0.000
 5748.00    0.60344   0.61066    0.000
 5749.00    0.61407   0.61062    0.000
 5750.00    0.64259   0.62136    0.000
 5751.00    0.68365   0.63526    0.000
 5752.00    0.73245   0.64392    0.000
 5753.00    0.78602   0.64387    0.000
 5754.00    0.76586   0.63618    0.000
 5755.00    0.70616   0.62434    0.000
 5756.00    0.66326   0.61343    0.000
 5757.00    0.62819   0.60947    0.000
 5758.00    0.61961   0.61598    0.000
 5759.00    0.62166   0.62961    0.000
 5760.00    0.60045   0.64234    0.000
 5761.00    0.57129   0.64911    0.000
 5762.00    0.58825   0.65050    0.000
 5763.00    0.61850   0.64888    0.000
 5764.00    0.62349   0.64571    0.000
 5765.00    0.62246   0.64164    0.000
 5766.00    0.63062   0.63732    0.000
 5767.00    0.64054   0.63376    0.000
 5768.00    0.67814   0.63171    0.000
 5769.00    0.71987   0.63151    0.000
 5770.00    0.71013   0.63345    0.000
 5771.00    0.69479   0.63646    0.000
 5772.00    0.62230   0.63712    0.000
 5773.00    0.54571   0.63169    0.000
 5774.00    0.50516   0.61902    0.000
 5775.00    0.46595   0.60289    0.000
 5776.00    0.52926   0.59059    0.000
 5777.00    0.59254   0.58611    0.000
 5778.00    0.63900   0.58619    0.000
 5779.00    0.67897   0.58682    0.000
 5780.00    0.61443   0.59002    0.000
 5781.00    0.55505   0.59907    0.000
 5782.00    0.54799   0.61121    0.000
 5783.00    0.54491   0.62003    0.000
 5784.00    0.57069   0.62216    0.000
 5785.00    0.59963   0.61983    0.000
 5786.00    0.64606   0.61856    0.000
 5787.00    0.68018   0.62191    0.000
 5788.00    0.65971   0.62855    0.000
 5789.00    0.64045   0.63436    0.000
 5790.00    0.62563   0.63539    0.000
 5791.00    0.62023   0.63070   -2.000
 5792.00    0.64363   0.62508   -2.000
 5793.00    0.68651   0.62569   -2.000
 5794.00    0.77997   0.63388   -2.000
 5795.00    0.83518   0.64375   -2.000
 5796.00    0.80502   0.64881   -2.000
 5797.00    0.75803   0.64661   -2.000
 5798.00    0.67847   0.63863   -2.000
 5799.00    0.62635   0.62950   -2.000
 5800.00    0.62050   0.62427   -2.000
 5801.00    0.61510   0.62436   -2.000
 5802.00    0.61036   0.62746   -2.000
 5803.00    0.63061   0.63105   -2.000
 5804.00    0.68336   0.63442   -2.000
 5805.00    0.71374   0.63743   -2.000
 5806.00    0.71852   0.63916   -2.000
 5807.00    0.72215   0.63840   -2.000
 5808.00    0.72462   0.63463   -2.000
 5809.00    0.70751   0.62835   -2.000
 5810.00    0.67299   0.62240   -2.000
 5811.00    0.62351   0.62147    0.000
 5812.00    0.56231   0.62752    0.000
 5813.00    0.55419   0.63688    0.000
 5814.00    0.58271   0.64397    0.000
 5815.00    0.60271   0.64645    0.000
 5816.00    0.61755   0.64535    0.000
 5817.00    0.61911   0.64292    0.000
 5818.00    0.61366   0.64136    0.000
 5819.00    0.63881   0.64158    0.000
 5820.00    0.67800   0.64261    0.000
 5821.00    0.67839   0.64320    0.000
 5822.00    0.66349   0.64346    0.000
 5823.00    0.68016   0.64412    0.000
 5824.00    0.70744   0.64483    0.000
 5825.00    0.69718   0.64460    0.000
 5826.00    0.67633   0.64321    0.000
 5827.00    0.64607   0.64084    0.000
 5828.00    0.61362   0.63761    0.000
 5829.00    0.64875   0.63468    0.000
 5830.00    0.69651   0.63380    0.000
 5831.00    0.65887   0.63446    0.000
 5832.00    0.60891   0.63467    0.000
 5833.00    0.61906   0.63492    0.000
 5834.00    0.63550   0.63748    0.000
 5835.00    0.66117   0.64208    0.000
 5836.00    0.68748   0.64591    0.000
 5837.00    0.69236   0.64694    0.000
 5838.00    0.69653   0.64495    0.000
 5839.00    0.65996   0.64051    0.000
 5840.00    0.62551   0.63453    0.000
 5841.00    0.65863   0.62866    0.000
 5842.00    0.68925   0.62499    0.000
 5843.00    0.68219   0.62443    0.000
 5844.00    0.67261   0.62520    0.000
 5845.00    0.63848   0.62370    0.000
 5846.00    0.60417   0.61772    0.000
 5847.00    0.56855   0.60936    0.000
 5848.00    0.53921   0.60360    0.000
 5849.00    0.54379   0.60204    0.000
 5850.00    0.55242   0.60004    0.000
 5851.00    0.57857   0.59374    0.000
 5852.00    0.59993   0.58723    0.000
 5853.00    0.60421   0.58769    0.000
 5854.00    0.60676   0.59554    0.000
 5855.00    0.60411   0.60454    0.000
 5856.00    0.62726   0.60966    0.000
 5857.00    0.71621   0.61156    0.000
 5858.00    0.76850   0.61342    0.000
 5859.00    0.74033   0.61537    0.000
 5860.00    0.69987   0.61520    0.000
 5861.00    0.63600   0.61380    0.000
 5862.00    0.57908   0.61507    0.000
 5863.00    0.53370   0.62020    0.000
 5864.00    0.51815   0.62588    0.000
 5865.00    0.54603   0.62851    0.000
 5866.00    0.57695   0.62749    0.000
 5867.00    0.61176   0.62495    0.000
 5868.00    0.64206   0.62350    0.000
 5869.00    0.66727   0.62349    0.000
 5870.00    0.69193   0.62301    0.000
 5871.00    0.71604   0.62061    0.000
 5872.00    0.74841   0.61652    0.000
 5873.00    0.78801   0.61138    0.000
 5874.00    0.79003   0.60637    0.000
 5875.00    0.76297   0.60362    0.000
 5876.00    0.73580   0.60370    0.000
 5877.00    0.70856   0.60410    0.000
 5878.00    0.70865   0.60286    0.000
 5879.00    0.72503   0.60088    0.000
 5880.00    0.73341   0.59733    0.000
 5881.00    0.73761   0.58538    0.000
 5882.00    0.73207   0.55654    0.000
 5883.00    0.72212   0.51253    0.000
 5884.00    0.69518   0.47281    0.000
 5885.00    0.66165   0.46162    0.000
 5886.00    0.63684   0.48163    0.000
 5887.00    0.61491   0.50957    0.000
 5888.00    0.57662   0.52046    0.000
 5889.00    0.53380   0.50866    0.000
 5890.00    0.56275   0.49071    0.000
 5891.00    0.60803   0.49055    0.000
 5892.00    0.56566   0.51431    0.000
 5893.00    0.50734   0.54616    0.000
 5894.00    0.47426   0.57100    0.000
 5895.00    0.44471   0.58660    0.000
 5896.00    0.51063   0.59589    0.000
 5897.00    0.58613   0.60078    0.000
 5898.00    0.65067   0.60242    0.000
 5899.00    0.71451   0.60179    0.000
 5900.00    0.70365   0.60067    0.000
 5901.00    0.69062   0.60140    0.009
 5902.00    0.68835   0.60424    0.009
 5903.00    0.68465   0.60728    0.009
 5904.00    0.64088   0.60940    0.009
 5905.00    0.59901   0.61069    0.009
 5906.00    0.58430   0.60976    0.009
 5907.00    0.57299   0.60424    0.009
 5908.00    0.59349   0.59522    0.009
 5909.00    0.60481   0.58795    0.009
 5910.00    0.55371   0.58660    0.009
 5911.00    0.50690   0.59086    0.009
 5912.00    0.48261   0.59747    0.009
 5913.00    0.47020   0.60331    0.009
 5914.00    0.50807   0.60688    0.009
 5915.00    0.54528   0.60779    0.009
 5916.00    0.58018   0.60667    0.009
 5917.00    0.60303   0.60569    0.009
 5918.00    0.59044   0.60667    0.009
 5919.00    0.57389   0.60915    0.009
 5920.00    0.54741   0.61106    0.009
 5921.00    0.53102   0.61013    0.009
 5922.00    0.53643   0.60541    0.009
 5923.00    0.54607   0.59859    0.009
 5924.00    0.56366   0.59388    0.009
 5925.00    0.57192   0.59496    0.009
 5926.00    0.56492   0.60029    0.009
 5927.00    0.56465   0.60373    0.009
 5928.00    0.57402   0.60198    0.009
 5929.00    0.56889   0.59882    0.009
 5930.00    0.54544   0.59957    0.009
 5931.00    0.53293   0.60427    0.009
 5932.00    0.53259   0.60912    0.009
 5933.00    0.55368   0.61106    0.009
 5934.00    0.59580   0.60883    0.009
 5935.00    0.63714   0.60354    0.009
 5936.00    0.67781   0.59911    0.009
 5937.00    0.70132   0.59893    0.009
 5938.00    0.71174   0.60274    0.009
 5939.00    0.70741   0.60764    0.009
 5940.00    0.69320   0.61024    0.009
 5941.00    0.66448   0.60810    0.009
 5942.00    0.62726   0.60177    0.009
 5943.00    0.58137   0.59575    0.009
 5944.00    0.53105   0.59443    0.009
 5945.00    0.52328   0.59640    0.009
 5946.00    0.53437   0.59669    0.009
 5947.00    0.54397   0.59472    0.009
 5948.00    0.55300   0.59442    0.009
 5949.00    0.55266   0.59635    0.009
 5950.00    0.54929   0.59679    0.009
 5951.00    0.53656   0.59465    0.009
 5952.00    0.52129   0.59351    0.009
 5953.00    0.52412   0.59637    0.009
 5954.00    0.53096   0.60238    0.009
 5955.00    0.56573   0.60860    0.009
 5956.00    0.60545   0.61268    0.009
 5957.00    0.64469   0.61385    0.009
 5958.00    0.68387   0.61246    0.009
 5959.00    0.62383   0.60941    0.009
 5960.00    0.55426   0.60672    0.009
 5961.00    0.52677   0.60663    0.009
 5962.00    0.50180   0.60931    0.009
 5963.00    0.52791   0.61293    0.009
 5964.00    0.55507   0.61600    0.009
 5965.00    0.54122   0.61796    0.009
 5966.00    0.52774   0.61843    0.009
 5967.00    0.52382   0.61695    0.009
 5968.00    0.52205   0.61288    0.008
 5969.00    0.54930   0.60596    0.009
 5970.00    0.57564   0.59771    0.009
 5971.00    0.59393   0.59144    0.009
 5972.00    0.60760   0.58994    0.009
 5973.00    0.59084   0.59347    0.009
 5974.00    0.58262   0.59950    0.009
 5975.00    0.61819   0.60355    0.009
 5976.00    0.64744   0.60164    0.009
 5977.00    0.65052   0.59340    0.009
 5978.00    0.64811   0.58354    0.009
 5979.00    0.62689   0.57869    0.009
 5980.00    0.61861   0.58116    0.009
 5981.00    0.64767   0.58743    0.009
 5982.00    0.67041   0.59340    0.009
 5983.00    0.67756   0.59754    0.009
 5984.00    0.67385   0.59913    0.009
 5985.00    0.64704   0.59835    0.009
 5986.00    0.62248   0.59793    0.009
 5987.00    0.60207   0.60064    0.009
 5988.00    0.60367   0.60504    0.009
 5989.00    0.64074   0.60670    0.009
 5990.00    0.67195   0.60323    0.009
 5991.00    0.69486   0.59656    0.009
 5992.00    0.70513   0.59118    0.009
 5993.00    0.69966   0.59020    0.009
 5994.00    0.67627   0.59268    0.009
 5995.00    0.63322   0.59474    0.009
 5996.00    0.59884   0.59384    0.009
 5997.00    0.57284   0.59149    0.008
 5998.00    0.57771   0.59067    0.008
 5999.00    0.60891   0.59073    0.009
 6000.00    0.60589   0.58800    0.009
 6001.00    0.57713   0.58143    0.009
 6002.00    0.54939   0.57549    0.009
 6003.00    0.52232   0.57623    0.009
 6004.00    0.51388   0.58379    0.009
 6005.00    0.51622   0.59098    0.009
 6006.00    0.53004   0.59149    0.009
 6007.00    0.54965   0.58681    0.009
 6008.00    0.57983   0.58286    0.009
 6009.00    0.61463   0.58210    0.009
 6010.00    0.65765   0.58239    0.009
 6011.00    0.70376   0.58216    0.009
 6012.00    0.69517   0.58162    0.009
 6013.00    0.66922   0.58010    0.009
 6014.00    0.62769   0.57707    0.009
 6015.00    0.58202   0.57466    0.009
 6016.00    0.57817   0.57501    0.009
 6017.00    0.58339   0.57766    0.009
 6018.00    0.58202   0.58129    0.009
 6019.00    0.57952   0.58545    0.009
 6020.00    0.57452   0.58937    0.009
 6021.00    0.56919   0.59228    0.009
 6022.00    0.58293   0.59495    0.009
 6023.00    0.59843   0.59812    0.009
 6024.00    0.60432   0.60087    0.009
 6025.00    0.60968   0.60260    0.009
 6026.00    0.60168   0.60414    0.009
 6027.00    0.59334   0.60588    0.009
 6028.00    0.57984   0.60705    0.009
 6029.00    0.56552   0.60732    0.009
 6030.00    0.53222   0.60732    0.009
 6031.00    0.49966   0.60740    0.008
 6032.00    0.47661   0.60692    0.008
 6033.00    0.46031   0.60513    0.009
 6034.00    0.50206   0.60230    0.009
 6035.00    0.54663   0.59979    0.009
 6036.00    0.60924   0.59911    0.009
 6037.00    0.65969   0.60094    0.009
 6038.00    0.64945   0.60426    0.009
 6039.00    0.63276   0.60713    0.009
 6040.00    0.58992   0.60867    0.009
 6041.00    0.55469   0.60931    0.009
 6042.00    0.54502   0.60948    0.009
 6043.00    0.53491   0.60949    0.009
 6044.00    0.52356   0.60951    0.009
 6045.00    0.51796   0.60876    0.009
 6046.00    0.52625   0.60598    0.009
 6047.00    0.53908   0.60130    0.009
 6048.00    0.56142   0.59636    0.009
 6049.00    0.57728   0.59240    0.009
 6050.00    0.58139   0.58994    0.009
 6051.00    0.57647   0.58984    0.009
 6052.00    0.55721   0.59263    0.009
 6053.00    0.54482   0.59711    0.009
 6054.00    0.54199   0.60079    0.009
 6055.00    0.54994   0.60158    0.009
 6056.00    0.57113   0.59871    0.008
 6057.00    0.58210   0.59254    0.008
 6058.00    0.58202   0.58451    0.008
 6059.00    0.58247   0.57812    0.008
 6060.00    0.58342   0.57831    0.008
 6061.00    0.58554   0.58652    0.008
 6062.00    0.58866   0.59782    0.008
 6063.00    0.57304   0.60606    0.009
 6064.00    0.54355   0.60966    0.009
 6065.00    0.53671   0.61084    0.009
 6066.00    0.54462   0.61161    0.009
 6067.00    0.55127   0.61222    0.009
 6068.00    0.55719   0.61193    0.009
 6069.00    0.57992   0.60993    0.009
 6070.00    0.61097   0.60560    0.009
 6071.00    0.64796   0.59892    0.009
 6072.00    0.68749   0.59146    0.009
 6073.00    0.65709   0.58615    0.009
 6074.00    0.60100   0.58422    0.009
 6075.00    0.57863   0.58347    0.009
 6076.00    0.56676   0.58185    0.009
 6077.00    0.55662   0.58036    0.009
 6078.00    0.54692   0.58032    0.009
 6079.00    0.56489   0.58123    0.009
 6080.00    0.58872   0.58261    0.009
 6081.00    0.64574   0.58462    0.009
 6082.00    0.70832   0.58612    0.009
 6083.00    0.68544   0.58498    0.009
 6084.00    0.65178   0.58130    0.009
 6085.00    0.60271   0.57793    0.009
 6086.00    0.55229   0.57726    0.008
 6087.00    0.55883   0.57946    0.008
 6088.00    0.56831   0.58377    0.008
 6089.00    0.57576   0.58858    0.008
 6090.00    0.58299   0.59150    0.008
 6091.00    0.57640   0.59185    0.008
 6092.00    0.57143   0.59163    0.008
 6093.00    0.60077   0.59187    0.008
 6094.00    0.62850   0.58931    0.009
 6095.00    0.63680   0.57941    0.009
 6096.00    0.64270   0.56379    0.008
 6097.00    0.62875   0.55278    0.008
 6098.00    0.61433   0.55531    0.008
 6099.00    0.59695   0.56804    0.009
 6100.00    0.58253   0.57993    0.009
 6101.00    0.58248   0.58516    0.009
 6102.00    0.59186   0.58634    0.009
 6103.00    0.63852   0.58759    0.009
 6104.00    0.66777   0.58897    0.009
 6105.00    0.63973   0.58872    0.009
 6106.00    0.61300   0.58793    0.009
 6107.00    0.58998   0.58904    0.009
 6108.00    0.57082   0.59148    0.009
 6109.00    0.56087   0.59216    0.009
 6110.00    0.54594   0.59018    0.009
 6111.00    0.52077   0.58779    0.009
 6112.00    0.50145   0.58602    0.009
 6113.00    0.49261   0.58225    0.009
 6114.00    0.50467   0.57377    0.009
 6115.00    0.54947   0.56226    0.009
 6116.00    0.56863   0.55401    0.008
 6117.00    0.55256   0.55511    0.008
 6118.00    0.54076   0.56452    0.008
 6119.00    0.53412   0.57424    0.008
 6120.00    0.53460   0.57805    0.008
 6121.00    0.54268   0.57657    0.008
 6122.00    0.56492   0.57401    0.008
 6123.00    0.60046   0.57399    0.008
 6124.00    0.62359   0.57748    0.009
 6125.00    0.63640   0.58266    0.008
 6126.00    0.61600   0.58649    0.008
 6127.00    0.57135   0.58618    0.009
 6128.00    0.54519   0.57886    0.009
 6129.00    0.53089   0.56272    0.008
 6130.00    0.52954   0.54139    0.008
 6131.00    0.53544   0.52582    0.009
 6132.00    0.53287   0.52659    0.009
 6133.00    0.52615   0.54180    0.009
 6134.00    0.55247   0.55758    0.009
 6135.00    0.59272   0.56382    0.009
 6136.00    0.61971   0.56436    0.009
 6137.00    0.64192   0.56824    0.009
 6138.00    0.64314   0.57667    0.009
 6139.00    0.63796   0.58373    0.009
 6140.00    0.61833   0.58498    0.009
 6141.00    0.59503   0.58074    0.009
 6142.00    0.59866   0.57398    0.009
 6143.00    0.60786   0.56824    0.009
 6144.00    0.62959   0.56630    0.008
 6145.00    0.65336   0.56861    0.008
 6146.00    0.66009   0.57279    0.008
 6147.00    0.66474   0.57506    0.008
 6148.00    0.64600   0.57340    0.008
 6149.00    0.62531   0.56965    0.008
 6150.00    0.57434   0.56719    0.008
 6151.00    0.52191   0.56672    0.008
 6152.00    0.48167   0.56570    0.008
 6153.00    0.44242   0.56008    0.008
 6154.00    0.45041   0.54637    0.008
 6155.00    0.46040   0.52621    0.008
 6156.00    0.50974   0.50888    0.009
 6157.00    0.55594   0.50453    0.009
 6158.00    0.56585   0.51422    0.009
 6159.00    0.57284   0.52982    0.009
 6160.00    0.55640   0.54251    0.009
 6161.00    0.54291   0.54772    0.009
 6162.00    0.54719   0.54427    0.009
 6163.00    0.55023   0.53538    0.009
 6164.00    0.54739   0.52968    0.009
 6165.00    0.53959   0.53374    0.009
 6166.00    0.51261   0.54429    0.009
 6167.00    0.49463   0.55322    0.009
 6168.00    0.50575   0.55715    0.009
 6169.00    0.51096   0.55785    0.009
 6170.00    0.50001   0.55765    0.009
 6171.00    0.48850   0.55825    0.009
 6172.00    0.47569   0.56043    0.008
 6173.00    0.47404   0.56314    0.008
 6174.00    0.49501   0.56522    0.008
 6175.00    0.50775   0.56726    0.008
 6176.00    0.50601   0.56974    0.008
 6177.00    0.49651   0.57146    0.008
 6178.00    0.47503   0.57101    0.008
 6179.00    0.46010   0.56790    0.008
 6180.00    0.45403   0.56254    0.008
 6181.00    0.45557   0.55660    0.008
 6182.00    0.46618   0.55168    0.008
 6183.00    0.48291   0.54683    0.008
 6184.00    0.50605   0.53974    0.008
 6185.00    0.52455   0.53206    0.008
 6186.00    0.53873   0.53036    0.009
 6187.00    0.56033   0.53813    0.009
 6188.00    0.58799   0.55059    0.009
 6189.00    0.59834   0.56080    0.009
 6190.00    0.59624   0.56638    0.009
 6191.00    0.56339   0.56758    0.009
 6192.00    0.51110   0.56408    0.009
 6193.00    0.51298   0.55719    0.009
 6194.00    0.54477   0.55190    0.009
 6195.00    0.71684   0.55286    0.009
 6196.00    0.95628   0.55919   -2.000
 6197.00    1.28726   0.56583   -2.000
 6198.00    1.65618   0.56934   -2.000
 6199.00    1.73578   0.57023   -2.000
 6200.00    1.71283   0.57036   -2.000
 6201.00    1.31607   0.57047   -2.000
 6202.00    0.80744   0.57011   -2.000
 6203.00    0.49602   0.56868   -2.000
 6204.00    0.23359   0.56570   -2.000
 6205.00    0.22070   0.56059   -2.000
 6206.00    0.25806   0.55254   -2.000
 6207.00    0.34255   0.54187   -2.000
 6208.00    0.43447   0.53165    0.009
 6209.00    0.46058   0.52631    0.009
 6210.00    0.47897   0.52760    0.009
 6211.00    0.49177   0.53256    0.009
 6212.00    0.50413   0.53586    0.008
 6213.00    0.54322   0.53492    0.008
 6214.00    0.58348   0.53264    0.008
 6215.00    0.58394   0.53346    0.008
 6216.00    0.58436   0.53789    0.008
 6217.00    0.60372   0.54265    0.008
 6218.00    0.61971   0.54535    0.008
 6219.00    0.57406   0.54668    0.008
 6220.00    0.52907   0.54780    0.009
 6221.00    0.49140   0.54769    0.009
 6222.00    0.45848   0.54371    0.009
 6223.00    0.46225   0.53427    0.009
 6224.00    0.46990   0.52214    0.009
 6225.00    0.50026   0.51420    0.008
 6226.00    0.52343   0.51565    0.008
 6227.00    0.51321   0.52566    0.008
 6228.00    0.50073   0.53904    0.008
 6229.00    0.47969   0.54971    0.008
 6230.00    0.46953   0.55327    0.008
 6231.00    0.49383   0.54923    0.009
 6232.00    0.51123   0.54090    0.008
 6233.00    0.51012   0.53277    0.008
 6234.00    0.50714   0.52792    0.008
 6235.00    0.49985   0.52635    0.008
 6236.00    0.50029   0.52508    0.008
 6237.00    0.51615   0.52184    0.008
 6238.00    0.51945   0.51808    0.008
 6239.00    0.50094   0.51647    0.008
 6240.00    0.48420   0.51839    0.008
 6241.00    0.47012   0.52436    0.008
 6242.00    0.46553   0.53306    0.008
 6243.00    0.47362   0.54041    0.008
 6244.00    0.48628   0.54206    0.008
 6245.00    0.50430   0.53657    0.008
 6246.00    0.51369   0.52669    0.008
 6247.00    0.51414   0.51774    0.008
 6248.00    0.52429   0.51320    0.008
 6249.00    0.54331   0.51190    0.009
 6250.00    0.52265   0.51036    0.009
 6251.00    0.46999   0.50748    0.008
 6252.00    0.44717   0.50604    0.008
 6253.00    0.44552   0.50954    0.009
 6254.00    0.46756   0.51812    0.009
 6255.00    0.50434   0.52865    0.008
 6256.00    0.52981   0.53789    0.008
 6257.00    0.54911   0.54356    0.008
 6258.00    0.63735   0.54419    0.009
 6259.00    0.75816   0.54147    0.009
 6260.00    0.88143   0.53971    0.009
 6261.00    1.00571   0.54072    0.010
 6262.00    0.99632   0.54204    0.010
 6263.00    0.94043   0.54160    0.011
 6264.00    0.79781   0.54072    0.010
 6265.00    0.62975   0.54166    0.010
 6266.00    0.51494   0.54449    0.010
 6267.00    0.41308   0.54739    0.009
 6268.00    0.37815   0.54891    0.009
 6269.00    0.35636   0.54916    0.008
 6270.00    0.39212   0.54871    0.008
 6271.00    0.43668   0.54734    0.008
 6272.00    0.47664   0.54423    0.008
 6273.00    0.51607   0.53934    0.008
 6274.00    0.54146   0.53450    0.008
 6275.00    0.56580   0.53269    0.008
 6276.00    0.59427   0.53527    0.008
 6277.00    0.62291   0.54053    0.008
 6278.00    0.58902   0.54548    0.008
 6279.00    0.55514   0.54870    0.008
 6280.00    0.54050   0.55118    0.000
 6281.00    0.52791   0.55424    0.000
 6282.00    0.55022   0.55717    0.000
 6283.00    0.57101   0.55777    0.000
 6284.00    0.57575   0.55491    0.000
 6285.00    0.57357   0.55010    0.000
 6286.00    0.51969   0.54612    0.000
 6287.00    0.47294   0.54454    0.000
 6288.00    0.46676   0.54432    0.000
 6289.00    0.46127   0.54272    0.000
 6290.00    0.45891   0.53832    0.000
 6291.00    0.45776   0.53314    0.000
 6292.00    0.46117   0.53030    0.000
 6293.00    0.46863   0.52971    0.000
 6294.00    0.48869   0.52837    0.000
 6295.00    0.51076   0.52531    0.000
 6296.00    0.53814   0.52366    0.000
 6297.00    0.55884   0.52641    0.000
 6298.00    0.56442   0.53231    0.000
 6299.00    0.55282   0.53828    0.000
 6300.00    0.50749   0.54354    0.000
 6301.00    0.48113   0.54859    0.000
 6302.00    0.48719   0.55202    0.000
 6303.00    0.50943   0.55160    0.000
 6304.00    0.55588   0.54750    0.000
 6305.00    0.59707   0.54259    0.000
 6306.00    0.63136   0.53917    0.000
 6307.00    0.63972   0.53650    0.000
 6308.00    0.61802   0.53257    0.000
 6309.00    0.57700   0.52756    0.000
 6310.00    0.51620   0.52309    0.000
 6311.00    0.48604   0.51940    0.000
 6312.00    0.48349   0.51691    0.000
 6313.00    0.48271   0.51793    0.000
 6314.00    0.48335   0.52324    0.000
 6315.00    0.48369   0.52987    0.000
 6316.00    0.48382   0.53517    0.000
 6317.00    0.50637   0.53961    0.000
 6318.00    0.54267   0.54415    0.000
 6319.00    0.56437   0.54779    0.000
 6320.00    0.57825   0.54925    0.000
 6321.00    0.54813   0.54907    0.008
 6322.00    0.49756   0.54867    0.008
 6323.00    0.48184   0.54833    0.008
 6324.00    0.48010   0.54773    0.008
 6325.00    0.47136   0.54756    0.008
 6326.00    0.46024   0.54809    0.008
 6327.00    0.46747   0.54675    0.008
 6328.00    0.47998   0.54036    0.008
 6329.00    0.49873   0.53016    0.008
 6330.00    0.51897   0.52218    0.008
 6331.00    0.53763   0.52113    0.008
 6332.00    0.55600   0.52594    0.008
 6333.00    0.57394   0.53262    0.008
 6334.00    0.59181   0.53827    0.008
 6335.00    0.56196   0.54083    0.008
 6336.00    0.52692   0.53871    0.008
 6337.00    0.51128   0.53308    0.008
 6338.00    0.49701   0.52798    0.008
 6339.00    0.50047   0.52659    0.008
 6340.00    0.50457   0.52862    0.008
 6341.00    0.49842   0.53242    0.008
 6342.00    0.49329   0.53714    0.008
 6343.00    0.52556   0.54193    0.008
 6344.00    0.55634   0.54552    0.008
 6345.00    0.56320   0.54704    0.008
 6346.00    0.56682   0.54600    0.008
 6347.00    0.53775   0.54205    0.008
 6348.00    0.51247   0.53629    0.008
 6349.00    0.51445   0.53144    0.008
 6350.00    0.51816   0.52871    0.008
 6351.00    0.53149   0.52595    0.008
 6352.00    0.54321   0.52106    0.008
 6353.00    0.54782   0.51517    0.008
 6354.00    0.54622   0.51038    0.008
 6355.00    0.52204   0.50706    0.008
 6356.00    0.51227   0.50543    0.008
 6357.00    0.54641   0.50686    0.008
 6358.00    0.57362   0.51190    0.008
 6359.00    0.58283   0.51908    0.008
 6360.00    0.58473   0.52640    0.008
 6361.00    0.57033   0.53259    0.008
 6362.00    0.55834   0.53651    0.008
 6363.00    0.55102   0.53740    0.008
 6364.00    0.55565   0.53658    0.008
 6365.00    0.58040   0.53721    0.008
 6366.00    0.58578   0.54087    0.008
 6367.00    0.56255   0.54563    0.008
 6368.00    0.53135   0.54864    0.008
 6369.00    0.48978   0.54922    0.008
 6370.00    0.48131   0.54816    0.008
 6371.00    0.51066   0.54574    0.008
 6372.00    0.54799   0.54212    0.008
 6373.00    0.59336   0.53856    0.008
 6374.00    0.61571   0.53667    0.008
 6375.00    0.61760   0.53692    0.008
 6376.00    0.59095   0.53832    0.008
 6377.00    0.54195   0.53930    0.008
 6378.00    0.50610   0.53948    0.008
 6379.00    0.47932   0.54018    0.008
 6380.00    0.46244   0.54229    0.008
 6381.00    0.45154   0.54487    0.008
 6382.00    0.45782   0.54657    0.008
 6383.00    0.47314   0.54684    0.008
 6384.00    0.47410   0.54494    0.008
 6385.00    0.46850   0.53930    0.008
 6386.00    0.47344   0.53004    0.008
 6387.00    0.48252   0.52173    0.008
 6388.00    0.51084   0.52051    0.008
 6389.00    0.54561   0.52744    0.008
 6390.00    0.55204   0.53670    0.008
 6391.00    0.55049   0.54082    0.008
 6392.00    0.51879   0.53616    0.008
 6393.00    0.48010   0.52578    0.008
 6394.00    0.46889   0.51840    0.008
 6395.00    0.46280   0.52101    0.008
 6396.00    0.48834   0.53153    0.008
 6397.00    0.51842   0.54192    0.008
 6398.00    0.53460   0.54663    0.008
 6399.00    0.54932   0.54507    0.008
 6400.00    0.53301   0.53911    0.008
 6401.00    0.51462   0.53216    0.008
 6402.00    0.51995   0.52822    0.008
 6403.00    0.52604   0.52829    0.008
 6404.00    0.52527   0.52904    0.008
 6405.00    0.52460   0.52805    0.008
 6406.00    0.52712   0.52710    0.008
 6407.00    0.52839   0.52828    0.008
 6408.00    0.51109   0.53081    0.008
 6409.00    0.49300   0.53315    0.008
 6410.00    0.46724   0.53455    0.008
 6411.00    0.44563   0.53423    0.008
 6412.00    0.45295   0.53100    0.008
 6413.00    0.46316   0.52489    0.008
 6414.00    0.48895   0.51903    0.008
 6415.00    0.50634   0.51843    0.008
 6416.00    0.48747   0.52509    0.008
 6417.00    0.46728   0.53502    0.008
 6418.00    0.44242   0.54250    0.008
 6419.00    0.42083   0.54598    0.008
 6420.00    0.40903   0.54755    0.008
 6421.00    0.40964   0.54806    0.008
 6422.00    0.44187   0.54537    0.008
 6423.00    0.46915   0.53749    0.008
 6424.00    0.48560   0.52670    0.008
 6425.00    0.50251   0.51921    0.008
 6426.00    0.52033   0.51958    0.008
 6427.00    0.53764   0.52652    0.008
 6428.00    0.55412   0.53493    0.009
 6429.00    0.56192   0.54026    0.009
 6430.00    0.55711   0.53996    0.009
 6431.00    0.53898   0.53369    0.009
 6432.00    0.50383   0.52484    0.008
 6433.00    0.49564   0.52041    0.008
 6434.00    0.51781   0.52495    0.008
 6435.00    0.52812   0.53527    0.008
 6436.00    0.52665   0.54443    0.008
 6437.00    0.53745   0.54912    0.008
 6438.00    0.55901   0.55072    0.008
 6439.00    0.57978   0.55120    0.008
 6440.00    0.59995   0.54995    0.008
 6441.00    0.59536   0.54381    0.008
 6442.00    0.57397   0.53079    0.008
 6443.00    0.54142   0.51490    0.008
 6444.00    0.50222   0.50554    0.008
 6445.00    0.48120   0.50848    0.008
 6446.00    0.46962   0.51936    0.008
 6447.00    0.49150   0.52856    0.008
 6448.00    0.52843   0.53014    0.008
 6449.00    0.52942   0.52577    0.008
 6450.00    0.51652   0.52250    0.008
 6451.00    0.46677   0.52581    0.008
 6452.00    0.40491   0.53417    0.008
 6453.00    0.41131   0.54090    0.008
 6454.00    0.43653   0.54004    0.008
 6455.00    0.46942   0.53070    0.008
 6456.00    0.50404   0.51869    0.008
 6457.00    0.48738   0.51304    0.008
 6458.00    0.46141   0.51752    0.008
 6459.00    0.47008   0.52741    0.008
 6460.00    0.48356   0.53604    0.008
 6461.00    0.49345   0.54031    0.008
 6462.00    0.50299   0.54009    0.008
 6463.00    0.47611   0.53662    0.008
 6464.00    0.44693   0.53208    0.008
 6465.00    0.46167   0.52901    0.008
 6466.00    0.47767   0.52903    0.008
 6467.00    0.49080   0.53122    0.008
 6468.00    0.50409   0.53286    0.008
 6469.00    0.52186   0.53315    0.008
 6470.00    0.53915   0.53379    0.008
 6471.00    0.54980   0.53547    0.008
 6472.00    0.55485   0.53654    0.008
 6473.00    0.50788   0.53505    0.008
 6474.00    0.46534   0.53008    0.008
 6475.00    0.45279   0.52247    0.008
 6476.00    0.44831   0.51579    0.008
 6477.00    0.48615   0.51423    0.008
 6478.00    0.51641   0.51831    0.008
 6479.00    0.51462   0.52459    0.008
 6480.00    0.51467   0.52962    0.008
 6481.00    0.52114   0.53213    0.008
 6482.00    0.52780   0.53190    0.008
 6483.00    0.53501   0.52867    0.008
 6484.00    0.54195   0.52254    0.008
 6485.00    0.54822   0.51367    0.008
 6486.00    0.54220   0.50121    0.008
 6487.00    0.50968   0.48459    0.008
 6488.00    0.48487   0.46710    0.008
 6489.00    0.47449   0.45567    0.008
 6490.00    0.46945   0.45486    0.008
 6491.00    0.47314   0.46290    0.008
 6492.00    0.48481   0.47462    0.008
 6493.00    0.50790   0.48626    0.008
 6494.00    0.52633   0.49697    0.008
 6495.00    0.53888   0.50673    0.008
 6496.00    0.55242   0.51471    0.008
 6497.00    0.56706   0.52044    0.008
 6498.00    0.57296   0.52440    0.008
 6499.00    0.57030   0.52704    0.008
 6500.00    0.56239   0.52813    0.008
 6501.00    0.54994   0.52737    0.008
 6502.00    0.55306   0.52564    0.008
 6503.00    0.56804   0.52479    0.008
 6504.00    0.57497   0.52566    0.008
 6505.00    0.57652   0.52719    0.008
 6506.00    0.54499   0.52775    0.008
 6507.00    0.49408   0.52641    0.008
 6508.00    0.45843   0.52285    0.008
 6509.00    0.43058   0.51760    0.008
 6510.00    0.41994   0.51240    0.008
 6511.00    0.41692   0.50916    0.008
 6512.00    0.42915   0.50889    0.008
 6513.00    0.44718   0.51184    0.008
 6514.00    0.46133   0.51716    0.008
 6515.00    0.47423   0.52252    0.008
 6516.00    0.50643   0.52583    0.008
 6517.00    0.54385   0.52695    0.008
 6518.00    0.56789   0.52647    0.008
 6519.00    0.58898   0.52426    0.008
 6520.00    0.57615   0.52057    0.008
 6521.00    0.55735   0.51748    0.008
 6522.00    0.54709   0.51719    0.008
 6523.00    0.53798   0.51912    0.008
 6524.00    0.51890   0.52033    0.008
 6525.00    0.49886   0.51887    0.008
 6526.00    0.49871   0.51584    0.008
 6527.00    0.49973   0.51414    0.008
 6528.00    0.51653   0.51546    0.000
 6529.00    0.53366   0.51852    0.000
 6530.00    0.54082   0.52076    0.000
 6531.00    0.54689   0.52144    0.000
 6532.00    0.52537   0.52197    0.000
 6533.00    0.50520   0.52322    0.000
 6534.00    0.50314   0.52381    0.000
 6535.00    0.50048   0.52206    0.000
 6536.00    0.49259   0.51798    0.000
 6537.00    0.49070   0.51260    0.000
 6538.00    0.52823   0.50638    0.000
 6539.00    0.56753   0.49984    0.000
 6540.00    0.61586   0.49511    0.000
 6541.00    0.66488   0.49464    0.000
 6542.00    0.71672   0.49788    0.000
 6543.00    0.77940   0.50116    0.000
 6544.00    0.87910   0.50140    0.000
 6545.00    0.96313   0.49833    0.000
 6546.00    1.00203   0.49325    0.000
 6547.00    0.99735   0.48700    0.000
 6548.00    0.88550   0.48016    0.000
 6549.00    0.77310   0.47416    0.000
 6550.00    0.65954   0.47037    0.000
 6551.00    0.58510   0.46796    0.000
 6552.00    0.58274   0.46345    0.000
 6553.00    0.61136   0.45204    0.000
 6554.00    0.68986   0.42963    0.000
 6555.00    0.90388   0.39717    0.000
 6556.00    1.30930   0.36638    0.000
 6557.00    1.90682   0.35579    0.000
 6558.00    2.74306   0.37391    0.000
 6559.00    3.42810   0.40936    0.000
 6560.00    3.94757   0.44275    0.000
 6561.00    4.01575   0.46345    0.000
 6562.00    3.64798   0.47224    0.000
 6563.00    3.04207   0.47477    0.000
 6564.00    2.23328   0.47580    0.000
 6565.00    1.58906   0.47668    0.000
 6566.00    1.06830   0.47643    0.000
 6567.00    0.76734   0.47515    0.000
 6568.00    0.61126   0.47535    0.000
 6569.00    0.56482   0.47964    0.000
 6570.00    0.58165   0.48791    0.000
 6571.00    0.57938   0.49688    0.000
 6572.00    0.56750   0.50261    0.000
 6573.00    0.53280   0.50354    0.000
 6574.00    0.48816   0.50137    0.000
 6575.00    0.55159   0.49944    0.000
 6576.00    0.65537   0.49987    0.000
 6577.00    0.87381   0.50197    0.000
 6578.00    1.12854   0.50363    0.000
 6579.00    1.37429   0.50397    0.000
 6580.00    1.61766   0.50418    0.000
 6581.00    1.66611   0.50580    0.000
 6582.00    1.67243   0.50852    0.000
 6583.00    1.47068   0.50993    0.000
 6584.00    1.23324   0.50709    0.000
 6585.00    1.00685   0.49872    0.000
 6586.00    0.78189   0.48757    0.000
 6587.00    0.66994   0.48002    0.000
 6588.00    0.56832   0.48079    0.000
 6589.00    0.54986   0.48798    0.000
 6590.00    0.53599   0.49533    0.000
 6591.00    0.51649   0.49913    0.000
 6592.00    0.49702   0.50075    0.000
 6593.00    0.49184   0.50326    0.000
 6594.00    0.48832   0.50744    0.000
 6595.00    0.52310   0.51122    0.000
 6596.00    0.55450   0.51219    0.000
 6597.00    0.54303   0.50983    0.000
 6598.00    0.53006   0.50551    0.000
 6599.00    0.50420   0.50105    0.000
 6600.00    0.48342   0.49723    0.000
 6601.00    0.49492   0.49391    0.000
 6602.00    0.50628   0.49157    0.000
 6603.00    0.51697   0.49200    0.000
 6604.00    0.52554   0.49621    0.000
 6605.00    0.52555   0.50211    0.000
 6606.00    0.52392   0.50622    0.000
 6607.00    0.51683   0.50767    0.000
 6608.00    0.51650   0.50849    0.000
 6609.00    0.53524   0.51012    0.008
 6610.00    0.54349   0.51175    0.008
 6611.00    0.52638   0.51244    0.008
 6612.00    0.49840   0.51275    0.008
 6613.00    0.44775   0.51353    0.008
 6614.00    0.42580   0.51435    0.008
 6615.00    0.45592   0.51381    0.008
 6616.00    0.48043   0.51084    0.008
 6617.00    0.49601   0.50582    0.008
 6618.00    0.50572   0.50091    0.008
 6619.00    0.50723   0.49867    0.008
 6620.00    0.51218   0.49967    0.008
 6621.00    0.52132   0.50198    0.008
 6622.00    0.51635   0.50329    0.008
 6623.00    0.49614   0.50268    0.008
 6624.00    0.48905   0.50018    0.008
 6625.00    0.49445   0.49589    0.008
 6626.00    0.50371   0.49046    0.008
 6627.00    0.51622   0.48604    0.008
 6628.00    0.51932   0.48546    0.008
 6629.00    0.51547   0.48951    0.008
 6630.00    0.49476   0.49572    0.008
 6631.00    0.46310   0.50050    0.008
 6632.00    0.46992   0.50223    0.008
 6633.00    0.49860   0.50194    0.008
 6634.00    0.50708   0.50121    0.008
 6635.00    0.50556   0.49996    0.008
 6636.00    0.48826   0.49725    0.008
 6637.00    0.46421   0.49398    0.008
 6638.00    0.43484   0.49279    0.008
 6639.00    0.40352   0.49461    0.008
 6640.00    0.38655   0.49748    0.008
 6641.00    0.37402   0.49947    0.008
 6642.00    0.37917   0.50060    0.008
 6643.00    0.38888   0.50141    0.008
 6644.00    0.39482   0.50167    0.008
 6645.00    0.39997   0.50112    0.008
 6646.00    0.41128   0.50024    0.008
 6647.00    0.42362   0.49971    0.008
 6648.00    0.44530   0.49972    0.008
 6649.00    0.46815   0.49992    0.008
 6650.00    0.47070   0.49997    0.008
 6651.00    0.47148   0.49982    0.008
 6652.00    0.47330   0.49930    0.008
 6653.00    0.47518   0.49786    0.008
 6654.00    0.48269   0.49494    0.008
 6655.00    0.49056   0.49045    0.008
 6656.00    0.51707   0.48529    0.008
 6657.00    0.54276   0.48156    0.008
 6658.00    0.55113   0.48100    0.008
 6659.00    0.55825   0.48307    0.008
 6660.00    0.55047   0.48572    0.008
 6661.00    0.53994   0.48802    0.008
 6662.00    0.50674   0.49068    0.008
 6663.00    0.47825   0.49417    0.008
 6664.00    0.47890   0.49764    0.008
 6665.00    0.48331   0.49992    0.008
 6666.00    0.50593   0.50080    0.008
 6667.00    0.51745   0.50072    0.008
 6668.00    0.48519   0.49945    0.008
 6669.00    0.46299   0.49550    0.008
 6670.00    0.47383   0.48795    0.008
 6671.00    0.48365   0.47915    0.008
 6672.00    0.49068   0.47418    0.008
 6673.00    0.49629   0.47599    0.008
 6674.00    0.49850   0.48230    0.008
 6675.00    0.49980   0.48861    0.008
 6676.00    0.49923   0.49278    0.008
 6677.00    0.48869   0.49527    0.008
 6678.00    0.46037   0.49681    0.008
 6679.00    0.45311   0.49747    0.008
 6680.00    0.47878   0.49726    0.008
 6681.00    0.49805   0.49664    0.008
 6682.00    0.50854   0.49631    0.008
 6683.00    0.50328   0.49660    0.008
 6684.00    0.47899   0.49718    0.008
 6685.00    0.47298   0.49748    0.008
 6686.00    0.48641   0.49704    0.008
 6687.00    0.48736   0.49543    0.008
 6688.00    0.47659   0.49219    0.008
 6689.00    0.45576   0.48769    0.008
 6690.00    0.42662   0.48375    0.008
 6691.00    0.42060   0.48249    0.008
 6692.00    0.43143   0.48453    0.008
 6693.00    0.44458   0.48850    0.008
 6694.00    0.45922   0.49203    0.008
 6695.00    0.46852   0.49314    0.008
 6696.00    0.47483   0.49140    0.000
 6697.00    0.48394   0.48823    0.000
 6698.00    0.49442   0.48592    0.000
 6699.00    0.50345   0.48573    0.000
 6700.00    0.51187   0.48704    0.000
 6701.00    0.50467   0.48839    0.000
 6702.00    0.49183   0.48888    0.000
 6703.00    0.46342   0.48843    0.000
 6704.00    0.43027   0.48736    0.000
 6705.00    0.44228   0.48588    0.000
 6706.00    0.46572   0.48383    0.000
 6707.00    0.52193   0.48082    0.000
 6708.00    0.58488   0.47660    0.000
 6709.00    0.65617   0.47148    0.000
 6710.00    0.72882   0.46690    0.000
 6711.00    0.81980   0.46531    0.000
 6712.00    0.91299   0.46824    0.000
 6713.00    1.01036   0.47409    0.000
 6714.00    1.10806   0.47951    0.000
 6715.00    1.08392   0.48274    0.000
 6716.00    1.05400   0.48454    0.000
 6717.00    0.91218   0.48576    0.000
 6718.00    0.76922   0.48593    0.000
 6719.00    0.64995   0.48475    0.000
 6720.00    0.53598   0.48340    0.000
 6721.00    0.52532   0.48341    0.000
 6722.00    0.51833   0.48502    0.000
 6723.00    0.55349   0.48719    0.000
 6724.00    0.59970   0.48869    0.000
 6725.00    0.73393   0.48882    0.000
 6726.00    0.86270   0.48782    0.000
 6727.00    0.95863   0.48668    0.000
 6728.00    1.02667   0.48623    0.000
 6729.00    0.96254   0.48615    0.000
 6730.00    0.88224   0.48523    0.000
 6731.00    0.73946   0.48289    0.000
 6732.00    0.60612   0.48017    0.000
 6733.00    0.50322   0.47865    0.000
 6734.00    0.42760   0.47854    0.000
 6735.00    0.42635   0.47860    0.000
 6736.00    0.43290   0.47803    0.000
 6737.00    0.45766   0.47749    0.000
 6738.00    0.47025   0.47768    0.000
 6739.00    0.45824   0.47804    0.000
 6740.00    0.44482   0.47750    0.000
 6741.00    0.42894   0.47580    0.000
 6742.00    0.43592   0.47367    0.000
 6743.00    0.47810   0.47218    0.000
 6744.00    0.50120   0.47190    0.000
 6745.00    0.49849   0.47254    0.000
 6746.00    0.49811   0.47350    0.000
 6747.00    0.50049   0.47470    0.000
 6748.00    0.49400   0.47649    0.000
 6749.00    0.47820   0.47892    0.000
 6750.00    0.45944   0.48170    0.000
 6751.00    0.43793   0.48458    0.000
 6752.00    0.44558   0.48717    0.000
 6753.00    0.47703   0.48889    0.009
 6754.00    0.50597   0.48938    0.009
 6755.00    0.53309   0.48887    0.009
 6756.00    0.55384   0.48802    0.009
 6757.00    0.57057   0.48704    0.009
 6758.00    0.54694   0.48531    0.009
 6759.00    0.50108   0.48211    0.009
 6760.00    0.47935   0.47801    0.009
 6761.00    0.46918   0.47485    0.009
 6762.00    0.49122   0.47388    0.009
 6763.00    0.52658   0.47443    0.009
 6764.00    0.55071   0.47514    0.009
 6765.00    0.57088   0.47603    0.009
 6766.00    0.53678   0.47820    0.009
 6767.00    0.48650   0.48187    0.009
 6768.00    0.48611   0.48582    0.009
 6769.00    0.49808   0.48861    0.009
 6770.00    0.50421   0.48984    0.009
 6771.00    0.50917   0.49021    0.009
 6772.00    0.52087   0.49041    0.008
 6773.00    0.53363   0.49011    0.008
 6774.00    0.53655   0.48820    0.008
 6775.00    0.53833   0.48391    0.008
 6776.00    0.50556   0.47788    0.008
 6777.00    0.47008   0.47201    0.008
 6778.00    0.44384   0.46838    0.009
 6779.00    0.41800   0.46805    0.009
 6780.00    0.43279   0.47057    0.009
 6781.00    0.44758   0.47438    0.009
 6782.00    0.44256   0.47774    0.009
 6783.00    0.43906   0.47971    0.009
 6784.00    0.46300   0.48036    0.009
 6785.00    0.48777   0.47985    0.009
 6786.00    0.52171   0.47818    0.008
 6787.00    0.55366   0.47588    0.008
 6788.00    0.57032   0.47409    0.009
 6789.00    0.58569   0.47370    0.009
 6790.00    0.59349   0.47460    0.009
 6791.00    0.58986   0.47612    0.009
 6792.00    0.53338   0.47767    0.009
 6793.00    0.49591   0.47907    0.009
 6794.00    0.53029   0.48023    0.009
 6795.00    0.56103   0.48080    0.009
 6796.00    0.58024   0.48039    0.009
 6797.00    0.59012   0.47927    0.009
 6798.00    0.57499   0.47817    0.009
 6799.00    0.56984   0.47745    0.009
 6800.00    0.58761   0.47704    0.009
 6801.00    0.58369   0.47670    0.008
 6802.00    0.53668   0.47623    0.009
 6803.00    0.49772   0.47574    0.009
 6804.00    0.47273   0.47560    0.009
 6805.00    0.46155   0.47586    0.008
 6806.00    0.47132   0.47582    0.008
 6807.00    0.48250   0.47494    0.008
 6808.00    0.49555   0.47402    0.008
 6809.00    0.50511   0.47448    0.008
 6810.00    0.51055   0.47643    0.008
 6811.00    0.50838   0.47823    0.008
 6812.00    0.49833   0.47832    0.009
 6813.00    0.46988   0.47713    0.009
 6814.00    0.42464   0.47656    0.009
 6815.00    0.43500   0.47786    0.009
 6816.00    0.49010   0.48047    0.009
 6817.00    0.51753   0.48277    0.009
 6818.00    0.52535   0.48356    0.008
 6819.00    0.49922   0.48235    0.008
 6820.00    0.45201   0.47932    0.008
 6821.00    0.44367   0.47562    0.008
 6822.00    0.45643   0.47327    0.008
 6823.00    0.47062   0.47355    0.008
 6824.00    0.48548   0.47569    0.008
 6825.00    0.48814   0.47775    0.008
 6826.00    0.48582   0.47878    0.008
 6827.00    0.47826   0.47927    0.008
 6828.00    0.46887   0.47964    0.008
 6829.00    0.47310   0.47931    0.008
 6830.00    0.48132   0.47735    0.008
 6831.00    0.49290   0.47350    0.008
 6832.00    0.50530   0.46823    0.008
 6833.00    0.49242   0.46242    0.008
 6834.00    0.47458   0.45729    0.008
 6835.00    0.48002   0.45448    0.008
 6836.00    0.48900   0.45536    0.008
 6837.00    0.54004   0.45981    0.009
 6838.00    0.59579   0.46592    0.009
 6839.00    0.62980   0.47125    0.009
 6840.00    0.66217   0.47452    0.009
 6841.00    0.57013   0.47591    0.009
 6842.00    0.47315   0.47622    0.009
 6843.00    0.41568   0.47609    0.008
 6844.00    0.36151   0.47585    0.008
 6845.00    0.42799   0.47541    0.008
 6846.00    0.48782   0.47392    0.008
 6847.00    0.43518   0.47043    0.008
 6848.00    0.39176   0.46558    0.008
 6849.00    0.44483   0.46172    0.008
 6850.00    0.48997   0.46055    0.008
 6851.00    0.47625   0.46163    0.008
 6852.00    0.46819   0.46305    0.008
 6853.00    0.49223   0.46304    0.008
 6854.00    0.50676   0.46166    0.008
 6855.00    0.47832   0.46110    0.008
 6856.00    0.46153   0.46338    0.008
 6857.00    0.48787   0.46771    0.008
 6858.00    0.50270   0.47095    0.008
 6859.00    0.48189   0.47070    0.008
 6860.00    0.46870   0.46730    0.008
 6861.00    0.47560   0.46348    0.008
 6862.00    0.47549   0.46188    0.008
 6863.00    0.45957   0.46274    0.008
 6864.00    0.44849   0.46401    0.008
 6865.00    0.44687   0.46410    0.008
 6866.00    0.42698   0.46347    0.008
 6867.00    0.37592   0.46327    0.008
 6868.00    0.33967   0.46389    0.009
 6869.00    0.32559   0.46526    0.009
 6870.00    0.31667   0.46735    0.008
 6871.00    0.31452   0.46959    0.008
 6872.00    0.33167   0.47073    0.008
 6873.00    0.37113   0.46977    0.008
 6874.00    0.40961   0.46675    0.008
 6875.00    0.44708   0.46309    0.008
 6876.00    0.46294   0.46097    0.008
 6877.00    0.45935   0.46151    0.008
 6878.00    0.42751   0.46376    0.008
 6879.00    0.37327   0.46610    0.008
 6880.00    0.35681   0.46824    0.008
 6881.00    0.36672   0.47069    0.008
 6882.00    0.37869   0.47342    0.008
 6883.00    0.39193   0.47582    0.008
 6884.00    0.39936   0.47723    0.008
 6885.00    0.40369   0.47725    0.008
 6886.00    0.44597   0.47612    0.008
 6887.00    0.50585   0.47443    0.008
 6888.00    0.51167   0.47276    0.008
 6889.00    0.49589   0.47165    0.008
 6890.00    0.49515   0.47156    0.008
 6891.00    0.49953   0.47216    0.008
 6892.00    0.50946   0.47252    0.008
 6893.00    0.52096   0.47234    0.008
 6894.00    0.51041   0.47241    0.008
 6895.00    0.49462   0.47325    0.008
 6896.00    0.48718   0.47427    0.008
 6897.00    0.48133   0.47466    0.008
 6898.00    0.46422   0.47455    0.008
 6899.00    0.44546   0.47476    0.008
 6900.00    0.44626   0.47573    0.008
 6901.00    0.44917   0.47696    0.008
 6902.00    0.45959   0.47765    0.008
 6903.00    0.47055   0.47727    0.008
 6904.00    0.42598   0.47560    0.008
 6905.00    0.37943   0.47277    0.008
 6906.00    0.41000   0.46917    0.008
 6907.00    0.43923   0.46565    0.008
 6908.00    0.41303   0.46345    0.008
 6909.00    0.38851   0.46307    0.008
 6910.00    0.39039   0.46406    0.008
 6911.00    0.39436   0.46611    0.008
 6912.00    0.41909   0.46907    0.008
 6913.00    0.44190   0.47233    0.008
 6914.00    0.45084   0.47481    0.008
 6915.00    0.45877   0.47527    0.008
 6916.00    0.46112   0.47291    0.008
 6917.00    0.46152   0.46815    0.008
 6918.00    0.45330   0.46318    0.008
 6919.00    0.44158   0.46067    0.008
 6920.00    0.41720   0.46171    0.008
 6921.00    0.39932   0.46495    0.008
 6922.00    0.40121   0.46807    0.008
 6923.00    0.40366   0.46965    0.008
 6924.00    0.40755   0.46942    0.008
 6925.00    0.41491   0.46780    0.008
 6926.00    0.43000   0.46586    0.008
 6927.00    0.45396   0.46514    0.008
 6928.00    0.49503   0.46613    0.008
 6929.00    0.51055   0.46773    0.009
 6930.00    0.48315   0.46881    0.009
 6931.00    0.46620   0.46946    0.009
 6932.00    0.46467   0.47044    0.009
 6933.00    0.46969   0.47182    0.008
 6934.00    0.48321   0.47257    0.008
 6935.00    0.48464   0.47138    0.008
 6936.00    0.47229   0.46783    0.008
 6937.00    0.45363   0.46287    0.008
 6938.00    0.42861   0.45872    0.008
 6939.00    0.41799   0.45772    0.008
 6940.00    0.42014   0.46026    0.008
 6941.00    0.41193   0.46429    0.008
 6942.00    0.39560   0.46721    0.008
 6943.00    0.39610   0.46750    0.008
 6944.00    0.40818   0.46528    0.008
 6945.00    0.44130   0.46224    0.008
 6946.00    0.48711   0.46015    0.009
 6947.00    0.45522   0.45973    0.009
 6948.00    0.38245   0.46097    0.008
 6949.00    0.39127   0.46344    0.008
 6950.00    0.43733   0.46611    0.009
 6951.00    0.45235   0.46794    0.009
 6952.00    0.45518   0.46872    0.009
 6953.00    0.45311   0.46906    0.009
 6954.00    0.44942   0.46961    0.009
 6955.00    0.44769   0.47045    0.009
 6956.00    0.44653   0.47113    0.008
 6957.00    0.41566   0.47114    0.008
 6958.00    0.37793   0.47030    0.008
 6959.00    0.34310   0.46934    0.008
 6960.00    0.30881   0.46956    0.008
 6961.00    0.34917   0.47112    0.008
 6962.00    0.40022   0.47252    0.008
 6963.00    0.45563   0.47234    0.009
 6964.00    0.51150   0.47092    0.009
 6965.00    0.48058   0.46984    0.009
 6966.00    0.44386   0.46959    0.009
 6967.00    0.44247   0.46856    0.009
 6968.00    0.44221   0.46497    0.009
 6969.00    0.42708   0.45863    0.009
 6970.00    0.41091   0.45061    0.009
 6971.00    0.36249   0.44294    0.009
 6972.00    0.32383   0.43892    0.009
 6973.00    0.43046   0.44128    0.009
 6974.00    0.52261   0.44907    0.009
 6975.00    0.47561   0.45835    0.009
 6976.00    0.43837   0.46572    0.009
 6977.00    0.46905   0.46999    0.009
 6978.00    0.48536   0.47152    0.009
 6979.00    0.42454   0.47131    0.009
 6980.00    0.37831   0.47014    0.008
 6981.00    0.39493   0.46834    0.009
 6982.00    0.40504   0.46636    0.009
 6983.00    0.39201   0.46531    0.008
 6984.00    0.39294   0.46604    0.008
 6985.00    0.43552   0.46795    0.009
 6986.00    0.46541   0.46946    0.009
 6987.00    0.46311   0.46969    0.009
 6988.00    0.45906   0.46915    0.009
 6989.00    0.45116   0.46859    0.009
 6990.00    0.43579   0.46771    0.009
 6991.00    0.40624   0.46542    0.009
 6992.00    0.37914   0.46161    0.009
 6993.00    0.35609   0.45805    0.009
 6994.00    0.34844   0.45691    0.009
 6995.00    0.36314   0.45806    0.009
 6996.00    0.39130   0.45905    0.009
 6997.00    0.43665   0.45803    0.009
 6998.00    0.46380   0.45582    0.009
 6999.00    0.47049   0.45467    0.009
 7000.00    0.46075   0.45575    0.009
 7001.00    0.43469   0.45850    0.009
 7002.00    0.41624   0.46139    0.009
 7003.00    0.40445   0.46307    0.009
 7004.00    0.39916   0.46315    0.009
 7005.00    0.39888   0.46237    0.009
 7006.00    0.39916   0.46115    0.009
 7007.00    0.39983   0.45845    0.009
 7008.00    0.39853   0.45310    0.009
 7009.00    0.39606   0.44665    0.009
 7010.00    0.38056   0.44349    0.009
 7011.00    0.35832   0.44673    0.009
 7012.00    0.36531   0.45444    0.009
 7013.00    0.38541   0.46160    0.009
 7014.00    0.38316   0.46459    0.009
 7015.00    0.37228   0.46275    0.009
 7016.00    0.39358   0.45770    0.009
 7017.00    0.42544   0.45259    0.009
 7018.00    0.39608   0.45050    0.009
 7019.00    0.34987   0.45220    0.009
 7020.00    0.35781   0.45589    0.009
 7021.00    0.37800   0.45935    0.009
 7022.00    0.43636   0.46172    0.009
 7023.00    0.50163   0.46309    0.009
 7024.00    0.49271   0.46356    0.009
 7025.00    0.47351   0.46317    0.009
 7026.00    0.53166   0.46232    0.009
 7027.00    0.59750   0.46169    0.009
 7028.00    0.54445   0.46151    0.009
 7029.00    0.48395   0.46108    0.009
 7030.00    0.45124   0.45930    0.009
 7031.00    0.41914   0.45649    0.009
 7032.00    0.34310   0.45565    0.009
 7033.00    0.27389   0.45971    0.009
 7034.00    0.39238   0.46742    0.009
 7035.00    0.50377   0.47438    0.010
 7036.00    0.51535   0.47729    0.009
 7037.00    0.52152   0.47607    0.009
 7038.00    0.47775   0.47307    0.009
 7039.00    0.44458   0.47137    0.009
 7040.00    0.48285   0.47248    0.009
 7041.00    0.51163   0.47530    0.009
 7042.00    0.49080   0.47738    0.009
 7043.00    0.47897   0.47670    0.009
 7044.00    0.50503   0.47245    0.009
 7045.00    0.50927   0.46510    0.009
 7046.00    0.43759   0.45658    0.009
 7047.00    0.38658   0.44994    0.009
 7048.00    0.39608   0.44737    0.009
 7049.00    0.43706   0.44848    0.010
 7050.00    0.55663   0.45086   -2.000
 7051.00    0.60609   0.45169   -2.000
 7052.00    0.50477   0.44968   -2.000
 7053.00    0.43827   0.44604   -2.000
 7054.00    0.43680   0.44347   -2.000
 7055.00    0.44436   0.44369   -2.000
 7056.00    0.46666   0.44611   -2.000
 7057.00    0.45732   0.44874   -2.000
 7058.00    0.40269   0.44956   -2.000
 7059.00    0.42499   0.44719   -2.000
 7060.00    0.54407   0.44221   -2.000
 7061.00    0.59942   0.43750   -2.000
 7062.00    0.58411   0.43621   -2.000
 7063.00    0.58218   0.43938   -2.000
 7064.00    0.59333   0.44505   -2.000
 7065.00    0.58927   0.45002   -2.000
 7066.00    0.57210   0.45266   -2.000
 7067.00    0.54043   0.45339   -2.000
 7068.00    0.49773   0.45313   -2.000
 7069.00    0.51319   0.45263   -2.000
 7070.00    0.56750   0.45257   -2.000
 7071.00    0.53991   0.45334   -2.000
 7072.00    0.46443   0.45462   -2.000
 7073.00    0.45564   0.45556   -2.000
 7074.00    0.48085   0.45493   -2.000
 7075.00    0.50380   0.45141   -2.000
 7076.00    0.52577   0.44464   -2.000
 7077.00    0.57777   0.43647   -2.000
 7078.00    0.64116   0.43005   -2.000
 7079.00    0.53062   0.42731   -2.000
 7080.00    0.36407   0.42724   -2.000
 7081.00    0.36472   0.42728   -2.000
 7082.00    0.41041   0.42630   -2.000
 7083.00    0.46560   0.42494   -2.000
 7084.00    0.52289   0.42407   -2.000
 7085.00    0.54775   0.42412   -2.000
 7086.00    0.56691   0.42470   -2.000
 7087.00    0.50298   0.42524   -2.000
 7088.00    0.42792   0.42577   -2.000
 7089.00    0.41192   0.42655   -2.000
 7090.00    0.40154   0.42792   -2.000
 7091.00    0.50523   0.43012   -2.000
 7092.00    0.61562   0.43275   -2.000
 7093.00    0.58553   0.43474   -2.000
 7094.00    0.55214   0.43518   -2.000
 7095.00    0.54007   0.43445   -2.000
 7096.00    0.52688   0.43386   -2.000
 7097.00    0.48606   0.43436   -2.000
 7098.00    0.44419   0.43542   -2.000
 7099.00    0.38826   0.43565   -2.000
 7100.00    0.34070   0.43448   -2.000
 7101.00    0.36733   0.43263   -2.000
 7102.00    0.39707   0.43078   -2.000
 7103.00    0.44707   0.42876   -2.000
 7104.00    0.49112   0.42651   -2.000
 7105.00    0.50490   0.42513   -2.000
 7106.00    0.50443   0.42575   -2.000
 7107.00    0.44533   0.42801   -2.000
 7108.00    0.41049   0.43048   -2.000
 7109.00    0.45835   0.43213   -2.000
 7110.00    0.48641   0.43276   -2.000
 7111.00    0.45758   0.43249   -2.000
 7112.00    0.41768   0.43156   -2.000
 7113.00    0.35066   0.43021   -2.000
 7114.00    0.32951   0.42876   -2.000
 7115.00    0.40545   0.42779   -2.000
 7116.00    0.46513   0.42769   -2.000
 7117.00    0.49490   0.42815   -2.000
 7118.00    0.51032   0.42803   -2.000
 7119.00    0.50266   0.42669   -2.000
 7120.00    0.50723   0.42484   -2.000
 7121.00    0.52905   0.42307   -2.000
 7122.00    0.50798   0.42084   -2.000
 7123.00    0.43372   0.41782   -2.000
 7124.00    0.41505   0.41537   -2.000
 7125.00    0.45717   0.41568   -2.000
 7126.00    0.53206   0.41919   -2.000
 7127.00    0.63856   0.42409   -2.000
 7128.00    0.67045   0.42836   -2.000
 7129.00    0.63890   0.43112   -2.000
 7130.00    0.57812   0.43230   -2.000
 7131.00    0.49546   0.43212   -2.000
 7132.00    0.46935   0.43099   -2.000
 7133.00    0.48045   0.42991   -2.000
 7134.00    0.45162   0.42988   -2.000
 7135.00    0.39979   0.43066   -2.000
 7136.00    0.40151   0.43108   -2.000
 7137.00    0.43009   0.43057   -2.000
 7138.00    0.44468   0.42911   -2.000
 7139.00    0.45318   0.42637   -2.000
 7140.00    0.42659   0.42232   -2.000
 7141.00    0.38692   0.41822   -2.000
 7142.00    0.39437   0.41634   -2.000
 7143.00    0.41670   0.41827   -2.000
 7144.00    0.37939   0.42309   -2.000
 7145.00    0.32636   0.42845   -2.000
 7146.00    0.40113   0.43246   -2.000
 7147.00    0.50346   0.43431   -2.000
 7148.00    0.43069   0.43449   -2.000
 7149.00    0.32800   0.43450   -2.000
 7150.00    0.40607   0.43525   -2.000
 7151.00    0.50754   0.43591   -2.000
 7152.00    0.46165   0.43521   -2.000
 7153.00    0.40238   0.43346   -2.000
 7154.00    0.40432   0.43171   -2.000
 7155.00    0.40961   0.42966   -2.000
 7156.00    0.45745   0.42592   -2.000
 7157.00    0.50682   0.42047   -2.000
 7158.00    0.61430   0.41610   -2.000
 7159.00    0.71182   0.41625   -2.000
 7160.00    0.58319   0.42131   -2.000
 7161.00    0.46889   0.42803   -2.000
 7162.00    0.53504   0.43294   -2.000
 7163.00    0.58709   0.43529   -2.000
 7164.00    0.51874   0.43651   -2.000
 7165.00    0.46569   0.43782   -2.000
 7166.00    0.50960   0.43878   -2.000
 7167.00    0.53872   0.43813   -2.000
 7168.00    0.49444   0.43577   -2.000
 7169.00    0.45811   0.43312   -2.000
 7170.00    0.45377   0.43170   -2.000
 7171.00    0.45333   0.43117   -2.000
 7172.00    0.46593   0.42953   -2.000
 7173.00    0.45108   0.42572   -2.000
 7174.00    0.35880   0.42183   -2.000
 7175.00    0.31153   0.42116   -2.000
 7176.00    0.37283   0.42444   -2.000
 7177.00    0.45235   0.42867   -2.000
 7178.00    0.56982   0.42982   -2.000
 7179.00    0.61913   0.42647   -2.000
 7180.00    0.54504   0.42056   -2.000
 7181.00    0.45281   0.41552   -2.000
 7182.00    0.33187   0.41389   -2.000
 7183.00    0.28952   0.41568   -2.000
 7184.00    0.35635   0.41869   -2.000
 7185.00    0.41199   0.42081   -2.000
 7186.00    0.45396   0.42168   -2.000
 7187.00    0.45165   0.42237   -2.000
 7188.00    0.40160   0.42359   -2.000
 7189.00    0.37070   0.42486   -2.000
 7190.00    0.35801   0.42555   -2.000
 7191.00    0.36667   0.42596   -2.000
 7192.00    0.39323   0.42659   -2.000
 7193.00    0.38009   0.42696   -2.000
 7194.00    0.33765   0.42655   -2.000
 7195.00    0.32485   0.42615   -2.000
 7196.00    0.33127   0.42694   -2.000
 7197.00    0.38438   0.42835   -2.000
 7198.00    0.46397   0.42780   -2.000
 7199.00    0.49069   0.42346   -2.000
 7200.00    0.49129   0.41700   -2.000
 7201.00    0.42498   0.41270   -2.000
 7202.00    0.33008   0.41373   -2.000
 7203.00    0.28878   0.41928   -2.000
 7204.00    0.26709   0.42549   -2.000
 7205.00    0.36095   0.42882   -2.000
 7206.00    0.49059   0.42839   -2.000
 7207.00    0.43106   0.42597   -2.000
 7208.00    0.32270   0.42424   -2.000
 7209.00    0.36341   0.42479   -2.000
 7210.00    0.43548   0.42724   -2.000
 7211.00    0.46103   0.42988   -2.000
 7212.00    0.47885   0.43099   -2.000
 7213.00    0.38189   0.43000   -2.000
 7214.00    0.27058   0.42763   -2.000
 7215.00    0.25928   0.42529   -2.000
 7216.00    0.25665   0.42432   -2.000
 7217.00    0.32560   0.42550   -2.000
 7218.00    0.39819   0.42861   -2.000
