###################################################################
## OUTPUT of StarlightChains_v04.for    [Cid@UFSC - 01/Apr/2007] ##
###################################################################

## Some input info
KUG0210-078._11_17.txt                   [arq_obs]
Base.CB07.vall.4m                        [arq_base]
Masks.EmLines.NEW.gm                     [arq_masks]
StCv04.C11.config                        [arq_config]
   66                                    [N_base]
    0                                    [N_YAV_components = # of components with extra extinction!]
    0                                    [i_FitPowerLaw (1/0 = Yes/No)]
-9.99                                    [alpha_PowerLaw]
CCM                                      [red_law_option]
 1.458241                                [q_norm = A(l_norm)/A(V)]

## (Re)Sampling Parameters
 3741.00                                 [l_ini (A)]
 7218.00                                 [l_fin (A)]
    1.00                                 [dl    (A)]     (OBS: dl_cushion =    50.00 A)

## Normalization info
 4020.00                                 [l_norm (A) - for base]
 4010.00                                 [llow_norm (A) - window for f_obs]
 4060.00                                 [lupp_norm (A) - window for f_obs]
1.279206E-18                             [fobs_norm (in input units)]

## S/N
 3691.00                                 [llow_SN (A) - window for S/N]
 7268.00                                 [lupp_SN (A) - window for S/N]
   3.145                                 [S/N in S/N window]
   0.947                                 [S/N in norm. window]
   0.005                                 [S/N_err in S/N window]
   0.001                                 [S/N_err in norm. window]
  1.0000                                 [fscale_chi2]

## etc...
    -2007216                             [idum_orig]
  2284                                   [NOl_eff]
  2284                                   [Nl_eff]
     0    NSIGMA                         [Ntot_cliped & clip_method]
   413980                                [Nglobal_steps]
   7                                     [N_chains]
  19                                     [NEX0s_base = N_base in EX0s-fits]
 0   0   1      162   2.0   2.635E-03    [Clip-Bug, RC-Crash & Burn-In warning-flags, n_censored_weights, wei_nsig_threshold & wei_limit]
    10     10.222      9.840      0.382  [idt_all, wdt_TotTime, wdt_UsrTime & wdt_SysTime (sec)]

## Synthesis Results - Best model ##

 8.52422E-06                             [chi2/Nl_eff]
    47.46817                             [adev (%)]

   130.00000                             [sum-of-x (%)]
 3.58154E-16                             [Flux_tot (units of input spectrum!)]
 3.24531E-13                             [Mini_tot (???)]
 1.83241E-13                             [Mcor_tot (???)]

 215.48                                  [v0_min  (km/s)]
  37.04                                  [vd_min  (km/s)]
 4.0000                                  [AV_min  (mag)]
 0.0000                                  [YAV_min (mag)]

# j     x_j(%)      Mini_j(%)     Mcor_j(%)     age_j(yr)     Z_j      (L/M)_j    YAV?  Mstars   component_j        a/Fe...       SSP_chi2r SSP_adev(%)   SSP_AV   SSP_x(%)
  1      0.0000     0.0000E+00    0.0000E+00    1.000000E+06  0.00400  1.094E-02    0   1.0000   age020_m42            0.0000     4.9610E-06    69.4557   3.2646   280.9907
  2      0.0000     0.0000E+00    0.0000E+00    3.160000E+06  0.00400  4.007E-02    0   0.9999   age045_m42            0.0000     5.1924E-06    69.9194   2.5766   294.9397
  3      0.0000     0.0000E+00    0.0000E+00    5.010000E+06  0.00400  2.539E-02    0   0.9488   age055_m42            0.0000     5.0742E-06    69.8646   2.8804   290.0208
  4      0.0000     0.0000E+00    0.0000E+00    6.610000E+06  0.00400  2.620E-02    0   0.9220   age061_m42            0.0000     5.2086E-06    70.0788   2.5063   295.1992
  5      0.0000     0.0000E+00    0.0000E+00    1.000000E+07  0.00400  1.322E-02    0   0.8862   age070_m42            0.0000     5.1759E-06    70.6980   2.2313   300.8867
  6      9.9771     1.0744E+00    1.6310E+00    1.445000E+07  0.00400  7.883E-03    0   0.8571   age078_m42            0.0000     5.1052E-06    70.5800   2.5461   294.8907
  7      0.0000     0.0000E+00    0.0000E+00    2.512000E+07  0.00400  5.251E-03    0   0.8174   age090_m42            0.0000     5.1969E-06    70.9077   2.1034   302.2563
  8      0.0000     0.0000E+00    0.0000E+00    4.000000E+07  0.00400  3.649E-03    0   0.7851   age104_m42            0.0000     5.2388E-06    70.7378   1.8818   304.0677
  9      0.0000     0.0000E+00    0.0000E+00    5.500000E+07  0.00400  3.098E-03    0   0.7629   age110_m42            0.0000     5.3286E-06    70.5207   2.0391   303.1634
 10      0.0000     0.0000E+00    0.0000E+00    1.015200E+08  0.00400  2.228E-03    0   0.7207   age116_m42            0.0000     5.4065E-06    70.3289   2.0687   302.4041
 11      0.0000     0.0000E+00    0.0000E+00    2.861200E+08  0.00400  1.093E-03    0   0.6648   age125_m42            0.0000     5.4815E-06    70.6648   1.5078   309.7255
 12      0.0000     0.0000E+00    0.0000E+00    5.088000E+08  0.00400  6.597E-04    0   0.6365   age130_m42            0.0000     5.5880E-06    69.9599   1.5092   310.7560
 13      0.0000     0.0000E+00    0.0000E+00    1.434000E+09  0.00400  2.132E-04    0   0.5798   age139_m42            0.0000     5.5993E-06    68.6769   0.5462   316.5117
 14      0.5608     8.0755E+00    7.6903E+00    4.250000E+09  0.00400  5.895E-05    0   0.5377   age158_m42            0.0000     5.3952E-06    67.0758   0.0702   309.3500
 15      0.0000     0.0000E+00    0.0000E+00    7.500000E+09  0.00400  3.510E-05    0   0.5212   age171_m42            0.0000     5.4246E-06    66.3097  -0.1211   307.5703
 16      0.0000     0.0000E+00    0.0000E+00    1.300000E+10  0.00400  2.005E-05    0   0.5034   age193_m42            0.0000     5.4581E-06    65.5176  -0.2868   305.8809
 17      0.0000     0.0000E+00    0.0000E+00    1.800000E+10  0.00400  1.525E-05    0   0.4967   age213_m42            0.0000     5.4367E-06    65.7445  -0.3150   305.1400
 18     15.8351     1.0859E+00    1.9231E+00    1.000000E+06  0.00800  1.238E-02    0   1.0000   age020_m52            0.0000     4.9551E-06    69.4093   3.2623   281.4572
 19      0.0000     0.0000E+00    0.0000E+00    3.160000E+06  0.00800  3.074E-02    0   0.9966   age045_m52            0.0000     4.9558E-06    69.4004   3.1888   283.6779
 20      0.0000     0.0000E+00    0.0000E+00    5.010000E+06  0.00800  2.668E-02    0   0.9443   age055_m52            0.0000     5.0282E-06    69.7760   2.9549   288.5038
 21     24.9710     9.9244E-01    1.6130E+00    6.610000E+06  0.00800  2.136E-02    0   0.9177   age061_m52            0.0000     5.0704E-06    69.5947   1.7212   306.2336
 22      0.0000     0.0000E+00    0.0000E+00    1.000000E+07  0.00800  1.215E-02    0   0.8827   age070_m52            0.0000     5.1288E-06    71.0111   2.3990   301.4735
 23      0.0000     0.0000E+00    0.0000E+00    1.445000E+07  0.00800  8.717E-03    0   0.8552   age078_m52            0.0000     5.1197E-06    70.6364   2.5122   298.8116
 24      0.0000     0.0000E+00    0.0000E+00    2.512000E+07  0.00800  5.592E-03    0   0.8162   age090_m52            0.0000     5.2132E-06    71.0741   2.1678   305.6048
 25      4.7459     1.0341E+00    1.4361E+00    4.000000E+07  0.00800  3.896E-03    0   0.7841   age104_m52            0.0000     5.2708E-06    70.9147   2.0865   306.9387
 26      0.0000     0.0000E+00    0.0000E+00    1.015200E+08  0.00800  2.148E-03    0   0.7226   age116_m52            0.0000     5.3374E-06    70.5103   2.0289   305.7382
 27      0.0000     0.0000E+00    0.0000E+00    2.861200E+08  0.00800  9.925E-04    0   0.6683   age125_m52            0.0000     5.5999E-06    69.9157   1.5749   313.5557
 28      0.0000     0.0000E+00    0.0000E+00    9.047900E+08  0.00800  3.141E-04    0   0.6138   age135_m52            0.0000     5.6880E-06    68.0302   0.7847   325.2837
 29      0.0000     0.0000E+00    0.0000E+00    1.434000E+09  0.00800  1.719E-04    0   0.5853   age139_m52            0.0000     5.5032E-06    67.5569   0.1767   322.6553
 30      0.0000     0.0000E+00    0.0000E+00    2.500000E+09  0.00800  7.872E-05    0   0.5600   age150_m52            0.0000     5.4978E-06    66.0178  -0.0983   315.3990
 31      0.0000     0.0000E+00    0.0000E+00    4.250000E+09  0.00800  4.336E-05    0   0.5426   age158_m52            0.0000     5.4729E-06    65.7301  -0.1169   312.9913
 32      0.0000     0.0000E+00    0.0000E+00    6.250000E+09  0.00800  3.159E-05    0   0.5319   age166_m52            0.0000     5.5757E-06    64.7467  -0.3112   311.9238
 33      0.0000     0.0000E+00    0.0000E+00    1.300000E+10  0.00800  1.361E-05    0   0.5073   age193_m52            0.0000     5.7585E-06    63.2653  -0.7678   308.1963
 34      0.0000     0.0000E+00    0.0000E+00    1.800000E+10  0.00800  9.886E-06    0   0.4990   age213_m52            0.0000     5.8834E-06    62.3214  -0.8630   305.0603
 35      0.0000     0.0000E+00    0.0000E+00    1.000000E+06  0.02000  1.544E-02    0   1.0000   age020_m62            0.0000     4.9434E-06    69.3712   3.2572   282.2666
 36     60.7319     1.3705E+00    2.3927E+00    3.160000E+06  0.02000  3.762E-02    0   0.9858   age045_m62            0.0000     4.9401E-06    69.3730   3.1935   285.0284
 37      0.0000     0.0000E+00    0.0000E+00    5.010000E+06  0.02000  3.296E-02    0   0.9342   age055_m62            0.0000     5.1206E-06    69.8723   2.8448   292.9818
 38      0.0000     0.0000E+00    0.0000E+00    8.710000E+06  0.02000  1.154E-02    0   0.8861   age067_m62            0.0000     5.0971E-06    72.6032   1.8499   310.1851
 39      0.0000     0.0000E+00    0.0000E+00    1.445000E+07  0.02000  7.663E-03    0   0.8472   age078_m62            0.0000     5.1138E-06    71.3755   2.0473   308.1054
 40      0.0000     0.0000E+00    0.0000E+00    2.512000E+07  0.02000  4.532E-03    0   0.8099   age090_m62            0.0000     5.1503E-06    71.8015   2.0377   307.0664
 41      0.0000     0.0000E+00    0.0000E+00    5.500000E+07  0.02000  2.733E-03    0   0.7595   age110_m62            0.0000     5.2268E-06    70.7987   2.0650   305.4302
 42      0.0000     0.0000E+00    0.0000E+00    1.609000E+08  0.02000  1.369E-03    0   0.6985   age120_m62            0.0000     5.4683E-06    70.3557   1.9262   310.2665
 43      0.0000     0.0000E+00    0.0000E+00    2.861200E+08  0.02000  9.013E-04    0   0.6714   age125_m62            0.0000     5.6611E-06    69.8189   1.6986   315.9670
 44      0.0000     0.0000E+00    0.0000E+00    5.088000E+08  0.02000  5.028E-04    0   0.6449   age130_m62            0.0000     5.7808E-06    68.4279   1.3319   322.6720
 45      0.4419     1.5449E+00    1.6906E+00    9.047900E+08  0.02000  2.428E-04    0   0.6179   age135_m62            0.0000     5.5900E-06    67.2539   0.7148   325.1346
 46      5.5623     3.7387E+01    3.9120E+01    1.434000E+09  0.02000  1.263E-04    0   0.5908   age139_m62            0.0000     5.4914E-06    66.3211   0.2581   322.5049
 47      0.0000     0.0000E+00    0.0000E+00    2.500000E+09  0.02000  5.985E-05    0   0.5673   age150_m62            0.0000     5.5392E-06    64.8425  -0.1135   318.8675
 48      0.0000     0.0000E+00    0.0000E+00    4.250000E+09  0.02000  3.271E-05    0   0.5468   age158_m62            0.0000     5.7315E-06    63.3213  -0.4075   314.4664
 49      0.0000     0.0000E+00    0.0000E+00    1.000000E+10  0.02000  1.360E-05    0   0.5167   age181_m62            0.0000     5.9812E-06    61.4235  -0.7338   310.1039
 50      0.0000     0.0000E+00    0.0000E+00    1.800000E+10  0.02000  7.124E-06    0   0.5013   age213_m62            0.0000     6.1487E-06    60.1245  -0.9323   305.9401
 51      6.8119     2.2310E-01    3.9505E-01    1.000000E+06  0.05000  2.592E-02    0   0.9998   age020_m72            0.0000     4.9105E-06    69.2556   3.2454   282.7934
 52      0.0000     0.0000E+00    0.0000E+00    3.160000E+06  0.05000  4.845E-02    0   0.9577   age045_m72            0.0000     4.9921E-06    69.6070   3.0824   287.8901
 53      0.0000     0.0000E+00    0.0000E+00    5.010000E+06  0.05000  3.072E-02    0   0.9147   age055_m72            0.0000     5.0305E-06    70.8280   2.6105   298.7535
 54      0.0000     0.0000E+00    0.0000E+00    6.610000E+06  0.05000  1.455E-02    0   0.8877   age061_m72            0.0000     5.2249E-06    74.7174   1.8691   313.5150
 55      0.0000     0.0000E+00    0.0000E+00    1.000000E+07  0.05000  9.074E-03    0   0.8524   age070_m72            0.0000     5.0875E-06    71.4925   2.7776   298.2246
 56      0.0000     0.0000E+00    0.0000E+00    2.512000E+07  0.05000  4.250E-03    0   0.7902   age090_m72            0.0000     5.1831E-06    71.6665   2.5054   301.0864
 57      0.0000     0.0000E+00    0.0000E+00    4.000000E+07  0.05000  3.087E-03    0   0.7618   age104_m72            0.0000     5.2578E-06    72.1122   2.2861   304.8329
 58      0.0000     0.0000E+00    0.0000E+00    1.015200E+08  0.05000  1.700E-03    0   0.7096   age116_m72            0.0000     5.4353E-06    71.0451   2.0650   309.2639
 59      0.0000     0.0000E+00    0.0000E+00    2.861200E+08  0.05000  7.384E-04    0   0.6633   age125_m72            0.0000     5.7242E-06    69.3146   1.5699   319.6226
 60      0.0000     0.0000E+00    0.0000E+00    5.088000E+08  0.05000  3.819E-04    0   0.6372   age130_m72            0.0000     5.6584E-06    67.7378   1.0702   326.2806
 61      0.0000     0.0000E+00    0.0000E+00    9.047900E+08  0.05000  1.676E-04    0   0.6110   age135_m72            0.0000     5.5247E-06    65.5717   0.3421   325.1863
 62      0.0000     0.0000E+00    0.0000E+00    1.434000E+09  0.05000  8.837E-05    0   0.5874   age139_m72            0.0000     5.5732E-06    64.6270  -0.1163   323.5837
 63      0.0000     0.0000E+00    0.0000E+00    2.500000E+09  0.05000  4.233E-05    0   0.5598   age150_m72            0.0000     5.7723E-06    62.7741  -0.4064   316.9743
 64      0.0000     0.0000E+00    0.0000E+00    6.250000E+09  0.05000  1.435E-05    0   0.5249   age166_m72            0.0000     6.0058E-06    61.1914  -0.8367   309.4433
 65      0.3622     4.7212E+01    4.2109E+01    1.300000E+10  0.05000  6.513E-06    0   0.5036   age193_m72            0.0000     6.2298E-06    58.1710  -1.0000   300.5399
 66      0.0000     0.0000E+00    0.0000E+00    1.800000E+10  0.05000  4.527E-06    0   0.4945   age213_m72            0.0000     6.3870E-06    55.7111  -1.0000   284.3769


## Synthesis Results - Average & Chains ##

# j      x_j: min, <> & last-chain-values for 1 ...  7 chains
  1      0.0000      1.4252      0.0000      0.1841      0.0000      0.3595      0.1704      0.0000      0.0512
  2      0.0000      1.5290      4.6801      0.0000      0.1475     21.8823      1.0655      0.0000      0.0540
  3      0.0000      1.6588      0.0000      3.0702      0.0200      1.2932      0.1889      0.0000      2.7196
  4      0.0000      2.0252      0.0000      0.0000      0.0000      0.0000      0.0000     14.1960      0.9176
  5      0.0000      1.8733      0.1175     20.1023      0.0000      0.0000      0.0000      0.0001      6.4211
  6      9.9771      1.4704      0.0000      2.3304     18.6389      0.0000      2.0062      5.9635      2.1682
  7      0.0000      1.4875      0.0000      0.0000      0.0000      4.2959      0.1289      0.0000      2.6502
  8      0.0000      1.0302      1.3888      0.0000      0.0000      0.0000      0.0000      0.0000      0.0000
  9      0.0000      1.2800      1.0114      7.3356      0.0636      0.6133      0.2288      4.1658      0.0000
 10      0.0000      1.8516      7.1395      0.0000      1.7846      0.0000      0.0000      0.2702      0.8314
 11      0.0000      1.9593      3.3238      0.0246      0.0344      0.0002      0.0040      0.0000      0.3273
 12      0.0000      1.3321      0.0000      0.0001      0.0000      0.0245      0.0000      0.0000      7.1064
 13      0.0000      1.5011      0.0000     10.7466      0.0000      0.2217      1.3314      0.0000      0.0000
 14      0.5608      1.7613      0.0000      2.0785      1.4693      0.0000      0.0203      1.4557      0.7057
 15      0.0000      1.6835      0.0000      0.0002      0.0000     13.6719      0.0000      5.1644      0.0000
 16      0.0000      1.7934      6.7091      7.8100     18.4644      0.0000      0.0000      3.9968      3.6896
 17      0.0000      0.9338      0.0000      0.4170      4.8133      0.0000     11.1567      0.0000      2.0103
 18     15.8351      1.3586      0.0011      0.1501      1.8674      0.0000      0.0000      0.0000      0.0000
 19      0.0000      1.2605      0.0000      0.0000      0.0000      2.4995      0.0000      2.9682      0.0000
 20      0.0000      1.5063     23.8662      0.0040      0.0000      0.2278      1.4956      1.5289      0.0450
 21     24.9710      1.2646      0.0000      0.0000      0.7958      0.0000      0.0000      0.0055      0.0000
 22      0.0000      1.1167      1.0114      1.5708      4.1175      0.0000      0.0000      0.2677      0.0000
 23      0.0000      1.7208      0.0825      0.0000      0.0000      0.0793      0.0000      0.0000      0.0000
 24      0.0000      2.0809      0.0000      0.1019      0.0003      0.0000      0.0000      1.2482      0.1099
 25      4.7459      1.0567      0.0000      0.1199      2.3591      0.0000      0.0000      0.0000      0.1955
 26      0.0000      1.5472      0.5468      0.0000      0.0000      0.0000      9.0069      0.0744      3.1117
 27      0.0000      1.2343      2.6542      0.0000      0.0000      0.6361      2.0525      3.5112      0.0207
 28      0.0000      1.7484      6.5979      0.1087      5.0389      0.0000      0.0000      0.0000      1.3018
 29      0.0000      1.1860      0.4917      0.1870      0.0000      1.0916      0.0000      0.0000      2.9889
 30      0.0000      1.4917      0.0000      0.0384      0.0000      0.0374      0.0001     24.8759      0.8041
 31      0.0000      0.9899      0.0000      0.0090      0.0000      0.2816      0.0000      5.9998      0.0040
 32      0.0000      1.2188      0.0037      0.0000      0.7854      0.0000      1.5197      0.0029      0.0554
 33      0.0000      1.1629      0.0000      0.0003      0.9485      0.0000      0.0000      0.0000      0.0000
 34      0.0000      1.3498      0.0000     29.3805      1.2716      2.0277      8.9309      0.0000      2.7713
 35      0.0000      1.0746      0.2665      0.4505     34.4425      0.0000      0.1354      0.0000      0.0387
 36     60.7319      1.7594      0.0000     15.2722      5.8454      0.6533      0.0000      0.0000      0.4070
 37      0.0000      1.8474      0.5212      1.5919      0.5033     12.9177      0.0000      0.0000      0.1152
 38      0.0000      1.5982      0.0000      0.0126      0.0372      0.4680     17.0581      2.8996      0.0000
 39      0.0000      1.3886      0.0000     11.9049      0.0000      0.0000      0.0046      1.7496      0.0000
 40      0.0000      1.6443      6.7994      0.0000      0.0349      0.0500      2.4290      1.5750      0.1810
 41      0.0000      1.0227      0.0026      0.0000      0.0000      0.0000      0.0000      0.0000      0.1930
 42      0.0000      1.3034      5.1118      0.0000      0.0086      0.0000      0.0000      0.0000      0.0000
 43      0.0000      1.5118      0.0000      0.0000      0.0135      0.8575      0.0000      1.6816      0.3034
 44      0.0000      1.5319      1.2667      0.0000      0.0000      0.0460      0.0170      0.0000      3.8376
 45      0.4419      1.5195      0.0000      5.2434      8.2189      0.0000      0.2104      2.7407      0.9075
 46      5.5623      1.1646      0.0000      2.5315     10.0834      0.0629      0.0000      1.5590      1.4718
 47      0.0000      1.9352      0.0000      0.0027      0.0000     22.7060     17.1782      0.0000     26.7090
 48      0.0000      1.4435      0.0000      0.0000      0.0000      0.7593      0.0000      0.0084      0.1296
 49      0.0000      1.1883     39.8548      0.0857      0.1082      0.0000      0.3310      1.3414     12.1891
 50      0.0000      1.7897      0.0000      0.0155      0.0000      5.5317      0.0004      9.6239      0.5545
 51      6.8119      1.6564      0.0000      0.0000      5.0191      6.9769      0.0000      0.0000      1.5186
 52      0.0000      1.6553      0.0000      0.1982      0.0000      2.3204      0.0000      3.0385      0.0219
 53      0.0000      1.2706      0.0000      0.0928      0.0000      0.0000      0.4684      0.0000      3.4453
 54      0.0000      1.9555      0.0000      4.1605      1.6890      0.0029      0.0022      0.0000      0.0000
 55      0.0000      2.0659      1.0704      0.5079      0.0025      0.0341      0.0000      0.0000      1.3747
 56      0.0000      1.2927      0.8420      0.0028      0.0000      0.2008      0.0000      0.1342      0.0000
 57      0.0000      1.3855      0.0029      0.0000      0.0000      0.0000      2.2573      1.1229      4.2281
 58      0.0000      1.2097      0.0000      0.0326      0.0344      1.4721      0.1911      0.1671      2.1837
 59      0.0000      1.3685      0.0000      0.0000      0.0000      0.0844      0.4278      2.9840      0.1598
 60      0.0000      1.3207      0.0000      0.0000      0.0411      0.0000      0.1549      0.0000      0.0000
 61      0.0000      1.4667      0.0000      0.0000      0.0000      6.2982      0.0953      2.3120      0.0007
 62      0.0000      1.0551      0.0000      0.0000      0.0843      0.0000      1.0826      1.6179      0.0049
 63      0.0000      1.5957      3.7006      1.3718      0.0000      0.0000      2.5819     18.1516      0.3164
 64      0.0000      1.7398      0.0000      0.6630      0.0004      0.0000      3.4278      0.0000     10.6485
 65      0.3622      0.9254      0.0016      0.0004      1.2130      0.3388      0.1147      0.0000      0.2320
 66      0.0000      1.2620      0.0000      0.0890      0.0000      0.0000     11.3969      1.5977      0.7727

# j      m_j: min, <> & last-chain-values for 1 ...  7 chains
  1  0.0000E+00  1.5715E-02  0.0000E+00  9.1952E-04  0.0000E+00  3.3382E-03  6.3629E-04  0.0000E+00  2.9195E-04
  2  0.0000E+00  4.6027E-03  6.6357E-03  0.0000E+00  3.9608E-04  5.5478E-02  1.0860E-03  0.0000E+00  8.3986E-05
  3  0.0000E+00  7.4777E-03  0.0000E+00  6.2707E-03  8.0332E-05  4.9100E-03  2.8831E-04  0.0000E+00  6.3366E-03
  4  0.0000E+00  8.5971E-03  0.0000E+00  0.0000E+00  0.0000E+00  0.0000E+00  0.0000E+00  3.0671E-02  2.0134E-03
  5  0.0000E+00  1.5149E-02  4.4746E-04  7.3652E-02  0.0000E+00  0.0000E+00  0.0000E+00  3.5678E-07  2.6838E-02
  6  1.6310E+00  1.9286E-02  0.0000E+00  1.3848E-02  2.1807E-01  0.0000E+00  8.9097E-03  3.9808E-02  1.4698E-02
  7  0.0000E+00  2.7933E-02  0.0000E+00  0.0000E+00  0.0000E+00  6.7941E-02  8.1970E-04  0.0000E+00  2.5721E-02
  8  0.0000E+00  2.6739E-02  1.6978E-02  0.0000E+00  0.0000E+00  0.0000E+00  0.0000E+00  0.0000E+00  0.0000E+00
  9  0.0000E+00  3.8025E-02  1.4151E-02  9.8733E-02  1.6858E-03  1.5346E-02  2.3014E-03  6.2982E-02  0.0000E+00
 10  0.0000E+00  7.2250E-02  1.3122E-01  0.0000E+00  6.2116E-02  0.0000E+00  0.0000E+00  5.3667E-03  1.6768E-02
 11  0.0000E+00  1.4376E-01  1.1487E-01  8.1670E-04  2.2513E-03  1.4204E-05  9.8932E-05  0.0000E+00  1.2414E-02
 12  0.0000E+00  1.5504E-01  0.0000E+00  4.2189E-06  0.0000E+00  2.3970E-03  0.0000E+00  0.0000E+00  4.2750E-01
 13  0.0000E+00  4.9245E-01  0.0000E+00  1.5973E+00  0.0000E+00  6.1251E-02  1.4790E-01  0.0000E+00  0.0000E+00
 14  7.6903E+00  1.9379E+00  0.0000E+00  1.0362E+00  1.4421E+00  0.0000E+00  7.5699E-03  8.1518E-01  4.0133E-01
 15  0.0000E+00  3.0156E+00  0.0000E+00  1.3675E-04  1.3799E-07  2.0626E+01  0.0000E+00  4.7081E+00  0.0000E+00
 16  0.0000E+00  5.4317E+00  9.5710E+00  1.0717E+01  4.9884E+01  0.0000E+00  0.0000E+00  6.1609E+00  5.7758E+00
 17  0.0000E+00  3.6690E+00  0.0000E+00  7.4229E-01  1.6869E+01  0.0000E+00  1.4842E+01  0.0000E+00  4.0825E+00
 18  1.9231E+00  1.3239E-02  4.9551E-06  6.6276E-04  1.6231E-02  0.0000E+00  0.0000E+00  0.0000E+00  0.0000E+00
 19  0.0000E+00  4.9297E-03  0.0000E+00  0.0000E+00  0.0000E+00  8.2331E-03  0.0000E+00  5.9080E-03  0.0000E+00
 20  0.0000E+00  6.4310E-03  4.7996E-02  7.8007E-06  0.0000E+00  8.1916E-04  2.1621E-03  3.3223E-03  9.9210E-05
 21  1.6130E+00  6.5539E-03  0.0000E+00  0.0000E+00  3.6790E-03  0.0000E+00  0.0000E+00  1.4466E-05  0.0000E+00
 22  0.0000E+00  9.7870E-03  4.1749E-03  6.2371E-03  3.2188E-02  0.0000E+00  0.0000E+00  1.1941E-03  0.0000E+00
 23  0.0000E+00  2.0366E-02  4.5988E-04  0.0000E+00  0.0000E+00  7.9062E-04  0.0000E+00  0.0000E+00  0.0000E+00
 24  0.0000E+00  3.6638E-02  0.0000E+00  8.1296E-04  4.6536E-06  0.0000E+00  0.0000E+00  1.1185E-02  1.0002E-03
 25  1.4361E+00  2.5654E-02  0.0000E+00  1.3188E-03  5.1089E-02  0.0000E+00  0.0000E+00  0.0000E+00  2.4530E-03
 26  0.0000E+00  6.2785E-02  1.0452E-02  0.0000E+00  0.0000E+00  0.0000E+00  1.2376E-01  1.5369E-03  6.5268E-02
 27  0.0000E+00  1.0026E-01  1.0155E-01  0.0000E+00  4.4364E-09  4.3517E-02  5.6451E-02  1.4515E-01  8.6755E-04
 28  0.0000E+00  4.1215E-01  7.3258E-01  1.1615E-02  1.0595E+00  0.0000E+00  0.0000E+00  0.0000E+00  1.5861E-01
 29  0.0000E+00  4.8715E-01  9.5135E-02  3.4802E-02  0.0000E+00  3.7762E-01  0.0000E+00  0.0000E+00  6.3453E-01
 30  0.0000E+00  1.2801E+00  0.0000E+00  1.4942E-02  0.0000E+00  2.7019E-02  3.0794E-05  1.0865E+01  3.5664E-01
 31  0.0000E+00  1.4944E+00  0.0000E+00  6.1678E-03  0.0000E+00  3.5799E-01  0.0000E+00  4.6095E+00  3.1154E-03
 32  0.0000E+00  2.4756E+00  3.5679E-03  0.0000E+00  1.4230E+00  0.0000E+00  1.0451E+00  2.9578E-03  5.8194E-02
 33  0.0000E+00  5.2290E+00  0.0000E+00  5.7601E-04  3.8041E+00  0.0000E+00  0.0000E+00  0.0000E+00  0.0000E+00
 34  0.0000E+00  8.2186E+00  0.0000E+00  8.1054E+01  6.9063E+00  1.0398E+01  1.8413E+01  0.0000E+00  8.7215E+00
 35  0.0000E+00  8.3957E-03  9.8069E-04  1.5947E-03  2.4004E-01  0.0000E+00  3.5818E-04  0.0000E+00  1.5614E-04
 36  2.3927E+00  5.5614E-03  0.0000E+00  2.1873E-02  1.6482E-02  1.7392E-03  0.0000E+00  0.0000E+00  6.6498E-04
 37  0.0000E+00  6.3163E-03  8.3933E-04  2.4661E-03  1.5351E-03  3.7199E-02  0.0000E+00  0.0000E+00  2.0355E-04
 38  0.0000E+00  1.4804E-02  0.0000E+00  5.2850E-05  3.0739E-04  3.6513E-03  5.3499E-02  1.3669E-02  0.0000E+00
 39  0.0000E+00  1.8519E-02  0.0000E+00  7.1937E-02  0.0000E+00  0.0000E+00  2.0828E-05  1.1875E-02  0.0000E+00
 40  0.0000E+00  3.5448E-02  6.9041E-02  0.0000E+00  6.7113E-04  9.0774E-04  1.7730E-02  1.7280E-02  2.0172E-03
 41  0.0000E+00  3.4284E-02  4.0694E-05  0.0000E+00  0.0000E+00  0.0000E+00  0.0000E+00  0.0000E+00  3.3444E-03
 42  0.0000E+00  8.0220E-02  1.4819E-01  0.0000E+00  4.7204E-04  0.0000E+00  0.0000E+00  0.0000E+00  0.0000E+00
 43  0.0000E+00  1.3585E-01  0.0000E+00  0.0000E+00  1.0795E-03  6.4901E-02  0.0000E+00  7.6908E-02  1.4094E-02
 44  0.0000E+00  2.3702E-01  9.2314E-02  0.0000E+00  0.0000E+00  6.0003E-03  8.8976E-04  0.0000E+00  3.0690E-01
 45  1.6906E+00  4.6648E-01  0.0000E+00  7.2932E-01  2.2507E+00  0.0000E+00  2.1868E-02  4.2821E-01  1.4399E-01
 46  3.9120E+01  6.5718E-01  0.0000E+00  6.4722E-01  5.0754E+00  2.9898E-02  0.0000E+00  4.4772E-01  4.2926E-01
 47  0.0000E+00  2.2128E+00  0.0000E+00  1.4183E-03  0.0000E+00  2.1867E+01  6.6507E+00  0.0000E+00  1.5785E+01
 48  0.0000E+00  2.9108E+00  0.0000E+00  0.0000E+00  0.0000E+00  1.2896E+00  0.0000E+00  8.5706E-03  1.3503E-01
 49  0.0000E+00  5.4459E+00  8.6035E+01  1.7797E-01  4.4246E-01  0.0000E+00  5.1370E-01  3.1290E+00  2.8874E+01
 50  0.0000E+00  1.5192E+01  0.0000E+00  5.9699E-02  0.0000E+00  3.9548E+01  1.1761E-03  4.1577E+01  2.4327E+00
 51  3.9505E-01  7.7075E-03  0.0000E+00  0.0000E+00  2.0832E-02  2.7342E-02  0.0000E+00  0.0000E+00  3.6522E-03
 52  0.0000E+00  3.9471E-03  0.0000E+00  2.1408E-04  0.0000E+00  4.6600E-03  0.0000E+00  3.6874E-03  2.6985E-05
 53  0.0000E+00  4.5639E-03  0.0000E+00  1.5106E-04  0.0000E+00  0.0000E+00  5.6961E-04  0.0000E+00  6.3962E-03
 54  0.0000E+00  1.4392E-02  0.0000E+00  1.3873E-02  1.1088E-02  1.7807E-05  5.4911E-06  0.0000E+00  0.0000E+00
 55  0.0000E+00  2.3411E-02  5.7135E-03  2.6077E-03  2.5449E-05  3.2529E-04  0.0000E+00  0.0000E+00  8.0514E-03
 56  0.0000E+00  2.8995E-02  8.8951E-03  2.8656E-05  0.0000E+00  3.7923E-03  0.0000E+00  1.5320E-03  0.0000E+00
 57  0.0000E+00  4.1243E-02  4.0327E-05  0.0000E+00  0.0000E+00  0.0000E+00  2.2753E-02  1.7013E-02  6.5055E-02
 58  0.0000E+00  6.0914E-02  0.0000E+00  7.4348E-04  1.5469E-03  6.2428E-02  3.2585E-03  4.2819E-03  5.6831E-02
 59  0.0000E+00  1.4829E-01  1.9243E-06  0.0000E+00  0.0000E+00  7.7070E-03  1.5695E-02  1.6457E-01  8.9475E-03
 60  0.0000E+00  2.6581E-01  0.0000E+00  0.0000E+00  7.3783E-03  0.0000E+00  1.0557E-02  0.0000E+00  0.0000E+00
 61  0.0000E+00  6.4501E-01  0.0000E+00  0.0000E+00  0.0000E+00  2.3328E+00  1.4192E-02  5.1746E-01  1.5370E-04
 62  0.0000E+00  8.4603E-01  0.0000E+00  0.0000E+00  6.0283E-02  0.0000E+00  2.9394E-01  6.6024E-01  2.0286E-03
 63  0.0000E+00  2.5457E+00  2.7807E+00  9.9151E-01  0.0000E+00  0.0000E+00  1.3946E+00  1.4738E+01  2.6087E-01
 64  0.0000E+00  7.6768E+00  0.0000E+00  1.3254E+00  1.4362E-03  0.0000E+00  5.1213E+00  0.0000E+00  2.4285E+01
 65  4.2109E+01  8.6313E+00  6.8756E-03  1.5560E-03  1.0092E+01  2.6614E+00  3.6213E-01  0.0000E+00  1.1184E+00
 66  0.0000E+00  1.6630E+01  0.0000E+00  5.3159E-01  0.0000E+00  0.0000E+00  5.0849E+01  1.0715E+01  5.2629E+00

# AV, chi2 & Mass for <> & i_chain = 1 ...  7 solutions
AV       4.0000      2.5398      2.3412      2.3005      2.8577      2.7918      2.3183      2.0828      2.2583
chi2 8.5242E-06  1.1840E-05  9.5757E-06  9.0379E-06  8.9154E-06  9.9031E-06  1.0610E-05  9.0254E-06  9.8676E-06
Mass 1.8324E-13  3.2132E-13  5.2248E-13  5.1427E-13  5.5204E-13  5.3521E-13  7.0480E-13  3.4176E-13  4.2597E-13
 215.48                                  [v0_min (km/s) before EX0s...]
  37.04                                  [vd_min (km/s) before EX0s...]


## Synthetic spectrum (Best Model) ##l_obs f_obs f_syn wei
 3478    [Nl_obs]
 3741.00    3.86414   0.98880    0.000
 3742.00    4.13900   1.02331    0.000
 3743.00    2.97922   1.04540    0.000
 3744.00    0.20433   1.05576    0.000
 3745.00   -3.51161   1.05477    0.000
 3746.00   -1.35310   1.04538    0.000
 3747.00    3.78849   1.02837    0.003
 3748.00    6.08728   1.00283    0.003
 3749.00    7.13602   0.97052    0.003
 3750.00    4.73763   0.92729    0.003
 3751.00    1.03783   0.86817    0.003
 3752.00   -0.11986   0.81404    0.000
 3753.00   -0.46282   0.80403    0.000
 3754.00   -1.00843   0.84720    0.000
 3755.00   -1.60833   0.91017    0.000
 3756.00   -1.55338   0.96030    0.000
 3757.00   -1.35468   0.99398    0.000
 3758.00   -1.59270   1.02057    0.000
 3759.00   -1.90695   1.03770    0.000
 3760.00   -3.21810   1.04327    0.000
 3761.00   -4.66167   1.04432    0.000
 3762.00   -4.12092   1.04408    0.000
 3763.00   -3.39370   1.05161    0.000
 3764.00   -2.74221   1.06549    0.000
 3765.00   -2.09509   1.07046    0.000
 3766.00    1.72001   1.06758    0.003
 3767.00    5.57784   1.05981    0.003
 3768.00    5.50239   1.04017    0.003
 3769.00    5.41447   1.00616    0.003
 3770.00    5.02372   0.96153    0.003
 3771.00    4.57306   0.90518    0.003
 3772.00    3.33731   0.83981    0.003
 3773.00    2.09845   0.79518    0.003
 3774.00    0.83219   0.80783    0.003
 3775.00    0.59011   0.86743    0.003
 3776.00    6.98862   0.93127    0.003
 3777.00   11.55849   0.98306    0.003
 3778.00    6.87313   1.02633    0.003
 3779.00    3.52201   1.05808    0.003
 3780.00    5.63216   1.07833    0.003
 3781.00    7.03650   1.09413    0.003
 3782.00    6.04696   1.11102    0.003
 3783.00    3.75865   1.12684    0.003
 3784.00   -2.24423   1.13595    0.000
 3785.00   -6.00159   1.13946    0.000
 3786.00   -4.27262   1.13999    0.000
 3787.00   -2.50933   1.13610    0.000
 3788.00   -0.67371   1.12891    0.000
 3789.00    0.88948   1.12239    0.003
 3790.00    1.95366   1.11754    0.003
 3791.00    2.08842   1.11146    0.003
 3792.00    0.73544   1.09967    0.003
 3793.00    0.59036   1.08042    0.003
 3794.00    2.14195   1.05965    0.003
 3795.00    2.42400   1.04148    0.003
 3796.00    1.13690   1.01487    0.003
 3797.00    0.19382   0.96998    0.003
 3798.00   -0.37444   0.90722    0.000
 3799.00   -1.08853   0.83172    0.000
 3800.00   -1.94276   0.76897    0.000
 3801.00   -1.68741   0.76181    0.000
 3802.00   -0.49181   0.81977    0.000
 3803.00    0.55065   0.90216    0.003
 3804.00    1.47884   0.97191    0.003
 3805.00    1.36100   1.02268    0.003
 3806.00    0.55743   1.05946    0.003
 3807.00   -0.51857   1.08146    0.000
 3808.00   -1.75092   1.08643    0.000
 3809.00    0.55999   1.08822    0.003
 3810.00    4.64187   1.10509    0.003
 3811.00    4.51045   1.13036    0.003
 3812.00    2.55703   1.14813    0.003
 3813.00   -0.98315   1.15679    0.000
 3814.00   -5.11180   1.15901    0.000
 3815.00   -5.42159   1.15552    0.000
 3816.00   -4.53089   1.14902    0.000
 3817.00   -3.43504   1.14378    0.000
 3818.00   -2.28537   1.14059    0.000
 3819.00   -1.19786   1.13662    0.000
 3820.00   -0.12366   1.11903    0.000
 3821.00    0.99251   1.07015    0.003
 3822.00    2.11580   1.01527    0.003
 3823.00    3.07516   1.01690    0.003
 3824.00    4.01347   1.07182    0.003
 3825.00    5.98746   1.11803    0.003
 3826.00    8.05441   1.13183    0.003
 3827.00    9.89299   1.12631    0.003
 3828.00   11.71931   1.11689    0.003
 3829.00    9.08879   1.10860    0.003
 3830.00    6.33948   1.09851    0.003
 3831.00    1.10359   1.08351    0.003
 3832.00   -3.67730   1.06249    0.000
 3833.00    1.65024   1.03322    0.003
 3834.00    6.47419   0.99005    0.003
 3835.00    5.03609   0.92985    0.003
 3836.00    3.38833   0.85466    0.003
 3837.00   -0.03149   0.77772    0.000
 3838.00   -2.89050   0.73793    0.000
 3839.00   -2.22146   0.76617    0.000
 3840.00   -1.67081   0.83699    0.000
 3841.00   -1.70434   0.90971    0.000
 3842.00   -1.23050   0.97298    0.000
 3843.00    1.27435   1.02393    0.003
 3844.00    3.25820   1.06213    0.003
 3845.00    3.50995   1.09141    0.003
 3846.00    4.49751   1.11326    0.003
 3847.00    7.55132   1.12891    0.000
 3848.00    9.17453   1.14018    0.000
 3849.00    7.36165   1.14924    0.000
 3850.00    5.37395   1.15698    0.000
 3851.00    3.02370   1.16142    0.000
 3852.00    0.69495   1.16130    0.000
 3853.00   -1.59500   1.16077    0.000
 3854.00   -1.71654   1.16674    0.000
 3855.00    1.58166   1.17550    0.000
 3856.00    4.44638   1.17770    0.000
 3857.00    6.71102   1.17304    0.000
 3858.00    7.02651   1.16626    0.000
 3859.00    4.96701   1.16371    0.000
 3860.00    3.48785   1.16801    0.000
 3861.00    2.63206   1.17062    0.000
 3862.00    3.09702   1.16787    0.000
 3863.00    4.81339   1.16714    0.000
 3864.00    5.48075   1.17239    0.000
 3865.00    5.27175   1.17745    0.000
 3866.00    4.73607   1.17685    0.000
 3867.00    3.96010   1.17367    0.000
 3868.00    2.14325   1.17095    0.000
 3869.00   -0.34595   1.16340    0.000
 3870.00   -1.00454   1.15411    0.000
 3871.00   -0.62860   1.16031    0.000
 3872.00    1.06212   1.17318    0.000
 3873.00    3.39958   1.16697    0.000
 3874.00    2.57604   1.14493    0.000
 3875.00    0.40836   1.13457    0.000
 3876.00    0.55689   1.14667    0.000
 3877.00    1.54911   1.15968    0.000
 3878.00    2.05779   1.15648    0.000
 3879.00    2.41740   1.14613    0.000
 3880.00    3.95739   1.14009    0.000
 3881.00    5.80039   1.13735    0.003
 3882.00    6.30948   1.13573    0.003
 3883.00    6.53970   1.12937    0.003
 3884.00    6.50121   1.11051    0.003
 3885.00    6.41841   1.08540    0.003
 3886.00    3.32060   1.06428    0.003
 3887.00   -0.15060   1.03872    0.000
 3888.00    0.25935   0.99307    0.003
 3889.00    1.00145   0.92557    0.003
 3890.00    0.49025   0.84199    0.003
 3891.00   -0.08342   0.76214    0.000
 3892.00    0.79412   0.73788    0.003
 3893.00    1.69541   0.79527    0.003
 3894.00    2.59550   0.88927    0.003
 3895.00    3.40372   0.97028    0.003
 3896.00    2.33265   1.02803    0.003
 3897.00    1.38565   1.06814    0.003
 3898.00    1.90590   1.09705    0.003
 3899.00    2.37123   1.12078    0.003
 3900.00    2.38919   1.13802    0.003
 3901.00    2.19925   1.14528    0.003
 3902.00    0.73948   1.15097    0.002
 3903.00   -0.15062   1.16477    0.000
 3904.00    1.70069   1.18041    0.002
 3905.00    3.09627   1.18805    0.002
 3906.00    2.70709   1.19033    0.002
 3907.00    1.44722   1.19202    0.002
 3908.00   -2.65068   1.19174    0.000
 3909.00   -5.34586   1.19325    0.000
 3910.00   -4.17297   1.20135    0.000
 3911.00   -2.32938   1.21187    0.000
 3912.00    1.09801   1.21838    0.003
 3913.00    3.12572   1.21813    0.003
 3914.00    2.29686   1.21279    0.003
 3915.00    2.62411   1.20994    0.003
 3916.00    5.00478   1.21381    0.003
 3917.00    5.28619   1.21915    0.003
 3918.00    2.30577   1.22143    0.003
 3919.00   -0.84572   1.21953    0.000
 3920.00   -4.23059   1.21164    0.000
 3921.00   -3.86752   1.19442    0.000
 3922.00    0.99768   1.17389    0.003
 3923.00    3.98885   1.16530    0.003
 3924.00    4.99527   1.17344    0.003
 3925.00    3.84782   1.18589    0.003
 3926.00    0.68826   1.18827    0.003
 3927.00    0.02489   1.18194    0.003
 3928.00    1.41731   1.17000    0.003
 3929.00    4.01875   1.15635    0.003
 3930.00    7.49663   1.15435    0.003
 3931.00    6.33092   1.16169    0.003
 3932.00    2.20999   1.16624    0.003
 3933.00   -0.36671   1.16524    0.000
 3934.00   -2.08400   1.15688    0.000
 3935.00   -1.48931   1.14086    0.000
 3936.00    0.22458   1.12440    0.003
 3937.00    0.50982   1.12171    0.003
 3938.00    0.19777   1.13603    0.003
 3939.00    0.81471   1.15708    0.003
 3940.00    1.76396   1.17631    0.003
 3941.00    1.95836   1.19089    0.003
 3942.00    1.92460   1.20229    0.003
 3943.00    0.18168   1.21048    0.003
 3944.00   -1.99051   1.21364    0.000
 3945.00   -1.59493   1.21310    0.000
 3946.00   -0.67573   1.20889    0.000
 3947.00   -0.54686   1.20378    0.000
 3948.00   -0.54454   1.20709    0.000
 3949.00   -0.55098   1.21720    0.000
 3950.00   -0.55846   1.22091    0.000
 3951.00   -0.08746   1.21967    0.000
 3952.00    0.42251   1.22260    0.003
 3953.00   -1.32344   1.22749    0.000
 3954.00   -3.17306   1.22703    0.000
 3955.00   -1.63081   1.22010    0.000
 3956.00   -0.03854   1.21160    0.000
 3957.00    1.90868   1.20614    0.003
 3958.00    3.64744   1.20423    0.003
 3959.00    1.43702   1.20294    0.003
 3960.00   -0.60548   1.20264    0.000
 3961.00   -0.75563   1.20331    0.000
 3962.00   -0.84089   1.19743    0.000
 3963.00   -0.41622   1.17638    0.000
 3964.00   -0.14591   1.14444    0.000
 3965.00   -0.79159   1.11737    0.000
 3966.00   -1.55292   1.09031    0.000
 3967.00   -2.85732   1.04974    0.000
 3968.00   -3.30023   1.00950    0.000
 3969.00   -0.44170   0.97217    0.000
 3970.00    1.58023   0.91328    0.000
 3971.00    0.92812   0.82827    0.000
 3972.00    0.08660   0.74672    0.000
 3973.00   -1.26790   0.72146    0.000
 3974.00   -1.59974   0.77663    0.000
 3975.00    0.44302   0.86923    0.000
 3976.00    1.65113   0.95306    0.000
 3977.00    1.18280   1.02275    0.000
 3978.00    0.81470   1.07878    0.000
 3979.00    0.62195   1.11808    0.000
 3980.00   -0.22382   1.14680    0.000
 3981.00   -2.06933   1.17103    0.000
 3982.00   -2.82282   1.19104    0.000
 3983.00   -2.10771   1.20520    0.000
 3984.00   -1.43817   1.21020    0.000
 3985.00   -0.82259   1.20840    0.000
 3986.00    0.57689   1.21123    0.003
 3987.00    2.79493   1.22325    0.003
 3988.00    4.46335   1.23613    0.003
 3989.00    5.62557   1.24440    0.003
 3990.00    5.48564   1.25155    0.003
 3991.00    4.28851   1.25862    0.003
 3992.00    2.12812   1.26137    0.003
 3993.00   -0.72048   1.26202    0.000
 3994.00   -1.06723   1.26588    0.000
 3995.00    0.15466   1.27084    0.003
 3996.00    1.81529   1.27006    0.003
 3997.00    3.71635   1.26135    0.003
 3998.00    3.29659   1.25448    0.003
 3999.00    1.77133   1.25636    0.003
 4000.00    0.10894   1.25966    0.003
 4001.00   -1.60982   1.26289    0.000
 4002.00   -1.87770   1.27131    0.000
 4003.00   -1.63601   1.27963    0.000
 4004.00   -0.03006   1.28178    0.000
 4005.00    1.98011   1.28013    0.003
 4006.00    2.56068   1.27572    0.003
 4007.00    2.79005   1.26600    0.003
 4008.00    2.55093   1.25534    0.003
 4009.00    2.21867   1.25231    0.003
 4010.00    2.12950   1.24997    0.003
 4011.00    2.07811   1.23567    0.003
 4012.00    2.79246   1.22283    0.003
 4013.00    3.59487   1.23433    0.003
 4014.00    3.20692   1.26006    0.003
 4015.00    2.72693   1.27782    0.003
 4016.00   -1.16201   1.28598    0.000
 4017.00   -5.19450   1.29068    0.000
 4018.00   -1.82948   1.29432    0.000
 4019.00    1.48780   1.29512    0.003
 4020.00   -0.24543   1.29316    0.000
 4021.00   -1.63823   1.29434    0.000
 4022.00    2.97084   1.29844    0.003
 4023.00    6.92756   1.29766    0.003
 4024.00    3.86508   1.28964    0.003
 4025.00    0.98635   1.27586    0.003
 4026.00   -0.49755   1.25018    0.000
 4027.00   -1.41636   1.20073    0.000
 4028.00    0.92416   1.13445    0.003
 4029.00    2.81760   1.10329    0.003
 4030.00    2.66207   1.14799    0.003
 4031.00    2.19611   1.22206    0.003
 4032.00    0.56565   1.26480    0.003
 4033.00   -0.45649   1.27473    0.000
 4034.00    0.42844   1.27463    0.003
 4035.00    1.00000   1.27627    0.003
 4036.00    0.73790   1.27931    0.003
 4037.00    0.83992   1.28337    0.003
 4038.00    1.77338   1.29149    0.003
 4039.00    1.76884   1.30573    0.003
 4040.00   -0.09005   1.31945    0.000
 4041.00   -0.13846   1.32475    0.000
 4042.00    2.93208   1.32143    0.003
 4043.00    2.85223   1.31314    0.003
 4044.00   -1.98010   1.30781    0.000
 4045.00   -3.60661   1.30919    0.000
 4046.00   -0.98355   1.30685    0.000
 4047.00    2.08203   1.29455    0.003
 4048.00    5.66425   1.28360    0.003
 4049.00    7.07808   1.28703    0.003
 4050.00    6.25945   1.30289    0.003
 4051.00    4.35753   1.31600    0.003
 4052.00    1.47186   1.32203    0.003
 4053.00   -0.18260   1.32584    0.000
 4054.00   -0.85163   1.32627    0.000
 4055.00   -1.23251   1.32075    0.000
 4056.00   -1.41048   1.31230    0.000
 4057.00   -0.79628   1.30511    0.000
 4058.00    0.30724   1.30239    0.003
 4059.00    1.00244   1.30420    0.003
 4060.00    1.47732   1.30707    0.003
 4061.00    1.79829   1.30883    0.003
 4062.00    2.04714   1.31016    0.003
 4063.00    0.81732   1.31068    0.003
 4064.00   -1.00990   1.30943    0.000
 4065.00   -0.15231   1.30376    0.000
 4066.00    1.63101   1.29659    0.002
 4067.00    0.99187   1.29933    0.002
 4068.00   -0.35069   1.30970    0.000
 4069.00   -1.86652   1.31110    0.000
 4070.00   -3.42396   1.29841    0.000
 4071.00   -1.01899   1.28042    0.000
 4072.00    2.15376   1.26454    0.003
 4073.00    2.15270   1.25751    0.003
 4074.00    1.67338   1.26089    0.003
 4075.00    1.21492   1.27302    0.003
 4076.00    0.75877   1.29179    0.003
 4077.00    1.68890   1.29654    0.003
 4078.00    2.72055   1.27740    0.003
 4079.00    2.47206   1.26164    0.003
 4080.00    2.17455   1.26662    0.003
 4081.00    2.25216   1.28081    0.003
 4082.00    2.34113   1.29584    0.003
 4083.00    2.78035   1.31109    0.003
 4084.00    3.10237   1.32048    0.003
 4085.00    1.49315   1.31939    0.003
 4086.00   -0.01356   1.30911    0.000
 4087.00   -0.46530   1.29653    0.000
 4088.00   -0.51314   1.29139    0.000
 4089.00    2.40297   1.29371    0.003
 4090.00    4.69767   1.28814    0.003
 4091.00    3.50643   1.26688    0.003
 4092.00    2.67478   1.25434    0.000
 4093.00    3.45225   1.26875    0.000
 4094.00    3.98951   1.28277    0.000
 4095.00    3.64460   1.27642    0.000
 4096.00    2.90811   1.26260    0.000
 4097.00    0.96731   1.24517    0.000
 4098.00   -1.06366   1.21237    0.000
 4099.00   -3.33030   1.16413    0.000
 4100.00   -4.02544   1.11483    0.000
 4101.00   -1.19131   1.07220    0.000
 4102.00   -0.11995   1.01552    0.000
 4103.00   -2.47878   0.92450    0.000
 4104.00   -3.00392   0.83271    0.000
 4105.00   -0.41768   0.81299    0.000
 4106.00    0.99558   0.88408    0.000
 4107.00    0.66522   0.98902    0.000
 4108.00    1.65376   1.07988    0.000
 4109.00    4.36562   1.14787    0.000
 4110.00    5.57761   1.19459    0.000
 4111.00    5.06322   1.22458    0.000
 4112.00    3.14112   1.24371    0.000
 4113.00   -0.20995   1.25687    0.000
 4114.00   -0.47443   1.26976    0.000
 4115.00    2.02456   1.28595    0.003
 4116.00    2.00183   1.30185    0.002
 4117.00   -0.01050   1.30824    0.000
 4118.00   -0.79153   1.30077    0.000
 4119.00   -0.71809   1.29611    0.000
 4120.00   -0.99089   1.30594    0.000
 4121.00   -1.47436   1.30704    0.000
 4122.00   -1.47708   1.28653    0.000
 4123.00   -1.22439   1.26411    0.000
 4124.00   -0.67405   1.26546    0.000
 4125.00    0.01353   1.29535    0.002
 4126.00    0.31461   1.32990    0.002
 4127.00    0.46221   1.35073    0.002
 4128.00    1.29994   1.35918    0.002
 4129.00    2.37124   1.35702    0.002
 4130.00    2.51804   1.34732    0.002
 4131.00    2.40180   1.33965    0.002
 4132.00    1.59694   1.34042    0.002
 4133.00    0.63040   1.34076    0.002
 4134.00    0.48940   1.33523    0.002
 4135.00    0.50422   1.33000    0.002
 4136.00    1.04938   1.33366    0.002
 4137.00    1.67198   1.34721    0.002
 4138.00    3.82450   1.36318    0.002
 4139.00    6.13960   1.37297    0.003
 4140.00    5.86734   1.37507    0.003
 4141.00    5.41610   1.37643    0.003
 4142.00    5.04177   1.37929    0.003
 4143.00    4.67010   1.37791    0.003
 4144.00    4.26796   1.36357    0.003
 4145.00    3.86122   1.32473    0.002
 4146.00    3.30444   1.27488    0.003
 4147.00    2.58457   1.26346    0.003
 4148.00   -0.65709   1.30404    0.000
 4149.00   -3.27234   1.34961    0.000
 4150.00    0.28727   1.37217    0.003
 4151.00    3.29104   1.37796    0.003
 4152.00    2.34853   1.37422    0.003
 4153.00    1.39109   1.37012    0.002
 4154.00    0.35211   1.37072    0.002
 4155.00   -0.40034   1.36723    0.000
 4156.00    0.09960   1.36050    0.003
 4157.00    0.31832   1.36135    0.003
 4158.00   -0.47444   1.36653    0.000
 4159.00   -1.03566   1.36840    0.000
 4160.00   -0.89815   1.37305    0.000
 4161.00   -0.76401   1.38476    0.000
 4162.00   -0.63854   1.39496    0.000
 4163.00    0.40652   1.39773    0.003
 4164.00    3.48292   1.39535    0.003
 4165.00    3.80614   1.39245    0.003
 4166.00   -1.14455   1.39202    0.000
 4167.00   -3.05228   1.39413    0.000
 4168.00    0.12576   1.39680    0.002
 4169.00    1.60388   1.39640    0.002
 4170.00    0.59191   1.38996    0.003
 4171.00   -0.30388   1.38175    0.000
 4172.00   -1.05003   1.38072    0.000
 4173.00   -0.03216   1.38602    0.000
 4174.00    2.98754   1.38454    0.003
 4175.00    3.65993   1.37469    0.003
 4176.00    1.98303   1.37020    0.002
 4177.00    1.46377   1.37599    0.002
 4178.00    1.96636   1.38413    0.002
 4179.00    2.18699   1.38764    0.002
 4180.00    2.18831   1.38713    0.002
 4181.00    3.64427   1.38750    0.002
 4182.00    6.09503   1.39325    0.002
 4183.00    5.14828   1.40166    0.002
 4184.00    2.16504   1.40494    0.002
 4185.00    1.11253   1.40364    0.002
 4186.00    1.06983   1.40327    0.002
 4187.00    1.28407   1.40287    0.002
 4188.00    1.61487   1.39872    0.002
 4189.00    1.26455   1.39095    0.002
 4190.00    0.64846   1.38558    0.002
 4191.00    0.96778   1.38860    0.002
 4192.00    1.59780   1.39353    0.002
 4193.00    1.87481   1.39789    0.002
 4194.00    2.05344   1.40685    0.002
 4195.00    1.11146   1.41838    0.002
 4196.00   -0.08761   1.42744    0.000
 4197.00    0.55923   1.42626    0.002
 4198.00    1.54530   1.41381    0.002
 4199.00    0.89737   1.39998    0.002
 4200.00    0.01838   1.38859    0.002
 4201.00    1.26074   1.37392    0.002
 4202.00    2.71939   1.36003    0.002
 4203.00    1.81198   1.35951    0.002
 4204.00    0.75041   1.37156    0.002
 4205.00    1.44070   1.38730    0.002
 4206.00    2.18453   1.40237    0.002
 4207.00    2.75791   1.41382    0.002
 4208.00    3.26278   1.42155    0.002
 4209.00    1.75501   1.42918    0.002
 4210.00    0.32150   1.43664    0.002
 4211.00   -0.03080   1.44128    0.000
 4212.00   -0.09461   1.44103    0.000
 4213.00    2.56971   1.43852    0.002
 4214.00    4.98866   1.43686    0.002
 4215.00    5.72092   1.43640    0.002
 4216.00    5.94627   1.43734    0.002
 4217.00    3.47745   1.43502    0.002
 4218.00    1.51105   1.42633    0.002
 4219.00    1.69053   1.42401    0.002
 4220.00    1.74117   1.43612    0.002
 4221.00    1.33789   1.45075    0.002
 4222.00    0.90871   1.45835    0.002
 4223.00    0.40283   1.46158    0.002
 4224.00    0.51982   1.46114    0.002
 4225.00    2.20870   1.45451    0.002
 4226.00    3.32363   1.44532    0.002
 4227.00    3.19135   1.43462    0.002
 4228.00    3.25052   1.41831    0.002
 4229.00    3.67074   1.40059    0.002
 4230.00    2.87147   1.39765    0.002
 4231.00    0.06452   1.41904    0.002
 4232.00   -1.35989   1.44796    0.000
 4233.00   -0.78853   1.46472    0.000
 4234.00    0.53985   1.46834    0.002
 4235.00    2.82938   1.46171    0.002
 4236.00    3.43747   1.45176    0.002
 4237.00    2.16433   1.44892    0.002
 4238.00    1.85093   1.44852    0.002
 4239.00    2.48460   1.44285    0.002
 4240.00    2.89033   1.44029    0.002
 4241.00    3.09768   1.44492    0.002
 4242.00    3.82703   1.45044    0.002
 4243.00    4.95656   1.45494    0.002
 4244.00    4.98412   1.45849    0.002
 4245.00    4.26904   1.46098    0.002
 4246.00    4.61733   1.46713    0.002
 4247.00    5.59346   1.47670    0.002
 4248.00    4.72189   1.47953    0.002
 4249.00    2.89900   1.47127    0.002
 4250.00    1.64895   1.46151    0.002
 4251.00    0.65449   1.45856    0.002
 4252.00    0.31649   1.45830    0.002
 4253.00    0.23020   1.45688    0.002
 4254.00   -0.42534   1.46021    0.000
 4255.00   -1.26639   1.46447    0.000
 4256.00    1.34544   1.45825    0.002
 4257.00    4.89980   1.45133    0.002
 4258.00    5.06433   1.45852    0.002
 4259.00    4.46920   1.47337    0.002
 4260.00    2.49378   1.48225    0.002
 4261.00    0.27151   1.47949    0.002
 4262.00    1.38032   1.46922    0.002
 4263.00    2.94488   1.46004    0.002
 4264.00    4.07463   1.46120    0.002
 4265.00    5.16190   1.47522    0.002
 4266.00    3.25421   1.49187    0.002
 4267.00    1.16335   1.50023    0.002
 4268.00    1.35978   1.49493    0.002
 4269.00    1.60912   1.46901    0.002
 4270.00    0.13864   1.44013    0.002
 4271.00   -1.27729   1.44274    0.000
 4272.00   -1.25122   1.46564    0.000
 4273.00   -1.16345   1.47247    0.000
 4274.00   -0.22763   1.46202    0.000
 4275.00    0.56775   1.45568    0.002
 4276.00    0.08746   1.45929    0.002
 4277.00   -0.06316   1.45974    0.000
 4278.00    1.98221   1.45452    0.002
 4279.00    3.34023   1.45630    0.002
 4280.00    1.13986   1.47051    0.002
 4281.00   -0.64549   1.48899    0.000
 4282.00   -0.69831   1.49855   -2.000
 4283.00   -0.40450   1.49554   -2.000
 4284.00    1.08588   1.48875   -2.000
 4285.00    2.02425   1.48311   -2.000
 4286.00    1.35811   1.47915   -2.000
 4287.00    1.47798   1.47641   -2.000
 4288.00    3.54736   1.47488   -2.000
 4289.00    4.68962   1.47937   -2.000
 4290.00    3.84987   1.48648   -2.000
 4291.00    3.21463   1.48260   -2.000
 4292.00    2.95908   1.46825   -2.000
 4293.00    2.60442   1.46026   -2.000
 4294.00    2.08901   1.46998   -2.000
 4295.00    1.46565   1.48982   -2.000
 4296.00    0.68871   1.50102   -2.000
 4297.00    0.86252   1.49542   -2.000
 4298.00    2.22628   1.48797    0.002
 4299.00    2.01994   1.48854    0.002
 4300.00    0.08168   1.48871    0.002
 4301.00   -0.85332   1.48061    0.000
 4302.00   -0.81221   1.46591    0.000
 4303.00   -1.01443   1.45617    0.000
 4304.00   -1.42541   1.45734    0.000
 4305.00   -0.77907   1.45709    0.000
 4306.00    0.66628   1.45046    0.002
 4307.00    1.15515   1.45109    0.002
 4308.00    1.00885   1.46140    0.002
 4309.00    1.60238   1.46801    0.002
 4310.00    2.62614   1.46298    0.002
 4311.00    2.11061   1.45313    0.002
 4312.00    0.81497   1.45195    0.002
 4313.00    0.03630   1.46268    0.002
 4314.00   -0.51551   1.47588    0.000
 4315.00    0.72862   1.48179    0.002
 4316.00    2.64928   1.48108    0.002
 4317.00    2.24477   1.48336    0.002
 4318.00    1.09687   1.49592    0.002
 4319.00    1.07100   1.51337    0.002
 4320.00    1.34502   1.52434    0.002
 4321.00    3.71576   1.52690    0.002
 4322.00    6.54532   1.52385    0.002
 4323.00    6.14086   1.52056    0.002
 4324.00    5.17382   1.52309    0.002
 4325.00    5.09706   1.52510    0.002
 4326.00    5.13806   1.51427    0.002
 4327.00    4.80536   1.48923    0.002
 4328.00    4.43774   1.46198    0.002
 4329.00    3.60604   1.45294    0.002
 4330.00    2.74780   1.46891    0.000
 4331.00    1.17310   1.49096    0.000
 4332.00   -0.40388   1.50032    0.000
 4333.00   -0.32715   1.49398    0.000
 4334.00   -0.23148   1.47865    0.000
 4335.00    0.31876   1.46133    0.000
 4336.00    0.88072   1.44441    0.000
 4337.00    1.59525   1.42689    0.000
 4338.00    2.47249   1.40095    0.000
 4339.00    4.77128   1.35148    0.000
 4340.00    6.73121   1.27131    0.000
 4341.00    6.50234   1.16848    0.000
 4342.00    5.85589   1.05310    0.000
 4343.00    3.10271   0.96029    0.000
 4344.00    0.98366   0.96015    0.000
 4345.00    1.45295   1.06155    0.000
 4346.00    2.05053   1.18510    0.000
 4347.00    3.08212   1.27447    0.000
 4348.00    3.74479   1.33529    0.000
 4349.00    3.35478   1.38109    0.000
 4350.00    3.36010   1.41514    0.000
 4351.00    4.32926   1.44161    0.002
 4352.00    4.81249   1.46103    0.002
 4353.00    4.27361   1.46770    0.002
 4354.00    3.68022   1.46225    0.002
 4355.00    2.98717   1.46400    0.002
 4356.00    2.45905   1.48692    0.002
 4357.00    2.19444   1.51653    0.002
 4358.00    2.07170   1.53841    0.002
 4359.00    2.14785   1.55392    0.002
 4360.00    2.86441   1.56388    0.002
 4361.00    4.37107   1.56454    0.002
 4362.00    4.17109   1.56093    0.002
 4363.00    2.11504   1.56396    0.002
 4364.00    1.11347   1.57397    0.002
 4365.00    1.12346   1.58409    0.002
 4366.00    2.03630   1.59146    0.002
 4367.00    3.71283   1.59737    0.002
 4368.00    4.14945   1.59951    0.002
 4369.00    3.66250   1.58962    0.002
 4370.00    3.68335   1.57366    0.002
 4371.00    4.03648   1.56943    0.002
 4372.00    3.02562   1.57699    0.002
 4373.00    1.23354   1.58453    0.002
 4374.00    1.28698   1.58708    0.002
 4375.00    2.26100   1.58540    0.002
 4376.00    2.98086   1.58028    0.002
 4377.00    3.59105   1.57152    0.002
 4378.00    2.45290   1.56762    0.002
 4379.00    0.66781   1.57855    0.002
 4380.00    1.84486   1.59847    0.002
 4381.00    3.95079   1.61162    0.002
 4382.00    4.55624   1.61358    0.002
 4383.00    4.76915   1.61321    0.002
 4384.00    4.09329   1.61122    0.002
 4385.00    3.22760   1.59427    0.002
 4386.00    3.06955   1.56171    0.002
 4387.00    3.03116   1.53775    0.002
 4388.00    3.28460   1.53792    0.002
 4389.00    3.57532   1.53933    0.002
 4390.00    2.92949   1.51275    0.002
 4391.00    2.20008   1.48817    0.002
 4392.00    2.45018   1.51095    0.002
 4393.00    2.75245   1.55891    0.002
 4394.00    3.29312   1.59373    0.002
 4395.00    3.82654   1.61498    0.002
 4396.00    3.39003   1.62386    0.002
 4397.00    2.95169   1.61679    0.002
 4398.00    2.47306   1.60516    0.002
 4399.00    2.05777   1.60973    0.002
 4400.00    2.42510   1.63039    0.002
 4401.00    2.76373   1.64377    0.002
 4402.00    2.86095   1.63841    0.002
 4403.00    2.98713   1.62526    0.002
 4404.00    3.29477   1.62310    0.002
 4405.00    3.32755   1.63480    0.002
 4406.00    2.00837   1.63826    0.002
 4407.00    1.05166   1.62290    0.002
 4408.00    1.54193   1.61089    0.002
 4409.00    2.09261   1.61838    0.002
 4410.00    2.84366   1.63016    0.002
 4411.00    3.12131   1.63343    0.002
 4412.00    2.07264   1.63753    0.002
 4413.00    1.75584   1.64751    0.002
 4414.00    3.19317   1.65675    0.002
 4415.00    4.41910   1.66488    0.002
 4416.00    5.20751   1.66340    0.002
 4417.00    5.33484   1.63671    0.002
 4418.00    4.27212   1.60289    0.002
 4419.00    3.74402   1.59291    0.002
 4420.00    4.05750   1.60657    0.002
 4421.00    3.95757   1.63110    0.002
 4422.00    3.28638   1.65832    0.002
 4423.00    2.81440   1.67577    0.002
 4424.00    2.58471   1.67828    0.002
 4425.00    2.57046   1.67057    0.002
 4426.00    2.78723   1.66589    0.002
 4427.00    2.76329   1.67053    0.002
 4428.00    2.51168   1.67578    0.002
 4429.00    2.15795   1.67508    0.002
 4430.00    1.71906   1.67328    0.002
 4431.00    1.90033   1.67603    0.002
 4432.00    2.53691   1.67843    0.002
 4433.00    2.94926   1.67247    0.002
 4434.00    3.21705   1.66676    0.002
 4435.00    3.67638   1.66856    0.002
 4436.00    4.24374   1.66806    0.002
 4437.00    3.90878   1.66059    0.002
 4438.00    3.13086   1.65288    0.002
 4439.00    2.41708   1.65121    0.002
 4440.00    1.73051   1.65762    0.002
 4441.00    1.99608   1.67469    0.002
 4442.00    2.60767   1.69523    0.002
 4443.00    3.11432   1.70101    0.002
 4444.00    3.58871   1.68705    0.002
 4445.00    3.04296   1.66689    0.002
 4446.00    2.23605   1.65722    0.002
 4447.00    3.39902   1.66740    0.002
 4448.00    4.97255   1.68936    0.002
 4449.00    3.91732   1.70013    0.002
 4450.00    2.43020   1.69499    0.002
 4451.00    3.62161   1.69288    0.002
 4452.00    5.14324   1.70037    0.002
 4453.00    5.61605   1.70505    0.002
 4454.00    5.99965   1.70370    0.002
 4455.00    4.70340   1.70187    0.002
 4456.00    3.32424   1.69962    0.002
 4457.00    3.00627   1.69232    0.002
 4458.00    2.70637   1.68251    0.002
 4459.00    2.48043   1.68202    0.002
 4460.00    2.32380   1.69038    0.002
 4461.00    3.57105   1.69525    0.000
 4462.00    4.59184   1.69474    0.000
 4463.00    2.95113   1.69336    0.000
 4464.00    1.71700   1.68983    0.000
 4465.00    3.78017   1.68886    0.000
 4466.00    5.37320   1.69887    0.000
 4467.00    4.10516   1.71063    0.000
 4468.00    3.00657   1.71190    0.000
 4469.00    2.72086   1.70580    0.000
 4470.00    2.77945   1.69710    0.000
 4471.00    4.18267   1.68182    0.000
 4472.00    4.95844   1.65063    0.000
 4473.00    3.69406   1.59025    0.000
 4474.00    2.84057   1.51931    0.000
 4475.00    3.11759   1.51383    0.000
 4476.00    3.32721   1.59737    0.000
 4477.00    3.37797   1.68876    0.000
 4478.00    3.35720   1.73209    0.000
 4479.00    3.19071   1.74659    0.000
 4480.00    3.36794   1.75696    0.000
 4481.00    4.15449   1.76031    0.000
 4482.00    4.59147   1.74198    0.002
 4483.00    4.48629   1.70005    0.002
 4484.00    4.29175   1.66461    0.002
 4485.00    3.97553   1.67145    0.002
 4486.00    3.85727   1.71304    0.002
 4487.00    3.97640   1.75113    0.002
 4488.00    3.73334   1.77097    0.002
 4489.00    3.10735   1.77777    0.002
 4490.00    2.91607   1.77367    0.002
 4491.00    3.13017   1.75869    0.002
 4492.00    3.58799   1.74230    0.002
 4493.00    4.24617   1.73840    0.002
 4494.00    4.12002   1.74956    0.002
 4495.00    3.42631   1.76465    0.002
 4496.00    2.03077   1.77042    0.002
 4497.00    0.18940   1.76372    0.002
 4498.00    0.07741   1.75615    0.002
 4499.00    0.92600   1.75744    0.002
 4500.00    1.85539   1.76695    0.002
 4501.00    2.82382   1.77940    0.002
 4502.00    2.40306   1.78687    0.002
 4503.00    1.40275   1.78399    0.002
 4504.00    1.29847   1.77600    0.002
 4505.00    1.51398   1.77878    0.002
 4506.00    1.61363   1.79679    0.002
 4507.00    1.67834   1.81438    0.002
 4508.00    2.58255   1.82009    0.002
 4509.00    3.69701   1.81640    0.002
 4510.00    3.31636   1.80865    0.002
 4511.00    2.63178   1.80257    0.002
 4512.00    3.51319   1.80274    0.002
 4513.00    4.64442   1.80534    0.002
 4514.00    4.07347   1.80344    0.002
 4515.00    3.30024   1.79690    0.002
 4516.00    3.42742   1.78870    0.002
 4517.00    3.62747   1.77835    0.002
 4518.00    3.38395   1.77272    0.002
 4519.00    3.12026   1.77987    0.002
 4520.00    2.92874   1.79011    0.002
 4521.00    2.75288   1.79499    0.002
 4522.00    3.33112   1.80101    0.002
 4523.00    3.89648   1.81027    0.002
 4524.00    4.21995   1.81586    0.002
 4525.00    4.34871   1.81021    0.002
 4526.00    2.29611   1.79834    0.002
 4527.00    0.58801   1.79311    0.002
 4528.00    1.57587   1.79265    0.002
 4529.00    2.41609   1.78903    0.002
 4530.00    2.38346   1.78102    0.002
 4531.00    2.25293   1.76765    0.002
 4532.00    1.66415   1.75555    0.002
 4533.00    1.12416   1.75772    0.002
 4534.00    0.77064   1.77411    0.002
 4535.00    0.53730   1.79096    0.002
 4536.00    0.68714   1.79312    0.002
 4537.00    1.51155   1.78127    0.002
 4538.00    4.15877   1.77503    0.002
 4539.00    5.87201   1.78837    0.002
 4540.00    5.42110   1.81374    0.002
 4541.00    4.90061   1.82820    0.002
 4542.00    4.24063   1.81787    0.002
 4543.00    3.61370   1.78772    0.002
 4544.00    3.04447   1.75712    0.002
 4545.00    2.60522   1.75296    0.002
 4546.00    2.36459   1.77687    0.002
 4547.00    2.65379   1.80043    0.002
 4548.00    3.65424   1.81043    0.002
 4549.00    3.50435   1.81790    0.002
 4550.00    1.99463   1.82553    0.000
 4551.00    1.90757   1.82313    0.000
 4552.00    3.30342   1.81021    0.000
 4553.00    3.91560   1.80467    0.000
 4554.00    3.80725   1.80941    0.000
 4555.00    3.05486   1.80398    0.000
 4556.00    1.78051   1.79384    0.000
 4557.00    1.67587   1.79759    0.000
 4558.00    2.40542   1.80926    0.000
 4559.00    3.09037   1.82315    0.000
 4560.00    3.74741   1.84177    0.000
 4561.00    3.30116   1.85682    0.000
 4562.00    2.25146   1.86362    0.000
 4563.00    2.43114   1.86804    0.000
 4564.00    3.19523   1.87277    0.000
 4565.00    3.17662   1.87331    0.000
 4566.00    2.83699   1.86395    0.000
 4567.00    2.83451   1.84979    0.000
 4568.00    2.95017   1.84330    0.000
 4569.00    3.62537   1.84634    0.000
 4570.00    4.46594   1.84956    0.000
 4571.00    4.73181   1.85133    0.000
 4572.00    4.85690   1.85935    0.000
 4573.00    4.47138   1.86802    0.000
 4574.00    3.98466   1.86453    0.000
 4575.00    4.41432   1.85935    0.000
 4576.00    4.98583   1.86686    0.000
 4577.00    5.23688   1.87395    0.000
 4578.00    5.45125   1.87302    0.000
 4579.00    5.84934   1.87697    0.000
 4580.00    6.26155   1.88590    0.000
 4581.00    5.08034   1.88790    0.000
 4582.00    3.83281   1.87937    0.000
 4583.00    3.73466   1.86778    0.000
 4584.00    3.65567   1.86258    0.000
 4585.00    3.97110   1.86435    0.000
 4586.00    4.26044   1.86548    0.000
 4587.00    4.09404   1.86548    0.000
 4588.00    3.91137   1.86960    0.000
 4589.00    3.55459   1.87635    0.000
 4590.00    3.12737   1.88369    0.000
 4591.00    2.16761   1.89222    0.000
 4592.00    1.28702   1.89735    0.000
 4593.00    0.86137   1.88931    0.000
 4594.00    0.73189   1.87310    0.000
 4595.00    1.95572   1.86813    0.000
 4596.00    2.94250   1.87888    0.000
 4597.00    3.04245   1.88842    0.000
 4598.00    3.23229   1.88324    0.000
 4599.00    3.70322   1.87297    0.000
 4600.00    4.01669   1.87636    0.000
 4601.00    3.91216   1.89269    0.000
 4602.00    3.81786   1.90462    0.000
 4603.00    3.74685   1.90184    0.000
 4604.00    3.48583   1.89003    0.000
 4605.00    2.84993   1.88615    0.000
 4606.00    2.77142   1.89555    0.000
 4607.00    3.65132   1.90692    0.000
 4608.00    4.03856   1.91125    0.000
 4609.00    3.68397   1.91163    0.000
 4610.00    3.95920   1.91549    0.000
 4611.00    5.06780   1.92434    0.000
 4612.00    5.44027   1.93087    0.000
 4613.00    4.95481   1.93008    0.000
 4614.00    4.32909   1.92840    0.000
 4615.00    3.55922   1.92901    0.000
 4616.00    3.57010   1.92770    0.000
 4617.00    4.28873   1.92863    0.000
 4618.00    4.24164   1.93604    0.000
 4619.00    3.58280   1.94140    0.000
 4620.00    2.60182   1.93960    0.000
 4621.00    1.39442   1.92946    0.000
 4622.00    2.18343   1.91606    0.000
 4623.00    4.20330   1.91614    0.000
 4624.00    4.75500   1.93170    0.000
 4625.00    4.51603   1.94656    0.000
 4626.00    3.33941   1.95536    0.000
 4627.00    1.72425   1.96018    0.000
 4628.00    1.49506   1.95934    0.000
 4629.00    1.82463   1.95669    0.000
 4630.00    2.62325   1.95850    0.000
 4631.00    3.58322   1.95892    0.000
 4632.00    2.74972   1.94843    0.000
 4633.00    1.39676   1.93289    0.000
 4634.00    2.07039   1.92833    0.000
 4635.00    3.22942   1.93736    0.000
 4636.00    4.68317   1.94445    0.000
 4637.00    6.19384   1.94401    0.000
 4638.00    5.97626   1.94707    0.000
 4639.00    5.49928   1.95464    0.000
 4640.00    3.83406   1.95318    0.000
 4641.00    2.03806   1.93903    0.000
 4642.00    1.81936   1.92593    0.000
 4643.00    1.71536   1.92189    0.000
 4644.00    2.27179   1.92138    0.000
 4645.00    2.85319   1.92535    0.000
 4646.00    2.74793   1.93928    0.000
 4647.00    2.67284   1.95586    0.000
 4648.00    3.84494   1.95774    0.000
 4649.00    4.91629   1.93042    0.000
 4650.00    4.34077   1.88587    0.000
 4651.00    3.80901   1.85810    0.000
 4652.00    3.72520   1.85396    0.000
 4653.00    3.59129   1.85516    0.000
 4654.00    3.09136   1.86861    0.000
 4655.00    2.60272   1.90711    0.000
 4656.00    2.17727   1.94555    0.000
 4657.00    1.92306   1.95475    0.000
 4658.00    2.43288   1.94982    0.000
 4659.00    3.16741   1.95595    0.000
 4660.00    4.72501   1.97111    0.000
 4661.00    5.63508   1.98986    0.000
 4662.00    4.55842   2.00907    0.000
 4663.00    3.48801   2.01617    0.000
 4664.00    2.43389   2.00287    0.000
 4665.00    2.08575   1.98356    0.000
 4666.00    3.31981   1.97634    0.000
 4667.00    4.09927   1.97900    0.000
 4668.00    3.99589   1.97785    0.000
 4669.00    3.98907   1.96406    0.000
 4670.00    4.14577   1.94419    0.000
 4671.00    4.23599   1.93685    0.000
 4672.00    4.22758   1.95039    0.000
 4673.00    4.17329   1.97566    0.000
 4674.00    4.05914   1.99877    0.000
 4675.00    3.69501   2.00750    0.000
 4676.00    3.04364   1.99956    0.000
 4677.00    2.48745   1.99026    0.000
 4678.00    2.02770   1.99117    0.000
 4679.00    2.34452   1.99767    0.000
 4680.00    3.35537   2.00309    0.000
 4681.00    3.34024   2.00485    0.000
 4682.00    2.51706   2.00214    0.000
 4683.00    2.85566   1.99887    0.000
 4684.00    3.99899   1.99691    0.000
 4685.00    4.82398   1.99555    0.000
 4686.00    5.45562   1.99313    0.000
 4687.00    4.73955   1.97394    0.000
 4688.00    3.30889   1.92972    0.000
 4689.00    2.48842   1.90028    0.000
 4690.00    1.94873   1.92410    0.000
 4691.00    2.61017   1.97415    0.000
 4692.00    3.74750   2.00736    0.000
 4693.00    4.56556   2.01838    0.000
 4694.00    5.27581   2.01892    0.000
 4695.00    4.69548   2.02108    0.000
 4696.00    3.74888   2.02922    0.000
 4697.00    4.34714   2.03773    0.000
 4698.00    5.30706   2.04437    0.000
 4699.00    4.63747   2.04901    0.000
 4700.00    3.66133   2.04543    0.000
 4701.00    3.97643   2.02603    0.000
 4702.00    4.47933   2.00269    0.000
 4703.00    3.42924   1.99837    0.000
 4704.00    2.21496   2.00922    0.000
 4705.00    2.38301   2.01261    0.000
 4706.00    2.64599   2.00753    0.000
 4707.00    2.69378   2.00571    0.000
 4708.00    2.73425   2.00985    0.000
 4709.00    2.76146   2.01734    0.000
 4710.00    2.80862   2.02497    0.000
 4711.00    3.50554   2.02656    0.000
 4712.00    4.19384   2.02384    0.000
 4713.00    4.74992   2.02735    0.000
 4714.00    5.16243   2.03499    0.000
 4715.00    4.16719   2.01601    0.000
 4716.00    3.26336   1.97140    0.000
 4717.00    3.00590   1.95784    0.000
 4718.00    2.91536   1.99616    0.000
 4719.00    3.73299   2.04036    0.000
 4720.00    4.33343   2.06517    0.000
 4721.00    3.98726   2.07968    0.000
 4722.00    3.48211   2.09028    0.000
 4723.00    2.40668   2.09750    0.000
 4724.00    1.78011   2.09922    0.000
 4725.00    2.50483   2.09628    0.000
 4726.00    3.10578   2.09521    0.000
 4727.00    3.38959   2.10081    0.000
 4728.00    3.85303   2.10788    0.000
 4729.00    4.71246   2.10520    0.000
 4730.00    5.56007   2.08844    0.000
 4731.00    6.38507   2.06884    0.000
 4732.00    6.34649   2.06045    0.000
 4733.00    4.86734   2.06230    0.000
 4734.00    4.07011   2.06694    0.000
 4735.00    4.26994   2.07490    0.000
 4736.00    4.25175   2.08582    0.000
 4737.00    3.95326   2.09437    0.000
 4738.00    4.57260   2.09779    0.000
 4739.00    6.23164   2.09402    0.000
 4740.00    6.27638   2.08878    0.000
 4741.00    4.70834   2.09436    0.000
 4742.00    4.62928   2.10549    0.000
 4743.00    5.86223   2.10769    0.000
 4744.00    5.79874   2.10306    0.000
 4745.00    4.72877   2.10387    0.000
 4746.00    3.85126   2.11278    0.000
 4747.00    3.10512   2.12005    0.000
 4748.00    3.54346   2.12076    0.000
 4749.00    4.69044   2.12249    0.000
 4750.00    4.53871   2.12840    0.000
 4751.00    3.70907   2.13172    0.000
 4752.00    3.90177   2.13177    0.000
 4753.00    4.55724   2.13244    0.000
 4754.00    4.38815   2.13167    0.000
 4755.00    3.89801   2.12738    0.000
 4756.00    4.01510   2.12291    0.000
 4757.00    4.33339   2.11963    0.000
 4758.00    4.25788   2.11713    0.000
 4759.00    4.07290   2.11680    0.000
 4760.00    4.53361   2.12004    0.000
 4761.00    5.14204   2.12671    0.002
 4762.00    4.28323   2.13487    0.002
 4763.00    3.15570   2.14071    0.002
 4764.00    3.61478   2.13742    0.002
 4765.00    4.29731   2.12426    0.002
 4766.00    3.37882   2.11213    0.002
 4767.00    2.29795   2.10771    0.002
 4768.00    2.42058   2.10611    0.002
 4769.00    2.62102   2.10604    0.002
 4770.00    3.12693   2.11282    0.002
 4771.00    3.64222   2.12622    0.002
 4772.00    4.22794   2.14081    0.002
 4773.00    4.77830   2.15070    0.002
 4774.00    4.30422   2.14993    0.002
 4775.00    3.92332   2.14300    0.002
 4776.00    4.88896   2.14360    0.002
 4777.00    5.76134   2.15486    0.002
 4778.00    5.75643   2.16604    0.002
 4779.00    5.70567   2.16981    0.002
 4780.00    5.34100   2.17133    0.002
 4781.00    4.99793   2.17335    0.002
 4782.00    4.76925   2.17027    0.002
 4783.00    4.40249   2.16496    0.002
 4784.00    3.44767   2.16500    0.002
 4785.00    2.74969   2.16560    0.002
 4786.00    2.95431   2.16064    0.002
 4787.00    3.28433   2.15759    0.002
 4788.00    3.98484   2.15958    0.002
 4789.00    4.32266   2.15669    0.002
 4790.00    3.74717   2.15066    0.002
 4791.00    3.50699   2.15112    0.002
 4792.00    3.99394   2.15448    0.002
 4793.00    4.04454   2.15800    0.002
 4794.00    3.27388   2.16444    0.002
 4795.00    2.80160   2.17169    0.002
 4796.00    2.81964   2.18084    0.002
 4797.00    2.81429   2.19432    0.002
 4798.00    2.77523   2.20615    0.002
 4799.00    3.18686   2.20914    0.002
 4800.00    4.16964   2.20332    0.002
 4801.00    4.97616   2.19239    0.002
 4802.00    5.58579   2.18076    0.002
 4803.00    5.68432   2.17551    0.002
 4804.00    5.27937   2.18122    0.002
 4805.00    4.89729   2.19168    0.002
 4806.00    4.53505   2.19703    0.002
 4807.00    4.12419   2.19477    0.002
 4808.00    3.67611   2.18919    0.002
 4809.00    3.55395   2.18663    0.002
 4810.00    3.65102   2.18782    0.002
 4811.00    3.57397   2.18822    0.002
 4812.00    3.39432   2.18936    0.002
 4813.00    3.65256   2.19404    0.002
 4814.00    4.13581   2.19867    0.002
 4815.00    3.91504   2.19810    0.002
 4816.00    3.38082   2.19362    0.002
 4817.00    3.66665   2.19355    0.002
 4818.00    4.26623   2.20154    0.002
 4819.00    4.69676   2.21206    0.002
 4820.00    5.07234   2.22052    0.002
 4821.00    4.41548   2.22369    0.002
 4822.00    3.47754   2.21884    0.002
 4823.00    3.62892   2.21308    0.002
 4824.00    4.02371   2.21535    0.002
 4825.00    3.62043   2.21727    0.002
 4826.00    3.07491   2.20444    0.002
 4827.00    2.95532   2.18832    0.002
 4828.00    2.89376   2.19109    0.002
 4829.00    3.51746   2.20861    0.002
 4830.00    4.20773   2.21922    0.002
 4831.00    3.26782   2.21125    0.002
 4832.00    2.22902   2.19683    0.002
 4833.00    2.79173   2.19561    0.002
 4834.00    3.39759   2.20420    0.002
 4835.00    4.12506   2.20693    0.002
 4836.00    4.78759   2.20801    0.002
 4837.00    3.75483   2.21508    0.002
 4838.00    2.85204   2.22085    0.002
 4839.00    3.72360   2.22085    0.002
 4840.00    4.41628   2.21989    0.002
 4841.00    3.49214   2.21759    0.002
 4842.00    2.67391   2.20821    0.002
 4843.00    2.55847   2.19676    0.002
 4844.00    2.63468   2.19373    0.002
 4845.00    3.69989   2.19626    0.002
 4846.00    4.40677   2.19447    0.002
 4847.00    3.62200   2.19217    0.002
 4848.00    2.99123   2.19732    0.000
 4849.00    2.89073   2.20247    0.000
 4850.00    3.14801   2.19552    0.000
 4851.00    4.44283   2.17598    0.000
 4852.00    4.83866   2.15801    0.000
 4853.00    3.00954   2.15257    0.000
 4854.00    1.90147   2.15045    0.000
 4855.00    2.33172   2.13925    0.000
 4856.00    2.73265   2.11845    0.000
 4857.00    3.07924   2.08505    0.000
 4858.00    3.47018   2.03456    0.000
 4859.00    3.93289   1.97977    0.000
 4860.00    4.56164   1.93043    0.000
 4861.00    5.42618   1.86563    0.000
 4862.00    5.60535   1.75600    0.000
 4863.00    4.92828   1.59521    0.000
 4864.00    4.77839   1.43593    0.000
 4865.00    5.20900   1.38922    0.000
 4866.00    5.10042   1.49944    0.000
 4867.00    4.46815   1.67460    0.000
 4868.00    4.23675   1.81693    0.000
 4869.00    4.34868   1.91268    0.000
 4870.00    4.22710   1.97951    0.000
 4871.00    3.92936   2.03133    0.000
 4872.00    3.75221   2.07508    0.000
 4873.00    3.65499   2.10079    0.000
 4874.00    3.91274   2.10109    0.000
 4875.00    4.37652   2.09972    0.002
 4876.00    4.25571   2.12130    0.002
 4877.00    3.83921   2.15510    0.002
 4878.00    4.67624   2.17998    0.002
 4879.00    6.06219   2.19459    0.002
 4880.00    5.85485   2.20693    0.002
 4881.00    5.04866   2.22047    0.002
 4882.00    4.66632   2.23841    0.002
 4883.00    4.41916   2.25594    0.002
 4884.00    5.34408   2.25910    0.002
 4885.00    6.58143   2.25176    0.002
 4886.00    5.25532   2.24929    0.002
 4887.00    3.36995   2.24987    0.002
 4888.00    3.34554   2.24487    0.002
 4889.00    3.64371   2.23890    0.002
 4890.00    3.05785   2.24123    0.002
 4891.00    2.35556   2.25055    0.002
 4892.00    3.77785   2.25486    0.002
 4893.00    5.39753   2.24383    0.002
 4894.00    4.76165   2.22583    0.002
 4895.00    3.99788   2.22945    0.002
 4896.00    5.08234   2.26425    0.002
 4897.00    6.18843   2.30347    0.002
 4898.00    5.05228   2.32779    0.002
 4899.00    3.96954   2.33873    0.002
 4900.00    4.15453   2.34146    0.002
 4901.00    4.32562   2.33925    0.002
 4902.00    4.31698   2.32925    0.002
 4903.00    4.22328   2.31487    0.002
 4904.00    3.39006   2.31095    0.002
 4905.00    2.76429   2.31694    0.002
 4906.00    3.47339   2.31658    0.002
 4907.00    4.14032   2.31243    0.002
 4908.00    4.59521   2.31890    0.002
 4909.00    5.00930   2.33087    0.002
 4910.00    5.25731   2.33454    0.002
 4911.00    5.40990   2.32952    0.002
 4912.00    5.24048   2.31943    0.002
 4913.00    5.03338   2.30467    0.002
 4914.00    4.71900   2.29532    0.002
 4915.00    4.56503   2.30259    0.002
 4916.00    4.80128   2.31947    0.002
 4917.00    4.73109   2.33476    0.002
 4918.00    4.01765   2.34730    0.002
 4919.00    3.55489   2.35423    0.002
 4920.00    3.54951   2.34464    0.002
 4921.00    3.30072   2.31397    0.002
 4922.00    2.66376   2.26971    0.002
 4923.00    2.81840   2.21866    0.002
 4924.00    4.08093   2.15933    0.002
 4925.00    4.20162   2.12112    0.002
 4926.00    2.91606   2.14017    0.002
 4927.00    2.54190   2.19527    0.002
 4928.00    3.15718   2.24711    0.002
 4929.00    3.74105   2.29309    0.002
 4930.00    4.29483   2.33569    0.002
 4931.00    4.57163   2.36045    0.002
 4932.00    4.61456   2.37296    0.002
 4933.00    4.23537   2.38141    0.002
 4934.00    3.54234   2.38355    0.002
 4935.00    3.53921   2.37654    0.002
 4936.00    3.98669   2.35675    0.002
 4937.00    3.83125   2.33541    0.002
 4938.00    3.33115   2.33532    0.002
 4939.00    3.39123   2.35053    0.002
 4940.00    3.73019   2.35248    0.000
 4941.00    3.52187   2.33438    0.000
 4942.00    3.07789   2.31734    0.000
 4943.00    3.54962   2.32120    0.000
 4944.00    4.35943   2.34242    0.000
 4945.00    4.62463   2.36038    0.000
 4946.00    4.71947   2.36949    0.000
 4947.00    4.46652   2.37988    0.000
 4948.00    4.12284   2.38808    0.000
 4949.00    3.74729   2.38786    0.000
 4950.00    3.36497   2.38845    0.000
 4951.00    3.35958   2.39683    0.000
 4952.00    3.41771   2.40481    0.000
 4953.00    3.66115   2.40788    0.000
 4954.00    3.92815   2.40989    0.000
 4955.00    3.44415   2.41016    0.000
 4956.00    2.89352   2.40583    0.000
 4957.00    3.17673   2.40146    0.000
 4958.00    3.50394   2.39790    0.000
 4959.00    3.94590   2.38263    0.000
 4960.00    4.38654   2.34856    0.000
 4961.00    4.55201   2.32304    0.000
 4962.00    4.71075   2.34073    0.000
 4963.00    4.72323   2.38451    0.000
 4964.00    4.70943   2.41310    0.000
 4965.00    4.37298   2.41916    0.000
 4966.00    4.13461   2.41920    0.000
 4967.00    4.71763   2.41809    0.000
 4968.00    5.07345   2.40861    0.000
 4969.00    4.01063   2.39433    0.000
 4970.00    3.11827   2.38761    0.000
 4971.00    3.06168   2.38859    0.000
 4972.00    3.19731   2.39106    0.000
 4973.00    4.09814   2.39406    0.000
 4974.00    4.77033   2.40003    0.000
 4975.00    4.68619   2.41051    0.000
 4976.00    4.74792   2.42161    0.000
 4977.00    5.21745   2.43023    0.000
 4978.00    5.10361   2.43605    0.000
 4979.00    3.59459   2.43666    0.000
 4980.00    2.97004   2.43108    0.000
 4981.00    4.17246   2.42030    0.000
 4982.00    4.73367   2.40921    0.000
 4983.00    4.14284   2.40304    0.000
 4984.00    3.35611   2.39430    0.000
 4985.00    2.26159   2.37257    0.000
 4986.00    1.91326   2.34741    0.000
 4987.00    2.59416   2.33934    0.000
 4988.00    3.19823   2.35243    0.000
 4989.00    3.70904   2.37660    0.000
 4990.00    4.18026   2.40430    0.000
 4991.00    4.60912   2.42559    0.000
 4992.00    4.59288   2.43070    0.000
 4993.00    4.15639   2.42298    0.000
 4994.00    3.91689   2.41323    0.000
 4995.00    3.84136   2.41160    0.000
 4996.00    3.94942   2.41633    0.000
 4997.00    4.19203   2.41823    0.000
 4998.00    4.36018   2.42277    0.000
 4999.00    4.48041   2.43421    0.000
 5000.00    4.11092   2.44222    0.000
 5001.00    3.46572   2.44070    0.000
 5002.00    3.63691   2.42926    0.000
 5003.00    4.20808   2.40630    0.000
 5004.00    4.37210   2.38092    0.000
 5005.00    4.36371   2.37047    0.000
 5006.00    4.67572   2.38146    0.000
 5007.00    5.10392   2.39462    0.000
 5008.00    5.34759   2.38672    0.000
 5009.00    5.53467   2.36782    0.000
 5010.00    5.30278   2.36616    0.000
 5011.00    4.96393   2.39188    0.000
 5012.00    5.21433   2.42243    0.000
 5013.00    5.58715   2.43317    0.000
 5014.00    4.30049   2.42488    0.000
 5015.00    2.74218   2.40874    0.000
 5016.00    2.58459   2.38876    0.000
 5017.00    2.59892   2.35931    0.000
 5018.00    3.33838   2.31326    0.000
 5019.00    4.13914   2.28254    0.000
 5020.00    4.30980   2.30360    0.000
 5021.00    4.44967   2.34846    0.000
 5022.00    4.55439   2.38031    0.000
 5023.00    4.65777   2.40392    0.000
 5024.00    4.71191   2.42344    0.000
 5025.00    4.74733   2.42781    0.000
 5026.00    4.40709   2.42783    0.000
 5027.00    4.02664   2.43759    0.000
 5028.00    3.17641   2.44913    0.000
 5029.00    2.52392   2.45065    0.001
 5030.00    3.46783   2.44253    0.001
 5031.00    4.27115   2.43654    0.002
 5032.00    4.22200   2.44579    0.002
 5033.00    4.24292   2.46240    0.002
 5034.00    4.59902   2.47131    0.002
 5035.00    4.76737   2.47714    0.001
 5036.00    4.20442   2.48866    0.001
 5037.00    3.71027   2.49663    0.001
 5038.00    3.43923   2.48511    0.001
 5039.00    3.09797   2.46025    0.001
 5040.00    2.56395   2.44857    0.001
 5041.00    2.52399   2.45297    0.002
 5042.00    3.64576   2.44720    0.001
 5043.00    4.24058   2.41761    0.001
 5044.00    3.76425   2.38113    0.001
 5045.00    3.38468   2.37548    0.001
 5046.00    3.17633   2.41434    0.001
 5047.00    3.42893   2.46220    0.001
 5048.00    4.39508   2.48947    0.001
 5049.00    4.68190   2.49899    0.001
 5050.00    4.04517   2.48544    0.001
 5051.00    3.70319   2.45300    0.001
 5052.00    3.71401   2.43363    0.001
 5053.00    3.82691   2.44265    0.002
 5054.00    4.04753   2.45838    0.002
 5055.00    4.27698   2.46747    0.001
 5056.00    4.51465   2.48176    0.001
 5057.00    4.45111   2.50032    0.001
 5058.00    4.14037   2.50711    0.001
 5059.00    3.68960   2.49944    0.002
 5060.00    3.13767   2.49728    0.001
 5061.00    2.79448   2.51005    0.001
 5062.00    2.58364   2.52571    0.001
 5063.00    2.54319   2.53356    0.001
 5064.00    2.59720   2.53945    0.001
 5065.00    3.27158   2.54487    0.002
 5066.00    4.24505   2.54144    0.002
 5067.00    4.12075   2.52127    0.002
 5068.00    3.53945   2.49436    0.002
 5069.00    3.08368   2.48437    0.002
 5070.00    2.67261   2.49277    0.002
 5071.00    2.38797   2.49940    0.002
 5072.00    2.14136   2.50163    0.002
 5073.00    3.12976   2.51078    0.002
 5074.00    4.42665   2.51861    0.002
 5075.00    4.21061   2.51131    0.002
 5076.00    3.68801   2.50038    0.002
 5077.00    4.37402   2.50145    0.002
 5078.00    5.25212   2.50810    0.002
 5079.00    4.62491   2.51240    0.002
 5080.00    3.81965   2.51811    0.002
 5081.00    3.20016   2.51830    0.002
 5082.00    2.59560   2.49729    0.001
 5083.00    3.47694   2.46641    0.001
 5084.00    4.42513   2.45820    0.001
 5085.00    4.00825   2.47583    0.001
 5086.00    3.60043   2.49410    0.001
 5087.00    4.44915   2.50377    0.001
 5088.00    5.20942   2.51573    0.001
 5089.00    4.32467   2.52856    0.001
 5090.00    3.58745   2.53278    0.001
 5091.00    4.49342   2.53241    0.001
 5092.00    5.18741   2.53706    0.001
 5093.00    4.22976   2.54377    0.001
 5094.00    3.44271   2.54609    0.001
 5095.00    3.66078   2.54999    0.001
 5096.00    3.79949   2.56009    0.001
 5097.00    3.56784   2.56893    0.001
 5098.00    3.39456   2.56876    0.001
 5099.00    3.44376   2.55888    0.001
 5100.00    3.33362   2.54002    0.001
 5101.00    2.71666   2.51569    0.001
 5102.00    2.42401   2.49581    0.001
 5103.00    3.00575   2.49451    0.001
 5104.00    3.50606   2.51678    0.001
 5105.00    3.81805   2.54458    0.001
 5106.00    4.00999   2.55725    0.001
 5107.00    3.96174   2.55488    0.001
 5108.00    3.87256   2.54950    0.001
 5109.00    3.71206   2.54605    0.001
 5110.00    3.52468   2.53877    0.001
 5111.00    3.29632   2.52959    0.001
 5112.00    3.34590   2.52721    0.001
 5113.00    3.76793   2.52886    0.001
 5114.00    3.73057   2.53393    0.001
 5115.00    3.15114   2.54868    0.001
 5116.00    3.17116   2.56393    0.001
 5117.00    3.81491   2.56979    0.001
 5118.00    4.30931   2.57171    0.001
 5119.00    4.66664   2.57691    0.001
 5120.00    4.93431   2.58764    0.001
 5121.00    5.12946   2.59888    0.001
 5122.00    5.13672   2.60266    0.001
 5123.00    5.01025   2.59641    0.001
 5124.00    4.17780   2.58213    0.001
 5125.00    2.90436   2.56344    0.001
 5126.00    2.40869   2.54426    0.001
 5127.00    2.33761   2.52961    0.001
 5128.00    2.85413   2.52636    0.001
 5129.00    3.64943   2.53072    0.001
 5130.00    3.50621   2.53188    0.001
 5131.00    2.97890   2.52979    0.001
 5132.00    3.32571   2.53196    0.001
 5133.00    3.97810   2.54065    0.001
 5134.00    4.44806   2.55242    0.001
 5135.00    4.86424   2.56077    0.001
 5136.00    4.29925   2.56119    0.001
 5137.00    3.49457   2.56396    0.001
 5138.00    3.62439   2.57862    0.001
 5139.00    3.93882   2.59084    0.001
 5140.00    4.25737   2.58247    0.001
 5141.00    4.57657   2.56264    0.002
 5142.00    4.06018   2.54716    0.001
 5143.00    3.44864   2.54484    0.001
 5144.00    3.18644   2.55635    0.001
 5145.00    2.95090   2.55947    0.001
 5146.00    4.14460   2.54702    0.001
 5147.00    5.39710   2.54456    0.002
 5148.00    4.41175   2.55526    0.001
 5149.00    3.42076   2.55998    0.001
 5150.00    2.96716   2.55840    0.001
 5151.00    2.56999   2.56024    0.001
 5152.00    3.15066   2.56792    0.002
 5153.00    3.67472   2.57556    0.002
 5154.00    3.59644   2.57211    0.002
 5155.00    3.47520   2.56401    0.002
 5156.00    3.03074   2.56229    0.002
 5157.00    2.70540   2.56465    0.001
 5158.00    3.06235   2.56808    0.001
 5159.00    3.47746   2.57766    0.002
 5160.00    4.15750   2.59601    0.002
 5161.00    4.65705   2.61638    0.002
 5162.00    4.48316   2.62786    0.002
 5163.00    4.19167   2.62876    0.001
 5164.00    3.53331   2.62691    0.002
 5165.00    3.19117   2.61945    0.002
 5166.00    3.68659   2.60825    0.001
 5167.00    3.90294   2.59999    0.001
 5168.00    3.48473   2.58444    0.001
 5169.00    3.26847   2.54655    0.001
 5170.00    3.44986   2.49154    0.001
 5171.00    3.42911   2.44780    0.001
 5172.00    3.06145   2.44731    0.001
 5173.00    2.74234   2.48603    0.001
 5174.00    2.49620   2.51479    0.001
 5175.00    2.58590   2.49363    0.001
 5176.00    3.11917   2.45694    0.001
 5177.00    3.50414   2.47245    0.001
 5178.00    3.71660   2.53729    0.001
 5179.00    3.86340   2.59281    0.001
 5180.00    3.94283   2.61730    0.001
 5181.00    3.78608   2.62834    0.001
 5182.00    3.41560   2.63489    0.001
 5183.00    3.63915   2.63282    0.001
 5184.00    4.33643   2.62028    0.001
 5185.00    3.93180   2.58771    0.001
 5186.00    2.75410   2.52597    0.001
 5187.00    2.55952   2.46817    0.001
 5188.00    2.96995   2.47255    0.001
 5189.00    3.38768   2.53637    0.001
 5190.00    3.80935   2.59800    0.000
 5191.00    3.58993   2.62283    0.000
 5192.00    3.07127   2.62563    0.000
 5193.00    3.18241   2.62965    0.000
 5194.00    3.54689   2.62570    0.000
 5195.00    3.12004   2.59894    0.000
 5196.00    2.42160   2.57719    0.000
 5197.00    2.59402   2.58539    0.000
 5198.00    3.01804   2.60225    0.000
 5199.00    3.02055   2.60819    0.000
 5200.00    2.92238   2.61415    0.000
 5201.00    3.47007   2.62636    0.000
 5202.00    4.14209   2.64132    0.000
 5203.00    4.25972   2.65401    0.000
 5204.00    4.29445   2.65799    0.000
 5205.00    3.66922   2.65493    0.000
 5206.00    2.97171   2.65022    0.000
 5207.00    4.28151   2.63940    0.000
 5208.00    5.73625   2.61285    0.000
 5209.00    4.68624   2.58574    0.000
 5210.00    3.54272   2.57843    0.000
 5211.00    3.51837   2.58250    0.001
 5212.00    3.51194   2.58614    0.001
 5213.00    3.96858   2.59985    0.001
 5214.00    4.36748   2.62462    0.001
 5215.00    3.83023   2.64827    0.002
 5216.00    3.37427   2.66807    0.002
 5217.00    3.74580   2.68117    0.001
 5218.00    3.99360   2.67586    0.001
 5219.00    3.34100   2.65430    0.002
 5220.00    2.83937   2.64005    0.002
 5221.00    3.17885   2.64896    0.002
 5222.00    3.49884   2.67281    0.001
 5223.00    3.73211   2.69522    0.001
 5224.00    3.98977   2.70811    0.001
 5225.00    4.33652   2.71220    0.001
 5226.00    4.38840   2.70654    0.001
 5227.00    3.53772   2.68899    0.001
 5228.00    3.09874   2.65885    0.001
 5229.00    3.73105   2.61732    0.001
 5230.00    3.91666   2.57923    0.001
 5231.00    3.10323   2.57808    0.001
 5232.00    2.80854   2.62080    0.001
 5233.00    3.51932   2.66858    0.001
 5234.00    3.95640   2.69432    0.001
 5235.00    3.93087   2.69742    0.001
 5236.00    3.80727   2.67949    0.001
 5237.00    3.53845   2.65718    0.001
 5238.00    3.39777   2.65192    0.001
 5239.00    3.42393   2.66735    0.001
 5240.00    3.34834   2.69391    0.001
 5241.00    3.15605   2.71630    0.001
 5242.00    3.18593   2.72670    0.001
 5243.00    3.44054   2.72976    0.001
 5244.00    3.28306   2.73198    0.001
 5245.00    2.75796   2.73241    0.001
 5246.00    2.97380   2.72796    0.001
 5247.00    3.77214   2.72792    0.001
 5248.00    4.19515   2.73888    0.001
 5249.00    4.35866   2.74253    0.001
 5250.00    4.21633   2.72350    0.001
 5251.00    3.88861   2.70158    0.001
 5252.00    3.53909   2.69450    0.001
 5253.00    3.17805   2.69169    0.001
 5254.00    3.33820   2.68716    0.001
 5255.00    3.73768   2.69368    0.001
 5256.00    4.30529   2.70788    0.001
 5257.00    4.93935   2.71240    0.001
 5258.00    4.13632   2.70525    0.001
 5259.00    2.84918   2.70609    0.001
 5260.00    3.33216   2.72811    0.001
 5261.00    4.31620   2.75669    0.001
 5262.00    4.44024   2.77153    0.001
 5263.00    4.36353   2.76708    0.001
 5264.00    3.82306   2.74599    0.001
 5265.00    3.19564   2.71272    0.002
 5266.00    2.84450   2.67499    0.002
 5267.00    2.53338   2.64118    0.002
 5268.00    2.15693   2.61693    0.002
 5269.00    1.77361   2.60718    0.002
 5270.00    3.21221   2.62182    0.002
 5271.00    4.77501   2.64810    0.002
 5272.00    4.40316   2.64382    0.002
 5273.00    3.96641   2.60943    0.002
 5274.00    4.07024   2.60386    0.002
 5275.00    4.17131   2.64461    0.002
 5276.00    4.16530   2.68487    0.002
 5277.00    4.13423   2.69707    0.002
 5278.00    3.72152   2.69219    0.002
 5279.00    3.28405   2.68793    0.002
 5280.00    2.60527   2.70621    0.001
 5281.00    2.00941   2.74711    0.001
 5282.00    1.99753   2.77677    0.001
 5283.00    2.16712   2.77633    0.001
 5284.00    3.32067   2.75778    0.001
 5285.00    4.13867   2.73727    0.001
 5286.00    3.49853   2.72083    0.001
 5287.00    3.03856   2.71114    0.001
 5288.00    3.22330   2.72264    0.001
 5289.00    3.33518   2.75975    0.001
 5290.00    3.22830   2.79687    0.001
 5291.00    3.09169   2.81096    0.001
 5292.00    2.87907   2.80921    0.001
 5293.00    3.20605   2.81000    0.001
 5294.00    4.72007   2.81570    0.001
 5295.00    5.37072   2.81693    0.001
 5296.00    4.37403   2.81019    0.001
 5297.00    3.66655   2.80304    0.001
 5298.00    3.44061   2.79927    0.001
 5299.00    3.26412   2.78693    0.001
 5300.00    3.15982   2.75656    0.001
 5301.00    2.97622   2.72212    0.001
 5302.00    2.69085   2.71353    0.001
 5303.00    2.82023   2.73579    0.001
 5304.00    3.41859   2.75945    0.001
 5305.00    3.78457   2.76550    0.001
 5306.00    3.91879   2.77003    0.001
 5307.00    3.52620   2.78906    0.001
 5308.00    2.67024   2.81360    0.001
 5309.00    2.51511   2.82377    0.001
 5310.00    2.90310   2.81692    0.001
 5311.00    3.54757   2.80949    0.001
 5312.00    4.36677   2.81462    0.001
 5313.00    4.58303   2.82691    0.001
 5314.00    4.43923   2.83422    0.001
 5315.00    4.08108   2.83432    0.001
 5316.00    3.61125   2.83039    0.001
 5317.00    3.93672   2.82482    0.001
 5318.00    4.62145   2.81812    0.001
 5319.00    4.69740   2.80458    0.001
 5320.00    4.53683   2.78743    0.001
 5321.00    4.00761   2.78547    0.001
 5322.00    3.35652   2.80071    0.001
 5323.00    3.38888   2.81223    0.001
 5324.00    3.61075   2.81194    0.001
 5325.00    3.40957   2.80961    0.001
 5326.00    3.11191   2.80419    0.001
 5327.00    3.13225   2.78918    0.001
 5328.00    3.21063   2.77415    0.001
 5329.00    2.77729   2.77121    0.001
 5330.00    2.27217   2.75915    0.001
 5331.00    3.04268   2.71638    0.001
 5332.00    3.94189   2.67716    0.001
 5333.00    3.16661   2.69359    0.001
 5334.00    2.28392   2.75053    0.001
 5335.00    3.11703   2.79372    0.001
 5336.00    3.99828   2.80639    0.001
 5337.00    3.67129   2.81140    0.001
 5338.00    3.34293   2.82357    0.001
 5339.00    2.97534   2.83308    0.001
 5340.00    2.66013   2.83192    0.001
 5341.00    3.09634   2.82662    0.001
 5342.00    3.52747   2.81805    0.001
 5343.00    3.91099   2.79733    0.001
 5344.00    4.24301   2.77459    0.001
 5345.00    4.22376   2.77563    0.001
 5346.00    4.11235   2.80122    0.001
 5347.00    3.51435   2.82631    0.001
 5348.00    3.03432   2.83238    0.001
 5349.00    3.05521   2.82175    0.001
 5350.00    3.12662   2.81447    0.001
 5351.00    3.37507   2.81634    0.001
 5352.00    3.46980   2.81471    0.001
 5353.00    3.11148   2.81187    0.001
 5354.00    2.86831   2.82480    0.001
 5355.00    2.91451   2.84713    0.001
 5356.00    3.12564   2.86023    0.001
 5357.00    3.69369   2.86601    0.001
 5358.00    4.06979   2.87707    0.001
 5359.00    4.08532   2.89145    0.001
 5360.00    4.17313   2.89979    0.001
 5361.00    4.37947   2.90217    0.001
 5362.00    4.37061   2.90282    0.001
 5363.00    4.05221   2.90095    0.001
 5364.00    4.02067   2.89240    0.001
 5365.00    4.35201   2.87552    0.001
 5366.00    4.45499   2.85767    0.001
 5367.00    4.30336   2.84673    0.001
 5368.00    4.01199   2.84047   -2.000
 5369.00    3.58319   2.83732   -2.000
 5370.00    3.55126   2.83948   -2.000
 5371.00    3.86347   2.84160   -2.000
 5372.00    4.60562   2.83556   -2.000
 5373.00    5.67619   2.81460   -2.000
 5374.00    5.83707   2.78531   -2.000
 5375.00    5.38716   2.77502   -2.000
 5376.00    5.00574   2.80171   -2.000
 5377.00    4.66460   2.84707   -2.000
 5378.00    4.31152   2.88103   -2.000
 5379.00    3.95231   2.89545   -2.000
 5380.00    3.85405   2.89534   -2.000
 5381.00    3.87174   2.89090   -2.000
 5382.00    3.89558   2.88910   -2.000
 5383.00    3.92177   2.88464    0.001
 5384.00    3.95284   2.87513    0.001
 5385.00    3.98550   2.86713    0.001
 5386.00    3.86538   2.86276    0.001
 5387.00    3.70379   2.86349    0.001
 5388.00    3.53994   2.87405    0.001
 5389.00    3.37559   2.88827    0.001
 5390.00    3.76682   2.89446    0.001
 5391.00    4.25673   2.89168    0.001
 5392.00    3.93038   2.88410    0.001
 5393.00    3.49328   2.87297    0.001
 5394.00    3.21516   2.86212    0.001
 5395.00    2.95239   2.85562    0.001
 5396.00    2.85185   2.85219    0.001
 5397.00    2.76107   2.85118    0.001
 5398.00    2.75635   2.85258    0.001
 5399.00    2.75345   2.84710    0.001
 5400.00    2.68037   2.82771    0.001
 5401.00    2.65403   2.81419    0.001
 5402.00    3.83271   2.82833    0.001
 5403.00    4.89513   2.85281    0.001
 5404.00    4.38135   2.86382    0.001
 5405.00    3.90275   2.86742    0.001
 5406.00    3.74055   2.86707    0.001
 5407.00    3.66009   2.84716    0.001
 5408.00    4.11985   2.81041    0.001
 5409.00    4.42545   2.78432    0.001
 5410.00    3.93806   2.78854    0.001
 5411.00    3.47421   2.81117    0.001
 5412.00    3.10805   2.81753    0.001
 5413.00    2.94287   2.78825    0.001
 5414.00    3.46799   2.74710    0.001
 5415.00    3.80958   2.73876    0.001
 5416.00    3.62018   2.77421    0.001
 5417.00    3.55641   2.82143    0.001
 5418.00    3.80293   2.85187    0.001
 5419.00    3.99797   2.87143    0.001
 5420.00    4.08341   2.89425    0.001
 5421.00    3.99357   2.91275    0.001
 5422.00    3.57955   2.91565    0.001
 5423.00    3.36400   2.90756    0.001
 5424.00    3.46915   2.90074    0.001
 5425.00    3.41280   2.90285    0.001
 5426.00    3.12752   2.90544    0.001
 5427.00    2.93710   2.89406    0.001
 5428.00    2.86498   2.87984    0.001
 5429.00    2.97471   2.88912    0.001
 5430.00    3.28431   2.91682    0.001
 5431.00    3.53336   2.92876    0.001
 5432.00    3.72369   2.90359    0.001
 5433.00    3.90217   2.86470    0.001
 5434.00    4.07053   2.85662    0.001
 5435.00    3.94046   2.87587    0.001
 5436.00    3.58569   2.88285    0.001
 5437.00    3.64276   2.87021    0.001
 5438.00    3.97231   2.85889    0.001
 5439.00    3.75812   2.86265    0.001
 5440.00    3.22894   2.88184    0.001
 5441.00    3.63353   2.91104    0.001
 5442.00    4.50948   2.94097    0.001
 5443.00    4.38974   2.96111    0.001
 5444.00    3.83490   2.96818    0.001
 5445.00    3.56376   2.96811    0.001
 5446.00    3.39902   2.96700    0.001
 5447.00    3.69560   2.96068    0.001
 5448.00    4.13895   2.93934    0.001
 5449.00    4.04727   2.90184    0.001
 5450.00    3.81336   2.86687    0.001
 5451.00    3.82691   2.86455    0.001
 5452.00    3.89428   2.89907    0.001
 5453.00    4.11488   2.93759    0.001
 5454.00    4.36196   2.95511    0.001
 5455.00    4.03636   2.95473    0.001
 5456.00    3.63566   2.94494    0.001
 5457.00    3.31341   2.92544    0.001
 5458.00    2.99842   2.89496    0.001
 5459.00    3.25596   2.87072    0.001
 5460.00    3.54569   2.88082    0.001
 5461.00    3.68111   2.92010    0.001
 5462.00    3.80915   2.95565    0.001
 5463.00    3.52755   2.96698    0.001
 5464.00    3.24225   2.95861    0.001
 5465.00    2.87029   2.93989    0.001
 5466.00    2.57995   2.91741    0.001
 5467.00    3.33800   2.90627    0.001
 5468.00    4.01867   2.91733    0.001
 5469.00    4.02979   2.93480    0.001
 5470.00    4.08791   2.94184    0.001
 5471.00    4.44726   2.94665    0.001
 5472.00    4.73870   2.95498    0.001
 5473.00    4.68972   2.95705    0.001
 5474.00    4.47516   2.95219    0.001
 5475.00    3.58847   2.94704    0.001
 5476.00    2.96997   2.93828    0.001
 5477.00    3.25419   2.92587    0.001
 5478.00    3.54152   2.91793   -2.000
 5479.00    3.83771   2.90471   -2.000
 5480.00    4.28850   2.87882   -2.000
 5481.00    5.11462   2.87152   -2.000
 5482.00    5.51928   2.90036   -2.000
 5483.00    5.04105   2.93065   -2.000
 5484.00    4.51639   2.93214   -2.000
 5485.00    3.90716   2.91830   -2.000
 5486.00    3.75378   2.91888   -2.000
 5487.00    4.32602   2.93850   -2.000
 5488.00    3.89223   2.96264   -2.000
 5489.00    2.05304   2.97600   -2.000
 5490.00    1.49257   2.96937   -2.000
 5491.00    2.50414   2.95206   -2.000
 5492.00    3.38040   2.94549   -2.000
 5493.00    4.11003   2.95329   -2.000
 5494.00    4.48967   2.96352   -2.000
 5495.00    4.53475   2.97098   -2.000
 5496.00    4.34325   2.97228   -2.000
 5497.00    3.95233   2.96675   -2.000
 5498.00    3.81251   2.96512   -2.000
 5499.00    3.85906   2.96904   -2.000
 5500.00    3.49161   2.96555   -2.000
 5501.00    2.85427   2.95852   -2.000
 5502.00    2.89509   2.96621    0.001
 5503.00    3.32285   2.98255    0.001
 5504.00    3.77344   2.98219    0.001
 5505.00    4.23538   2.96396    0.001
 5506.00    4.03133   2.95142    0.001
 5507.00    3.54108   2.95577    0.001
 5508.00    3.29816   2.96440    0.001
 5509.00    3.14635   2.95989    0.001
 5510.00    3.28736   2.94656    0.001
 5511.00    3.51973   2.94562    0.001
 5512.00    3.73433   2.95867    0.001
 5513.00    3.94430   2.96715    0.001
 5514.00    3.80247   2.96579    0.001
 5515.00    3.58595   2.95675    0.001
 5516.00    3.12295   2.94434    0.001
 5517.00    2.61855   2.94070    0.001
 5518.00    2.63088   2.95117    0.001
 5519.00    2.70863   2.96714    0.001
 5520.00    3.20123   2.98154    0.001
 5521.00    3.73040   2.99568    0.001
 5522.00    3.27644   3.00963    0.001
 5523.00    2.77107   3.01733    0.001
 5524.00    3.43329   3.01706    0.001
 5525.00    4.10898   3.01328    0.001
 5526.00    4.15589   3.01088    0.001
 5527.00    4.17640   3.01062    0.001
 5528.00    3.62873   3.00632    0.001
 5529.00    3.11098   2.99317    0.001
 5530.00    2.95819   2.97255    0.001
 5531.00    2.87662   2.94997    0.001
 5532.00    3.38878   2.93923    0.001
 5533.00    3.79189   2.95466    0.001
 5534.00    3.51662   2.98487    0.001
 5535.00    3.38453   3.00464    0.001
 5536.00    3.95235   3.00739    0.001
 5537.00    4.30038   3.00004    0.001
 5538.00    3.77584   2.98799    0.001
 5539.00    3.34851   2.98152    0.001
 5540.00    3.24194   2.98930    0.001
 5541.00    3.25032   3.00275    0.001
 5542.00    3.57925   3.01241    0.001
 5543.00    3.87268   3.02163    0.001
 5544.00    4.08137   3.03230    0.001
 5545.00    4.21220   3.03626    0.001
 5546.00    4.18253   3.02744    0.001
 5547.00    4.09499   3.01328    0.001
 5548.00    3.90367   3.00798    0.001
 5549.00    3.74764   3.01107    0.001
 5550.00    3.64695   3.01654    0.001
 5551.00    3.53507   3.02681    0.001
 5552.00    3.40778   3.04084    0.001
 5553.00    3.23191   3.05126    0.001
 5554.00    2.99716   3.05510    0.001
 5555.00    2.86402   3.05353    0.001
 5556.00    2.83946   3.04572    0.001
 5557.00    3.05480   3.03360    0.001
 5558.00    3.49624   3.02439    0.001
 5559.00    3.76276   3.02513    0.001
 5560.00    3.88395   3.03214    0.001
 5561.00    3.93702   3.03604    0.001
 5562.00    3.94028   3.03730    0.001
 5563.00    3.95893   3.03991    0.001
 5564.00    3.98747   3.04025    0.001
 5565.00    3.97999   3.03545    0.001
 5566.00    3.95227   3.02558    0.001
 5567.00    3.91154   3.01640    0.001
 5568.00    3.86445   3.01295    0.001
 5569.00    3.69064   3.01091    0.001
 5570.00    3.46329   3.00974    0.001
 5571.00    3.12210   3.01316    0.001
 5572.00    2.73974   3.01568    0.001
 5573.00    2.64129   3.01473    0.001
 5574.00    2.62972   3.01895    0.001
 5575.00    2.45526   3.02338    0.001
 5576.00    2.23934   3.01509    0.001
 5577.00    2.65562   3.00932    0.001
 5578.00    3.20285   3.02243    0.001
 5579.00    3.52773   3.03716    0.001
 5580.00    3.81635   3.04054    0.001
 5581.00    3.59954   3.04184    0.001
 5582.00    3.32097   3.04571    0.001
 5583.00    3.71301   3.05098    0.001
 5584.00    4.16139   3.05548    0.001
 5585.00    4.25878   3.05333    0.001
 5586.00    4.33920   3.04825    0.001
 5587.00    3.52776   3.04800    0.001
 5588.00    2.72342   3.04640    0.001
 5589.00    3.13430   3.03039    0.001
 5590.00    3.52163   2.99924    0.001
 5591.00    3.44125   2.96812    0.001
 5592.00    3.36838   2.95469    0.001
 5593.00    3.38268   2.96215    0.001
 5594.00    3.39456   2.97639    0.001
 5595.00    3.38702   2.97948    0.001
 5596.00    3.38270   2.97465    0.001
 5597.00    3.39776   2.97688    0.001
 5598.00    3.51194   2.99510    0.001
 5599.00    4.09870   3.02448    0.001
 5600.00    4.39343   3.05047    0.001
 5601.00    3.55382   3.05230    0.001
 5602.00    2.85944   3.03296    0.001
 5603.00    2.63499   3.01883    0.001
 5604.00    2.54668   3.01371    0.001
 5605.00    2.83125   3.00420    0.001
 5606.00    3.06916   2.99504    0.001
 5607.00    3.19756   3.00524    0.001
 5608.00    3.28990   3.03803    0.001
 5609.00    3.30911   3.07225    0.001
 5610.00    3.44627   3.09196    0.001
 5611.00    3.79170   3.09888    0.001
 5612.00    3.91239   3.10005    0.001
 5613.00    3.68579   3.09953    0.001
 5614.00    3.37307   3.10071    0.001
 5615.00    2.94349   3.10534    0.001
 5616.00    2.79030   3.10828    0.001
 5617.00    2.96735   3.09478    0.001
 5618.00    3.12537   3.05516    0.001
 5619.00    3.26336   3.01061    0.001
 5620.00    3.30339   3.00165    0.001
 5621.00    3.25239   3.02899    0.001
 5622.00    2.96184   3.05539    0.001
 5623.00    2.47508   3.06428    0.001
 5624.00    2.32828   3.06864    0.001
 5625.00    2.42659   3.07877    0.001
 5626.00    2.60498   3.08422    0.001
 5627.00    2.83405   3.06965    0.001
 5628.00    2.86211   3.04231    0.001
 5629.00    2.77896   3.03112    0.001
 5630.00    2.81642   3.04577    0.001
 5631.00    2.91191   3.06831    0.001
 5632.00    3.16644   3.08579    0.001
 5633.00    3.48703   3.10119    0.001
 5634.00    3.85026   3.11267    0.001
 5635.00    4.22864   3.11619    0.001
 5636.00    4.08407   3.11228    0.001
 5637.00    3.78260   3.10338    0.001
 5638.00    3.65890   3.09413    0.001
 5639.00    3.57948   3.08606    0.001
 5640.00    3.89881   3.07651    0.001
 5641.00    4.29870   3.06765    0.001
 5642.00    4.08004   3.06561    0.001
 5643.00    3.76344   3.06666    0.001
 5644.00    3.40253   3.06242    0.001
 5645.00    3.03639   3.05751    0.001
 5646.00    3.02759   3.06451    0.001
 5647.00    3.04733   3.07809    0.001
 5648.00    3.42505   3.08639    0.001
 5649.00    3.81871   3.09005    0.001
 5650.00    3.91320   3.09365    0.001
 5651.00    3.99219   3.09711    0.001
 5652.00    3.48164   3.09737    0.001
 5653.00    2.99739   3.09515    0.001
 5654.00    2.99775   3.09612    0.001
 5655.00    2.99430   3.10319    0.001
 5656.00    2.94860   3.11173    0.001
 5657.00    2.92675   3.11067    0.001
 5658.00    3.08993   3.09744    0.001
 5659.00    3.23362   3.08583    0.001
 5660.00    3.26290   3.08073    0.001
 5661.00    3.21944   3.06171    0.001
 5662.00    2.83756   3.02974    0.001
 5663.00    2.57181   3.02275    0.001
 5664.00    2.74746   3.04669    0.001
 5665.00    2.93745   3.06363    0.001
 5666.00    3.17293   3.06104    0.001
 5667.00    3.27231   3.06386    0.001
 5668.00    3.00557   3.08265    0.001
 5669.00    2.83197   3.09694    0.001
 5670.00    2.87327   3.09277    0.001
 5671.00    3.01742   3.08193    0.001
 5672.00    3.36689   3.08138    0.001
 5673.00    3.53637   3.09135    0.001
 5674.00    3.39283   3.10319    0.001
 5675.00    3.27270   3.11636    0.001
 5676.00    3.18822   3.13152    0.001
 5677.00    3.18581   3.14302    0.001
 5678.00    3.29317   3.14285    0.001
 5679.00    3.43487   3.13433    0.001
 5680.00    3.61700   3.13088    0.001
 5681.00    3.85654   3.13350    0.001
 5682.00    4.15571   3.12804    0.001
 5683.00    4.33439   3.11527    0.001
 5684.00    4.40267   3.11016    0.001
 5685.00    4.15332   3.11065    0.001
 5686.00    3.64746   3.10319    0.001
 5687.00    3.57624   3.09396    0.001
 5688.00    3.81387   3.09583    0.001
 5689.00    3.85803   3.10027    0.001
 5690.00    3.78155   3.09711    0.001
 5691.00    3.44017   3.08981    0.001
 5692.00    2.95446   3.09000    0.001
 5693.00    2.94658   3.10227    0.001
 5694.00    3.16493   3.11964    0.001
 5695.00    3.08011   3.13508    0.001
 5696.00    2.87148   3.14657    0.001
 5697.00    2.67043   3.15069    0.001
 5698.00    2.47203   3.14414    0.001
 5699.00    2.52050   3.13134    0.001
 5700.00    2.64156   3.12249    0.001
 5701.00    3.06857   3.11999    0.001
 5702.00    3.57010   3.12107    0.001
 5703.00    3.47894   3.12209    0.001
 5704.00    3.27108   3.11630    0.001
 5705.00    3.20186   3.10537    0.001
 5706.00    3.15395   3.10209    0.001
 5707.00    2.81855   3.11250    0.001
 5708.00    2.45056   3.12396    0.001
 5709.00    2.69530   3.12105    0.001
 5710.00    2.98646   3.10572    0.001
 5711.00    3.67151   3.08859    0.001
 5712.00    4.37258   3.07193    0.001
 5713.00    4.51428   3.05863    0.001
 5714.00    4.63413   3.05545    0.001
 5715.00    4.03129   3.06195    0.001
 5716.00    3.46850   3.07905    0.001
 5717.00    3.59368   3.10848    0.001
 5718.00    3.70149   3.13538    0.001
 5719.00    3.62542   3.14901    0.001
 5720.00    3.56955   3.15498    0.001
 5721.00    3.66497   3.15818    0.001
 5722.00    3.75948   3.16147    0.001
 5723.00    3.84882   3.16873    0.001
 5724.00    3.90680   3.17628    0.001
 5725.00    3.82234   3.17921    0.001
 5726.00    3.75320   3.18020    0.001
 5727.00    3.74104   3.18309    0.001
 5728.00    3.77409   3.18765    0.001
 5729.00    3.94784   3.18883    0.001
 5730.00    4.02316   3.17978    0.001
 5731.00    3.83836   3.16799    0.001
 5732.00    3.74540   3.16831    0.001
 5733.00    3.86082   3.17732    0.001
 5734.00    4.03630   3.17852    0.001
 5735.00    4.32980   3.16898    0.001
 5736.00    4.31428   3.16455    0.001
 5737.00    3.76941   3.17435    0.001
 5738.00    3.35387   3.18834    0.001
 5739.00    3.13235   3.19599    0.001
 5740.00    3.05154   3.19646    0.000
 5741.00    3.15627   3.19164    0.000
 5742.00    3.38500   3.18082    0.000
 5743.00    3.75771   3.16848    0.000
 5744.00    4.06616   3.16411    0.000
 5745.00    4.30882   3.16959    0.000
 5746.00    4.42940   3.17818    0.000
 5747.00    4.43973   3.18317    0.000
 5748.00    4.46847   3.19101    0.000
 5749.00    4.51187   3.20112    0.000
 5750.00    4.59869   3.20101    0.000
 5751.00    4.71592   3.18715    0.000
 5752.00    4.79607   3.17454    0.000
 5753.00    4.85344   3.17937    0.000
 5754.00    4.75561   3.19363    0.000
 5755.00    4.57453   3.19525    0.000
 5756.00    4.34943   3.17638    0.000
 5757.00    4.10384   3.15074    0.000
 5758.00    4.19007   3.14033    0.000
 5759.00    4.40949   3.15461    0.000
 5760.00    4.22703   3.18191    0.000
 5761.00    3.90696   3.20372    0.000
 5762.00    3.65717   3.21216    0.000
 5763.00    3.42763   3.20669    0.000
 5764.00    3.43082   3.19120    0.000
 5765.00    3.48944   3.17175    0.000
 5766.00    3.81722   3.15579    0.000
 5767.00    4.19665   3.15571    0.000
 5768.00    4.02960   3.17695    0.000
 5769.00    3.78117   3.20350    0.000
 5770.00    3.78031   3.21828    0.000
 5771.00    3.80643   3.22202    0.000
 5772.00    4.20351   3.22090    0.000
 5773.00    4.62719   3.21824    0.000
 5774.00    4.42540   3.21499    0.000
 5775.00    4.20055   3.20984    0.000
 5776.00    4.25322   3.20362    0.000
 5777.00    4.30656   3.19985    0.000
 5778.00    4.34250   3.19795    0.000
 5779.00    4.37438   3.19874    0.000
 5780.00    4.34108   3.20572    0.000
 5781.00    4.32054   3.21377    0.000
 5782.00    4.42920   3.21339    0.000
 5783.00    4.51943   3.19908    0.000
 5784.00    4.47603   3.17189    0.000
 5785.00    4.39520   3.14453    0.000
 5786.00    4.10645   3.13432    0.000
 5787.00    3.84603   3.13980    0.000
 5788.00    3.71127   3.14312    0.000
 5789.00    3.60571   3.14241    0.000
 5790.00    3.60654   3.15288    0.000
 5791.00    3.54181   3.17527   -2.000
 5792.00    3.27692   3.19462   -2.000
 5793.00    3.13103   3.20267   -2.000
 5794.00    3.29411   3.19929   -2.000
 5795.00    3.51909   3.19251   -2.000
 5796.00    3.88221   3.19471   -2.000
 5797.00    4.20082   3.20633   -2.000
 5798.00    4.43334   3.21944   -2.000
 5799.00    4.55040   3.22847   -2.000
 5800.00    4.47265   3.22655   -2.000
 5801.00    4.38524   3.21316   -2.000
 5802.00    4.28354   3.20399   -2.000
 5803.00    4.11534   3.20915   -2.000
 5804.00    3.86071   3.21686   -2.000
 5805.00    3.60906   3.21993   -2.000
 5806.00    3.36083   3.22480   -2.000
 5807.00    3.26471   3.22965   -2.000
 5808.00    3.32219   3.22467   -2.000
 5809.00    3.43601   3.21596   -2.000
 5810.00    3.60002   3.21541   -2.000
 5811.00    3.71781   3.22264    0.000
 5812.00    3.79932   3.23076    0.000
 5813.00    3.80931   3.23526    0.000
 5814.00    3.76995   3.23507    0.000
 5815.00    3.84819   3.23057    0.000
 5816.00    3.99760   3.22755    0.000
 5817.00    4.03457   3.23124    0.000
 5818.00    4.01216   3.23614    0.000
 5819.00    3.99376   3.23130    0.000
 5820.00    3.97718   3.22305    0.000
 5821.00    3.87869   3.22754    0.000
 5822.00    3.74788   3.24494    0.000
 5823.00    4.01887   3.26145    0.000
 5824.00    4.42487   3.26975    0.000
 5825.00    4.43095   3.27188    0.000
 5826.00    4.32411   3.27038    0.000
 5827.00    3.83272   3.26792    0.000
 5828.00    3.25182   3.26862    0.000
 5829.00    3.25664   3.27296    0.000
 5830.00    3.37093   3.27614    0.000
 5831.00    3.40613   3.27612    0.000
 5832.00    3.42994   3.27633    0.000
 5833.00    3.45945   3.27799    0.000
 5834.00    3.48956   3.27797    0.000
 5835.00    3.78416   3.27566    0.000
 5836.00    4.09664   3.27390    0.000
 5837.00    4.02354   3.27199    0.000
 5838.00    3.93769   3.26771    0.000
 5839.00    3.37197   3.26573    0.000
 5840.00    2.82929   3.26993    0.000
 5841.00    3.02363   3.27300    0.000
 5842.00    3.23728   3.27079    0.000
 5843.00    3.74263   3.27134    0.000
 5844.00    4.19059   3.27866    0.000
 5845.00    4.08179   3.28672    0.000
 5846.00    3.96194   3.29109    0.000
 5847.00    3.76457   3.29170    0.000
 5848.00    3.62129   3.28839    0.000
 5849.00    3.77037   3.28118    0.000
 5850.00    3.94809   3.27162    0.000
 5851.00    4.24993   3.26265    0.000
 5852.00    4.53137   3.25887    0.000
 5853.00    4.74005   3.26217    0.000
 5854.00    4.82316   3.26706    0.000
 5855.00    4.53001   3.26445    0.000
 5856.00    4.19171   3.24952    0.000
 5857.00    3.73827   3.23049    0.000
 5858.00    3.44165   3.22444    0.000
 5859.00    3.48934   3.23170    0.000
 5860.00    3.56292   3.23075    0.000
 5861.00    3.68580   3.21410    0.000
 5862.00    3.84898   3.20223    0.000
 5863.00    4.07915   3.21143    0.000
 5864.00    4.24600   3.23261    0.000
 5865.00    4.32062   3.24822    0.000
 5866.00    4.16850   3.25237    0.000
 5867.00    3.72591   3.25480    0.000
 5868.00    3.28377   3.26275    0.000
 5869.00    2.84213   3.26802    0.000
 5870.00    2.89184   3.26381    0.000
 5871.00    3.43070   3.25890    0.000
 5872.00    4.05807   3.26426    0.000
 5873.00    4.76316   3.27748    0.000
 5874.00    4.83276   3.28817    0.000
 5875.00    4.41078   3.29025    0.000
 5876.00    4.18539   3.28161    0.000
 5877.00    4.09371   3.24890    0.000
 5878.00    3.99358   3.15512    0.000
 5879.00    3.88841   3.02750    0.000
 5880.00    3.92270   2.97091    0.000
 5881.00    4.02951   3.03727    0.000
 5882.00    3.98169   3.16385    0.000
 5883.00    3.86417   3.23993    0.000
 5884.00    3.72913   3.25620    0.000
 5885.00    3.58730   3.25969    0.000
 5886.00    3.78508   3.26472    0.000
 5887.00    4.09487   3.26504    0.000
 5888.00    4.00142   3.26198    0.000
 5889.00    3.79645   3.26328    0.000
 5890.00    3.61279   3.26555    0.000
 5891.00    3.43398   3.25000    0.000
 5892.00    3.58516   3.18972    0.000
 5893.00    3.79638   3.08443    0.000
 5894.00    3.90782   2.99958    0.000
 5895.00    4.00532   3.00693    0.000
 5896.00    4.07842   3.08457    0.000
 5897.00    4.14906   3.15266    0.000
 5898.00    3.66970   3.16553    0.000
 5899.00    3.15534   3.12142    0.000
 5900.00    2.75574   3.07416    0.000
 5901.00    2.36045   3.08971    0.001
 5902.00    2.29095   3.15304    0.001
 5903.00    2.24073   3.20663    0.001
 5904.00    2.73382   3.23655    0.001
 5905.00    3.21878   3.25688    0.001
 5906.00    3.58795   3.27135    0.001
 5907.00    3.92350   3.28000    0.001
 5908.00    3.94591   3.28378    0.001
 5909.00    3.98228   3.28176    0.001
 5910.00    4.11337   3.27903    0.001
 5911.00    4.18779   3.28278    0.001
 5912.00    3.96398   3.29081    0.001
 5913.00    3.75108   3.29579    0.001
 5914.00    3.58442   3.29790    0.001
 5915.00    3.51519   3.30119    0.001
 5916.00    3.78661   3.30030    0.001
 5917.00    3.95908   3.28614    0.001
 5918.00    3.84059   3.26500    0.001
 5919.00    3.66943   3.25450    0.001
 5920.00    3.36624   3.26047    0.001
 5921.00    3.25081   3.27430    0.001
 5922.00    3.54088   3.28631    0.001
 5923.00    3.81532   3.29315    0.001
 5924.00    4.06044   3.29781    0.001
 5925.00    4.24614   3.30056    0.001
 5926.00    4.33458   3.30031    0.001
 5927.00    4.35755   3.30103    0.001
 5928.00    4.28654   3.30598    0.001
 5929.00    4.14728   3.31349    0.001
 5930.00    3.92185   3.31862    0.001
 5931.00    3.79349   3.31498    0.001
 5932.00    3.77316   3.30150    0.001
 5933.00    3.75883   3.28483    0.001
 5934.00    3.75040   3.27560    0.001
 5935.00    3.72268   3.28254    0.001
 5936.00    3.67826   3.29915    0.001
 5937.00    3.70307   3.30706    0.001
 5938.00    3.78068   3.30198    0.001
 5939.00    3.86625   3.29834    0.001
 5940.00    3.95717   3.30663    0.001
 5941.00    3.94895   3.31988    0.001
 5942.00    3.88253   3.32761    0.001
 5943.00    3.76001   3.32545    0.001
 5944.00    3.60876   3.31188    0.001
 5945.00    3.62708   3.29270    0.001
 5946.00    3.72059   3.28450    0.001
 5947.00    3.80062   3.29310    0.001
 5948.00    3.87553   3.30874    0.001
 5949.00    3.77132   3.32161    0.001
 5950.00    3.60916   3.32670    0.001
 5951.00    3.68330   3.32083    0.001
 5952.00    3.82143   3.30505    0.001
 5953.00    3.60879   3.29328    0.001
 5954.00    3.31824   3.29839    0.001
 5955.00    3.05989   3.30867    0.001
 5956.00    2.80724   3.30560    0.001
 5957.00    2.99855   3.29707    0.001
 5958.00    3.24984   3.30192    0.001
 5959.00    3.63479   3.31277    0.001
 5960.00    4.03259   3.31050    0.001
 5961.00    3.97613   3.29993    0.001
 5962.00    3.89258   3.29889    0.001
 5963.00    3.84700   3.31131    0.001
 5964.00    3.80307   3.32833    0.001
 5965.00    3.86421   3.34099    0.001
 5966.00    3.93282   3.34744    0.001
 5967.00    4.19178   3.34908    0.001
 5968.00    4.43097   3.34653    0.001
 5969.00    4.40408   3.33993    0.001
 5970.00    4.32314   3.33393    0.001
 5971.00    3.75850   3.33537    0.001
 5972.00    3.27390   3.34277    0.001
 5973.00    3.31621   3.35076    0.001
 5974.00    3.36145   3.35747    0.001
 5975.00    3.42165   3.36231    0.001
 5976.00    3.47729   3.36491    0.001
 5977.00    3.51404   3.36390    0.001
 5978.00    3.58470   3.35642    0.001
 5979.00    3.77148   3.34024    0.001
 5980.00    3.92914   3.32058    0.001
 5981.00    4.00275   3.30688    0.001
 5982.00    4.09202   3.30393    0.001
 5983.00    4.21989   3.31315    0.001
 5984.00    4.20825   3.33064    0.001
 5985.00    3.90016   3.34593    0.001
 5986.00    3.59638   3.34641    0.001
 5987.00    3.30057   3.32785    0.001
 5988.00    3.11957   3.30373    0.001
 5989.00    3.12372   3.29690    0.001
 5990.00    3.11442   3.31006    0.001
 5991.00    3.08608   3.32578    0.001
 5992.00    3.03991   3.33487    0.001
 5993.00    2.97154   3.34165    0.001
 5994.00    2.96447   3.34530    0.001
 5995.00    3.02465   3.34293    0.001
 5996.00    3.17917   3.34285    0.001
 5997.00    3.42501   3.35331    0.001
 5998.00    3.45222   3.36594    0.001
 5999.00    3.29287   3.36879    0.001
 6000.00    2.93815   3.36034    0.001
 6001.00    2.43660   3.34614    0.001
 6002.00    2.40276   3.33634    0.001
 6003.00    2.67779   3.33864    0.001
 6004.00    3.12073   3.34881    0.001
 6005.00    3.66076   3.35480    0.001
 6006.00    3.76523   3.34923    0.001
 6007.00    3.65027   3.34061    0.001
 6008.00    3.66000   3.34159    0.001
 6009.00    3.72410   3.34820    0.001
 6010.00    4.08326   3.34593    0.001
 6011.00    4.55283   3.33010    0.001
 6012.00    4.42349   3.31383    0.001
 6013.00    4.10404   3.31810    0.001
 6014.00    3.60788   3.34275    0.001
 6015.00    3.06486   3.36200    0.001
 6016.00    3.19462   3.35882    0.001
 6017.00    3.47027   3.34426    0.001
 6018.00    4.00789   3.33859    0.001
 6019.00    4.59060   3.34313    0.001
 6020.00    4.37961   3.34454    0.001
 6021.00    4.06499   3.34303    0.001
 6022.00    3.63902   3.34570    0.001
 6023.00    3.20283   3.34401    0.001
 6024.00    3.35772   3.33230    0.001
 6025.00    3.54553   3.32345    0.001
 6026.00    3.53858   3.32671    0.001
 6027.00    3.52491   3.33461    0.001
 6028.00    3.26557   3.34079    0.001
 6029.00    3.02367   3.34949    0.001
 6030.00    3.18622   3.35864    0.001
 6031.00    3.34036   3.36193    0.001
 6032.00    3.38720   3.36535    0.001
 6033.00    3.42951   3.37379    0.001
 6034.00    3.43288   3.38090    0.001
 6035.00    3.45469   3.38378    0.001
 6036.00    3.59427   3.38662    0.001
 6037.00    3.68413   3.39119    0.001
 6038.00    3.52557   3.39393    0.001
 6039.00    3.35484   3.39348    0.001
 6040.00    3.13486   3.39339    0.001
 6041.00    2.92100   3.39605    0.001
 6042.00    2.72770   3.39873    0.001
 6043.00    2.61466   3.39752    0.001
 6044.00    2.72906   3.39220    0.001
 6045.00    2.93187   3.38609    0.001
 6046.00    3.34884   3.38329    0.001
 6047.00    3.64371   3.38780    0.001
 6048.00    3.68331   3.39753    0.001
 6049.00    3.55492   3.40469    0.001
 6050.00    3.12121   3.40690    0.001
 6051.00    2.84380   3.40737    0.001
 6052.00    2.81473   3.40781    0.001
 6053.00    2.97637   3.40854    0.001
 6054.00    3.40395   3.41103    0.001
 6055.00    3.77106   3.41328    0.001
 6056.00    4.06396   3.41000    0.001
 6057.00    4.13933   3.40132    0.001
 6058.00    3.97938   3.39264    0.001
 6059.00    3.88259   3.38507    0.001
 6060.00    3.84605   3.37844    0.001
 6061.00    3.79519   3.37904    0.001
 6062.00    3.73228   3.38935    0.001
 6063.00    3.68483   3.40258    0.001
 6064.00    3.64883   3.41123    0.001
 6065.00    3.46656   3.41329    0.001
 6066.00    3.18911   3.40892    0.001
 6067.00    3.04965   3.39879    0.001
 6068.00    2.98876   3.38240    0.001
 6069.00    3.17646   3.36370    0.001
 6070.00    3.48741   3.36070    0.001
 6071.00    3.67243   3.38212    0.001
 6072.00    3.80345   3.40953    0.001
 6073.00    3.70705   3.42522    0.001
 6074.00    3.52707   3.43005    0.001
 6075.00    3.67776   3.43094    0.001
 6076.00    3.93139   3.43238    0.001
 6077.00    3.92878   3.43428    0.001
 6078.00    3.85967   3.43468    0.001
 6079.00    3.64561   3.43317    0.001
 6080.00    3.40086   3.42821    0.001
 6081.00    3.34900   3.41633    0.001
 6082.00    3.32940   3.39851    0.001
 6083.00    3.17730   3.38694    0.001
 6084.00    3.00849   3.38974    0.001
 6085.00    2.88678   3.39468    0.001
 6086.00    2.76920   3.39109    0.001
 6087.00    3.12525   3.38713    0.001
 6088.00    3.50583   3.38855    0.001
 6089.00    3.87888   3.38972    0.001
 6090.00    4.24101   3.39101    0.001
 6091.00    3.81418   3.39773    0.001
 6092.00    3.39555   3.40547    0.001
 6093.00    3.15167   3.40452    0.001
 6094.00    2.96130   3.39515    0.001
 6095.00    3.41950   3.38813    0.001
 6096.00    3.82153   3.38870    0.001
 6097.00    3.75758   3.39351    0.001
 6098.00    3.65261   3.40253    0.001
 6099.00    3.29337   3.41526    0.001
 6100.00    3.01813   3.42330    0.001
 6101.00    3.15218   3.42388    0.001
 6102.00    3.27402   3.42534    0.001
 6103.00    3.34751   3.43146    0.001
 6104.00    3.40884   3.43318    0.001
 6105.00    3.43016   3.41424    0.001
 6106.00    3.41819   3.37129    0.001
 6107.00    3.31355   3.33646    0.001
 6108.00    3.27675   3.34688    0.001
 6109.00    3.40150   3.38840    0.001
 6110.00    3.52501   3.41841    0.001
 6111.00    3.64598   3.42295    0.001
 6112.00    3.56376   3.41808    0.001
 6113.00    3.11786   3.42118    0.001
 6114.00    2.77898   3.42965    0.001
 6115.00    2.60760   3.43079    0.001
 6116.00    2.66955   3.42738    0.001
 6117.00    3.05217   3.43056    0.001
 6118.00    3.32003   3.43799    0.001
 6119.00    3.44906   3.43846    0.001
 6120.00    3.46480   3.43037    0.001
 6121.00    3.35971   3.42556    0.001
 6122.00    3.24334   3.42955    0.001
 6123.00    3.11637   3.43066    0.001
 6124.00    3.07900   3.41847    0.001
 6125.00    3.11597   3.39346    0.001
 6126.00    3.06688   3.36757    0.001
 6127.00    2.95495   3.36537    0.001
 6128.00    2.95070   3.39197    0.001
 6129.00    3.01548   3.41855    0.001
 6130.00    3.16188   3.42549    0.001
 6131.00    3.35404   3.41989    0.001
 6132.00    3.61175   3.41329    0.001
 6133.00    3.90146   3.41333    0.001
 6134.00    3.86245   3.42295    0.001
 6135.00    3.68485   3.43652    0.001
 6136.00    3.26038   3.44630    0.001
 6137.00    2.74679   3.45022    0.001
 6138.00    2.73529   3.44432    0.001
 6139.00    2.87706   3.41713    0.001
 6140.00    3.07557   3.36462    0.001
 6141.00    3.28849   3.31342    0.001
 6142.00    3.44609   3.30938    0.001
 6143.00    3.59226   3.35786    0.001
 6144.00    3.58436   3.40594    0.001
 6145.00    3.55142   3.41145    0.001
 6146.00    3.42145   3.39551    0.001
 6147.00    3.27969   3.40144    0.001
 6148.00    3.27652   3.42998    0.001
 6149.00    3.28492   3.45199    0.001
 6150.00    3.32593   3.45596    0.001
 6151.00    3.36850   3.44787    0.001
 6152.00    3.30775   3.43432    0.001
 6153.00    3.24800   3.42226    0.001
 6154.00    3.33272   3.41633    0.001
 6155.00    3.41162   3.41790    0.001
 6156.00    3.37620   3.42760    0.001
 6157.00    3.33459   3.43920    0.001
 6158.00    3.22140   3.44085    0.001
 6159.00    3.15649   3.43278    0.001
 6160.00    3.47776   3.42854    0.001
 6161.00    3.81462   3.43099    0.001
 6162.00    4.24532   3.43349    0.001
 6163.00    4.59144   3.43142    0.001
 6164.00    4.53552   3.41242    0.001
 6165.00    4.43785   3.36572    0.001
 6166.00    4.17840   3.31279    0.001
 6167.00    3.93021   3.29405    0.001
 6168.00    3.71838   3.31874    0.001
 6169.00    3.57514   3.35893    0.001
 6170.00    3.61938   3.38874    0.001
 6171.00    3.64430   3.40346    0.001
 6172.00    3.62397   3.39909    0.001
 6173.00    3.62604   3.37116    0.001
 6174.00    3.67348   3.34614    0.001
 6175.00    3.69738   3.35791    0.001
 6176.00    3.67982   3.39349    0.001
 6177.00    3.64721   3.41678    0.001
 6178.00    3.59138   3.42303    0.001
 6179.00    3.47396   3.42565    0.001
 6180.00    3.27311   3.42655    0.001
 6181.00    3.12368   3.42768    0.001
 6182.00    3.03560   3.43567    0.001
 6183.00    3.02571   3.44524    0.001
 6184.00    3.09802   3.44756    0.001
 6185.00    3.18710   3.44975    0.001
 6186.00    3.29174   3.45838    0.001
 6187.00    3.42152   3.46644    0.001
 6188.00    3.57185   3.46905    0.001
 6189.00    3.64861   3.46621    0.001
 6190.00    3.67243   3.45600    0.001
 6191.00    3.65840   3.44222    0.001
 6192.00    3.62046   3.43388    0.001
 6193.00    3.34867   3.43050    0.001
 6194.00    2.94775   3.41791    0.001
 6195.00    2.34191   3.39039    0.001
 6196.00    1.63766   3.37523   -2.000
 6197.00    2.36534   3.39721   -2.000
 6198.00    3.68660   3.43501   -2.000
 6199.00    4.07845   3.45902   -2.000
 6200.00    4.14087   3.47043   -2.000
 6201.00    4.15267   3.47783   -2.000
 6202.00    4.14933   3.47529   -2.000
 6203.00    3.44352   3.45667   -2.000
 6204.00    2.56323   3.43603   -2.000
 6205.00    2.62548   3.43576   -2.000
 6206.00    2.87753   3.45585   -2.000
 6207.00    3.42699   3.47630   -2.000
 6208.00    4.02336   3.48507    0.001
 6209.00    3.79915   3.48648    0.001
 6210.00    3.47879   3.48830    0.001
 6211.00    3.28646   3.49145    0.001
 6212.00    3.10430   3.49316    0.001
 6213.00    3.36604   3.49249    0.001
 6214.00    3.64733   3.48915    0.001
 6215.00    3.72766   3.48253    0.001
 6216.00    3.80253   3.47007    0.001
 6217.00    3.72155   3.44762    0.001
 6218.00    3.65681   3.42158    0.001
 6219.00    3.88878   3.40753    0.001
 6220.00    4.10931   3.41271    0.001
 6221.00    4.20375   3.43125    0.001
 6222.00    4.26662   3.44591    0.001
 6223.00    4.08568   3.44206    0.001
 6224.00    3.93828   3.42916    0.001
 6225.00    3.98712   3.42829    0.001
 6226.00    4.07545   3.44276    0.001
 6227.00    4.34692   3.45843    0.001
 6228.00    4.48266   3.46491    0.001
 6229.00    4.10381   3.46629    0.001
 6230.00    3.73744   3.46917    0.001
 6231.00    3.41056   3.47226    0.001
 6232.00    3.20806   3.46970    0.001
 6233.00    3.33942   3.45234    0.001
 6234.00    3.43985   3.41859    0.001
 6235.00    3.46906   3.38910    0.001
 6236.00    3.44401   3.38736    0.001
 6237.00    3.31084   3.41152    0.001
 6238.00    3.24116   3.44638    0.001
 6239.00    3.28169   3.47799    0.001
 6240.00    3.40885   3.49207    0.001
 6241.00    3.66762   3.48404    0.001
 6242.00    3.72835   3.46415    0.001
 6243.00    3.52466   3.44564    0.001
 6244.00    3.32736   3.43550    0.001
 6245.00    3.13756   3.43590    0.001
 6246.00    3.01890   3.43878    0.001
 6247.00    2.97401   3.43130    0.001
 6248.00    3.03744   3.41888    0.001
 6249.00    3.19993   3.41274    0.001
 6250.00    3.34482   3.41161    0.001
 6251.00    3.47552   3.41918    0.001
 6252.00    3.58310   3.44202    0.001
 6253.00    3.67427   3.46968    0.001
 6254.00    3.72342   3.48444    0.001
 6255.00    3.74643   3.47684    0.001
 6256.00    3.89884   3.44906    0.001
 6257.00    4.12162   3.41906    0.001
 6258.00    4.26718   3.40586    0.001
 6259.00    4.37625   3.40830    0.001
 6260.00    4.68153   3.41137    0.001
 6261.00    5.06676   3.40642    0.001
 6262.00    5.20691   3.39875    0.001
 6263.00    5.26178   3.40194    0.001
 6264.00    4.97448   3.42208    0.001
 6265.00    4.58681   3.44730    0.001
 6266.00    4.00914   3.46827    0.001
 6267.00    3.38531   3.48543    0.001
 6268.00    3.14428   3.49086    0.001
 6269.00    2.97838   3.48076    0.001
 6270.00    3.16765   3.47308    0.001
 6271.00    3.41128   3.48122    0.001
 6272.00    3.58662   3.49228    0.001
 6273.00    3.75425   3.49207    0.001
 6274.00    3.71681   3.48537    0.001
 6275.00    3.66394   3.48379    0.001
 6276.00    3.69595   3.49097    0.001
 6277.00    3.73138   3.50077    0.001
 6278.00    3.75959   3.50566    0.001
 6279.00    3.78137   3.50645    0.001
 6280.00    3.54439   3.50720    0.000
 6281.00    3.33066   3.50556    0.000
 6282.00    3.51311   3.49815    0.000
 6283.00    3.69975   3.48498    0.000
 6284.00    3.93048   3.46924    0.000
 6285.00    4.11411   3.46173    0.000
 6286.00    3.94623   3.47001    0.000
 6287.00    3.83807   3.48749    0.000
 6288.00    4.06964   3.50351    0.000
 6289.00    4.25973   3.51197    0.000
 6290.00    4.26196   3.51555    0.000
 6291.00    4.22794   3.52240    0.000
 6292.00    4.05937   3.53228    0.000
 6293.00    3.86412   3.53681    0.000
 6294.00    3.58604   3.53033    0.000
 6295.00    3.29198   3.51727    0.000
 6296.00    2.95579   3.50806    0.000
 6297.00    2.78542   3.50713    0.000
 6298.00    2.99055   3.51181    0.000
 6299.00    3.19772   3.51427    0.000
 6300.00    3.40887   3.50545    0.000
 6301.00    3.43162   3.48828    0.000
 6302.00    3.13226   3.47754    0.000
 6303.00    2.97817   3.48012    0.000
 6304.00    3.04160   3.48356    0.000
 6305.00    3.31823   3.47338    0.000
 6306.00    3.87542   3.45856    0.000
 6307.00    4.08829   3.46120    0.000
 6308.00    3.90201   3.48246    0.000
 6309.00    3.62200   3.50300    0.000
 6310.00    3.24618   3.51487    0.000
 6311.00    3.17110   3.52662    0.000
 6312.00    3.36719   3.53913    0.000
 6313.00    3.31004   3.54161    0.000
 6314.00    3.05165   3.53059    0.000
 6315.00    2.83116   3.51581    0.000
 6316.00    2.63716   3.50871    0.000
 6317.00    2.61190   3.50874    0.000
 6318.00    2.69009   3.50242    0.000
 6319.00    2.70581   3.48636    0.000
 6320.00    2.68807   3.47650    0.000
 6321.00    2.73402   3.47606    0.001
 6322.00    2.80957   3.47034    0.001
 6323.00    3.01404   3.46574    0.001
 6324.00    3.27015   3.47989    0.001
 6325.00    3.42309   3.50306    0.001
 6326.00    3.54078   3.51603    0.001
 6327.00    3.53573   3.52134    0.001
 6328.00    3.49539   3.53179    0.001
 6329.00    3.56623   3.54630    0.001
 6330.00    3.66346   3.55441    0.001
 6331.00    3.66603   3.55316    0.001
 6332.00    3.65050   3.55015    0.001
 6333.00    3.39128   3.55066    0.001
 6334.00    3.09591   3.54955    0.001
 6335.00    3.04440   3.54686    0.001
 6336.00    3.01933   3.55090    0.001
 6337.00    3.26397   3.55866    0.001
 6338.00    3.52782   3.55372    0.001
 6339.00    3.44306   3.52712    0.001
 6340.00    3.34562   3.49541    0.001
 6341.00    3.25148   3.48457    0.001
 6342.00    3.16052   3.49671    0.001
 6343.00    3.18102   3.51504    0.001
 6344.00    3.19518   3.53233    0.001
 6345.00    3.10825   3.54781    0.001
 6346.00    3.04555   3.55232    0.001
 6347.00    3.22693   3.54041    0.001
 6348.00    3.40964   3.52251    0.001
 6349.00    3.60201   3.51252    0.001
 6350.00    3.76190   3.50879    0.001
 6351.00    3.74203   3.50644    0.001
 6352.00    3.68170   3.51397    0.001
 6353.00    3.44245   3.53622    0.001
 6354.00    3.30768   3.55976    0.001
 6355.00    3.55266   3.57218    0.001
 6356.00    3.72267   3.57618    0.001
 6357.00    3.66429   3.57279    0.001
 6358.00    3.54177   3.55888    0.001
 6359.00    3.25308   3.54158    0.001
 6360.00    2.97401   3.53503    0.001
 6361.00    2.71635   3.53679    0.001
 6362.00    2.59658   3.52959    0.001
 6363.00    2.74299   3.51291    0.001
 6364.00    2.87189   3.50187    0.001
 6365.00    2.97132   3.49803    0.001
 6366.00    2.95127   3.49320    0.001
 6367.00    2.75491   3.49061    0.001
 6368.00    2.58606   3.49838    0.001
 6369.00    2.45292   3.51465    0.001
 6370.00    2.45334   3.53172    0.001
 6371.00    2.60642   3.54716    0.001
 6372.00    2.89821   3.56089    0.001
 6373.00    3.32982   3.56636    0.001
 6374.00    3.70347   3.55745    0.001
 6375.00    4.02561   3.54484    0.001
 6376.00    3.94697   3.54687    0.001
 6377.00    3.55437   3.56504    0.001
 6378.00    3.39509   3.58458    0.001
 6379.00    3.39655   3.59300    0.001
 6380.00    3.40196   3.59304    0.001
 6381.00    3.40975   3.59058    0.001
 6382.00    3.28301   3.58315    0.001
 6383.00    3.08534   3.57185    0.001
 6384.00    3.08376   3.56404    0.001
 6385.00    3.17186   3.56355    0.001
 6386.00    3.09597   3.56959    0.001
 6387.00    2.95553   3.57724    0.001
 6388.00    2.77399   3.57946    0.001
 6389.00    2.57867   3.57815    0.001
 6390.00    2.42773   3.58205    0.001
 6391.00    2.28928   3.59158    0.001
 6392.00    2.36337   3.59933    0.001
 6393.00    2.48678   3.60197    0.001
 6394.00    2.76579   3.60129    0.001
 6395.00    3.07379   3.59550    0.001
 6396.00    3.17314   3.57674    0.001
 6397.00    3.24250   3.54511    0.001
 6398.00    3.12735   3.52373    0.001
 6399.00    2.99299   3.53533    0.001
 6400.00    2.85449   3.56834    0.001
 6401.00    2.71570   3.59425    0.001
 6402.00    2.71654   3.59652    0.001
 6403.00    2.72192   3.56960    0.001
 6404.00    2.97294   3.52877    0.001
 6405.00    3.21393   3.51444    0.001
 6406.00    3.14134   3.54230    0.001
 6407.00    3.08312   3.58080    0.001
 6408.00    3.24030   3.60257    0.001
 6409.00    3.39652   3.60688    0.001
 6410.00    3.54348   3.59774    0.001
 6411.00    3.64508   3.57742    0.001
 6412.00    3.42980   3.55723    0.001
 6413.00    3.22353   3.55607    0.001
 6414.00    3.06581   3.57017    0.001
 6415.00    2.98320   3.57327    0.001
 6416.00    3.22502   3.56439    0.001
 6417.00    3.36440   3.56608    0.001
 6418.00    3.13910   3.57871    0.001
 6419.00    2.87829   3.58798    0.001
 6420.00    2.51131   3.59254    0.001
 6421.00    2.23687   3.59527    0.001
 6422.00    2.19799   3.59420    0.001
 6423.00    2.30526   3.58502    0.001
 6424.00    2.73273   3.56521    0.001
 6425.00    3.14274   3.54691    0.001
 6426.00    3.51955   3.55283    0.001
 6427.00    3.77241   3.58530    0.001
 6428.00    3.81965   3.61792    0.001
 6429.00    3.73909   3.63122    0.001
 6430.00    3.47270   3.63362    0.001
 6431.00    3.15306   3.63806    0.001
 6432.00    2.76535   3.64186    0.001
 6433.00    2.60749   3.63289    0.001
 6434.00    2.70862   3.60507    0.001
 6435.00    2.92503   3.57249    0.001
 6436.00    3.25599   3.56097    0.001
 6437.00    3.28529   3.57655    0.001
 6438.00    3.05019   3.60271    0.001
 6439.00    2.73519   3.62518    0.001
 6440.00    2.35847   3.63741    0.001
 6441.00    2.42478   3.63301    0.001
 6442.00    2.79185   3.60735    0.001
 6443.00    3.04749   3.57488    0.001
 6444.00    3.23685   3.56907    0.001
 6445.00    3.14212   3.59908    0.001
 6446.00    2.89996   3.63510    0.001
 6447.00    2.80898   3.65331    0.001
 6448.00    2.78600   3.65791    0.001
 6449.00    2.96873   3.65999    0.001
 6450.00    3.23103   3.66345    0.001
 6451.00    3.34499   3.66375    0.001
 6452.00    3.41013   3.64782    0.001
 6453.00    3.25737   3.60481    0.001
 6454.00    3.04450   3.55479    0.001
 6455.00    2.98395   3.54179    0.001
 6456.00    2.95794   3.57454    0.001
 6457.00    3.17009   3.61624    0.001
 6458.00    3.42543   3.63420    0.001
 6459.00    3.57623   3.62174    0.001
 6460.00    3.71250   3.59588    0.001
 6461.00    3.41670   3.58763    0.001
 6462.00    3.07777   3.61000    0.001
 6463.00    2.91543   3.64368    0.001
 6464.00    2.76425   3.66136    0.001
 6465.00    2.79051   3.64661    0.001
 6466.00    2.82128   3.60043    0.001
 6467.00    2.66891   3.55592    0.001
 6468.00    2.52530   3.55590    0.001
 6469.00    2.62586   3.59454    0.001
 6470.00    2.73924   3.63157    0.001
 6471.00    3.03400   3.65002    0.001
 6472.00    3.29323   3.65397    0.001
 6473.00    3.22331   3.64705    0.001
 6474.00    3.14382   3.63388    0.001
 6475.00    2.99954   3.61997    0.001
 6476.00    2.89761   3.61232    0.001
 6477.00    3.01775   3.61907    0.001
 6478.00    3.09233   3.63254    0.001
 6479.00    2.97449   3.63552    0.001
 6480.00    2.85535   3.63157    0.001
 6481.00    2.73169   3.63597    0.001
 6482.00    2.67433   3.64662    0.001
 6483.00    2.81148   3.65185    0.001
 6484.00    2.94598   3.64688    0.001
 6485.00    3.07386   3.62801    0.001
 6486.00    3.14459   3.59886    0.001
 6487.00    3.09215   3.58035    0.001
 6488.00    3.09645   3.58902    0.001
 6489.00    3.20692   3.61533    0.001
 6490.00    3.24833   3.63816    0.001
 6491.00    3.17692   3.65007    0.001
 6492.00    3.16933   3.65464    0.001
 6493.00    3.25318   3.65293    0.001
 6494.00    3.28097   3.64299    0.001
 6495.00    3.23807   3.62672    0.001
 6496.00    3.18818   3.60635    0.001
 6497.00    3.13052   3.57343    0.001
 6498.00    3.18298   3.52020    0.001
 6499.00    3.34333   3.46548    0.001
 6500.00    3.43771   3.43994    0.001
 6501.00    3.47508   3.45133    0.001
 6502.00    3.33468   3.48554    0.001
 6503.00    3.05898   3.52252    0.001
 6504.00    2.94120   3.55314    0.001
 6505.00    2.92906   3.58270    0.001
 6506.00    3.07413   3.61030    0.001
 6507.00    3.31130   3.62952    0.001
 6508.00    3.51425   3.64070    0.001
 6509.00    3.69972   3.64786    0.001
 6510.00    3.74411   3.65330    0.001
 6511.00    3.72607   3.65551    0.001
 6512.00    3.63855   3.65280    0.001
 6513.00    3.52462   3.64941    0.001
 6514.00    3.51211   3.65100    0.001
 6515.00    3.53232   3.65667    0.001
 6516.00    3.57290   3.66094    0.001
 6517.00    3.61898   3.66126    0.001
 6518.00    3.29078   3.65601    0.001
 6519.00    2.87970   3.64207    0.001
 6520.00    2.63036   3.62235    0.001
 6521.00    2.40955   3.60626    0.001
 6522.00    2.74972   3.59925    0.001
 6523.00    3.16536   3.60242    0.001
 6524.00    3.52853   3.61722    0.001
 6525.00    3.88668   3.63830    0.001
 6526.00    4.00489   3.65271    0.001
 6527.00    4.10890   3.65521    0.001
 6528.00    3.79219   3.65312    0.000
 6529.00    3.46589   3.65102    0.000
 6530.00    3.28175   3.64239    0.000
 6531.00    3.11181   3.62730    0.000
 6532.00    3.29966   3.62043    0.000
 6533.00    3.46693   3.62995    0.000
 6534.00    3.35915   3.64494    0.000
 6535.00    3.24818   3.65004    0.000
 6536.00    3.10884   3.64188    0.000
 6537.00    3.02078   3.63032    0.000
 6538.00    3.26900   3.62762    0.000
 6539.00    3.48988   3.63676    0.000
 6540.00    3.57098   3.64914    0.000
 6541.00    3.61696   3.65473    0.000
 6542.00    3.51797   3.65423    0.000
 6543.00    3.37939   3.65526    0.000
 6544.00    3.10553   3.65872    0.000
 6545.00    2.87207   3.65761    0.000
 6546.00    2.75498   3.64824    0.000
 6547.00    2.73657   3.63499    0.000
 6548.00    2.96085   3.62111    0.000
 6549.00    3.14882   3.60129    0.000
 6550.00    3.25981   3.57361    0.000
 6551.00    3.44441   3.55333    0.000
 6552.00    3.76463   3.55515    0.000
 6553.00    3.96101   3.56896    0.000
 6554.00    3.95803   3.57377    0.000
 6555.00    3.80214   3.56262    0.000
 6556.00    3.43032   3.54153    0.000
 6557.00    3.08706   3.51617    0.000
 6558.00    2.77929   3.48445    0.000
 6559.00    2.73476   3.44338    0.000
 6560.00    2.97855   3.39883    0.000
 6561.00    3.59158   3.35711    0.000
 6562.00    4.56131   3.30961    0.000
 6563.00    5.72835   3.23768    0.000
 6564.00    7.06348   3.12217    0.000
 6565.00    8.01617   2.93545    0.000
 6566.00    8.68194   2.67549    0.000
 6567.00    8.34624   2.44975    0.000
 6568.00    7.35040   2.42823    0.000
 6569.00    6.19155   2.63993    0.000
 6570.00    4.93862   2.92824    0.000
 6571.00    4.11959   3.14770    0.000
 6572.00    3.51872   3.27437    0.000
 6573.00    3.06266   3.34145    0.000
 6574.00    2.66961   3.38376    0.000
 6575.00    2.57023   3.42218    0.000
 6576.00    2.58050   3.45441    0.000
 6577.00    2.90090   3.47159    0.000
 6578.00    3.31950   3.47889    0.000
 6579.00    3.48616   3.48970    0.000
 6580.00    3.58620   3.51061    0.000
 6581.00    3.69053   3.53548    0.000
 6582.00    3.79579   3.55591    0.000
 6583.00    4.21929   3.57146    0.000
 6584.00    4.69736   3.58411    0.000
 6585.00    4.94816   3.59061    0.000
 6586.00    5.16941   3.58870    0.000
 6587.00    4.95359   3.58964    0.000
 6588.00    4.69785   3.60209    0.000
 6589.00    4.45724   3.61928    0.000
 6590.00    4.21747   3.63165    0.000
 6591.00    4.16637   3.63834    0.000
 6592.00    4.11666   3.64985    0.000
 6593.00    3.81396   3.66633    0.000
 6594.00    3.50536   3.67731    0.000
 6595.00    3.06126   3.67266    0.000
 6596.00    2.64283   3.64480    0.000
 6597.00    2.54974   3.60247    0.000
 6598.00    2.49690   3.57838    0.000
 6599.00    2.78902   3.59524    0.000
 6600.00    3.03952   3.63328    0.000
 6601.00    3.02526   3.65810    0.000
 6602.00    3.02571   3.66158    0.000
 6603.00    3.09942   3.65991    0.000
 6604.00    3.18638   3.66906    0.000
 6605.00    3.32685   3.68730    0.000
 6606.00    3.43974   3.70149    0.000
 6607.00    3.46030   3.70369    0.000
 6608.00    3.48957   3.69497    0.000
 6609.00    3.54351   3.68270    0.001
 6610.00    3.61995   3.67575    0.001
 6611.00    3.75078   3.67311    0.001
 6612.00    3.84936   3.66523    0.001
 6613.00    3.88065   3.65199    0.001
 6614.00    3.83475   3.64929    0.001
 6615.00    3.64882   3.66745    0.001
 6616.00    3.43871   3.69248    0.001
 6617.00    3.19024   3.70539    0.001
 6618.00    3.03681   3.70678    0.001
 6619.00    3.01566   3.70974    0.001
 6620.00    3.08324   3.71853    0.001
 6621.00    3.25950   3.72565    0.001
 6622.00    3.47522   3.72766    0.001
 6623.00    3.73354   3.72932    0.001
 6624.00    3.78005   3.73416    0.001
 6625.00    3.62480   3.73950    0.001
 6626.00    3.50035   3.74008    0.001
 6627.00    3.40178   3.73255    0.001
 6628.00    3.24670   3.71764    0.001
 6629.00    3.04985   3.70307    0.001
 6630.00    2.96536   3.69947    0.001
 6631.00    2.95383   3.70689    0.001
 6632.00    2.91083   3.71476    0.001
 6633.00    2.84994   3.71764    0.001
 6634.00    2.48093   3.71737    0.001
 6635.00    1.95945   3.71407    0.001
 6636.00    1.84099   3.70390    0.001
 6637.00    1.89498   3.68451    0.001
 6638.00    2.23123   3.66529    0.001
 6639.00    2.67099   3.66405    0.001
 6640.00    3.13258   3.68482    0.001
 6641.00    3.60097   3.71176    0.001
 6642.00    3.79676   3.72843    0.001
 6643.00    3.92200   3.73018    0.001
 6644.00    3.61252   3.72410    0.001
 6645.00    3.21131   3.72172    0.001
 6646.00    3.13084   3.72215    0.001
 6647.00    3.10383   3.71232    0.001
 6648.00    3.26656   3.69601    0.001
 6649.00    3.45311   3.69430    0.001
 6650.00    3.47704   3.71015    0.001
 6651.00    3.48680   3.72588    0.001
 6652.00    3.40957   3.73255    0.001
 6653.00    3.32789   3.73598    0.001
 6654.00    3.14529   3.74033    0.001
 6655.00    2.96335   3.74311    0.001
 6656.00    2.95416   3.74289    0.001
 6657.00    2.94259   3.74132    0.001
 6658.00    2.88065   3.74082    0.001
 6659.00    2.81237   3.74237    0.001
 6660.00    2.66788   3.74396    0.001
 6661.00    2.57885   3.74450    0.001
 6662.00    2.94775   3.74600    0.001
 6663.00    3.26265   3.74756    0.001
 6664.00    3.24407   3.74557    0.001
 6665.00    3.21603   3.73908    0.001
 6666.00    3.14198   3.72649    0.001
 6667.00    3.00718   3.70686    0.001
 6668.00    2.63251   3.69090    0.001
 6669.00    2.41552   3.69307    0.001
 6670.00    2.71627   3.70665    0.001
 6671.00    3.01035   3.71466    0.001
 6672.00    3.28590   3.71720    0.001
 6673.00    3.41478   3.72432    0.001
 6674.00    3.19513   3.73787    0.001
 6675.00    3.06558   3.75031    0.001
 6676.00    3.12098   3.75600    0.001
 6677.00    3.25048   3.75698    0.001
 6678.00    3.51234   3.75668    0.001
 6679.00    3.49116   3.75308    0.001
 6680.00    3.02775   3.72758    0.001
 6681.00    2.63389   3.65498    0.001
 6682.00    2.33545   3.55909    0.001
 6683.00    2.33223   3.51309    0.001
 6684.00    2.68555   3.55312    0.001
 6685.00    2.86292   3.63891    0.001
 6686.00    2.85298   3.70396    0.001
 6687.00    2.81279   3.73037    0.001
 6688.00    2.74421   3.74151    0.001
 6689.00    2.83657   3.75086    0.001
 6690.00    3.06220   3.75853    0.001
 6691.00    3.26397   3.76241    0.001
 6692.00    3.44836   3.76293    0.001
 6693.00    3.47953   3.76370    0.001
 6694.00    3.41264   3.76711    0.001
 6695.00    3.33475   3.77111    0.001
 6696.00    3.25071   3.77316    0.000
 6697.00    3.00618   3.77389    0.000
 6698.00    2.68350   3.77344    0.000
 6699.00    2.59258   3.76697    0.000
 6700.00    2.59916   3.75202    0.000
 6701.00    2.63484   3.73780    0.000
 6702.00    2.68100   3.73566    0.000
 6703.00    2.59783   3.74460    0.000
 6704.00    2.47528   3.75720    0.000
 6705.00    2.55258   3.76816    0.000
 6706.00    2.68049   3.77250    0.000
 6707.00    3.27572   3.76718    0.000
 6708.00    3.96715   3.75575    0.000
 6709.00    4.26678   3.74833    0.000
 6710.00    4.50297   3.75220    0.000
 6711.00    4.33201   3.76323    0.000
 6712.00    4.11175   3.77235    0.000
 6713.00    3.94248   3.77576    0.000
 6714.00    3.77743   3.77406    0.000
 6715.00    3.63677   3.77055    0.000
 6716.00    3.49726   3.76860    0.000
 6717.00    4.17389   3.76610    0.000
 6718.00    4.85568   3.76092    0.000
 6719.00    5.18090   3.75358    0.000
 6720.00    5.44940   3.74085    0.000
 6721.00    4.61298   3.72125    0.000
 6722.00    3.81218   3.70641    0.000
 6723.00    3.42009   3.71312    0.000
 6724.00    3.07573   3.73763    0.000
 6725.00    3.11154   3.75749    0.000
 6726.00    3.09852   3.76358    0.000
 6727.00    2.79271   3.76732    0.000
 6728.00    2.52715   3.77734    0.000
 6729.00    2.45231   3.78501    0.000
 6730.00    2.54834   3.78182    0.000
 6731.00    3.30450   3.77556    0.000
 6732.00    3.99212   3.77709    0.000
 6733.00    4.45907   3.78530    0.000
 6734.00    4.70063   3.79286    0.000
 6735.00    4.32761   3.79717    0.000
 6736.00    3.91472   3.79798    0.000
 6737.00    3.40867   3.79580    0.000
 6738.00    3.04373   3.79451    0.000
 6739.00    2.96389   3.79784    0.000
 6740.00    2.95396   3.80298    0.000
 6741.00    3.06700   3.80273    0.000
 6742.00    3.10764   3.79334    0.000
 6743.00    3.03681   3.78033    0.000
 6744.00    3.06163   3.77426    0.000
 6745.00    3.21576   3.77797    0.000
 6746.00    3.43843   3.78202    0.000
 6747.00    3.74272   3.77862    0.000
 6748.00    4.02214   3.77395    0.000
 6749.00    4.27546   3.77647    0.000
 6750.00    4.19949   3.78293    0.000
 6751.00    3.81862   3.78708    0.000
 6752.00    3.59996   3.78657    0.000
 6753.00    3.51371   3.78037    0.001
 6754.00    3.63621   3.77164    0.001
 6755.00    3.90868   3.76856    0.001
 6756.00    3.87858   3.77355    0.001
 6757.00    3.65772   3.77928    0.001
 6758.00    3.33228   3.78385    0.001
 6759.00    2.94922   3.79165    0.001
 6760.00    2.80422   3.80095    0.001
 6761.00    2.77330   3.80864    0.001
 6762.00    2.99999   3.81577    0.001
 6763.00    3.33323   3.82289    0.001
 6764.00    3.46524   3.82809    0.001
 6765.00    3.52609   3.82943    0.001
 6766.00    3.55441   3.82750    0.001
 6767.00    3.57302   3.82598    0.001
 6768.00    3.59104   3.82721    0.001
 6769.00    3.60892   3.82754    0.001
 6770.00    3.65008   3.82047    0.001
 6771.00    3.69590   3.80455    0.001
 6772.00    3.57346   3.78851    0.001
 6773.00    3.42458   3.78500    0.001
 6774.00    3.49492   3.79314    0.001
 6775.00    3.59083   3.79866    0.001
 6776.00    3.61064   3.79772    0.001
 6777.00    3.62445   3.80141    0.001
 6778.00    3.60458   3.81460    0.001
 6779.00    3.58325   3.83014    0.001
 6780.00    3.49482   3.84063    0.001
 6781.00    3.40150   3.84493    0.001
 6782.00    3.11290   3.84537    0.001
 6783.00    2.82641   3.84419    0.001
 6784.00    2.57804   3.84217    0.001
 6785.00    2.37366   3.83848    0.001
 6786.00    2.65086   3.83036    0.001
 6787.00    2.92291   3.81518    0.001
 6788.00    3.15536   3.79719    0.001
 6789.00    3.32337   3.78656    0.001
 6790.00    3.11582   3.78832    0.001
 6791.00    2.88974   3.79898    0.001
 6792.00    2.57800   3.81368    0.001
 6793.00    2.40481   3.82763    0.001
 6794.00    2.75548   3.83540    0.001
 6795.00    3.01839   3.83801    0.001
 6796.00    3.00417   3.83977    0.001
 6797.00    3.15305   3.83861    0.001
 6798.00    3.73867   3.83354    0.001
 6799.00    4.11822   3.83050    0.001
 6800.00    4.02427   3.83205    0.001
 6801.00    3.91113   3.83565    0.001
 6802.00    3.75981   3.83958    0.001
 6803.00    3.76600   3.84224    0.001
 6804.00    4.04508   3.84350    0.001
 6805.00    4.07543   3.84617    0.001
 6806.00    3.72848   3.85035    0.001
 6807.00    3.29415   3.85217    0.001
 6808.00    2.74335   3.84953    0.001
 6809.00    2.49927   3.84637    0.001
 6810.00    2.61519   3.84588    0.001
 6811.00    3.00630   3.84548    0.001
 6812.00    3.68223   3.84637    0.001
 6813.00    4.18599   3.84961    0.001
 6814.00    4.53258   3.85012    0.001
 6815.00    4.38202   3.84889    0.001
 6816.00    3.83143   3.85221    0.001
 6817.00    3.53932   3.85708    0.001
 6818.00    3.43022   3.85568    0.001
 6819.00    3.43568   3.84938    0.001
 6820.00    3.51230   3.84864    0.001
 6821.00    3.55606   3.85889    0.001
 6822.00    3.58199   3.87109    0.001
 6823.00    3.63815   3.87309    0.001
 6824.00    3.70856   3.86528    0.001
 6825.00    3.62096   3.85898    0.001
 6826.00    3.46912   3.86350    0.001
 6827.00    3.23455   3.87567    0.001
 6828.00    2.97126   3.88618    0.001
 6829.00    3.27791   3.89125    0.001
 6830.00    3.75132   3.89099    0.001
 6831.00    3.69129   3.88411    0.001
 6832.00    3.50204   3.86990    0.001
 6833.00    3.48170   3.85623    0.001
 6834.00    3.49440   3.85565    0.001
 6835.00    3.28363   3.86798    0.001
 6836.00    3.03880   3.87985    0.001
 6837.00    3.65546   3.88266    0.001
 6838.00    4.36881   3.88192    0.001
 6839.00    4.43377   3.88538    0.001
 6840.00    4.45027   3.89000    0.001
 6841.00    4.17298   3.88833    0.001
 6842.00    3.88404   3.87842    0.001
 6843.00    3.30735   3.86313    0.001
 6844.00    2.74796   3.84527    0.001
 6845.00    2.95449   3.82729    0.001
 6846.00    3.13167   3.81359    0.001
 6847.00    2.81289   3.81158    0.001
 6848.00    2.56771   3.82567    0.001
 6849.00    3.09254   3.85093    0.001
 6850.00    3.52125   3.87451    0.001
 6851.00    3.23575   3.88678    0.001
 6852.00    2.97293   3.88982    0.001
 6853.00    2.83872   3.89048    0.001
 6854.00    2.74121   3.89183    0.001
 6855.00    2.80937   3.89402    0.001
 6856.00    2.85660   3.89735    0.001
 6857.00    2.82630   3.89978    0.001
 6858.00    2.88667   3.89323    0.001
 6859.00    3.22793   3.87268    0.001
 6860.00    3.46392   3.85089    0.001
 6861.00    3.42297   3.84514    0.001
 6862.00    3.41411   3.85313    0.001
 6863.00    3.47775   3.86367    0.001
 6864.00    3.57690   3.87130    0.001
 6865.00    3.74555   3.87078    0.001
 6866.00    3.93495   3.86433    0.001
 6867.00    4.15978   3.86686    0.001
 6868.00    4.36199   3.88452    0.001
 6869.00    4.53041   3.90406    0.001
 6870.00    4.95262   3.91097    0.000
 6871.00    5.70823   3.90168    0.000
 6872.00    6.22058   3.88171    0.000
 6873.00    6.45143   3.86693    0.000
 6874.00    6.34173   3.87175    0.000
 6875.00    5.88451   3.88599    0.000
 6876.00    5.32715   3.88987    0.000
 6877.00    4.67966   3.88502    0.000
 6878.00    3.96628   3.88491    0.000
 6879.00    3.20063   3.89012    0.000
 6880.00    2.67666   3.89364    0.000
 6881.00    2.32132   3.89778    0.000
 6882.00    2.51990   3.90746    0.001
 6883.00    3.05742   3.91743    0.001
 6884.00    3.52329   3.91859    0.001
 6885.00    3.95087   3.90945    0.001
 6886.00    4.03290   3.89367    0.001
 6887.00    3.95462   3.87835    0.001
 6888.00    3.81370   3.87544    0.001
 6889.00    3.64774   3.88686    0.001
 6890.00    3.43685   3.89801    0.001
 6891.00    3.21064   3.90180    0.001
 6892.00    3.19982   3.90694    0.001
 6893.00    3.25075   3.91392    0.001
 6894.00    3.39335   3.91676    0.001
 6895.00    3.55767   3.91950    0.001
 6896.00    3.60531   3.92429    0.001
 6897.00    3.63072   3.92606    0.001
 6898.00    3.72110   3.92568    0.001
 6899.00    3.82108   3.92523    0.001
 6900.00    3.71006   3.92259    0.001
 6901.00    3.57628   3.92209    0.001
 6902.00    3.11950   3.93042    0.001
 6903.00    2.63989   3.94095    0.001
 6904.00    2.30116   3.94283    0.001
 6905.00    1.96749   3.94062    0.001
 6906.00    2.02786   3.94605    0.001
 6907.00    2.08626   3.95643    0.001
 6908.00    2.03138   3.96016    0.001
 6909.00    1.98512   3.95638    0.001
 6910.00    2.07541   3.95421    0.001
 6911.00    2.20027   3.95795    0.001
 6912.00    2.67141   3.96312    0.001
 6913.00    3.14235   3.96489    0.001
 6914.00    3.61196   3.96410    0.001
 6915.00    4.00731   3.96298    0.001
 6916.00    3.99317   3.95923    0.001
 6917.00    3.93221   3.94983    0.001
 6918.00    3.66484   3.93459    0.001
 6919.00    3.39831   3.92014    0.001
 6920.00    3.13488   3.91603    0.001
 6921.00    3.04924   3.92034    0.001
 6922.00    3.50395   3.92720    0.001
 6923.00    3.79153   3.93810    0.001
 6924.00    3.64710   3.95260    0.001
 6925.00    3.46268   3.96611    0.001
 6926.00    3.18936   3.97464    0.001
 6927.00    2.92781   3.97358    0.001
 6928.00    2.68894   3.95949    0.001
 6929.00    2.71129   3.93904    0.001
 6930.00    3.17269   3.92704    0.001
 6931.00    3.57668   3.93170    0.001
 6932.00    3.89612   3.94748    0.001
 6933.00    3.88517   3.96112    0.001
 6934.00    3.44640   3.96650    0.001
 6935.00    3.18020   3.96802    0.001
 6936.00    3.11088   3.96737    0.001
 6937.00    3.06033   3.96077    0.001
 6938.00    3.02868   3.95266    0.001
 6939.00    3.12777   3.95463    0.001
 6940.00    3.34289   3.96591    0.001
 6941.00    3.36017   3.97424    0.001
 6942.00    3.22277   3.97532    0.001
 6943.00    3.11057   3.97444    0.001
 6944.00    3.01569   3.97652    0.001
 6945.00    2.92592   3.98151    0.001
 6946.00    2.83922   3.98427    0.001
 6947.00    2.68489   3.97843    0.001
 6948.00    2.49498   3.96281    0.001
 6949.00    2.62618   3.94274    0.001
 6950.00    2.90394   3.93049    0.001
 6951.00    2.73403   3.93649    0.001
 6952.00    2.38829   3.95482    0.001
 6953.00    1.68962   3.97231    0.001
 6954.00    0.87290   3.98134    0.001
 6955.00    1.54556   3.97764    0.001
 6956.00    2.63655   3.96544    0.001
 6957.00    2.81457   3.95745    0.001
 6958.00    2.78131   3.95796    0.001
 6959.00    2.83996   3.96185    0.001
 6960.00    2.91568   3.96801    0.001
 6961.00    3.11946   3.97839    0.001
 6962.00    3.34158   3.98976    0.001
 6963.00    3.43932   3.99598    0.001
 6964.00    3.52417   3.99691    0.001
 6965.00    3.27947   3.99694    0.001
 6966.00    3.01281   3.99909    0.001
 6967.00    2.77493   4.00272    0.001
 6968.00    2.53808   4.00532    0.001
 6969.00    2.75787   4.00424    0.001
 6970.00    2.96945   3.99989    0.001
 6971.00    2.92957   3.99946    0.001
 6972.00    2.92592   4.00831    0.001
 6973.00    3.46152   4.01978    0.001
 6974.00    3.93070   4.02300    0.001
 6975.00    3.76216   4.01685    0.001
 6976.00    3.56569   4.01104    0.001
 6977.00    3.17493   4.01395    0.001
 6978.00    2.84218   4.02027    0.001
 6979.00    2.82086   4.01744    0.001
 6980.00    2.78430   4.00092    0.001
 6981.00    2.68205   3.97393    0.001
 6982.00    2.62255   3.93990    0.001
 6983.00    2.71485   3.90953    0.001
 6984.00    2.92452   3.90544    0.001
 6985.00    3.48422   3.93612    0.001
 6986.00    3.81550   3.98011    0.001
 6987.00    3.56659   4.01379    0.001
 6988.00    3.34473   4.03245    0.001
 6989.00    3.18201   4.04029    0.001
 6990.00    3.06481   4.04148    0.001
 6991.00    3.03396   4.03869    0.001
 6992.00    3.09911   4.03194    0.001
 6993.00    3.32320   4.02209    0.001
 6994.00    3.64011   4.01627    0.001
 6995.00    4.09172   4.02203    0.001
 6996.00    4.28321   4.03601    0.001
 6997.00    4.14269   4.04725    0.001
 6998.00    3.87754   4.04950    0.001
 6999.00    3.47221   4.04694    0.001
 7000.00    3.10203   4.04811    0.001
 7001.00    2.76670   4.05334    0.001
 7002.00    2.53202   4.05336    0.001
 7003.00    2.38539   4.03976    0.001
 7004.00    2.53718   4.01776    0.001
 7005.00    2.91900   4.00640    0.001
 7006.00    3.24767   4.01540    0.001
 7007.00    3.54033   4.02969    0.001
 7008.00    3.44698   4.02902    0.001
 7009.00    3.12442   4.01386    0.001
 7010.00    3.02215   4.00126    0.001
 7011.00    3.03395   4.00249    0.001
 7012.00    3.09066   4.01576    0.001
 7013.00    3.16753   4.03312    0.001
 7014.00    3.00208   4.04603    0.001
 7015.00    2.74309   4.04955    0.001
 7016.00    3.01080   4.04681    0.001
 7017.00    3.45137   4.04558    0.001
 7018.00    3.47851   4.04667    0.001
 7019.00    3.39192   4.03691    0.001
 7020.00    3.23073   4.00477    0.001
 7021.00    3.05268   3.96801    0.001
 7022.00    3.39682   3.96407    0.001
 7023.00    3.83532   4.00081    0.001
 7024.00    3.10331   4.04612    0.001
 7025.00    2.20916   4.07188    0.001
 7026.00    1.92945   4.07315    0.001
 7027.00    1.71074   4.05428    0.001
 7028.00    2.02290   4.02588    0.001
 7029.00    2.36833   4.00753    0.001
 7030.00    2.78189   4.01139    0.001
 7031.00    3.19771   4.02826    0.001
 7032.00    3.69737   4.04302    0.001
 7033.00    4.15333   4.05274    0.001
 7034.00    3.40900   4.06095    0.001
 7035.00    2.76256   4.06785    0.001
 7036.00    3.49050   4.07149    0.001
 7037.00    4.04574   4.07047    0.001
 7038.00    3.00876   4.06569    0.001
 7039.00    2.17101   4.06112    0.001
 7040.00    2.67584   4.06147    0.001
 7041.00    3.16738   4.06277    0.001
 7042.00    3.58940   4.05230    0.001
 7043.00    3.85272   4.03539    0.001
 7044.00    3.44787   4.04003    0.001
 7045.00    3.17905   4.07478    0.001
 7046.00    3.38344   4.11531    0.001
 7047.00    3.41860   4.13889    0.001
 7048.00    2.95844   4.14149    0.001
 7049.00    2.86246   4.13032    0.001
 7050.00    3.67558   4.11887   -2.000
 7051.00    4.26640   4.11934   -2.000
 7052.00    4.37905   4.13205   -2.000
 7053.00    4.21844   4.14646   -2.000
 7054.00    3.54750   4.15217   -2.000
 7055.00    3.11703   4.14506   -2.000
 7056.00    3.07872   4.12406   -2.000
 7057.00    3.13208   4.09267   -2.000
 7058.00    3.31656   4.06456   -2.000
 7059.00    3.33352   4.05388   -2.000
 7060.00    3.13969   4.06085   -2.000
 7061.00    3.28913   4.07556   -2.000
 7062.00    3.81925   4.08730   -2.000
 7063.00    3.82756   4.08742   -2.000
 7064.00    3.32549   4.07433   -2.000
 7065.00    3.22022   4.05929   -2.000
 7066.00    3.45721   4.05654   -2.000
 7067.00    3.63075   4.06665   -2.000
 7068.00    3.75607   4.08130   -2.000
 7069.00    3.34172   4.09405   -2.000
 7070.00    2.56701   4.09689   -2.000
 7071.00    3.11809   4.08365   -2.000
 7072.00    4.44454   4.06023   -2.000
 7073.00    4.71869   4.04259   -2.000
 7074.00    4.45638   4.04633   -2.000
 7075.00    3.83094   4.06960   -2.000
 7076.00    3.04515   4.09325   -2.000
 7077.00    3.20871   4.10587   -2.000
 7078.00    3.73225   4.11158   -2.000
 7079.00    3.20850   4.11443   -2.000
 7080.00    2.34750   4.11366   -2.000
 7081.00    2.04963   4.11077   -2.000
 7082.00    1.90347   4.10925   -2.000
 7083.00    2.42676   4.11026   -2.000
 7084.00    3.09787   4.11312   -2.000
 7085.00    2.46071   4.11635   -2.000
 7086.00    1.59358   4.11465   -2.000
 7087.00    1.91065   4.09974   -2.000
 7088.00    2.38635   4.06884   -2.000
 7089.00    2.71254   4.03277   -2.000
 7090.00    3.02452   4.01185   -2.000
 7091.00    2.70097   4.01291   -2.000
 7092.00    2.34013   4.02068   -2.000
 7093.00    3.65784   4.02157   -2.000
 7094.00    4.99960   4.01530   -2.000
 7095.00    3.98602   4.00723   -2.000
 7096.00    2.98320   4.00459   -2.000
 7097.00    2.24808   4.00799   -2.000
 7098.00    1.60314   4.01100   -2.000
 7099.00    2.15595   4.01174   -2.000
 7100.00    2.69352   4.01160   -2.000
 7101.00    3.09599   4.01261   -2.000
 7102.00    3.48254   4.01965   -2.000
 7103.00    3.76505   4.03816   -2.000
 7104.00    3.88455   4.06439   -2.000
 7105.00    3.17371   4.08236   -2.000
 7106.00    2.60254   4.08578   -2.000
 7107.00    2.60626   4.08265   -2.000
 7108.00    2.62202   4.08270   -2.000
 7109.00    2.67886   4.08931   -2.000
 7110.00    2.78489   4.09608   -2.000
 7111.00    3.03225   4.09522   -2.000
 7112.00    3.28997   4.08950   -2.000
 7113.00    3.57309   4.08660   -2.000
 7114.00    3.55917   4.08475   -2.000
 7115.00    2.91667   4.07574   -2.000
 7116.00    2.58891   4.06270   -2.000
 7117.00    2.83988   4.05992   -2.000
 7118.00    2.86337   4.07194   -2.000
 7119.00    2.52139   4.08832   -2.000
 7120.00    2.32018   4.10020   -2.000
 7121.00    2.31742   4.10827   -2.000
 7122.00    3.00583   4.11366   -2.000
 7123.00    4.55157   4.11530   -2.000
 7124.00    4.59370   4.11389   -2.000
 7125.00    2.99187   4.10956   -2.000
 7126.00    2.62334   4.10074   -2.000
 7127.00    3.44415   4.09303   -2.000
 7128.00    3.44091   4.09793   -2.000
 7129.00    2.73690   4.11137   -2.000
 7130.00    2.03857   4.11655   -2.000
 7131.00    1.34450   4.11213   -2.000
 7132.00    1.45040   4.11034   -2.000
 7133.00    2.08266   4.11211   -2.000
 7134.00    2.44825   4.10566   -2.000
 7135.00    2.66024   4.08781   -2.000
 7136.00    3.06010   4.07436   -2.000
 7137.00    3.55423   4.08125   -2.000
 7138.00    3.60404   4.10403   -2.000
 7139.00    3.46089   4.12781   -2.000
 7140.00    3.66631   4.14413   -2.000
 7141.00    4.00157   4.15322   -2.000
 7142.00    3.71152   4.15726   -2.000
 7143.00    3.22396   4.15470   -2.000
 7144.00    3.24088   4.14799   -2.000
 7145.00    3.39085   4.14635   -2.000
 7146.00    3.25958   4.15157   -2.000
 7147.00    3.06769   4.15565   -2.000
 7148.00    3.29159   4.15575   -2.000
 7149.00    3.58656   4.15541   -2.000
 7150.00    3.28451   4.15513   -2.000
 7151.00    2.90519   4.14837   -2.000
 7152.00    2.86999   4.12718   -2.000
 7153.00    2.86604   4.10153   -2.000
 7154.00    3.29948   4.09626   -2.000
 7155.00    3.75685   4.11529   -2.000
 7156.00    3.33333   4.14154   -2.000
 7157.00    2.90052   4.16585   -2.000
 7158.00    3.30420   4.18331   -2.000
 7159.00    3.76390   4.18608   -2.000
 7160.00    5.49532   4.17961   -2.000
 7161.00    7.03271   4.18107   -2.000
 7162.00    6.12623   4.19313   -2.000
 7163.00    5.09728   4.20004   -2.000
 7164.00    3.02347   4.19398   -2.000
 7165.00    1.13736   4.18501   -2.000
 7166.00    0.44090   4.18297   -2.000
 7167.00    0.17852   4.18132   -2.000
 7168.00    2.07140   4.16315   -2.000
 7169.00    3.64596   4.12698   -2.000
 7170.00    3.93922   4.09974   -2.000
 7171.00    4.12368   4.10795   -2.000
 7172.00    3.94468   4.14377   -2.000
 7173.00    3.50508   4.17800   -2.000
 7174.00    2.33036   4.19400   -2.000
 7175.00    1.72636   4.19727   -2.000
 7176.00    2.49895   4.20144   -2.000
 7177.00    2.96445   4.21079   -2.000
 7178.00    2.79052   4.21813   -2.000
 7179.00    3.30750   4.21582   -2.000
 7180.00    5.07539   4.20175   -2.000
 7181.00    5.64533   4.18446   -2.000
 7182.00    4.31905   4.18007   -2.000
 7183.00    3.47805   4.18714   -2.000
 7184.00    3.31127   4.18253   -2.000
 7185.00    3.48425   4.15661   -2.000
 7186.00    4.07268   4.13137   -2.000
 7187.00    4.24633   4.13518   -2.000
 7188.00    3.97285   4.16773   -2.000
 7189.00    4.03962   4.20010   -2.000
 7190.00    4.42989   4.20902   -2.000
 7191.00    4.23632   4.19138   -2.000
 7192.00    3.55328   4.15811   -2.000
 7193.00    3.50732   4.13235   -2.000
 7194.00    3.93160   4.13005   -2.000
 7195.00    3.96294   4.14622   -2.000
 7196.00    3.73952   4.16607   -2.000
 7197.00    4.05346   4.17674   -2.000
 7198.00    4.67222   4.17779   -2.000
 7199.00    5.73321   4.18076   -2.000
 7200.00    7.01261   4.19014   -2.000
 7201.00    6.61762   4.19585   -2.000
 7202.00    5.50764   4.19522   -2.000
 7203.00    4.17540   4.20084   -2.000
 7204.00    2.76184   4.21605   -2.000
 7205.00    2.02673   4.22648   -2.000
 7206.00    1.50178   4.22261   -2.000
 7207.00    1.41817   4.21523   -2.000
 7208.00    1.44847   4.22106   -2.000
 7209.00    1.45955   4.23825   -2.000
 7210.00    1.46658   4.24385   -2.000
 7211.00    1.77077   4.21885   -2.000
 7212.00    2.12432   4.17655   -2.000
 7213.00    2.51093   4.15449   -2.000
 7214.00    2.90168   4.17009   -2.000
 7215.00    2.95494   4.20766   -2.000
 7216.00    2.97897   4.24264   -2.000
 7217.00    2.26595   4.25797   -2.000
 7218.00    1.51549   4.25228   -2.000
