###################################################################
## OUTPUT of StarlightChains_v04.for    [Cid@UFSC - 01/Apr/2007] ##
###################################################################

## Some input info
KUG0210-078._42_7.txt                    [arq_obs]
Base.CB07.vall.4m                        [arq_base]
Masks.EmLines.NEW.gm                     [arq_masks]
StCv04.C11.config                        [arq_config]
   66                                    [N_base]
    0                                    [N_YAV_components = # of components with extra extinction!]
    0                                    [i_FitPowerLaw (1/0 = Yes/No)]
-9.99                                    [alpha_PowerLaw]
CCM                                      [red_law_option]
 1.458241                                [q_norm = A(l_norm)/A(V)]

## (Re)Sampling Parameters
 3741.00                                 [l_ini (A)]
 7218.00                                 [l_fin (A)]
    1.00                                 [dl    (A)]     (OBS: dl_cushion =    50.00 A)

## Normalization info
 4020.00                                 [l_norm (A) - for base]
 4010.00                                 [llow_norm (A) - window for f_obs]
 4060.00                                 [lupp_norm (A) - window for f_obs]
3.959077E-18                             [fobs_norm (in input units)]

## S/N
 3691.00                                 [llow_SN (A) - window for S/N]
 7268.00                                 [lupp_SN (A) - window for S/N]
   2.621                                 [S/N in S/N window]
   2.380                                 [S/N in norm. window]
   0.005                                 [S/N_err in S/N window]
   0.005                                 [S/N_err in norm. window]
  1.0000                                 [fscale_chi2]

## etc...
    -2007767                             [idum_orig]
  2355                                   [NOl_eff]
  2349                                   [Nl_eff]
     6    NSIGMA                         [Ntot_cliped & clip_method]
  1135190                                [Nglobal_steps]
   7                                     [N_chains]
  40                                     [NEX0s_base = N_base in EX0s-fits]
 0   0   1        6   2.0   4.029E+02    [Clip-Bug, RC-Crash & Burn-In warning-flags, n_censored_weights, wei_nsig_threshold & wei_limit]
    21     21.098     20.550      0.548  [idt_all, wdt_TotTime, wdt_UsrTime & wdt_SysTime (sec)]

## Synthesis Results - Best model ##

 5.97333E-06                             [chi2/Nl_eff]
    49.81788                             [adev (%)]

   130.00000                             [sum-of-x (%)]
 1.44367E-18                             [Flux_tot (units of input spectrum!)]
 1.12138E-13                             [Mini_tot (???)]
 5.69362E-14                             [Mcor_tot (???)]

 283.53                                  [v0_min  (km/s)]
 478.71                                  [vd_min  (km/s)]
-0.9465                                  [AV_min  (mag)]
 0.0000                                  [YAV_min (mag)]

# j     x_j(%)      Mini_j(%)     Mcor_j(%)     age_j(yr)     Z_j      (L/M)_j    YAV?  Mstars   component_j        a/Fe...       SSP_chi2r SSP_adev(%)   SSP_AV   SSP_x(%)
  1      8.8995     8.0560E-03    1.5867E-02    1.000000E+06  0.00400  1.094E-02    0   1.0000   age020_m42            0.0000     6.0939E-06    55.7611   2.7000   118.4627
  2      0.0000     0.0000E+00    0.0000E+00    3.160000E+06  0.00400  4.007E-02    0   0.9999   age045_m42            0.0000     6.0696E-06    55.4952   1.9696   126.6821
  3      0.0000     0.0000E+00    0.0000E+00    5.010000E+06  0.00400  2.539E-02    0   0.9488   age055_m42            0.0000     6.1002E-06    55.7869   2.2957   123.4091
  4      0.0000     0.0000E+00    0.0000E+00    6.610000E+06  0.00400  2.620E-02    0   0.9220   age061_m42            0.0000     6.1081E-06    55.7014   1.9024   126.7226
  5      0.0000     0.0000E+00    0.0000E+00    1.000000E+07  0.00400  1.322E-02    0   0.8862   age070_m42            0.0000     6.2515E-06    57.2209   1.6608   127.8046
  6      2.9576     3.7156E-03    6.2722E-03    1.445000E+07  0.00400  7.883E-03    0   0.8571   age078_m42            0.0000     6.2426E-06    57.1767   1.9815   124.8105
  7      0.0000     0.0000E+00    0.0000E+00    2.512000E+07  0.00400  5.251E-03    0   0.8174   age090_m42            0.0000     6.2892E-06    57.5029   1.5374   128.2666
  8      0.0000     0.0000E+00    0.0000E+00    4.000000E+07  0.00400  3.649E-03    0   0.7851   age104_m42            0.0000     6.2657E-06    57.2217   1.3036   129.6253
  9      0.0000     0.0000E+00    0.0000E+00    5.500000E+07  0.00400  3.098E-03    0   0.7629   age110_m42            0.0000     6.2133E-06    56.4136   1.4406   130.2539
 10      0.0000     0.0000E+00    0.0000E+00    1.015200E+08  0.00400  2.228E-03    0   0.7207   age116_m42            0.0000     6.1937E-06    55.8695   1.4488   130.9495
 11      0.3262     2.9558E-03    3.8701E-03    2.861200E+08  0.00400  1.093E-03    0   0.6648   age125_m42            0.0000     6.2650E-06    56.5074   0.8884   134.4146
 12      0.0000     0.0000E+00    0.0000E+00    5.088000E+08  0.00400  6.597E-04    0   0.6365   age130_m42            0.0000     6.2304E-06    55.5098   0.8618   136.2812
 13      0.0300     1.3953E-03    1.5934E-03    1.434000E+09  0.00400  2.132E-04    0   0.5798   age139_m42            0.0000     6.1332E-06    54.6800  -0.1228   139.8601
 14      0.0000     0.0000E+00    0.0000E+00    4.250000E+09  0.00400  5.895E-05    0   0.5377   age158_m42            0.0000     5.9496E-06    53.6204  -0.6068   136.6553
 15      0.0000     0.0000E+00    0.0000E+00    7.500000E+09  0.00400  3.510E-05    0   0.5212   age171_m42            0.0000     5.9303E-06    53.0803  -0.8103   136.4539
 16      2.8547     1.4100E+00    1.3980E+00    1.300000E+10  0.00400  2.005E-05    0   0.5034   age193_m42            0.0000     5.9246E-06    52.5986  -0.9876   136.2537
 17      4.2116     2.7350E+00    2.6755E+00    1.800000E+10  0.00400  1.525E-05    0   0.4967   age213_m42            0.0000     5.9238E-06    52.7919  -1.0000   135.3207
 18      0.0000     0.0000E+00    0.0000E+00    1.000000E+06  0.00800  1.238E-02    0   1.0000   age020_m52            0.0000     6.0953E-06    55.7589   2.6940   118.7654
 19      1.7146     5.5238E-04    1.0842E-03    3.160000E+06  0.00800  3.074E-02    0   0.9966   age045_m52            0.0000     6.1012E-06    55.7447   2.6173   119.8430
 20      0.0000     0.0000E+00    0.0000E+00    5.010000E+06  0.00800  2.668E-02    0   0.9443   age055_m52            0.0000     6.1150E-06    55.9004   2.3793   122.2734
 21      1.4165     6.5673E-04    1.1870E-03    6.610000E+06  0.00800  2.136E-02    0   0.9177   age061_m52            0.0000     6.1570E-06    56.8222   1.1529   129.8073
 22      0.0000     0.0000E+00    0.0000E+00    1.000000E+07  0.00800  1.215E-02    0   0.8827   age070_m52            0.0000     6.3013E-06    57.8459   1.8463   127.2198
 23      0.0000     0.0000E+00    0.0000E+00    1.445000E+07  0.00800  8.717E-03    0   0.8552   age078_m52            0.0000     6.2460E-06    57.2435   1.9504   126.4311
 24      0.0000     0.0000E+00    0.0000E+00    2.512000E+07  0.00800  5.592E-03    0   0.8162   age090_m52            0.0000     6.3012E-06    57.6760   1.6009   129.7642
 25      0.0000     0.0000E+00    0.0000E+00    4.000000E+07  0.00800  3.896E-03    0   0.7841   age104_m52            0.0000     6.2686E-06    57.2725   1.5041   131.1277
 26      0.0000     0.0000E+00    0.0000E+00    1.015200E+08  0.00800  2.148E-03    0   0.7226   age116_m52            0.0000     6.2148E-06    56.3999   1.4233   131.7160
 27      8.5233     8.5045E-02    1.1194E-01    2.861200E+08  0.00800  9.925E-04    0   0.6683   age125_m52            0.0000     6.2319E-06    55.4307   0.9285   137.4762
 28      0.0000     0.0000E+00    0.0000E+00    9.047900E+08  0.00800  3.141E-04    0   0.6138   age135_m52            0.0000     6.1143E-06    53.8968   0.0926   145.0688
 29      0.0000     0.0000E+00    0.0000E+00    1.434000E+09  0.00800  1.719E-04    0   0.5853   age139_m52            0.0000     6.0129E-06    54.0537  -0.4970   142.7672
 30      0.0000     0.0000E+00    0.0000E+00    2.500000E+09  0.00800  7.872E-05    0   0.5600   age150_m52            0.0000     5.9071E-06    52.6420  -0.8003   140.7186
 31      0.0000     0.0000E+00    0.0000E+00    4.250000E+09  0.00800  4.336E-05    0   0.5426   age158_m52            0.0000     5.9020E-06    52.5688  -0.8216   139.6871
 32      2.3229     7.2821E-01    7.6287E-01    6.250000E+09  0.00800  3.159E-05    0   0.5319   age166_m52            0.0000     5.9097E-06    51.8118  -1.0000   139.1720
 33      9.1526     6.6597E+00    6.6540E+00    1.300000E+10  0.00800  1.361E-05    0   0.5073   age193_m52            0.0000     6.3919E-06    52.7545  -1.0000   122.0184
 34      0.0000     0.0000E+00    0.0000E+00    1.800000E+10  0.00800  9.886E-06    0   0.4990   age213_m52            0.0000     6.6513E-06    52.5693  -1.0000   117.4729
 35      2.1923     1.4061E-03    2.7694E-03    1.000000E+06  0.02000  1.544E-02    0   1.0000   age020_m62            0.0000     6.1003E-06    55.7869   2.6918   118.9967
 36      2.3634     6.2213E-04    1.2079E-03    3.160000E+06  0.02000  3.762E-02    0   0.9858   age045_m62            0.0000     6.1130E-06    55.7787   2.6283   120.1221
 37      0.0000     0.0000E+00    0.0000E+00    5.010000E+06  0.02000  3.296E-02    0   0.9342   age055_m62            0.0000     6.0909E-06    55.5583   2.2491   125.1706
 38      0.0000     0.0000E+00    0.0000E+00    8.710000E+06  0.02000  1.154E-02    0   0.8861   age067_m62            0.0000     6.7270E-06    61.3502   1.3666   127.9526
 39      0.0000     0.0000E+00    0.0000E+00    1.445000E+07  0.02000  7.663E-03    0   0.8472   age078_m62            0.0000     6.4061E-06    58.9573   1.5137   129.2663
 40      0.0000     0.0000E+00    0.0000E+00    2.512000E+07  0.02000  4.532E-03    0   0.8099   age090_m62            0.0000     6.4541E-06    59.2475   1.5100   128.6998
 41      0.0000     0.0000E+00    0.0000E+00    5.500000E+07  0.02000  2.733E-03    0   0.7595   age110_m62            0.0000     6.2682E-06    57.3132   1.4908   130.0930
 42      0.0000     0.0000E+00    0.0000E+00    1.609000E+08  0.02000  1.369E-03    0   0.6985   age120_m62            0.0000     6.2414E-06    55.9642   1.3068   134.5823
 43      0.0000     0.0000E+00    0.0000E+00    2.861200E+08  0.02000  9.013E-04    0   0.6714   age125_m62            0.0000     6.2687E-06    55.0544   1.0428   139.0250
 44      2.4862     4.8969E-02    6.2198E-02    5.088000E+08  0.02000  5.028E-04    0   0.6449   age130_m62            0.0000     6.1912E-06    53.5777   0.6335   144.2164
 45      0.0000     0.0000E+00    0.0000E+00    9.047900E+08  0.02000  2.428E-04    0   0.6179   age135_m62            0.0000     6.0085E-06    53.0879   0.0122   145.2463
 46      1.7657     1.3845E-01    1.6110E-01    1.434000E+09  0.02000  1.263E-04    0   0.5908   age139_m62            0.0000     5.9234E-06    52.7649  -0.4466   144.0486
 47      0.0000     0.0000E+00    0.0000E+00    2.500000E+09  0.02000  5.985E-05    0   0.5673   age150_m62            0.0000     5.8662E-06    51.6438  -0.8441   143.6471
 48      0.0000     0.0000E+00    0.0000E+00    4.250000E+09  0.02000  3.271E-05    0   0.5468   age158_m62            0.0000     5.9278E-06    50.7294  -1.0000   137.6809
 49      0.2641     1.9230E-01    1.9569E-01    1.000000E+10  0.02000  1.360E-05    0   0.5167   age181_m62            0.0000     6.4247E-06    50.8850  -1.0000   124.6025
 50      0.0000     0.0000E+00    0.0000E+00    1.800000E+10  0.02000  7.124E-06    0   0.5013   age213_m62            0.0000     6.9474E-06    51.1411  -1.0000   115.7055
 51      0.1306     4.9897E-05    9.8254E-05    1.000000E+06  0.05000  2.592E-02    0   0.9998   age020_m72            0.0000     6.1125E-06    55.8711   2.6836   119.0309
 52      0.1648     3.3683E-05    6.3534E-05    3.160000E+06  0.05000  4.845E-02    0   0.9577   age045_m72            0.0000     6.1026E-06    55.6472   2.5077   121.8519
 53      0.5306     1.7105E-04    3.0816E-04    5.010000E+06  0.05000  3.072E-02    0   0.9147   age055_m72            0.0000     6.2983E-06    58.0773   2.0724   125.3308
 54      0.0000     0.0000E+00    0.0000E+00    6.610000E+06  0.05000  1.455E-02    0   0.8877   age061_m72            0.0000     7.0525E-06    63.7485   1.4273   127.9152
 55      0.0000     0.0000E+00    0.0000E+00    1.000000E+07  0.05000  9.074E-03    0   0.8524   age070_m72            0.0000     6.3530E-06    58.5348   2.2469   124.9737
 56      0.3295     7.6773E-04    1.1948E-03    2.512000E+07  0.05000  4.250E-03    0   0.7902   age090_m72            0.0000     6.3535E-06    58.3340   1.9549   127.1940
 57      0.0000     0.0000E+00    0.0000E+00    4.000000E+07  0.05000  3.087E-03    0   0.7618   age104_m72            0.0000     6.3927E-06    58.5736   1.7316   129.1192
 58      0.0000     0.0000E+00    0.0000E+00    1.015200E+08  0.05000  1.700E-03    0   0.7096   age116_m72            0.0000     6.3051E-06    56.7487   1.4575   133.5612
 59      0.0000     0.0000E+00    0.0000E+00    2.861200E+08  0.05000  7.384E-04    0   0.6633   age125_m72            0.0000     6.2144E-06    54.2512   0.8929   141.8181
 60      0.0000     0.0000E+00    0.0000E+00    5.088000E+08  0.05000  3.819E-04    0   0.6372   age130_m72            0.0000     6.0402E-06    53.0248   0.3607   146.2223
 61      2.5428     1.5025E-01    1.8081E-01    9.047900E+08  0.05000  1.676E-04    0   0.6110   age135_m72            0.0000     5.8724E-06    51.6701  -0.3885   146.4643
 62      3.7144     4.1625E-01    4.8156E-01    1.434000E+09  0.05000  8.837E-05    0   0.5874   age139_m72            0.0000     5.8889E-06    51.4950  -0.8541   146.2587
 63      7.6244     1.7837E+00    1.9666E+00    2.500000E+09  0.05000  4.233E-05    0   0.5598   age150_m72            0.0000     5.9256E-06    50.2946  -1.0000   139.0493
 64     13.1179     9.0529E+00    9.3589E+00    6.250000E+09  0.05000  1.435E-05    0   0.5249   age166_m72            0.0000     6.6000E-06    51.1805  -1.0000   120.5356
 65     50.3636     7.6579E+01    7.5955E+01    1.300000E+10  0.05000  6.513E-06    0   0.5036   age193_m72            0.0000     7.4092E-06    51.6940  -1.0000   110.8071
 66      0.0000     0.0000E+00    0.0000E+00    1.800000E+10  0.05000  4.527E-06    0   0.4945   age213_m72            0.0000     7.9736E-06    52.0585  -1.0000   104.3058


## Synthesis Results - Average & Chains ##

# j      x_j: min, <> & last-chain-values for 1 ...  7 chains
  1      8.8995      1.6438      0.2227      1.9386      0.0000      0.0894      2.9935      0.1838      0.0000
  2      0.0000      1.4600      0.0278      0.0000      0.0000      0.0000      0.0000      2.7379      0.0000
  3      0.0000      1.3597      2.2097      1.1478      0.2427      0.9565      0.3142      0.0000      0.0000
  4      0.0000      1.1693      0.0000      1.4631      1.5306      0.0000      0.2276      0.7716      0.0000
  5      0.0000      1.5062      0.0000      4.7959      0.0000      1.8762      2.4007      0.7011      2.0450
  6      2.9576      1.3238      0.0000      0.0000      1.3086      0.4668      3.0415      3.7989      0.0000
  7      0.0000      1.8562      0.5438      0.4613      0.2889      0.0000      0.0000      0.0486      0.0000
  8      0.0000      1.3955      2.2248      0.5834      0.6666      8.6323      1.1124      0.1131      0.0000
  9      0.0000      1.2329      0.0000      0.0000      0.4107      3.2816      2.2358      3.3905      0.0000
 10      0.0000      1.2655      1.9017      0.0000      2.7849      0.0000      2.1273      0.2772      0.0000
 11      0.3262      1.3987      0.0000      1.3350      0.0000      0.0000      0.6101      0.0000      0.0000
 12      0.0000      1.0858      2.2113      1.3016      0.0000      0.0000      0.3223      0.0000      0.0661
 13      0.0300      1.4403      1.0493      2.8181      0.1669      0.0000      1.0052      0.0615      0.0000
 14      0.0000      1.2381      0.0000      1.8755      0.3652      0.8352      2.5553      0.5380      5.1798
 15      0.0000      1.5410      1.4552      1.4545      0.0000      6.6279      0.0000      0.3634      0.0000
 16      2.8547      1.1776      1.0683      1.0954      1.9715      4.8846      0.5323      0.3140      0.2728
 17      4.2116      0.8929      2.3758      1.4489      0.0000      0.0000      1.0369      6.7132      0.6197
 18      0.0000      1.6230      0.0343      0.0958      0.8592      0.2096      0.9125      3.6638      0.0000
 19      1.7146      1.2737      0.9989      1.4375      3.3039      5.5557      7.2757      0.0000      0.5236
 20      0.0000      1.5813      0.4686      1.1703      0.0000      0.0000      0.0000      0.0345      0.0000
 21      1.4165      1.6989      0.5357      0.0000      0.0000      0.7343      8.8085      3.7051      0.6635
 22      0.0000      1.2608      0.0000      0.0000      0.0000      4.5190      0.0000      0.2905      1.0101
 23      0.0000      1.4669      0.0000      0.2521      2.5852      0.0000      6.1926      0.0000      6.8099
 24      0.0000      1.5178      0.9178      2.3029      0.0286      8.0139      0.0000      3.6986      0.0000
 25      0.0000      1.1626      1.1926      0.6272      0.0000      0.0000      0.0000      0.2005      2.5038
 26      0.0000      1.6534      0.1041      0.0438      1.7000      1.0542      0.0000      0.0000      1.7083
 27      8.5233      1.3291      0.5493      0.2228      0.0000      0.0000      0.5006      1.7475      2.8624
 28      0.0000      1.6056      0.0000      1.0866      0.0000      0.9411      0.0000      1.2288      2.8651
 29      0.0000      1.1579      1.3860      0.0000      1.1578      2.0067      1.4398      0.0000      1.8640
 30      0.0000      2.0602      0.0444      1.0431      6.4915      0.0676      0.6848      6.1741      3.6405
 31      0.0000      1.2058      0.0000      0.1282      7.2626      3.2209      0.2711      1.8188      6.5508
 32      2.3229      1.3416      0.0000      0.5191      0.0000      2.4887      2.4212      0.0236      0.0000
 33      9.1526      1.3231      0.7293      1.2191      0.5810      0.0000      1.0507      3.6126      0.0000
 34      0.0000      1.3498      1.5077      0.0000      7.5282      9.0658      0.0000      5.1631      3.6028
 35      2.1923      1.6894      0.2286      0.7364      2.6310      2.1185      8.0961      0.0000      0.0000
 36      2.3634      1.4367      1.5730      0.2045      0.0000      0.7242      1.2080      0.6887      1.5519
 37      0.0000      1.8671      2.2084      0.0000      0.0231      0.5156      0.9089      1.6331      0.0000
 38      0.0000      1.6957      0.2687      0.7043      0.0000      0.3796      0.0000      0.0000      1.5171
 39      0.0000      1.3064      1.9751      0.4584      0.0000      0.0000      0.0734      6.7437      1.8086
 40      0.0000      1.7604      0.3711      0.1537      5.0235      0.1018      0.0000      3.3212      0.9205
 41      0.0000      1.3491      1.0606      3.2423      0.3623      6.0671      2.0648      0.0716      1.1001
 42      0.0000      1.5493      0.0000      0.2240      0.6493      0.0000      0.0000      3.0788      1.9673
 43      0.0000      1.2501      0.2617      0.0000      0.0000      0.0000      0.0000      0.0000      2.0407
 44      2.4862      1.5950      0.8564      0.0000      0.0291      2.3059      0.4471      0.9790      0.0000
 45      0.0000      1.2707      1.1291      2.1068      0.6831      0.2809      0.0000      0.0000      0.0000
 46      1.7657      1.7964      0.0000      0.0000      0.0000      4.6369      1.9919      0.0000      2.3818
 47      0.0000      1.3278      1.0846      0.0000      9.2337      0.0000      0.3996      0.0000      0.0000
 48      0.0000      1.4036      0.0000      4.5807      1.7345      0.0000      4.8296      8.7917      0.3561
 49      0.2641      1.3011      0.0000      2.5222      4.2052      0.0084      2.7566      1.3466      1.2957
 50      0.0000      1.6053      0.5697      0.0000      9.2164      0.0000      2.2658      1.4311      1.6373
 51      0.1306      1.5254      0.6870      0.5343      6.1499      0.2026      0.7537      1.0898      0.0000
 52      0.1648      1.1475      0.0000      0.0000      0.0000      0.0000      0.6928      0.1369      0.0000
 53      0.5306      1.0501      0.0000      0.2946      0.8946      0.0000      1.3372      0.0000      1.0525
 54      0.0000      1.5151      0.6078      0.8390      0.7952      1.5013      0.0000      0.2375      1.8925
 55      0.0000      1.3960      0.0000      0.4428      0.0000      0.0882      0.1584      2.2986      1.9463
 56      0.3295      1.5125      0.8040      0.0000      0.0000      0.0000      0.4739      5.4630      4.8156
 57      0.0000      1.3735      0.7169      0.5562      0.0000      0.9885      0.7536      0.0000      0.9265
 58      0.0000      1.7385      0.0000      0.0000      0.0845      0.4509      0.2091      0.0000      0.3355
 59      0.0000      1.4178      0.4222      0.1135      3.9102      0.9965      0.0000      1.8395      0.9829
 60      0.0000      1.6597      2.0709      0.0000      0.2904      2.0546      0.2509      0.0000      1.0066
 61      2.5428      2.2735     16.9524      8.7477      0.0000      0.0232      0.5409      0.6006      2.9678
 62      3.7144      1.8885      3.4569      7.0543      1.3682      3.8962      0.6852      5.9370      1.5491
 63      7.6244      2.4762      8.4932     13.7184      0.0000      0.0000      0.7982      1.8559     10.1868
 64     13.1179      1.5189      6.2612      5.1661      0.0190      9.5582     12.4069      1.7379      3.5763
 65     50.3636      1.5497      8.5335      0.0000      9.9207      0.0000      6.3945      0.0000      2.2628
 66      0.0000      2.0498     12.5121     10.5342      0.2322      0.6142      0.1369      0.0000      8.1366

# j      m_j: min, <> & last-chain-values for 1 ...  7 chains
  1  1.5867E-02  1.5760E-02  7.3933E-04  8.9991E-03  0.0000E+00  6.4986E-04  1.8100E-02  1.4717E-03  0.0000E+00
  2  0.0000E+00  3.8213E-03  2.5199E-05  0.0000E+00  0.0000E+00  0.0000E+00  0.0000E+00  5.9862E-03  0.0000E+00
  3  0.0000E+00  5.3296E-03  2.9990E-03  2.1781E-03  3.8879E-04  2.8419E-03  7.7665E-04  0.0000E+00  0.0000E+00
  4  0.0000E+00  4.3162E-03  0.0000E+00  2.6147E-03  2.3088E-03  0.0000E+00  5.2972E-04  2.3792E-03  0.0000E+00
  5  0.0000E+00  1.0591E-02  0.0000E+00  1.6326E-02  0.0000E+00  9.9996E-03  1.0645E-02  4.1181E-03  7.1421E-03
  6  6.2722E-03  1.5097E-02  0.0000E+00  0.0000E+00  6.0986E-03  4.0350E-03  2.1875E-02  3.6190E-02  0.0000E+00
  7  0.0000E+00  3.0307E-02  3.0745E-03  3.6463E-03  1.9274E-03  0.0000E+00  0.0000E+00  6.6260E-04  0.0000E+00
  8  0.0000E+00  3.1493E-02  1.7384E-02  6.3746E-03  6.1473E-03  1.4767E-01  1.5832E-02  2.1315E-03  0.0000E+00
  9  0.0000E+00  3.1845E-02  0.0000E+00  0.0000E+00  4.3355E-03  6.4252E-02  3.6419E-02  7.3156E-02  0.0000E+00
 10  0.0000E+00  4.2938E-02  2.2341E-02  0.0000E+00  3.8612E-02  0.0000E+00  4.5519E-02  7.8554E-03  0.0000E+00
 11  3.8701E-03  8.9232E-02  0.0000E+00  4.1235E-02  0.0000E+00  0.0000E+00  2.4546E-02  0.0000E+00  0.0000E+00
 12  0.0000E+00  1.0989E-01  7.7488E-02  6.3773E-02  0.0000E+00  0.0000E+00  2.0571E-02  0.0000E+00  3.3233E-03
 13  1.5934E-03  4.1084E-01  1.0364E-01  3.8920E-01  1.9458E-02  0.0000E+00  1.8082E-01  1.4656E-02  0.0000E+00
 14  0.0000E+00  1.1845E+00  0.0000E+00  8.6873E-01  1.4277E-01  6.0571E-01  1.5417E+00  4.2997E-01  2.4615E+00
 15  0.0000E+00  2.4001E+00  7.8477E-01  1.0968E+00  0.0000E+00  7.8250E+00  0.0000E+00  4.7281E-01  0.0000E+00
 16  1.3980E+00  3.1012E+00  9.7415E-01  1.3967E+00  2.1217E+00  9.7507E+00  8.8408E-01  6.9078E-01  3.5686E-01
 17  2.6755E+00  3.0503E+00  2.8104E+00  2.3964E+00  0.0000E+00  0.0000E+00  2.2340E+00  1.9158E+01  1.0516E+00
 18  0.0000E+00  1.3751E-02  1.0066E-04  3.9288E-04  2.9747E-03  1.3460E-03  4.8755E-03  2.5930E-02  0.0000E+00
 19  1.0842E-03  4.3314E-03  1.1762E-03  2.3668E-03  4.5912E-03  1.4321E-02  1.5603E-02  0.0000E+00  8.8445E-04
 20  0.0000E+00  5.8705E-03  6.0231E-04  2.1034E-03  0.0000E+00  0.0000E+00  0.0000E+00  1.0689E-04  0.0000E+00
 21  1.1870E-03  7.6562E-03  8.3590E-04  0.0000E+00  0.0000E+00  2.5084E-03  2.5033E-02  1.3947E-02  1.4852E-03
 22  0.0000E+00  9.6074E-03  0.0000E+00  0.0000E+00  0.0000E+00  2.6103E-02  0.0000E+00  1.8492E-03  3.8231E-03
 23  0.0000E+00  1.5095E-02  0.0000E+00  1.2558E-03  1.0871E-02  0.0000E+00  4.0187E-02  0.0000E+00  3.4808E-02
 24  0.0000E+00  2.3237E-02  4.8652E-03  1.7070E-02  1.7900E-04  9.2999E-02  0.0000E+00  4.7300E-02  0.0000E+00
 25  0.0000E+00  2.4542E-02  8.7168E-03  6.4106E-03  0.0000E+00  0.0000E+00  0.0000E+00  3.5357E-03  2.6254E-02
 26  0.0000E+00  5.8339E-02  1.2714E-03  7.4746E-04  2.4512E-02  2.8198E-02  0.0000E+00  0.0000E+00  2.9941E-02
 27  1.1194E-01  9.3870E-02  1.3432E-02  7.6178E-03  0.0000E+00  0.0000E+00  2.2297E-02  1.0310E-01  1.0042E-01
 28  0.0000E+00  3.2911E-01  0.0000E+00  1.0784E-01  0.0000E+00  1.4622E-01  0.0000E+00  2.1040E-01  2.9170E-01
 29  0.0000E+00  4.1353E-01  1.7139E-01  0.0000E+00  1.6897E-01  5.4324E-01  3.2427E-01  0.0000E+00  3.3066E-01
 30  0.0000E+00  1.5372E+00  1.1474E-02  3.7684E-01  1.9794E+00  3.8206E-02  3.2224E-01  3.8484E+00  1.3493E+00
 31  0.0000E+00  1.5826E+00  0.0000E+00  8.1466E-02  3.8955E+00  3.2046E+00  2.2442E-01  1.9942E+00  4.2709E+00
 32  7.6287E-01  2.3693E+00  0.0000E+00  4.4383E-01  0.0000E+00  3.3317E+00  2.6966E+00  3.4814E-02  0.0000E+00
 33  6.6540E+00  5.1727E+00  9.8723E-01  2.3075E+00  9.2824E-01  0.0000E+00  2.5906E+00  1.1799E+01  0.0000E+00
 34  0.0000E+00  7.1460E+00  2.7639E+00  0.0000E+00  1.6287E+01  3.6383E+01  0.0000E+00  2.2834E+01  9.4746E+00
 35  2.7694E-03  1.1477E-02  5.3783E-04  2.4222E-03  7.3039E-03  1.0909E-02  3.4685E-02  0.0000E+00  0.0000E+00
 36  1.2079E-03  3.9487E-03  1.4970E-03  2.7213E-04  0.0000E+00  1.5088E-03  2.0938E-03  1.5812E-03  2.1187E-03
 37  0.0000E+00  5.5508E-03  2.2733E-03  0.0000E+00  2.8110E-05  1.1619E-03  1.7041E-03  4.0557E-03  0.0000E+00
 38  0.0000E+00  1.3657E-02  7.4927E-04  2.7465E-03  0.0000E+00  2.3174E-03  0.0000E+00  0.0000E+00  6.0691E-03
 39  0.0000E+00  1.5149E-02  7.9305E-03  2.5738E-03  0.0000E+00  0.0000E+00  5.3714E-04  6.5326E-02  1.0417E-02
 40  0.0000E+00  3.2998E-02  2.4087E-03  1.3950E-03  3.8479E-02  1.4459E-03  0.0000E+00  5.2005E-02  8.5705E-03
 41  0.0000E+00  3.9325E-02  1.0705E-02  4.5757E-02  4.3158E-03  1.3405E-01  3.7956E-02  1.7441E-03  1.5928E-02
 42  0.0000E+00  8.2913E-02  0.0000E+00  5.8046E-03  1.4201E-02  0.0000E+00  0.0000E+00  1.3764E-01  5.2295E-02
 43  0.0000E+00  9.7678E-02  7.0791E-03  0.0000E+00  0.0000E+00  0.0000E+00  0.0000E+00  0.0000E+00  7.9201E-02
 44  6.2198E-02  2.1457E-01  3.9893E-02  0.0000E+00  1.6022E-03  2.3515E-01  3.7932E-02  1.1003E-01  0.0000E+00
 45  0.0000E+00  3.3920E-01  1.0436E-01  2.7228E-01  7.4508E-02  5.6841E-02  0.0000E+00  0.0000E+00  0.0000E+00
 46  1.6110E-01  8.8140E-01  0.0000E+00  0.0000E+00  0.0000E+00  1.7245E+00  6.1635E-01  0.0000E+00  5.8046E-01
 47  0.0000E+00  1.3201E+00  3.7336E-01  0.0000E+00  3.7515E+00  0.0000E+00  2.5057E-01  0.0000E+00  0.0000E+00
 48  0.0000E+00  2.4611E+00  0.0000E+00  3.8886E+00  1.2428E+00  0.0000E+00  5.3404E+00  1.2877E+01  3.1012E-01
 49  1.9569E-01  5.1851E+00  0.0000E+00  4.8663E+00  6.8480E+00  2.5283E-02  6.9277E+00  4.4825E+00  2.5647E+00
 50  0.0000E+00  1.1848E+01  1.4558E+00  0.0000E+00  2.7798E+01  0.0000E+00  1.0547E+01  8.8236E+00  6.0028E+00
 51  9.8254E-05  6.1716E-03  9.6239E-04  1.0467E-03  1.0168E-02  6.2136E-04  1.9229E-03  3.6831E-03  0.0000E+00
 52  6.3534E-05  2.3791E-03  0.0000E+00  0.0000E+00  0.0000E+00  0.0000E+00  9.0591E-04  2.3708E-04  0.0000E+00
 53  3.0816E-04  3.2795E-03  0.0000E+00  4.4539E-04  1.1418E-03  0.0000E+00  2.6338E-03  0.0000E+00  1.6328E-03
 54  0.0000E+00  9.6954E-03  1.3468E-03  2.5995E-03  2.0795E-03  7.2825E-03  0.0000E+00  1.2698E-03  6.0155E-03
 55  0.0000E+00  1.3755E-02  0.0000E+00  2.1122E-03  0.0000E+00  6.5884E-04  9.8402E-04  1.8919E-02  9.5257E-03
 56  1.1948E-03  2.9497E-02  5.4292E-03  0.0000E+00  0.0000E+00  0.0000E+00  5.8284E-03  8.8997E-02  4.6649E-02
 57  0.0000E+00  3.5552E-02  6.4256E-03  6.9698E-03  0.0000E+00  1.9396E-02  1.2302E-02  0.0000E+00  1.1912E-02
 58  0.0000E+00  7.6115E-02  0.0000E+00  0.0000E+00  1.5126E-03  1.4965E-02  5.7730E-03  0.0000E+00  7.2954E-03
 59  0.0000E+00  1.3359E-01  1.3774E-02  5.1764E-03  1.5056E-01  7.1173E-02  0.0000E+00  1.4478E-01  4.6000E-02
 60  0.0000E+00  2.9046E-01  1.2549E-01  0.0000E+00  2.0769E-02  2.7256E-01  2.7690E-02  0.0000E+00  8.7507E-02
 61  1.8081E-01  8.6934E-01  2.2445E+00  1.6195E+00  0.0000E+00  6.7236E-03  1.3044E-01  1.9184E-01  5.6369E-01
 62  4.8156E-01  1.3167E+00  8.3452E-01  2.3812E+00  3.8980E-01  2.0591E+00  3.0129E-01  3.4577E+00  5.3646E-01
 63  1.9666E+00  3.4347E+00  4.0793E+00  9.2131E+00  0.0000E+00  0.0000E+00  6.9823E-01  2.1504E+00  7.0187E+00
 64  9.3589E+00  5.8276E+00  8.3178E+00  9.5962E+00  2.9814E-02  2.7798E+01  3.0019E+01  5.5699E+00  6.8155E+00
 65  7.5955E+01  1.2569E+01  2.3964E+01  0.0000E+00  3.2880E+01  0.0000E+00  3.2706E+01  0.0000E+00  9.1156E+00
 66  0.0000E+00  2.3485E+01  4.9638E+01  5.8435E+01  1.0873E+00  5.3338E+00  9.8923E-01  0.0000E+00  4.6306E+01

# AV, chi2 & Mass for <> & i_chain = 1 ...  7 solutions
AV      -0.9465      0.0624      0.0571      0.2332      0.1538      0.2617      0.5547      0.5796      0.2752
chi2 5.9733E-06  9.7206E-06  7.7845E-06  7.9075E-06  7.5269E-06  7.4275E-06  7.3695E-06  7.4005E-06  7.4285E-06
Mass 5.6936E-14  4.1048E-14  1.1770E-13  1.0664E-13  1.1356E-13  7.0765E-14  1.2607E-13  9.8417E-14  1.0997E-13
 283.53                                  [v0_min (km/s) before EX0s...]
 478.71                                  [vd_min (km/s) before EX0s...]


## Synthetic spectrum (Best Model) ##l_obs f_obs f_syn wei
 3478    [Nl_obs]
 3741.00    1.47135   0.68979    0.000
 3742.00    0.91791   0.68970    0.000
 3743.00    0.15822   0.68961    0.000
 3744.00   -0.47480   0.68924    0.000
 3745.00   -1.03400   0.69050    0.000
 3746.00   -0.91967   0.69201    0.000
 3747.00   -0.46332   0.69158    0.000
 3748.00   -0.64527   0.69244    0.000
 3749.00   -1.10789   0.69209    0.000
 3750.00   -0.26681   0.69378    0.000
 3751.00    1.06647   0.69726    0.010
 3752.00    1.48730   0.70167    0.010
 3753.00    1.61570   0.70952    0.010
 3754.00    1.53354   0.71599    0.009
 3755.00    1.39496   0.72386    0.009
 3756.00    1.64464   0.73315    0.009
 3757.00    1.97954   0.74251    0.009
 3758.00    1.65624   0.75109    0.009
 3759.00    1.21805   0.75763    0.009
 3760.00    0.25462   0.76540    0.011
 3761.00   -0.77859   0.77254    0.000
 3762.00   -0.14265   0.77700    0.000
 3763.00    0.65015   0.77888    0.009
 3764.00    1.71643   0.77932    0.009
 3765.00    2.79848   0.78160    0.010
 3766.00    1.51610   0.78616    0.010
 3767.00    0.18559   0.78935    0.009
 3768.00   -0.17721   0.79209    0.000
 3769.00   -0.51851   0.79541    0.000
 3770.00   -0.33763   0.80075    0.000
 3771.00   -0.12209   0.80888    0.000
 3772.00    0.54753   0.81684    0.009
 3773.00    1.18945   0.82624    0.009
 3774.00    1.58826   0.83784    0.009
 3775.00    1.88008   0.85027    0.009
 3776.00    1.47818   0.86152    0.009
 3777.00    1.09696   0.87323    0.009
 3778.00    0.82037   0.88750    0.009
 3779.00    0.53822   0.89955    0.009
 3780.00    0.23336   0.90926    0.009
 3781.00    0.05650   0.91784    0.009
 3782.00    0.31377   0.92368    0.009
 3783.00    0.46863   0.92889    0.009
 3784.00    0.33059   0.92981    0.009
 3785.00    0.07194   0.92864    0.009
 3786.00   -0.48139   0.92570    0.000
 3787.00   -0.93908   0.91623    0.000
 3788.00   -1.19521   0.90601    0.000
 3789.00   -0.98889   0.89387    0.000
 3790.00    0.06451   0.88150    0.009
 3791.00    0.71884   0.86697    0.009
 3792.00    0.73435   0.84868    0.009
 3793.00    0.63190   0.83275    0.009
 3794.00    0.36373   0.81713    0.009
 3795.00    0.07990   0.80315    0.008
 3796.00   -0.22330   0.79033    0.000
 3797.00   -0.32115   0.78109    0.000
 3798.00   -0.19528   0.77357    0.000
 3799.00   -0.20048   0.76679    0.000
 3800.00   -0.33164   0.76427    0.000
 3801.00   -0.41984   0.76509    0.000
 3802.00   -0.47165   0.77067    0.000
 3803.00   -0.44497   0.77633    0.000
 3804.00   -0.35972   0.78316    0.000
 3805.00   -0.13855   0.79264    0.000
 3806.00    0.17172   0.80347    0.009
 3807.00   -0.02197   0.81461    0.000
 3808.00   -0.50485   0.82289    0.000
 3809.00   -0.50121   0.83141    0.000
 3810.00   -0.25439   0.83862    0.000
 3811.00   -0.28887   0.84309    0.000
 3812.00   -0.44500   0.84434    0.000
 3813.00   -0.01747   0.84188    0.000
 3814.00    0.62651   0.83808    0.009
 3815.00    1.23833   0.83291    0.009
 3816.00    1.84004   0.82536    0.009
 3817.00    0.99729   0.81528    0.009
 3818.00   -0.22437   0.80390    0.000
 3819.00   -0.22780   0.79031    0.000
 3820.00    0.02979   0.77609    0.008
 3821.00    0.97618   0.76216    0.009
 3822.00    2.03946   0.74864    0.009
 3823.00    2.23553   0.73704    0.009
 3824.00    2.32033   0.72418    0.009
 3825.00    1.45958   0.70886    0.009
 3826.00    0.51397   0.69446    0.008
 3827.00   -0.05682   0.68286    0.000
 3828.00   -0.60745   0.67334    0.000
 3829.00   -0.42181   0.66334    0.000
 3830.00   -0.22010   0.65089    0.000
 3831.00    0.09246   0.63951    0.008
 3832.00    0.41719   0.63105    0.008
 3833.00    1.01231   0.62346    0.009
 3834.00    1.56866   0.61701    0.009
 3835.00    1.64294   0.61138    0.009
 3836.00    1.65187   0.60798    0.009
 3837.00    1.10853   0.60747    0.009
 3838.00    0.64456   0.60804    0.009
 3839.00    0.67981   0.61061    0.009
 3840.00    0.63248   0.61650    0.009
 3841.00    0.17760   0.62564    0.009
 3842.00   -0.21080   0.63674    0.000
 3843.00   -0.33315   0.64956    0.000
 3844.00   -0.36416   0.66210    0.000
 3845.00   -0.09149   0.67598    0.000
 3846.00    0.19420   0.69166    0.009
 3847.00    0.51649   0.70640    0.000
 3848.00    0.75296   0.72200    0.000
 3849.00    0.78329   0.73430    0.000
 3850.00    0.49869   0.74417    0.000
 3851.00   -0.43904   0.75380    0.000
 3852.00   -1.05051   0.76118    0.000
 3853.00   -1.07351   0.76887    0.000
 3854.00   -0.74043   0.77268    0.000
 3855.00    0.15421   0.77318    0.000
 3856.00    0.48428   0.77416    0.000
 3857.00    0.03278   0.77437    0.000
 3858.00   -0.26109   0.77582    0.000
 3859.00   -0.36288   0.77476    0.000
 3860.00    0.13522   0.77168    0.000
 3861.00    1.27773   0.77095    0.000
 3862.00    1.40549   0.77108    0.000
 3863.00    0.57179   0.77307    0.000
 3864.00    0.12345   0.77348    0.000
 3865.00   -0.00296   0.77235    0.000
 3866.00    0.37148   0.77293    0.000
 3867.00    1.11430   0.77435    0.000
 3868.00    1.43024   0.77690    0.000
 3869.00    1.47045   0.77776    0.000
 3870.00    1.49771   0.77724    0.000
 3871.00    1.51765   0.77622    0.000
 3872.00    1.66910   0.77530    0.000
 3873.00    1.88526   0.77536    0.000
 3874.00    1.60885   0.77397    0.000
 3875.00    1.12299   0.77276    0.000
 3876.00    1.09887   0.77022    0.000
 3877.00    1.24294   0.76603    0.000
 3878.00    0.93191   0.76337    0.000
 3879.00    0.48057   0.75999    0.000
 3880.00   -0.31541   0.75793    0.000
 3881.00   -1.19986   0.75497    0.000
 3882.00   -0.70389   0.74862    0.000
 3883.00    0.08068   0.74462    0.008
 3884.00    0.02446   0.74096    0.008
 3885.00   -0.17040   0.73934    0.000
 3886.00   -0.11886   0.73831    0.000
 3887.00   -0.03681   0.73455    0.000
 3888.00   -0.26437   0.73484    0.000
 3889.00   -0.51841   0.73681    0.000
 3890.00   -0.38238   0.74116    0.000
 3891.00   -0.22690   0.74752    0.000
 3892.00   -0.23839   0.75301    0.000
 3893.00   -0.25026   0.76266    0.000
 3894.00   -0.11005   0.77258    0.000
 3895.00    0.04653   0.78408    0.008
 3896.00    0.53797   0.79652    0.008
 3897.00    1.00902   0.80849    0.008
 3898.00    1.23890   0.82254    0.008
 3899.00    1.37578   0.83282    0.008
 3900.00    0.75504   0.84464    0.007
 3901.00    0.26256   0.85541    0.007
 3902.00    0.55351   0.86546    0.007
 3903.00    0.82677   0.87763    0.007
 3904.00    1.01494   0.88381    0.007
 3905.00    1.05776   0.89300    0.007
 3906.00    0.53140   0.90135    0.007
 3907.00    0.12314   0.90838    0.007
 3908.00    0.09981   0.91951    0.007
 3909.00    0.11494   0.92514    0.007
 3910.00    0.23610   0.93254    0.007
 3911.00    0.47355   0.94023    0.007
 3912.00    0.98562   0.94455    0.008
 3913.00    1.31144   0.95204    0.008
 3914.00    1.25715   0.95514    0.008
 3915.00    1.26055   0.95564    0.008
 3916.00    1.36639   0.95628    0.008
 3917.00    1.24632   0.95212    0.008
 3918.00    0.77520   0.94818    0.008
 3919.00    0.40297   0.94116    0.008
 3920.00    0.16566   0.92973    0.008
 3921.00    0.44266   0.91795    0.008
 3922.00    1.33746   0.90244    0.009
 3923.00    1.72202   0.88675    0.009
 3924.00    1.56620   0.86888    0.009
 3925.00    1.25158   0.84862    0.009
 3926.00    0.78859   0.82830    0.008
 3927.00    0.52659   0.80574    0.008
 3928.00    0.43012   0.78495    0.008
 3929.00    1.06212   0.76277    0.009
 3930.00    2.22221   0.74102    0.009
 3931.00    2.12655   0.72124    0.009
 3932.00    1.23173   0.70131    0.009
 3933.00    0.50303   0.68571    0.009
 3934.00   -0.13324   0.67147    0.000
 3935.00    0.40322   0.66046    0.009
 3936.00    1.50738   0.65432    0.009
 3937.00    1.45835   0.65066    0.009
 3938.00    0.92718   0.65212    0.008
 3939.00    0.63789   0.65687    0.008
 3940.00    0.43512   0.66514    0.009
 3941.00    0.22970   0.67848    0.008
 3942.00    0.02347   0.69383    0.008
 3943.00   -0.01302   0.71082    0.000
 3944.00   -0.00688   0.72997    0.000
 3945.00    0.68634   0.75054    0.008
 3946.00    1.51968   0.77286    0.008
 3947.00    0.95651   0.79475    0.008
 3948.00    0.16974   0.81370    0.008
 3949.00   -0.17262   0.83291    0.000
 3950.00   -0.46191   0.85299    0.000
 3951.00   -0.36142   0.86966    0.000
 3952.00   -0.22919   0.88290    0.000
 3953.00    0.58989   0.89271    0.008
 3954.00    1.44054   0.90052    0.009
 3955.00    1.42522   0.90803    0.008
 3956.00    1.39322   0.90862    0.008
 3957.00    1.06591   0.90268    0.008
 3958.00    0.75159   0.89601    0.008
 3959.00    0.68344   0.88613    0.008
 3960.00    0.63964   0.87229    0.000
 3961.00    0.87036   0.85334    0.000
 3962.00    1.05402   0.82911    0.000
 3963.00    0.86790   0.80629    0.000
 3964.00    0.71100   0.78277    0.000
 3965.00    0.72752   0.75518    0.000
 3966.00    0.71373   0.72847    0.000
 3967.00    0.55761   0.70319    0.000
 3968.00    0.42908   0.68173    0.000
 3969.00    0.40628   0.66445    0.000
 3970.00    0.22343   0.64862    0.000
 3971.00   -0.47104   0.63937    0.000
 3972.00   -0.87611   0.63651    0.000
 3973.00   -0.49741   0.63938    0.000
 3974.00   -0.04429   0.64906    0.000
 3975.00    0.58165   0.66275    0.000
 3976.00    1.02224   0.68344    0.000
 3977.00    1.09054   0.70807    0.000
 3978.00    1.25364   0.73538    0.000
 3979.00    1.58255   0.76802    0.000
 3980.00    1.65928   0.79981    0.000
 3981.00    1.34992   0.83375    0.009
 3982.00    1.00682   0.86728    0.009
 3983.00    0.61834   0.89763    0.009
 3984.00    0.61306   0.93140    0.009
 3985.00    1.06158   0.95913    0.009
 3986.00    1.54770   0.98431    0.009
 3987.00    2.07310   1.01015    0.009
 3988.00    1.97083   1.02943    0.009
 3989.00    1.29045   1.05129    0.008
 3990.00    0.62303   1.06806    0.008
 3991.00   -0.03386   1.07987    0.000
 3992.00   -0.04430   1.09567    0.000
 3993.00    0.40715   1.10522    0.008
 3994.00    0.83836   1.11527    0.008
 3995.00    1.25689   1.12513    0.008
 3996.00    1.75171   1.12960    0.008
 3997.00    2.28835   1.13750    0.008
 3998.00    2.18668   1.14313    0.008
 3999.00    1.78096   1.14725    0.008
 4000.00    1.67927   1.15305    0.008
 4001.00    1.70255   1.15503    0.008
 4002.00    1.67382   1.15824    0.008
 4003.00    1.62683   1.16348    0.008
 4004.00    0.76494   1.16658    0.008
 4005.00   -0.33840   1.16907    0.000
 4006.00   -0.06270   1.17083    0.000
 4007.00    0.55176   1.17421    0.008
 4008.00    0.71942   1.17958    0.008
 4009.00    0.79825   1.18275    0.008
 4010.00    1.29653   1.18511    0.008
 4011.00    1.85998   1.18994    0.008
 4012.00    1.64646   1.19668    0.008
 4013.00    1.34359   1.20154    0.008
 4014.00    1.29341   1.20549    0.008
 4015.00    1.26277   1.21067    0.008
 4016.00    1.00000   1.21662    0.008
 4017.00    0.72746   1.22354    0.008
 4018.00    0.96391   1.22665    0.008
 4019.00    1.20136   1.22968    0.008
 4020.00    1.27946   1.23402    0.008
 4021.00    1.36441   1.23411    0.008
 4022.00    1.57000   1.23549    0.008
 4023.00    1.74867   1.23585    0.008
 4024.00    1.63768   1.23458    0.008
 4025.00    1.49343   1.23316    0.008
 4026.00    1.09679   1.22606    0.008
 4027.00    0.70933   1.22181    0.008
 4028.00    0.37492   1.21912    0.008
 4029.00    0.20278   1.21190    0.008
 4030.00    0.77435   1.20626    0.008
 4031.00    1.40563   1.19840    0.008
 4032.00    2.26086   1.19305    0.008
 4033.00    2.61087   1.19105    0.008
 4034.00    1.37703   1.18291    0.008
 4035.00    0.62143   1.17881    0.008
 4036.00    1.13815   1.17716    0.008
 4037.00    1.37955   1.17439    0.008
 4038.00    0.99228   1.17723    0.008
 4039.00    0.72608   1.17456    0.008
 4040.00    0.69922   1.17196    0.008
 4041.00    0.59302   1.17418    0.008
 4042.00    0.35013   1.17229    0.008
 4043.00    0.13847   1.17458    0.008
 4044.00   -0.02604   1.17408    0.000
 4045.00   -0.01163   1.16938    0.000
 4046.00    0.23995   1.17122    0.008
 4047.00    0.55595   1.17031    0.008
 4048.00    0.94713   1.16800    0.008
 4049.00    1.38609   1.16558    0.008
 4050.00    1.87422   1.16076    0.008
 4051.00    1.78652   1.16394    0.008
 4052.00    1.17589   1.16772    0.008
 4053.00    0.70245   1.16329    0.008
 4054.00    0.33880   1.15930    0.008
 4055.00    0.10978   1.15827    0.008
 4056.00   -0.02443   1.15985    0.000
 4057.00    0.07098   1.16179    0.008
 4058.00    0.30823   1.15628    0.008
 4059.00    0.80799   1.14886    0.008
 4060.00    1.44939   1.14803    0.008
 4061.00    1.39520   1.14585    0.008
 4062.00    1.01500   1.13915    0.008
 4063.00    0.92343   1.13298    0.008
 4064.00    0.94848   1.12817    0.007
 4065.00    0.76391   1.12751    0.007
 4066.00    0.50707   1.12595    0.008
 4067.00    0.56412   1.11610    0.008
 4068.00    0.71232   1.11179    0.008
 4069.00    1.00009   1.11848    0.008
 4070.00    1.32139   1.11969    0.008
 4071.00    1.58998   1.11694    0.008
 4072.00    1.84835   1.11402    0.008
 4073.00    2.05003   1.11405    0.008
 4074.00    2.24317   1.12346    0.008
 4075.00    1.66438   1.12448    0.008
 4076.00    1.00020   1.12161    0.008
 4077.00    0.74321   1.13008    0.008
 4078.00    0.51603   1.13607    0.007
 4079.00    0.20999   1.14072    0.007
 4080.00   -0.09907   1.14430    0.000
 4081.00    0.81726   1.14615    0.008
 4082.00    1.71069   1.15839    0.008
 4083.00    1.48523   1.16882    0.008
 4084.00    1.24812   1.17462    0.008
 4085.00    0.81903   1.18395    0.008
 4086.00    0.45138   1.18967    0.008
 4087.00    0.71594   1.19675    0.008
 4088.00    0.95261   1.20404    0.008
 4089.00    0.98453   1.20816    0.008
 4090.00    0.96890   1.21411    0.008
 4091.00    0.68649   1.21399    0.008
 4092.00    0.51441   1.21133    0.000
 4093.00    0.83603   1.20851    0.000
 4094.00    0.92763   1.20087    0.000
 4095.00    0.17446   1.19446    0.000
 4096.00   -0.26687   1.18276    0.000
 4097.00    0.25084   1.16842    0.000
 4098.00    0.94122   1.15859    0.000
 4099.00    2.08287   1.14340    0.000
 4100.00    2.73154   1.12787    0.000
 4101.00    2.27309   1.11555    0.000
 4102.00    1.70169   1.10304    0.000
 4103.00    0.91051   1.09537    0.000
 4104.00    0.28559   1.08789    0.000
 4105.00   -0.05724   1.07865    0.000
 4106.00    0.08850   1.07696    0.000
 4107.00    0.96050   1.08004    0.000
 4108.00    1.23629   1.08176    0.000
 4109.00    0.73307   1.08692    0.000
 4110.00    0.80499   1.09375    0.000
 4111.00    1.53890   1.10033    0.000
 4112.00    1.50260   1.11116    0.000
 4113.00    0.68444   1.12034    0.007
 4114.00    0.31437   1.12718    0.007
 4115.00    0.34547   1.13710    0.007
 4116.00    0.28705   1.14563    0.007
 4117.00    0.15799   1.15293    0.007
 4118.00    0.02846   1.15990    0.007
 4119.00   -0.10140   1.16249    0.000
 4120.00    0.12146   1.16648    0.007
 4121.00    0.55896   1.17259    0.007
 4122.00    0.73429   1.17206    0.007
 4123.00    0.77034   1.17099    0.007
 4124.00    0.87358   1.17253    0.005
 4125.00    1.00782   1.17138    0.003
 4126.00    1.04083   1.17104    0.003
 4127.00    1.03365   1.16696    0.003
 4128.00    1.58919   1.16153    0.003
 4129.00    2.33519   1.16248    0.003
 4130.00    1.93635   1.15776    0.004
 4131.00    1.21177   1.15247    0.006
 4132.00    0.93439   1.15148    0.007
 4133.00    0.76199   1.14596    0.007
 4134.00    0.66007   1.14517    0.007
 4135.00    0.57146   1.14303    0.007
 4136.00    0.11825   1.13676    0.007
 4137.00   -0.38820   1.13905    0.000
 4138.00    0.15575   1.13604    0.007
 4139.00    0.81132   1.13182    0.007
 4140.00    2.10343   1.13440    0.007
 4141.00    3.43957   1.13098    0.007
 4142.00    3.38770   1.12989    0.007
 4143.00    3.28796   1.12935    0.007
 4144.00    2.59857   1.12444    0.007
 4145.00    1.91378   1.12426    0.007
 4146.00    1.41951   1.12181    0.007
 4147.00    0.94287   1.11582    0.007
 4148.00    0.73900   1.11431    0.007
 4149.00    0.64000   1.11477    0.007
 4150.00    1.57475   1.11260    0.007
 4151.00    2.30848   1.11097    0.007
 4152.00    1.61507   1.11032    0.007
 4153.00    1.01660   1.10901    0.007
 4154.00    0.93633   1.11094    0.007
 4155.00    0.88611   1.11264    0.007
 4156.00    0.96720   1.11378    0.007
 4157.00    0.89611   1.11794    0.007
 4158.00    0.27764   1.12093    0.007
 4159.00   -0.07449   1.12538    0.000
 4160.00    0.37708   1.12911    0.007
 4161.00    0.79338   1.13179    0.007
 4162.00    1.11912   1.13732    0.007
 4163.00    1.41150   1.14087    0.007
 4164.00    1.63015   1.14422    0.007
 4165.00    1.67118   1.14551    0.007
 4166.00    1.37195   1.14654    0.007
 4167.00    1.00384   1.14963    0.007
 4168.00    0.52063   1.14485    0.007
 4169.00    0.17724   1.14135    0.007
 4170.00    0.03868   1.14139    0.007
 4171.00    0.06201   1.13463    0.007
 4172.00    0.29384   1.13019    0.007
 4173.00    0.32002   1.12537    0.007
 4174.00    0.11285   1.11843    0.007
 4175.00    0.54161   1.11590    0.007
 4176.00    1.60686   1.10814    0.007
 4177.00    1.93430   1.10138    0.007
 4178.00    1.61046   1.10141    0.007
 4179.00    1.41569   1.09789    0.007
 4180.00    1.32129   1.09580    0.007
 4181.00    1.50908   1.09723    0.007
 4182.00    1.88985   1.09602    0.007
 4183.00    1.95105   1.09663    0.007
 4184.00    1.82071   1.09970    0.007
 4185.00    1.56976   1.10106    0.007
 4186.00    1.25574   1.10412    0.007
 4187.00    0.98480   1.10720    0.007
 4188.00    0.73340   1.10818    0.007
 4189.00    0.93692   1.11391    0.007
 4190.00    1.31795   1.11662    0.007
 4191.00    1.10298   1.11250    0.007
 4192.00    0.69005   1.11387    0.007
 4193.00    0.47635   1.11739    0.007
 4194.00    0.31818   1.11595    0.007
 4195.00    0.25264   1.11218    0.007
 4196.00    0.20835   1.11067    0.007
 4197.00    0.03394   1.11136    0.007
 4198.00   -0.16438   1.10891    0.000
 4199.00    0.12036   1.10350    0.007
 4200.00    0.47340   1.09996    0.007
 4201.00    0.21578   1.10214    0.007
 4202.00   -0.10410   1.10180    0.000
 4203.00    0.40510   1.09774    0.007
 4204.00    0.96832   1.10354    0.007
 4205.00    0.85180   1.10753    0.007
 4206.00    0.71427   1.10641    0.007
 4207.00    0.50049   1.11427    0.007
 4208.00    0.31305   1.11944    0.007
 4209.00    0.89926   1.12409    0.007
 4210.00    1.46952   1.13330    0.007
 4211.00    1.80751   1.13551    0.007
 4212.00    2.06024   1.14293    0.007
 4213.00    1.50674   1.15186    0.007
 4214.00    1.04327   1.15083    0.007
 4215.00    1.19862   1.15611    0.007
 4216.00    1.33598   1.16144    0.007
 4217.00    1.37768   1.16011    0.007
 4218.00    1.44063   1.16234    0.007
 4219.00    1.59437   1.15810    0.007
 4220.00    1.64237   1.15252    0.007
 4221.00    1.31783   1.15499    0.007
 4222.00    1.13923   1.14886    0.007
 4223.00    1.39285   1.13862    0.007
 4224.00    1.61589   1.13614    0.007
 4225.00    1.76177   1.13006    0.007
 4226.00    1.79338   1.12021    0.007
 4227.00    1.57668   1.11351    0.007
 4228.00    1.39159   1.10545    0.007
 4229.00    1.26611   1.10089    0.007
 4230.00    0.86873   1.09764    0.007
 4231.00    0.02371   1.09010    0.006
 4232.00   -0.09327   1.09362    0.000
 4233.00    0.84074   1.10027    0.006
 4234.00    1.28475   1.09863    0.006
 4235.00    1.10667   1.10573    0.006
 4236.00    1.20481   1.11324    0.006
 4237.00    1.61202   1.11529    0.006
 4238.00    1.53682   1.12622    0.006
 4239.00    0.98560   1.13487    0.006
 4240.00    0.94982   1.13990    0.006
 4241.00    1.36260   1.15189    0.006
 4242.00    1.68484   1.16096    0.006
 4243.00    1.93767   1.16486    0.006
 4244.00    1.95920   1.17085    0.007
 4245.00    1.82486   1.17885    0.007
 4246.00    1.44982   1.18105    0.007
 4247.00    0.93268   1.18023    0.007
 4248.00    1.39725   1.18400    0.007
 4249.00    2.36728   1.18478    0.007
 4250.00    2.43871   1.18181    0.007
 4251.00    2.10922   1.17657    0.007
 4252.00    1.54208   1.17255    0.007
 4253.00    0.88381   1.17339    0.007
 4254.00    0.74428   1.16520    0.007
 4255.00    0.77379   1.15789    0.007
 4256.00    0.21792   1.16117    0.007
 4257.00   -0.49774   1.15749    0.000
 4258.00    0.03114   1.15244    0.007
 4259.00    0.83892   1.15199    0.007
 4260.00    1.00638   1.15264    0.007
 4261.00    1.05931   1.15664    0.007
 4262.00    0.91570   1.15523    0.007
 4263.00    0.74520   1.15458    0.007
 4264.00    0.89552   1.15789    0.007
 4265.00    1.07718   1.15620    0.007
 4266.00    1.34309   1.15864    0.007
 4267.00    1.61415   1.16031    0.007
 4268.00    1.86981   1.15574    0.007
 4269.00    2.11994   1.15605    0.007
 4270.00    1.37030   1.15383    0.007
 4271.00    0.66761   1.14735    0.006
 4272.00    1.20575   1.14309    0.007
 4273.00    1.68567   1.13741    0.007
 4274.00    1.36532   1.13535    0.007
 4275.00    1.07754   1.12824    0.007
 4276.00    1.08565   1.11944    0.007
 4277.00    1.12925   1.12536    0.007
 4278.00    1.40919   1.12201    0.007
 4279.00    1.70231   1.11468    0.007
 4280.00    2.06364   1.12267    0.007
 4281.00    2.27982   1.12170    0.007
 4282.00    1.89010   1.12042   -2.000
 4283.00    1.43563   1.12536   -2.000
 4284.00    0.75762   1.11996   -2.000
 4285.00    0.16245   1.12231   -2.000
 4286.00   -0.19192   1.12385   -2.000
 4287.00   -0.17343   1.11474   -2.000
 4288.00    0.76986   1.11749   -2.000
 4289.00    1.59161   1.11459   -2.000
 4290.00    2.15353   1.10161   -2.000
 4291.00    2.40634   1.10106   -2.000
 4292.00    2.08520   1.09464   -2.000
 4293.00    1.39365   1.08021   -2.000
 4294.00    0.10137   1.07511   -2.000
 4295.00   -0.34074   1.06366   -2.000
 4296.00    0.42662   1.05196   -2.000
 4297.00    1.10489   1.04734   -2.000
 4298.00    1.67166   1.03034    0.007
 4299.00    1.54233   1.01925    0.007
 4300.00    0.64515   1.01357    0.007
 4301.00    0.26560   0.99478    0.006
 4302.00    0.38968   0.98631    0.007
 4303.00    0.72372   0.97821    0.007
 4304.00    1.23790   0.96178    0.007
 4305.00    1.30772   0.96020    0.007
 4306.00    1.04172   0.95479    0.007
 4307.00    0.90748   0.94606    0.007
 4308.00    0.86072   0.95234    0.007
 4309.00    0.68922   0.95416    0.007
 4310.00    0.44518   0.95671    0.006
 4311.00    0.34347   0.96957    0.006
 4312.00    0.31390   0.98007    0.006
 4313.00    0.65874   0.99446    0.006
 4314.00    1.16788   1.01465    0.006
 4315.00    1.43476   1.03307    0.006
 4316.00    1.61038   1.05333    0.006
 4317.00    1.31096   1.07802    0.006
 4318.00    0.85965   1.09814    0.006
 4319.00    1.02471   1.11507    0.006
 4320.00    1.35450   1.13969    0.007
 4321.00    1.11142   1.15752    0.007
 4322.00    0.74298   1.16641    0.006
 4323.00    1.05103   1.18273    0.006
 4324.00    1.47677   1.19284    0.007
 4325.00    1.51656   1.19614    0.007
 4326.00    1.50529   1.20496    0.007
 4327.00    1.31094   1.20654    0.007
 4328.00    1.09949   1.20770    0.007
 4329.00    1.64732   1.21170    0.007
 4330.00    2.23859   1.20736    0.000
 4331.00    2.09725   1.20953    0.000
 4332.00    1.93628   1.21388    0.000
 4333.00    1.47693   1.20841    0.000
 4334.00    1.02970   1.20760    0.000
 4335.00    0.87332   1.20931    0.000
 4336.00    0.74456   1.20541    0.000
 4337.00    0.97545   1.20185    0.000
 4338.00    1.19855   1.19759    0.000
 4339.00    1.35357   1.19413    0.000
 4340.00    1.45351   1.19196    0.000
 4341.00    1.19764   1.18311    0.000
 4342.00    1.01303   1.17895    0.000
 4343.00    1.18795   1.18245    0.000
 4344.00    1.19808   1.17433    0.000
 4345.00    0.53561   1.16937    0.000
 4346.00    0.08765   1.18009    0.000
 4347.00    0.36540   1.18046    0.000
 4348.00    0.73663   1.17740    0.000
 4349.00    1.37461   1.19002    0.000
 4350.00    1.81300   1.19799    0.000
 4351.00    1.76478   1.19925    0.007
 4352.00    1.77865   1.20829    0.007
 4353.00    1.92314   1.21865    0.007
 4354.00    2.05110   1.22680    0.007
 4355.00    2.14886   1.23236    0.007
 4356.00    1.93426   1.23845    0.006
 4357.00    1.22058   1.25117    0.005
 4358.00    0.88353   1.25926    0.004
 4359.00    1.07456   1.26165    0.004
 4360.00    1.23322   1.27216    0.004
 4361.00    1.35193   1.28358    0.004
 4362.00    1.40644   1.28744    0.004
 4363.00    1.39112   1.29209    0.004
 4364.00    1.41072   1.30024    0.004
 4365.00    1.46382   1.30612    0.006
 4366.00    1.69315   1.30747    0.007
 4367.00    2.07153   1.30833    0.007
 4368.00    1.85483   1.31114    0.007
 4369.00    1.19487   1.31134    0.007
 4370.00    1.30990   1.30716    0.007
 4371.00    1.93203   1.30243    0.007
 4372.00    1.74829   1.29855    0.007
 4373.00    1.10298   1.29259    0.007
 4374.00    1.03579   1.28241    0.007
 4375.00    1.25697   1.27274    0.007
 4376.00    1.30511   1.26468    0.007
 4377.00    1.27859   1.25292    0.007
 4378.00    1.56046   1.24051    0.007
 4379.00    1.95645   1.23044    0.007
 4380.00    1.92816   1.21886    0.007
 4381.00    1.76683   1.20642    0.007
 4382.00    1.32339   1.19562    0.007
 4383.00    0.80614   1.18529    0.007
 4384.00    0.79791   1.17532    0.006
 4385.00    0.89841   1.16780    0.006
 4386.00    1.22203   1.16127    0.006
 4387.00    1.58338   1.15349    0.007
 4388.00    1.12531   1.14887    0.006
 4389.00    0.56256   1.14965    0.006
 4390.00    0.98746   1.14936    0.007
 4391.00    1.50049   1.14786    0.007
 4392.00    1.38119   1.15400    0.007
 4393.00    1.22822   1.16240    0.007
 4394.00    1.15545   1.16539    0.007
 4395.00    1.08843   1.17277    0.007
 4396.00    1.36143   1.18204    0.007
 4397.00    1.63528   1.18665    0.007
 4398.00    1.92796   1.19351    0.006
 4399.00    2.19429   1.19959    0.006
 4400.00    2.13500   1.20478    0.006
 4401.00    2.09163   1.20958    0.007
 4402.00    2.18216   1.20876    0.007
 4403.00    2.29720   1.21278    0.007
 4404.00    2.56586   1.21658    0.007
 4405.00    2.73384   1.21159    0.007
 4406.00    2.40661   1.21478    0.007
 4407.00    2.06297   1.21724    0.007
 4408.00    1.65382   1.21052    0.007
 4409.00    1.30523   1.21502    0.007
 4410.00    1.15750   1.22189    0.007
 4411.00    1.11493   1.21851    0.007
 4412.00    1.36698   1.21972    0.007
 4413.00    1.56079   1.22869    0.006
 4414.00    1.61500   1.23580    0.006
 4415.00    1.71073   1.23713    0.006
 4416.00    1.89236   1.24165    0.007
 4417.00    1.91158   1.25416    0.007
 4418.00    1.63844   1.25815    0.006
 4419.00    1.53230   1.25856    0.006
 4420.00    1.68904   1.27001    0.006
 4421.00    1.69625   1.27422    0.006
 4422.00    1.49683   1.27147    0.006
 4423.00    1.44380   1.27868    0.006
 4424.00    1.56881   1.28393    0.006
 4425.00    1.31561   1.28298    0.006
 4426.00    0.65688   1.28469    0.006
 4427.00    0.56261   1.28764    0.006
 4428.00    1.00220   1.28738    0.006
 4429.00    1.36060   1.28487    0.006
 4430.00    1.65129   1.28572    0.006
 4431.00    1.88655   1.28547    0.006
 4432.00    2.08110   1.28405    0.006
 4433.00    2.00170   1.28537    0.006
 4434.00    1.74567   1.28190    0.006
 4435.00    1.44233   1.28266    0.007
 4436.00    1.11230   1.28705    0.007
 4437.00    0.75290   1.28203    0.007
 4438.00    0.37907   1.28416    0.006
 4439.00    0.52703   1.29032    0.006
 4440.00    0.89641   1.28816    0.006
 4441.00    1.17206   1.29216    0.007
 4442.00    1.41366   1.29569    0.007
 4443.00    1.52337   1.29629    0.007
 4444.00    1.59253   1.30347    0.007
 4445.00    1.67443   1.30483    0.007
 4446.00    1.75958   1.30643    0.006
 4447.00    1.24127   1.31300    0.006
 4448.00    0.59718   1.30974    0.006
 4449.00    1.08102   1.30999    0.006
 4450.00    1.75018   1.31451    0.006
 4451.00    1.88943   1.30652    0.006
 4452.00    1.96335   1.30522    0.006
 4453.00    2.15555   1.30764    0.006
 4454.00    2.35782   1.29457    0.006
 4455.00    1.84608   1.28980    0.006
 4456.00    1.29911   1.28983    0.006
 4457.00    1.27512   1.27564    0.006
 4458.00    1.25925   1.26942    0.006
 4459.00    1.23072   1.26728    0.006
 4460.00    1.20411   1.25630    0.006
 4461.00    1.21620   1.25298    0.000
 4462.00    1.24185   1.25008    0.000
 4463.00    1.42674   1.24397    0.000
 4464.00    1.61240   1.24776    0.000
 4465.00    1.80427   1.24795    0.000
 4466.00    2.01541   1.24578    0.000
 4467.00    2.34384   1.25589    0.000
 4468.00    2.55867   1.26131    0.000
 4469.00    2.22846   1.26271    0.000
 4470.00    1.91152   1.27564    0.000
 4471.00    1.64639   1.28561    0.000
 4472.00    1.44693   1.29071    0.000
 4473.00    1.46098   1.30219    0.000
 4474.00    1.50435   1.31337    0.000
 4475.00    1.62840   1.32155    0.000
 4476.00    1.67153   1.32948    0.000
 4477.00    1.52395   1.33825    0.000
 4478.00    1.50499   1.34713    0.000
 4479.00    1.74802   1.35216    0.000
 4480.00    1.92386   1.35717    0.000
 4481.00    1.98056   1.36409    0.000
 4482.00    2.01502   1.36686    0.006
 4483.00    2.01497   1.36783    0.006
 4484.00    1.97004   1.37177    0.006
 4485.00    1.86400   1.37329    0.006
 4486.00    1.79486   1.37102    0.006
 4487.00    1.76997   1.37194    0.006
 4488.00    1.58094   1.37313    0.006
 4489.00    1.21840   1.36960    0.006
 4490.00    1.36159   1.36901    0.006
 4491.00    1.97637   1.37003    0.006
 4492.00    2.30856   1.36696    0.006
 4493.00    2.40842   1.36734    0.006
 4494.00    2.48167   1.36934    0.006
 4495.00    2.53567   1.36794    0.006
 4496.00    2.33375   1.36993    0.006
 4497.00    1.96927   1.37328    0.006
 4498.00    1.60364   1.37486    0.006
 4499.00    1.23737   1.37958    0.006
 4500.00    1.27974   1.38506    0.006
 4501.00    1.51953   1.39045    0.006
 4502.00    1.74848   1.39796    0.006
 4503.00    1.97290   1.40522    0.006
 4504.00    2.00402   1.41274    0.006
 4505.00    1.96615   1.41960    0.006
 4506.00    1.87337   1.42635    0.006
 4507.00    1.76405   1.43537    0.006
 4508.00    1.88394   1.44028    0.006
 4509.00    2.06124   1.44397    0.006
 4510.00    1.95188   1.45060    0.006
 4511.00    1.78424   1.45165    0.006
 4512.00    1.61440   1.45109    0.006
 4513.00    1.44421   1.45324    0.006
 4514.00    1.60683   1.45215    0.006
 4515.00    1.80901   1.44808    0.006
 4516.00    1.43298   1.44388    0.006
 4517.00    1.01016   1.44050    0.006
 4518.00    1.36520   1.43382    0.006
 4519.00    1.75561   1.42546    0.006
 4520.00    1.30809   1.42085    0.006
 4521.00    0.85947   1.41155    0.006
 4522.00    0.87958   1.40079    0.006
 4523.00    0.92445   1.39468    0.006
 4524.00    1.43415   1.38268    0.006
 4525.00    1.91203   1.37172    0.006
 4526.00    2.03349   1.36462    0.006
 4527.00    2.06946   1.35125    0.006
 4528.00    1.43649   1.34177    0.006
 4529.00    0.95827   1.33415    0.006
 4530.00    1.39504   1.32204    0.006
 4531.00    1.78748   1.31624    0.006
 4532.00    1.97241   1.31000    0.006
 4533.00    2.10746   1.30156    0.006
 4534.00    2.05182   1.29999    0.006
 4535.00    1.97367   1.29771    0.006
 4536.00    1.82371   1.29482    0.006
 4537.00    1.66526   1.29644    0.006
 4538.00    1.48389   1.29880    0.006
 4539.00    1.37664   1.30086    0.006
 4540.00    1.44113   1.30416    0.006
 4541.00    1.39441   1.31002    0.006
 4542.00    1.12476   1.31397    0.006
 4543.00    0.83918   1.31717    0.006
 4544.00    0.52581   1.32455    0.006
 4545.00    0.56862   1.32723    0.006
 4546.00    1.15570   1.32917    0.006
 4547.00    1.42923   1.33632    0.006
 4548.00    1.28185   1.33671    0.006
 4549.00    1.06358   1.33789    0.006
 4550.00    0.76152   1.34373    0.000
 4551.00    0.88040   1.34317    0.000
 4552.00    1.43805   1.34536    0.000
 4553.00    1.71744   1.34893    0.000
 4554.00    1.74098   1.34867    0.000
 4555.00    1.52728   1.35361    0.000
 4556.00    1.12129   1.35637    0.000
 4557.00    1.24369   1.35794    0.000
 4558.00    1.74292   1.36495    0.000
 4559.00    1.79025   1.36682    0.000
 4560.00    1.55478   1.37054    0.000
 4561.00    1.29238   1.37855    0.000
 4562.00    1.01524   1.37983    0.000
 4563.00    1.41657   1.38455    0.000
 4564.00    2.14043   1.39095    0.000
 4565.00    2.05519   1.39238    0.000
 4566.00    1.63812   1.39733    0.000
 4567.00    1.59294   1.39979    0.000
 4568.00    1.67807   1.40148    0.000
 4569.00    1.59038   1.40602    0.000
 4570.00    1.45162   1.40420    0.000
 4571.00    1.42854   1.40645    0.000
 4572.00    1.43380   1.40967    0.000
 4573.00    1.33393   1.40381    0.000
 4574.00    1.21322   1.40660    0.000
 4575.00    1.42710   1.40795    0.000
 4576.00    1.69276   1.39902    0.000
 4577.00    1.51538   1.40202    0.000
 4578.00    1.28730   1.40126    0.000
 4579.00    1.20895   1.39065    0.000
 4580.00    1.14210   1.39363    0.000
 4581.00    1.21379   1.39125    0.000
 4582.00    1.29125   1.38046    0.000
 4583.00    1.76581   1.38338    0.000
 4584.00    2.22093   1.38045    0.000
 4585.00    1.69360   1.37101    0.000
 4586.00    1.20733   1.37389    0.000
 4587.00    1.43889   1.37099    0.000
 4588.00    1.62410   1.36396    0.000
 4589.00    1.31350   1.36711    0.000
 4590.00    1.02715   1.36442    0.000
 4591.00    0.92413   1.35996    0.000
 4592.00    0.88328   1.36295    0.000
 4593.00    1.19978   1.35974    0.000
 4594.00    1.46386   1.35752    0.000
 4595.00    1.48848   1.36039    0.000
 4596.00    1.49956   1.35640    0.000
 4597.00    1.46005   1.35612    0.000
 4598.00    1.44633   1.35914    0.000
 4599.00    1.51328   1.35515    0.000
 4600.00    1.62620   1.35703    0.000
 4601.00    1.86116   1.36077    0.000
 4602.00    2.00927   1.35792    0.000
 4603.00    1.95948   1.36230    0.000
 4604.00    1.80290   1.36756    0.000
 4605.00    1.43565   1.36695    0.000
 4606.00    1.10236   1.37335    0.000
 4607.00    0.82749   1.38057    0.000
 4608.00    0.80633   1.38239    0.000
 4609.00    1.16721   1.38942    0.000
 4610.00    1.32854   1.39836    0.000
 4611.00    1.22581   1.40173    0.000
 4612.00    1.30543   1.40754    0.000
 4613.00    1.59755   1.41761    0.000
 4614.00    1.62879   1.42113    0.000
 4615.00    1.39191   1.42414    0.000
 4616.00    1.37970   1.43447    0.000
 4617.00    1.57114   1.43690    0.000
 4618.00    1.59294   1.43649    0.000
 4619.00    1.47919   1.44631    0.000
 4620.00    1.38658   1.44710    0.000
 4621.00    1.30884   1.44356    0.000
 4622.00    1.61397   1.45209    0.000
 4623.00    2.15517   1.45136    0.000
 4624.00    2.05106   1.44551    0.000
 4625.00    1.59944   1.45185    0.000
 4626.00    1.26654   1.45002    0.000
 4627.00    0.98917   1.44273    0.000
 4628.00    0.98639   1.44598    0.000
 4629.00    1.09430   1.44329    0.000
 4630.00    1.45104   1.43522    0.000
 4631.00    1.89337   1.43494    0.000
 4632.00    1.78529   1.43122    0.000
 4633.00    1.51778   1.42268    0.000
 4634.00    1.55129   1.41921    0.000
 4635.00    1.65689   1.41414    0.000
 4636.00    1.28398   1.40529    0.000
 4637.00    0.81865   1.39984    0.000
 4638.00    0.87705   1.39328    0.000
 4639.00    1.01406   1.38423    0.000
 4640.00    1.12433   1.37852    0.000
 4641.00    1.23166   1.37088    0.000
 4642.00    1.25268   1.36206    0.000
 4643.00    1.26741   1.35774    0.000
 4644.00    1.04101   1.35002    0.000
 4645.00    0.80548   1.34230    0.000
 4646.00    1.33469   1.34047    0.000
 4647.00    1.84096   1.33397    0.000
 4648.00    1.35353   1.32853    0.000
 4649.00    0.92439   1.32958    0.000
 4650.00    1.44811   1.32532    0.000
 4651.00    1.92342   1.32313    0.000
 4652.00    1.90335   1.32663    0.000
 4653.00    1.82961   1.32477    0.000
 4654.00    1.36366   1.32591    0.000
 4655.00    1.04195   1.33068    0.000
 4656.00    1.52655   1.33026    0.000
 4657.00    1.89435   1.33353    0.000
 4658.00    1.74105   1.33789    0.000
 4659.00    1.63127   1.33715    0.000
 4660.00    1.68096   1.34050    0.000
 4661.00    1.68343   1.34292    0.000
 4662.00    1.54101   1.34023    0.000
 4663.00    1.37304   1.34186    0.000
 4664.00    1.13842   1.34177    0.000
 4665.00    1.03488   1.33667    0.000
 4666.00    1.22508   1.33611    0.000
 4667.00    1.38483   1.33427    0.000
 4668.00    1.48547   1.32788    0.000
 4669.00    1.45841   1.32618    0.000
 4670.00    1.21508   1.32423    0.000
 4671.00    1.15643   1.31839    0.000
 4672.00    1.37178   1.31733    0.000
 4673.00    1.46718   1.31663    0.000
 4674.00    1.40611   1.31273    0.000
 4675.00    1.47104   1.31342    0.000
 4676.00    1.68074   1.31426    0.000
 4677.00    1.77318   1.31219    0.000
 4678.00    1.74681   1.31464    0.000
 4679.00    1.57088   1.31645    0.000
 4680.00    1.26126   1.31506    0.000
 4681.00    1.26820   1.31837    0.000
 4682.00    1.52444   1.32053    0.000
 4683.00    1.67487   1.31866    0.000
 4684.00    1.75199   1.32181    0.000
 4685.00    1.62545   1.32420    0.000
 4686.00    1.37521   1.32145    0.000
 4687.00    1.03776   1.32375    0.000
 4688.00    0.65407   1.32649    0.000
 4689.00    0.71363   1.32316    0.000
 4690.00    0.97717   1.32420    0.000
 4691.00    1.25659   1.32713    0.000
 4692.00    1.54230   1.32372    0.000
 4693.00    1.51309   1.32324    0.000
 4694.00    1.37755   1.32571    0.000
 4695.00    1.46846   1.32247    0.000
 4696.00    1.62362   1.32040    0.000
 4697.00    1.80971   1.32164    0.000
 4698.00    2.00304   1.31857    0.000
 4699.00    2.02188   1.31520    0.000
 4700.00    2.00790   1.31501    0.000
 4701.00    1.68920   1.31217    0.000
 4702.00    1.32618   1.30822    0.000
 4703.00    1.24124   1.30731    0.000
 4704.00    1.18570   1.30510    0.000
 4705.00    1.20205   1.30166    0.000
 4706.00    1.22333   1.30137    0.000
 4707.00    1.44658   1.30054    0.000
 4708.00    1.67670   1.29870    0.000
 4709.00    1.44535   1.30037    0.000
 4710.00    1.22051   1.30158    0.000
 4711.00    1.23052   1.30206    0.000
 4712.00    1.23799   1.30635    0.000
 4713.00    1.20643   1.30971    0.000
 4714.00    1.16791   1.31259    0.000
 4715.00    1.06122   1.31922    0.000
 4716.00    0.97431   1.32403    0.000
 4717.00    1.02727   1.32841    0.000
 4718.00    1.14859   1.33625    0.000
 4719.00    1.64191   1.34115    0.000
 4720.00    1.92746   1.34532    0.000
 4721.00    1.30751   1.35271    0.000
 4722.00    0.88232   1.35619    0.000
 4723.00    1.15586   1.35817    0.000
 4724.00    1.42738   1.36358    0.000
 4725.00    1.69286   1.36478    0.000
 4726.00    1.78412   1.36324    0.000
 4727.00    1.42895   1.36603    0.000
 4728.00    1.35774   1.36535    0.000
 4729.00    1.91249   1.36035    0.000
 4730.00    2.29025   1.36112    0.000
 4731.00    2.32964   1.36015    0.000
 4732.00    2.21979   1.35318    0.000
 4733.00    1.86100   1.35338    0.000
 4734.00    1.60214   1.35415    0.000
 4735.00    1.48942   1.34736    0.000
 4736.00    1.37849   1.34828    0.000
 4737.00    1.26985   1.35200    0.000
 4738.00    1.25329   1.34710    0.000
 4739.00    1.34103   1.34926    0.000
 4740.00    1.39835   1.35555    0.000
 4741.00    1.42527   1.35315    0.000
 4742.00    1.48618   1.35623    0.000
 4743.00    1.57704   1.36348    0.000
 4744.00    1.43570   1.36287    0.000
 4745.00    1.11410   1.36615    0.000
 4746.00    0.93377   1.37249    0.000
 4747.00    0.84986   1.37221    0.000
 4748.00    1.24353   1.37480    0.000
 4749.00    1.92291   1.37902    0.000
 4750.00    1.95258   1.37761    0.000
 4751.00    1.64309   1.37861    0.000
 4752.00    1.29144   1.38041    0.000
 4753.00    0.92069   1.37722    0.000
 4754.00    0.98696   1.37585    0.000
 4755.00    1.22339   1.37551    0.000
 4756.00    1.60362   1.37099    0.000
 4757.00    2.03149   1.36703    0.000
 4758.00    1.63878   1.36497    0.000
 4759.00    1.01795   1.36033    0.000
 4760.00    1.21525   1.35451    0.000
 4761.00    1.59968   1.35118    0.006
 4762.00    1.49318   1.34780    0.006
 4763.00    1.29675   1.34178    0.006
 4764.00    1.38552   1.33783    0.006
 4765.00    1.51445   1.33662    0.006
 4766.00    1.41131   1.33240    0.006
 4767.00    1.28464   1.32889    0.006
 4768.00    1.66034   1.32999    0.006
 4769.00    2.06853   1.32900    0.006
 4770.00    1.88917   1.32716    0.006
 4771.00    1.69238   1.32996    0.006
 4772.00    1.66059   1.33211    0.006
 4773.00    1.61956   1.33268    0.006
 4774.00    1.31050   1.33626    0.006
 4775.00    1.03003   1.33971    0.006
 4776.00    1.16258   1.34236    0.006
 4777.00    1.29711   1.34600    0.006
 4778.00    1.45036   1.34819    0.006
 4779.00    1.58514   1.35138    0.006
 4780.00    1.59347   1.35504    0.006
 4781.00    1.63098   1.35428    0.006
 4782.00    1.82304   1.35600    0.006
 4783.00    1.89328   1.36024    0.005
 4784.00    1.44477   1.35694    0.005
 4785.00    1.09836   1.35582    0.005
 4786.00    1.11082   1.36121    0.005
 4787.00    1.18566   1.35770    0.005
 4788.00    1.44482   1.35376    0.006
 4789.00    1.60904   1.36029    0.006
 4790.00    1.53423   1.35923    0.006
 4791.00    1.51332   1.35372    0.006
 4792.00    1.60932   1.36060    0.006
 4793.00    1.66170   1.36324    0.006
 4794.00    1.63200   1.35773    0.006
 4795.00    1.54424   1.36373    0.006
 4796.00    1.36108   1.36931    0.006
 4797.00    1.23842   1.36472    0.006
 4798.00    1.20293   1.36882    0.006
 4799.00    1.27166   1.37533    0.006
 4800.00    1.47248   1.37165    0.006
 4801.00    1.51619   1.37346    0.006
 4802.00    1.38443   1.37914    0.006
 4803.00    1.34063   1.37591    0.006
 4804.00    1.38346   1.37574    0.006
 4805.00    1.34386   1.38003    0.006
 4806.00    1.23265   1.37703    0.006
 4807.00    1.12706   1.37554    0.006
 4808.00    1.02577   1.37903    0.006
 4809.00    1.22639   1.37656    0.006
 4810.00    1.63009   1.37444    0.006
 4811.00    1.70619   1.37801    0.006
 4812.00    1.58921   1.37660    0.006
 4813.00    1.45919   1.37429    0.006
 4814.00    1.32247   1.37829    0.006
 4815.00    1.42547   1.37810    0.006
 4816.00    1.63521   1.37568    0.006
 4817.00    1.69156   1.37973    0.006
 4818.00    1.68922   1.38027    0.006
 4819.00    1.68810   1.37746    0.006
 4820.00    1.68736   1.38074    0.006
 4821.00    1.81554   1.38116    0.006
 4822.00    1.97882   1.37755    0.006
 4823.00    1.84452   1.37932    0.006
 4824.00    1.64374   1.37901    0.006
 4825.00    1.36746   1.37437    0.006
 4826.00    1.07774   1.37449    0.006
 4827.00    1.07421   1.37337    0.006
 4828.00    1.10966   1.36792    0.006
 4829.00    1.04388   1.36684    0.006
 4830.00    0.96827   1.36541    0.006
 4831.00    1.23366   1.35952    0.006
 4832.00    1.51974   1.35795    0.006
 4833.00    1.70574   1.35692    0.006
 4834.00    1.88531   1.35100    0.006
 4835.00    1.38591   1.34919    0.006
 4836.00    0.91225   1.34913    0.006
 4837.00    1.11091   1.34365    0.006
 4838.00    1.30203   1.34124    0.006
 4839.00    1.39028   1.34214    0.006
 4840.00    1.45111   1.33761    0.006
 4841.00    1.26406   1.33393    0.006
 4842.00    1.14644   1.33505    0.005
 4843.00    1.48951   1.33188    0.005
 4844.00    1.69359   1.32644    0.006
 4845.00    1.18039   1.32653    0.005
 4846.00    0.85121   1.32462    0.005
 4847.00    1.28802   1.31704    0.005
 4848.00    1.63515   1.31476    0.000
 4849.00    1.67349   1.31350    0.000
 4850.00    1.67452   1.30338    0.000
 4851.00    1.56737   1.29757    0.000
 4852.00    1.53286   1.29649    0.000
 4853.00    1.67810   1.28380    0.000
 4854.00    1.73943   1.27353    0.000
 4855.00    1.62171   1.27256    0.000
 4856.00    1.58162   1.25846    0.000
 4857.00    1.68538   1.24358    0.000
 4858.00    1.65708   1.24301    0.000
 4859.00    1.41500   1.23019    0.000
 4860.00    1.31967   1.21206    0.000
 4861.00    1.43272   1.21225    0.000
 4862.00    1.50054   1.20418    0.000
 4863.00    1.51187   1.18556    0.000
 4864.00    1.40363   1.18662    0.000
 4865.00    1.16375   1.18599    0.000
 4866.00    1.09921   1.16999    0.000
 4867.00    1.20499   1.17116    0.000
 4868.00    1.23083   1.17905    0.000
 4869.00    1.18822   1.16881    0.000
 4870.00    1.29144   1.16850    0.000
 4871.00    1.50467   1.18257    0.000
 4872.00    1.62854   1.18032    0.000
 4873.00    1.69317   1.17781    0.000
 4874.00    1.50859   1.19349    0.000
 4875.00    1.17934   1.19964    0.005
 4876.00    1.12898   1.19569    0.005
 4877.00    1.21968   1.20776    0.005
 4878.00    1.08202   1.22034    0.005
 4879.00    0.84437   1.21697    0.005
 4880.00    0.77906   1.22195    0.005
 4881.00    0.77853   1.23757    0.005
 4882.00    0.97516   1.23724    0.005
 4883.00    1.23467   1.23441    0.005
 4884.00    1.51047   1.24879    0.005
 4885.00    1.79062   1.25297    0.005
 4886.00    1.89572   1.24493    0.006
 4887.00    1.96263   1.25550    0.006
 4888.00    1.60584   1.26453    0.006
 4889.00    1.17561   1.25555    0.006
 4890.00    1.17038   1.26173    0.006
 4891.00    1.22113   1.27449    0.006
 4892.00    1.29048   1.26851    0.006
 4893.00    1.36156   1.27156    0.006
 4894.00    1.36344   1.28642    0.006
 4895.00    1.36140   1.28530    0.006
 4896.00    1.53342   1.28621    0.006
 4897.00    1.70543   1.30141    0.006
 4898.00    1.44139   1.30483    0.006
 4899.00    1.19724   1.30384    0.006
 4900.00    1.42521   1.31737    0.006
 4901.00    1.61877   1.32298    0.006
 4902.00    1.36751   1.31964    0.006
 4903.00    1.16464   1.33034    0.006
 4904.00    1.38248   1.33602    0.006
 4905.00    1.56852   1.32936    0.006
 4906.00    1.54987   1.33540    0.006
 4907.00    1.55406   1.34030    0.006
 4908.00    1.67311   1.33212    0.006
 4909.00    1.75441   1.33236    0.006
 4910.00    1.68201   1.33463    0.006
 4911.00    1.69024   1.32625    0.006
 4912.00    1.97060   1.32161    0.006
 4913.00    2.04242   1.32116    0.006
 4914.00    1.52058   1.31451    0.006
 4915.00    1.08348   1.30707    0.006
 4916.00    0.85256   1.30350    0.006
 4917.00    0.82205   1.29944    0.006
 4918.00    1.21226   1.29246    0.006
 4919.00    1.57149   1.28619    0.006
 4920.00    1.87420   1.28402    0.006
 4921.00    1.95129   1.28102    0.006
 4922.00    1.66858   1.27417    0.006
 4923.00    1.56628   1.27247    0.006
 4924.00    1.71649   1.27525    0.005
 4925.00    1.68502   1.27098    0.005
 4926.00    1.42982   1.26867    0.005
 4927.00    1.20141   1.27634    0.005
 4928.00    1.00209   1.27683    0.006
 4929.00    1.06122   1.27330    0.006
 4930.00    1.36783   1.28222    0.006
 4931.00    1.48250   1.28726    0.006
 4932.00    1.43510   1.28335    0.006
 4933.00    1.45291   1.29144    0.006
 4934.00    1.51919   1.29983    0.006
 4935.00    1.44516   1.29542    0.006
 4936.00    1.27950   1.30012    0.005
 4937.00    1.30976   1.30982    0.005
 4938.00    1.45201   1.30581    0.005
 4939.00    1.57235   1.30781    0.005
 4940.00    1.68180   1.31744    0.000
 4941.00    1.71159   1.31403    0.000
 4942.00    1.70709   1.31524    0.000
 4943.00    1.75623   1.32473    0.000
 4944.00    1.82519   1.32190    0.000
 4945.00    1.81018   1.32291    0.000
 4946.00    1.76892   1.33201    0.000
 4947.00    1.67323   1.33060    0.000
 4948.00    1.56334   1.33198    0.000
 4949.00    1.25859   1.33819    0.000
 4950.00    0.91234   1.33565    0.000
 4951.00    1.40123   1.33731    0.000
 4952.00    2.03085   1.34241    0.000
 4953.00    1.64798   1.33847    0.000
 4954.00    1.13633   1.33699    0.000
 4955.00    1.42156   1.33907    0.000
 4956.00    1.77749   1.33408    0.000
 4957.00    1.68126   1.32997    0.000
 4958.00    1.56117   1.32963    0.000
 4959.00    1.26805   1.32396    0.000
 4960.00    0.97657   1.31900    0.000
 4961.00    1.07297   1.31859    0.000
 4962.00    1.17485   1.31216    0.000
 4963.00    1.39570   1.30671    0.000
 4964.00    1.59665   1.30836    0.000
 4965.00    1.55335   1.30264    0.000
 4966.00    1.50361   1.29705    0.000
 4967.00    1.40003   1.30026    0.000
 4968.00    1.31395   1.29709    0.000
 4969.00    1.33713   1.29198    0.000
 4970.00    1.37989   1.29334    0.000
 4971.00    1.51864   1.29389    0.000
 4972.00    1.60278   1.29190    0.000
 4973.00    1.46955   1.28859    0.000
 4974.00    1.35353   1.28727    0.000
 4975.00    1.29447   1.28729    0.000
 4976.00    1.35767   1.28350    0.000
 4977.00    1.76265   1.27893    0.000
 4978.00    1.99107   1.27733    0.000
 4979.00    1.79719   1.27560    0.000
 4980.00    1.75132   1.26930    0.000
 4981.00    2.01117   1.26394    0.000
 4982.00    2.22624   1.26401    0.000
 4983.00    2.36084   1.25765    0.000
 4984.00    2.25635   1.24992    0.000
 4985.00    1.77621   1.25117    0.000
 4986.00    1.50484   1.24652    0.000
 4987.00    1.52145   1.23875    0.000
 4988.00    1.66863   1.24015    0.000
 4989.00    1.97432   1.23888    0.000
 4990.00    2.03170   1.23313    0.000
 4991.00    1.82328   1.23311    0.000
 4992.00    1.50532   1.23457    0.000
 4993.00    1.08394   1.23188    0.000
 4994.00    0.99574   1.23077    0.000
 4995.00    1.18488   1.23200    0.000
 4996.00    1.10788   1.23069    0.000
 4997.00    0.83584   1.23000    0.000
 4998.00    0.88289   1.22806    0.000
 4999.00    1.13530   1.22442    0.000
 5000.00    1.20718   1.22546    0.000
 5001.00    1.17744   1.22069    0.000
 5002.00    1.19881   1.21324    0.000
 5003.00    1.24523   1.21516    0.000
 5004.00    1.41981   1.20902    0.000
 5005.00    1.64865   1.19922    0.000
 5006.00    2.00036   1.20027    0.000
 5007.00    2.39661   1.19382    0.000
 5008.00    2.17451   1.18377    0.000
 5009.00    1.76272   1.18358    0.000
 5010.00    1.37201   1.17878    0.000
 5011.00    0.98668   1.17014    0.000
 5012.00    1.23633   1.16921    0.000
 5013.00    1.61792   1.16697    0.000
 5014.00    1.54428   1.15942    0.000
 5015.00    1.39611   1.15843    0.000
 5016.00    1.30295   1.15982    0.000
 5017.00    1.21653   1.15478    0.000
 5018.00    1.30227   1.15475    0.000
 5019.00    1.40256   1.15711    0.000
 5020.00    1.44524   1.15399    0.000
 5021.00    1.48511   1.15719    0.000
 5022.00    1.39033   1.15998    0.000
 5023.00    1.30080   1.15817    0.000
 5024.00    1.65873   1.16473    0.000
 5025.00    1.97773   1.17002    0.000
 5026.00    1.51588   1.16898    0.000
 5027.00    1.09901   1.17402    0.000
 5028.00    1.20773   1.18203    0.000
 5029.00    1.31837   1.18377    0.005
 5030.00    1.44453   1.18426    0.005
 5031.00    1.54380   1.19182    0.006
 5032.00    1.48006   1.19614    0.006
 5033.00    1.46141   1.19365    0.005
 5034.00    1.65844   1.19940    0.006
 5035.00    1.82586   1.20322    0.006
 5036.00    1.87790   1.19806    0.006
 5037.00    1.86093   1.20112    0.005
 5038.00    1.62011   1.20588    0.005
 5039.00    1.50260   1.20178    0.005
 5040.00    1.72356   1.19941    0.005
 5041.00    1.77551   1.20312    0.005
 5042.00    1.43004   1.20391    0.005
 5043.00    1.26589   1.19747    0.005
 5044.00    1.47036   1.19748    0.005
 5045.00    1.52549   1.20372    0.005
 5046.00    1.31639   1.19919    0.005
 5047.00    1.33627   1.19858    0.005
 5048.00    1.71061   1.20684    0.005
 5049.00    1.88246   1.20380    0.005
 5050.00    1.77904   1.20412    0.005
 5051.00    1.68685   1.21502    0.005
 5052.00    1.60811   1.21707    0.005
 5053.00    1.44636   1.21642    0.005
 5054.00    1.19701   1.22419    0.005
 5055.00    1.07235   1.23075    0.005
 5056.00    1.06377   1.22986    0.005
 5057.00    1.20125   1.23201    0.005
 5058.00    1.45860   1.24062    0.005
 5059.00    1.49400   1.24237    0.005
 5060.00    1.36911   1.24061    0.005
 5061.00    1.58384   1.24666    0.005
 5062.00    2.01391   1.25028    0.005
 5063.00    1.78998   1.24708    0.005
 5064.00    1.20348   1.24712    0.005
 5065.00    0.94341   1.25055    0.005
 5066.00    0.84073   1.24748    0.005
 5067.00    0.97524   1.24129    0.005
 5068.00    1.20849   1.24335    0.005
 5069.00    1.33714   1.24187    0.005
 5070.00    1.42853   1.23152    0.005
 5071.00    1.48438   1.23031    0.005
 5072.00    1.52954   1.23049    0.005
 5073.00    1.37977   1.21946    0.005
 5074.00    1.18131   1.21315    0.005
 5075.00    1.56250   1.21554    0.005
 5076.00    2.06117   1.21009    0.005
 5077.00    1.77091   1.19920    0.005
 5078.00    1.35526   1.19927    0.005
 5079.00    1.34155   1.20102    0.005
 5080.00    1.37539   1.19137    0.005
 5081.00    1.28263   1.18619    0.005
 5082.00    1.17970   1.19135    0.005
 5083.00    1.11338   1.18938    0.005
 5084.00    1.04871   1.18181    0.005
 5085.00    1.21917   1.18433    0.005
 5086.00    1.39435   1.18956    0.005
 5087.00    1.66635   1.18539    0.005
 5088.00    1.91205   1.18399    0.005
 5089.00    1.66875   1.19088    0.005
 5090.00    1.44770   1.19312    0.005
 5091.00    1.47451   1.19142    0.005
 5092.00    1.49395   1.19528    0.005
 5093.00    1.45588   1.19906    0.005
 5094.00    1.35459   1.19835    0.005
 5095.00    0.88084   1.20002    0.005
 5096.00    0.55734   1.20278    0.005
 5097.00    0.93508   1.20242    0.005
 5098.00    1.21326   1.20228    0.005
 5099.00    1.11191   1.20272    0.005
 5100.00    1.13388   1.20155    0.005
 5101.00    1.54805   1.20011    0.005
 5102.00    1.81832   1.19882    0.005
 5103.00    1.70062   1.19744    0.005
 5104.00    1.58369   1.19493    0.005
 5105.00    1.46853   1.19216    0.005
 5106.00    1.35271   1.19210    0.005
 5107.00    1.23556   1.19121    0.005
 5108.00    1.23351   1.18779    0.005
 5109.00    1.43200   1.18790    0.005
 5110.00    1.40786   1.19025    0.005
 5111.00    1.04416   1.18799    0.005
 5112.00    0.95238   1.18526    0.005
 5113.00    1.22500   1.18913    0.005
 5114.00    1.28082   1.19089    0.005
 5115.00    1.08082   1.18553    0.006
 5116.00    1.04476   1.18816    0.006
 5117.00    1.17927   1.19344    0.006
 5118.00    1.07930   1.18719    0.006
 5119.00    0.76413   1.18652    0.005
 5120.00    0.70235   1.19267    0.005
 5121.00    0.84558   1.18804    0.005
 5122.00    1.03234   1.18346    0.005
 5123.00    1.25009   1.18697    0.005
 5124.00    1.17890   1.18457    0.005
 5125.00    0.92722   1.17695    0.005
 5126.00    0.95621   1.17712    0.005
 5127.00    1.13842   1.17802    0.005
 5128.00    1.35438   1.16898    0.005
 5129.00    1.58637   1.16502    0.005
 5130.00    1.57705   1.16900    0.005
 5131.00    1.46896   1.16229    0.005
 5132.00    1.29836   1.15590    0.005
 5133.00    1.10590   1.16013    0.005
 5134.00    0.90664   1.15584    0.005
 5135.00    0.70538   1.14999    0.005
 5136.00    0.80879   1.15497    0.005
 5137.00    0.98662   1.15245    0.005
 5138.00    1.47137   1.14504    0.005
 5139.00    2.01674   1.14947    0.005
 5140.00    1.65321   1.15129    0.005
 5141.00    1.14952   1.14249    0.005
 5142.00    0.96202   1.14312    0.005
 5143.00    0.81052   1.14813    0.005
 5144.00    1.24263   1.13953    0.005
 5145.00    1.71925   1.13779    0.005
 5146.00    1.40898   1.14503    0.005
 5147.00    1.06632   1.13672    0.005
 5148.00    1.09510   1.13188    0.005
 5149.00    1.13125   1.14051    0.005
 5150.00    1.34939   1.13697    0.005
 5151.00    1.53991   1.12964    0.005
 5152.00    1.25161   1.13498    0.005
 5153.00    0.98846   1.13631    0.005
 5154.00    0.99280   1.12980    0.005
 5155.00    1.02077   1.13109    0.005
 5156.00    1.22658   1.13359    0.005
 5157.00    1.42105   1.12699    0.005
 5158.00    1.55062   1.12491    0.005
 5159.00    1.60470   1.12722    0.005
 5160.00    1.31490   1.12024    0.005
 5161.00    1.11291   1.11271    0.005
 5162.00    1.23858   1.11171    0.005
 5163.00    1.32870   1.10487    0.005
 5164.00    1.30792   1.09283    0.005
 5165.00    1.23706   1.08928    0.005
 5166.00    1.03358   1.08325    0.005
 5167.00    0.96457   1.06509    0.005
 5168.00    1.20130   1.05542    0.005
 5169.00    1.31447   1.05326    0.005
 5170.00    1.18433   1.03871    0.005
 5171.00    1.13592   1.02397    0.005
 5172.00    1.22778   1.02128    0.005
 5173.00    1.32508   1.01424    0.005
 5174.00    1.43057   1.00056    0.005
 5175.00    1.45176   0.99881    0.005
 5176.00    1.36160   1.00035    0.005
 5177.00    1.26261   0.98905    0.005
 5178.00    1.15335   0.98307    0.005
 5179.00    1.04340   0.99138    0.005
 5180.00    0.93275   0.99272    0.005
 5181.00    1.00961   0.98712    0.005
 5182.00    1.25614   0.99369    0.005
 5183.00    1.31336   1.00220    0.005
 5184.00    1.21960   1.00147    0.005
 5185.00    1.08230   1.00604    0.005
 5186.00    0.91445   1.01479    0.005
 5187.00    0.88841   1.01692    0.005
 5188.00    0.94963   1.02035    0.005
 5189.00    1.06099   1.02902    0.005
 5190.00    1.19930   1.03450    0.000
 5191.00    1.46218   1.04084    0.000
 5192.00    1.78320   1.05153    0.000
 5193.00    1.59098   1.05418    0.000
 5194.00    1.19230   1.05874    0.000
 5195.00    1.03272   1.07378    0.000
 5196.00    0.95520   1.07531    0.000
 5197.00    1.01787   1.07096    0.000
 5198.00    1.12105   1.08540    0.000
 5199.00    1.23764   1.09363    0.000
 5200.00    1.35745   1.08408    0.000
 5201.00    1.48763   1.09128    0.000
 5202.00    1.61980   1.10554    0.000
 5203.00    1.44742   1.09633    0.000
 5204.00    1.22951   1.09392    0.000
 5205.00    1.01054   1.10918    0.000
 5206.00    0.79146   1.10555    0.000
 5207.00    0.87694   1.09537    0.000
 5208.00    0.98442   1.10676    0.000
 5209.00    1.18101   1.11185    0.000
 5210.00    1.38093   1.09893    0.000
 5211.00    1.05088   1.10275    0.005
 5212.00    0.73453   1.11497    0.005
 5213.00    1.00677   1.10810    0.005
 5214.00    1.26696   1.10651    0.005
 5215.00    1.33182   1.11861    0.005
 5216.00    1.39716   1.12089    0.005
 5217.00    1.46744   1.11868    0.005
 5218.00    1.53479   1.12569    0.005
 5219.00    1.58086   1.13244    0.005
 5220.00    1.60715   1.13101    0.005
 5221.00    1.52331   1.13151    0.005
 5222.00    1.37642   1.13711    0.005
 5223.00    0.94907   1.14192    0.005
 5224.00    0.70984   1.14274    0.005
 5225.00    1.15785   1.14235    0.005
 5226.00    1.45464   1.14893    0.005
 5227.00    1.28859   1.15262    0.005
 5228.00    1.06195   1.14764    0.005
 5229.00    0.67769   1.15038    0.005
 5230.00    0.50723   1.15724    0.005
 5231.00    0.81490   1.15327    0.005
 5232.00    1.17425   1.15100    0.005
 5233.00    1.63377   1.16296    0.005
 5234.00    1.77646   1.16688    0.005
 5235.00    1.38359   1.16129    0.005
 5236.00    1.14853   1.17173    0.005
 5237.00    1.14718   1.17965    0.005
 5238.00    1.10059   1.17310    0.005
 5239.00    0.99511   1.17912    0.005
 5240.00    0.91934   1.19121    0.005
 5241.00    0.87764   1.18857    0.005
 5242.00    0.87616   1.18735    0.005
 5243.00    0.91537   1.20037    0.005
 5244.00    0.98602   1.20333    0.005
 5245.00    1.08470   1.19487    0.005
 5246.00    1.18806   1.20251    0.005
 5247.00    1.29507   1.20954    0.005
 5248.00    1.22827   1.19944    0.005
 5249.00    1.04129   1.19809    0.005
 5250.00    1.08268   1.20661    0.005
 5251.00    1.26253   1.20182    0.005
 5252.00    1.24856   1.19129    0.005
 5253.00    1.13204   1.19470    0.005
 5254.00    1.08583   1.19663    0.005
 5255.00    1.07191   1.18519    0.005
 5256.00    1.16061   1.18097    0.005
 5257.00    1.28988   1.18169    0.005
 5258.00    1.27038   1.17475    0.005
 5259.00    1.20077   1.16803    0.005
 5260.00    1.34512   1.16209    0.005
 5261.00    1.55002   1.15514    0.005
 5262.00    1.72365   1.15157    0.005
 5263.00    1.88998   1.14642    0.005
 5264.00    1.41712   1.13414    0.005
 5265.00    0.82443   1.12814    0.005
 5266.00    0.98649   1.12902    0.005
 5267.00    1.25789   1.11571    0.005
 5268.00    1.00563   1.10349    0.005
 5269.00    0.69830   1.11051    0.005
 5270.00    1.21290   1.10584    0.005
 5271.00    1.78354   1.08818    0.005
 5272.00    1.73771   1.09630    0.005
 5273.00    1.67120   1.10906    0.005
 5274.00    1.27971   1.09368    0.005
 5275.00    0.89960   1.08885    0.005
 5276.00    0.89541   1.11087    0.005
 5277.00    0.90614   1.11498    0.005
 5278.00    1.14395   1.10632    0.005
 5279.00    1.37122   1.12248    0.005
 5280.00    1.49566   1.13804    0.005
 5281.00    1.61299   1.13432    0.005
 5282.00    1.68031   1.14406    0.005
 5283.00    1.69341   1.16527    0.005
 5284.00    1.41243   1.17089    0.005
 5285.00    1.14909   1.17131    0.005
 5286.00    0.96241   1.18485    0.005
 5287.00    0.88858   1.19816    0.005
 5288.00    1.21860   1.20010    0.005
 5289.00    1.48917   1.20468    0.005
 5290.00    1.58116   1.21672    0.005
 5291.00    1.62193   1.22380    0.005
 5292.00    1.53173   1.22406    0.005
 5293.00    1.51255   1.22737    0.005
 5294.00    1.64961   1.23460    0.005
 5295.00    1.57886   1.23517    0.005
 5296.00    1.11159   1.23277    0.005
 5297.00    0.88419   1.23813    0.005
 5298.00    1.05617   1.24113    0.005
 5299.00    1.17861   1.23697    0.005
 5300.00    1.22872   1.23870    0.005
 5301.00    1.30758   1.24425    0.005
 5302.00    1.42331   1.24062    0.005
 5303.00    1.42322   1.23648    0.005
 5304.00    1.29217   1.24419    0.005
 5305.00    1.24688   1.24826    0.005
 5306.00    1.28712   1.24388    0.005
 5307.00    1.08866   1.24699    0.005
 5308.00    0.68023   1.25328    0.005
 5309.00    0.74375   1.25295    0.005
 5310.00    1.17299   1.25413    0.005
 5311.00    1.40970   1.25909    0.005
 5312.00    1.51524   1.25873    0.005
 5313.00    1.52116   1.25806    0.005
 5314.00    1.46760   1.26200    0.005
 5315.00    1.45331   1.26184    0.005
 5316.00    1.45948   1.25902    0.005
 5317.00    1.40313   1.25982    0.005
 5318.00    1.31853   1.25725    0.005
 5319.00    1.37232   1.25052    0.005
 5320.00    1.47987   1.24944    0.005
 5321.00    1.46848   1.24740    0.005
 5322.00    1.41777   1.23695    0.005
 5323.00    1.44750   1.23028    0.005
 5324.00    1.49953   1.23022    0.005
 5325.00    1.59031   1.22290    0.005
 5326.00    1.68993   1.21062    0.005
 5327.00    1.57059   1.20888    0.005
 5328.00    1.41128   1.20749    0.005
 5329.00    1.57501   1.19549    0.005
 5330.00    1.78405   1.18966    0.005
 5331.00    1.46825   1.19363    0.005
 5332.00    1.09951   1.18977    0.005
 5333.00    0.80531   1.17891    0.005
 5334.00    0.51590   1.17987    0.005
 5335.00    0.82836   1.18563    0.005
 5336.00    1.15843   1.18363    0.005
 5337.00    1.35906   1.18216    0.005
 5338.00    1.55170   1.18497    0.005
 5339.00    1.51547   1.18849    0.005
 5340.00    1.47853   1.18970    0.005
 5341.00    1.43115   1.19121    0.005
 5342.00    1.38323   1.19618    0.005
 5343.00    1.33024   1.20143    0.005
 5344.00    1.32231   1.20312    0.005
 5345.00    1.62163   1.20386    0.005
 5346.00    1.84155   1.20999    0.005
 5347.00    1.64224   1.21623    0.005
 5348.00    1.47203   1.21776    0.005
 5349.00    1.42545   1.22352    0.005
 5350.00    1.40008   1.22943    0.005
 5351.00    1.44906   1.22978    0.005
 5352.00    1.47560   1.23452    0.005
 5353.00    1.43600   1.24202    0.005
 5354.00    1.38278   1.24402    0.005
 5355.00    1.29536   1.24622    0.005
 5356.00    1.22352   1.25437    0.005
 5357.00    1.18541   1.25854    0.005
 5358.00    1.18356   1.25664    0.005
 5359.00    1.24982   1.26071    0.005
 5360.00    1.28031   1.26545    0.005
 5361.00    1.25215   1.26375    0.005
 5362.00    1.27216   1.26287    0.005
 5363.00    1.36147   1.26511    0.005
 5364.00    1.44507   1.26508    0.005
 5365.00    1.52145   1.26075    0.005
 5366.00    1.53571   1.25800    0.005
 5367.00    1.48072   1.25700    0.005
 5368.00    1.37365   1.25378   -2.000
 5369.00    1.21536   1.24843   -2.000
 5370.00    1.19880   1.24551   -2.000
 5371.00    1.30514   1.24518   -2.000
 5372.00    1.31092   1.24032   -2.000
 5373.00    1.23987   1.23659   -2.000
 5374.00    1.14773   1.23660   -2.000
 5375.00    1.04144   1.23362   -2.000
 5376.00    1.13252   1.22920   -2.000
 5377.00    1.33971   1.23013   -2.000
 5378.00    1.34993   1.23256   -2.000
 5379.00    1.25916   1.23034   -2.000
 5380.00    1.22831   1.23151   -2.000
 5381.00    1.22409   1.23272   -2.000
 5382.00    1.20037   1.22955   -2.000
 5383.00    1.16922   1.23018    0.005
 5384.00    1.06290   1.23233    0.005
 5385.00    0.93221   1.23016    0.005
 5386.00    0.92006   1.22984    0.005
 5387.00    0.94010   1.23189    0.005
 5388.00    0.92288   1.22590    0.005
 5389.00    0.89735   1.22125    0.005
 5390.00    0.99268   1.22503    0.005
 5391.00    1.10949   1.22042    0.005
 5392.00    1.12213   1.20984    0.005
 5393.00    1.12064   1.21117    0.005
 5394.00    1.45531   1.21041    0.005
 5395.00    1.82247   1.19576    0.005
 5396.00    1.49794   1.19126    0.005
 5397.00    1.13180   1.19691    0.005
 5398.00    0.95211   1.18697    0.005
 5399.00    0.77911   1.17382    0.005
 5400.00    0.91051   1.17844    0.005
 5401.00    1.03517   1.17701    0.005
 5402.00    0.98587   1.16073    0.005
 5403.00    0.95696   1.15922    0.005
 5404.00    1.20438   1.16664    0.005
 5405.00    1.42015   1.15875    0.005
 5406.00    1.35130   1.15114    0.005
 5407.00    1.26563   1.15809    0.005
 5408.00    1.06878   1.15801    0.005
 5409.00    0.93692   1.14931    0.005
 5410.00    1.13930   1.15292    0.005
 5411.00    1.30198   1.15996    0.005
 5412.00    1.29982   1.15831    0.005
 5413.00    1.26823   1.16057    0.005
 5414.00    1.13555   1.16814    0.005
 5415.00    1.08863   1.16881    0.005
 5416.00    1.28983   1.16984    0.005
 5417.00    1.43893   1.17735    0.005
 5418.00    1.45939   1.18165    0.005
 5419.00    1.47603   1.18314    0.005
 5420.00    1.48453   1.18940    0.005
 5421.00    1.32676   1.19507    0.005
 5422.00    0.86145   1.19487    0.005
 5423.00    0.70529   1.19720    0.005
 5424.00    1.04863   1.20227    0.005
 5425.00    1.27020   1.20385    0.005
 5426.00    1.31915   1.20382    0.005
 5427.00    1.36191   1.20404    0.005
 5428.00    1.39694   1.20494    0.005
 5429.00    1.56293   1.20628    0.005
 5430.00    1.87284   1.20555    0.005
 5431.00    1.79190   1.20279    0.005
 5432.00    1.33202   1.20375    0.005
 5433.00    1.08559   1.20615    0.005
 5434.00    1.02164   1.20074    0.005
 5435.00    1.01988   1.19760    0.004
 5436.00    1.06495   1.20401    0.004
 5437.00    1.25669   1.20418    0.004
 5438.00    1.54549   1.19793    0.005
 5439.00    1.52642   1.20068    0.005
 5440.00    1.32900   1.20674    0.004
 5441.00    1.26047   1.20151    0.004
 5442.00    1.25700   1.19827    0.005
 5443.00    1.27578   1.20665    0.005
 5444.00    1.30427   1.20764    0.005
 5445.00    1.26506   1.20182    0.005
 5446.00    1.20046   1.20422    0.005
 5447.00    1.05921   1.20871    0.005
 5448.00    0.89356   1.20509    0.005
 5449.00    0.96145   1.20204    0.005
 5450.00    1.09142   1.20563    0.005
 5451.00    1.08432   1.20437    0.005
 5452.00    1.04740   1.20002    0.005
 5453.00    0.92418   1.19958    0.005
 5454.00    0.78605   1.19929    0.005
 5455.00    1.11905   1.19842    0.005
 5456.00    1.51384   1.19729    0.005
 5457.00    1.50503   1.19422    0.005
 5458.00    1.45892   1.19101    0.005
 5459.00    1.49828   1.19243    0.005
 5460.00    1.54244   1.19085    0.005
 5461.00    1.56676   1.18467    0.005
 5462.00    1.58983   1.18778    0.005
 5463.00    1.52849   1.19282    0.005
 5464.00    1.47213   1.18496    0.005
 5465.00    1.53253   1.17875    0.005
 5466.00    1.58552   1.18713    0.005
 5467.00    1.54319   1.18671    0.005
 5468.00    1.49259   1.17362    0.005
 5469.00    1.37035   1.17777    0.005
 5470.00    1.28551   1.18877    0.005
 5471.00    1.44046   1.17732    0.005
 5472.00    1.60412   1.16667    0.005
 5473.00    1.81142   1.17898    0.005
 5474.00    1.92429   1.17963    0.005
 5475.00    1.65385   1.16161    0.004
 5476.00    1.40427   1.16524    0.004
 5477.00    1.22487   1.17929    0.004
 5478.00    1.12971   1.16635   -2.000
 5479.00    1.27381   1.15416   -2.000
 5480.00    1.34247   1.16874   -2.000
 5481.00    1.22802   1.17078   -2.000
 5482.00    1.26787   1.15389   -2.000
 5483.00    1.63098   1.15895   -2.000
 5484.00    1.74844   1.17336   -2.000
 5485.00    1.41856   1.16266   -2.000
 5486.00    1.10804   1.15453   -2.000
 5487.00    0.82837   1.16966   -2.000
 5488.00    0.97439   1.17161   -2.000
 5489.00    1.71508   1.16041   -2.000
 5490.00    2.37239   1.16838   -2.000
 5491.00    2.92718   1.17877   -2.000
 5492.00    2.75543   1.16932   -2.000
 5493.00    1.79631   1.16754   -2.000
 5494.00    1.34661   1.18087   -2.000
 5495.00    1.38385   1.17837   -2.000
 5496.00    1.27636   1.17050   -2.000
 5497.00    1.04688   1.17979   -2.000
 5498.00    1.00386   1.18472   -2.000
 5499.00    1.09922   1.17413   -2.000
 5500.00    1.22117   1.17438   -2.000
 5501.00    1.36044   1.18411   -2.000
 5502.00    1.37698   1.17907    0.005
 5503.00    1.32348   1.17165    0.005
 5504.00    1.38816   1.17696    0.005
 5505.00    1.51155   1.17935    0.005
 5506.00    1.38211   1.17203    0.005
 5507.00    1.14404   1.16998    0.005
 5508.00    1.24888   1.17378    0.005
 5509.00    1.48003   1.17250    0.005
 5510.00    1.64641   1.16834    0.005
 5511.00    1.79257   1.16722    0.005
 5512.00    1.73397   1.16872    0.005
 5513.00    1.62208   1.16948    0.005
 5514.00    1.37243   1.16735    0.005
 5515.00    1.09354   1.16588    0.004
 5516.00    1.07222   1.16904    0.004
 5517.00    1.09413   1.17104    0.004
 5518.00    0.99073   1.16792    0.004
 5519.00    0.87146   1.16769    0.004
 5520.00    0.76021   1.17363    0.004
 5521.00    0.64968   1.17517    0.004
 5522.00    0.78138   1.17160    0.004
 5523.00    0.92574   1.17390    0.004
 5524.00    0.98740   1.17978    0.004
 5525.00    1.04809   1.17879    0.004
 5526.00    1.15216   1.17486    0.004
 5527.00    1.24795   1.17954    0.004
 5528.00    1.16550   1.18521    0.004
 5529.00    1.10177   1.18143    0.004
 5530.00    1.26656   1.17834    0.004
 5531.00    1.39401   1.18463    0.004
 5532.00    1.21036   1.18774    0.004
 5533.00    1.06845   1.18114    0.004
 5534.00    1.18617   1.18177    0.004
 5535.00    1.26692   1.19038    0.004
 5536.00    1.16687   1.18922    0.004
 5537.00    1.09625   1.18253    0.004
 5538.00    1.14246   1.18770    0.004
 5539.00    1.16798   1.19561    0.005
 5540.00    1.12518   1.19080    0.012
 5541.00    1.10633   1.18817   -1.000
 5542.00    1.15424   1.19706   -1.000
 5543.00    1.27438   1.20070   -1.000
 5544.00    1.56694   1.19439   -1.000
 5545.00    1.65515   1.19623   -1.000
 5546.00    1.32214   1.20590   -1.000
 5547.00    1.06939   1.20540    0.025
 5548.00    0.96059   1.20041    0.007
 5549.00    0.91475   1.20526    0.004
 5550.00    0.96767   1.21175    0.004
 5551.00    1.01267   1.20784    0.004
 5552.00    1.04677   1.20465    0.004
 5553.00    1.09265   1.21039    0.005
 5554.00    1.15281   1.21279    0.004
 5555.00    1.18962   1.20770    0.004
 5556.00    1.20150   1.20590    0.004
 5557.00    1.26909   1.20960    0.004
 5558.00    1.38921   1.20887    0.004
 5559.00    1.38268   1.20377    0.004
 5560.00    1.27091   1.20165    0.004
 5561.00    1.25382   1.20294    0.004
 5562.00    1.30597   1.20193    0.004
 5563.00    1.21206   1.19602    0.004
 5564.00    1.02434   1.19237    0.004
 5565.00    0.96911   1.19452    0.004
 5566.00    0.98833   1.19354    0.004
 5567.00    1.15340   1.18516    0.004
 5568.00    1.38977   1.18276    0.004
 5569.00    1.43849   1.18796    0.004
 5570.00    1.40792   1.18336    0.004
 5571.00    1.31320   1.17373    0.004
 5572.00    1.19528   1.17716    0.004
 5573.00    1.15682   1.18224    0.004
 5574.00    1.14269   1.17269    0.004
 5575.00    1.23233   1.16737    0.004
 5576.00    1.34839   1.17563    0.004
 5577.00    1.31339   1.17395    0.004
 5578.00    1.24710   1.16286    0.004
 5579.00    1.31378   1.16509    0.004
 5580.00    1.40215   1.17125    0.004
 5581.00    1.29938   1.16304    0.004
 5582.00    1.17326   1.15690    0.004
 5583.00    1.21404   1.16257    0.004
 5584.00    1.26884   1.16067    0.004
 5585.00    1.22028   1.15059    0.004
 5586.00    1.16672   1.15061    0.004
 5587.00    1.18509   1.15411    0.004
 5588.00    1.20637   1.14711    0.005
 5589.00    1.33631   1.14074    0.005
 5590.00    1.44227   1.14338    0.005
 5591.00    1.07213   1.14226    0.005
 5592.00    0.73946   1.13433    0.005
 5593.00    0.84180   1.13316    0.005
 5594.00    0.94268   1.13732    0.005
 5595.00    1.03172   1.13462    0.005
 5596.00    1.13002   1.12834    0.005
 5597.00    1.28429   1.13069    0.005
 5598.00    1.39352   1.13571    0.005
 5599.00    1.28803   1.13250    0.005
 5600.00    1.21648   1.13016    0.005
 5601.00    1.27677   1.13652    0.005
 5602.00    1.33577   1.14077    0.004
 5603.00    1.39059   1.13655    0.004
 5604.00    1.39006   1.13862    0.004
 5605.00    1.23793   1.14739    0.004
 5606.00    1.06680   1.14808    0.004
 5607.00    0.85105   1.14570    0.004
 5608.00    0.76876   1.15160    0.004
 5609.00    0.95720   1.15735    0.004
 5610.00    1.11243   1.15489    0.004
 5611.00    1.20898   1.15634    0.004
 5612.00    1.21765   1.16216    0.004
 5613.00    1.09054   1.16120    0.004
 5614.00    1.10489   1.15910    0.004
 5615.00    1.31123   1.16390    0.004
 5616.00    1.43731   1.16562    0.004
 5617.00    1.46751   1.16014    0.004
 5618.00    1.32097   1.15991    0.004
 5619.00    0.98825   1.16358    0.004
 5620.00    0.90064   1.16118    0.004
 5621.00    1.04081   1.15770    0.004
 5622.00    1.09114   1.15959    0.004
 5623.00    1.06786   1.15987    0.004
 5624.00    1.05788   1.15496    0.004
 5625.00    1.05749   1.15321    0.004
 5626.00    1.01669   1.15559    0.004
 5627.00    0.95032   1.15590    0.004
 5628.00    1.00787   1.15416    0.004
 5629.00    1.13398   1.15308    0.004
 5630.00    1.17520   1.15374    0.004
 5631.00    1.17557   1.15476    0.004
 5632.00    1.03920   1.15428    0.004
 5633.00    0.84601   1.15299    0.004
 5634.00    0.88858   1.15400    0.004
 5635.00    1.01489   1.15569    0.004
 5636.00    1.05389   1.15473    0.004
 5637.00    1.06670   1.15464    0.004
 5638.00    0.93347   1.15689    0.004
 5639.00    0.76387   1.15630    0.004
 5640.00    0.79031   1.15439    0.004
 5641.00    0.85636   1.15552    0.004
 5642.00    0.87783   1.15623    0.004
 5643.00    0.89223   1.15464    0.004
 5644.00    0.87791   1.15495    0.004
 5645.00    0.86020   1.15568    0.004
 5646.00    0.83826   1.15334    0.004
 5647.00    0.81598   1.15315    0.004
 5648.00    0.84056   1.15494    0.004
 5649.00    0.86721   1.15278    0.004
 5650.00    0.82245   1.15069    0.004
 5651.00    0.77927   1.15343    0.004
 5652.00    0.85314   1.15213    0.004
 5653.00    0.93433   1.14679    0.004
 5654.00    1.15042   1.14971    0.004
 5655.00    1.34831   1.15344    0.004
 5656.00    1.34460   1.14606    0.004
 5657.00    1.32180   1.14183    0.004
 5658.00    1.15087   1.14965    0.004
 5659.00    1.01606   1.14962    0.004
 5660.00    1.09339   1.13888    0.004
 5661.00    1.15377   1.14058    0.004
 5662.00    1.13526   1.15027    0.004
 5663.00    1.12225   1.14479    0.004
 5664.00    1.13016   1.13626    0.004
 5665.00    1.12078   1.14403    0.004
 5666.00    1.05654   1.15058    0.004
 5667.00    0.95509   1.14226    0.004
 5668.00    0.75358   1.14017    0.004
 5669.00    0.61048   1.14997    0.004
 5670.00    0.60215   1.15258    0.004
 5671.00    0.64993   1.14836    0.004
 5672.00    0.80972   1.15080    0.004
 5673.00    0.90907   1.15586    0.004
 5674.00    0.90329   1.15711    0.004
 5675.00    0.91284   1.15926    0.004
 5676.00    0.94572   1.16110    0.004
 5677.00    0.98391   1.16094    0.004
 5678.00    1.02921   1.16386    0.004
 5679.00    1.04617   1.16816    0.004
 5680.00    1.02976   1.16586    0.004
 5681.00    1.06429   1.16426    0.004
 5682.00    1.15173   1.17040    0.004
 5683.00    1.14822   1.17320    0.004
 5684.00    1.06138   1.16673    0.004
 5685.00    0.98911   1.16499    0.004
 5686.00    0.92861   1.17159    0.004
 5687.00    0.91390   1.17148    0.004
 5688.00    0.93174   1.16467    0.004
 5689.00    0.85026   1.16451    0.004
 5690.00    0.70686   1.17017    0.004
 5691.00    0.78313   1.16732    0.004
 5692.00    0.97907   1.16006    0.004
 5693.00    1.13098   1.16121    0.004
 5694.00    1.26203   1.16660    0.004
 5695.00    1.31706   1.16327    0.004
 5696.00    1.34103   1.15490    0.004
 5697.00    1.40721   1.15594    0.004
 5698.00    1.48811   1.16028    0.004
 5699.00    1.49033   1.15511    0.004
 5700.00    1.46941   1.14751    0.004
 5701.00    1.42104   1.15075    0.004
 5702.00    1.36598   1.15331    0.004
 5703.00    1.31792   1.14441    0.004
 5704.00    1.27124   1.13888    0.004
 5705.00    1.21086   1.14372    0.004
 5706.00    1.14838   1.14315    0.004
 5707.00    1.19110   1.13348    0.004
 5708.00    1.24574   1.13298    0.004
 5709.00    1.14686   1.13799    0.004
 5710.00    1.03634   1.13329    0.004
 5711.00    0.99222   1.12797    0.004
 5712.00    0.95079   1.13295    0.004
 5713.00    0.93227   1.13662    0.004
 5714.00    0.91422   1.13220    0.004
 5715.00    0.90835   1.13268    0.004
 5716.00    0.90970   1.13940    0.004
 5717.00    1.03519   1.14092    0.004
 5718.00    1.14161   1.13914    0.004
 5719.00    1.04623   1.14525    0.004
 5720.00    0.96891   1.15220    0.004
 5721.00    1.02702   1.15197    0.004
 5722.00    1.08573   1.15396    0.004
 5723.00    1.14792   1.16223    0.004
 5724.00    1.19544   1.16727    0.004
 5725.00    1.17632   1.16621    0.004
 5726.00    1.15120   1.16917    0.004
 5727.00    1.10378   1.17741    0.004
 5728.00    1.07992   1.18045    0.004
 5729.00    1.12937   1.17732    0.004
 5730.00    1.19406   1.18034    0.004
 5731.00    1.29900   1.18822    0.004
 5732.00    1.33056   1.18841    0.004
 5733.00    1.19557   1.18492    0.004
 5734.00    1.08988   1.18853    0.004
 5735.00    1.04177   1.19325    0.004
 5736.00    1.06165   1.18998    0.004
 5737.00    1.19796   1.18748    0.004
 5738.00    1.30128   1.19232    0.004
 5739.00    1.35510   1.19455    0.004
 5740.00    1.37201   1.18958    0.000
 5741.00    1.34028   1.18738    0.000
 5742.00    1.30779   1.19122    0.000
 5743.00    1.27441   1.19235    0.000
 5744.00    1.25605   1.18944    0.000
 5745.00    1.25305   1.18759    0.000
 5746.00    1.23915   1.18736    0.000
 5747.00    1.21541   1.18728    0.000
 5748.00    1.21701   1.18674    0.000
 5749.00    1.23879   1.18557    0.000
 5750.00    1.26146   1.18392    0.000
 5751.00    1.28477   1.18315    0.000
 5752.00    1.24886   1.18169    0.000
 5753.00    1.17657   1.18003    0.000
 5754.00    1.16180   1.18031    0.000
 5755.00    1.17788   1.18097    0.000
 5756.00    1.02650   1.17853    0.000
 5757.00    0.79710   1.17504    0.000
 5758.00    0.71253   1.17615    0.000
 5759.00    0.68608   1.17790    0.000
 5760.00    0.80971   1.17586    0.000
 5761.00    0.98473   1.17311    0.000
 5762.00    1.10849   1.17472    0.000
 5763.00    1.21748   1.17551    0.000
 5764.00    1.14814   1.17345    0.000
 5765.00    1.03632   1.17351    0.000
 5766.00    0.98062   1.17620    0.000
 5767.00    0.93568   1.17569    0.000
 5768.00    1.11909   1.17252    0.000
 5769.00    1.33651   1.17372    0.000
 5770.00    1.54986   1.17628    0.000
 5771.00    1.76276   1.17440    0.000
 5772.00    1.83556   1.17057    0.000
 5773.00    1.89831   1.17226    0.000
 5774.00    1.63842   1.17391    0.000
 5775.00    1.36665   1.16995    0.000
 5776.00    1.31629   1.16644    0.000
 5777.00    1.26863   1.16827    0.000
 5778.00    1.28447   1.16753    0.000
 5779.00    1.30240   1.16073    0.000
 5780.00    1.35407   1.15803    0.000
 5781.00    1.39308   1.16040    0.000
 5782.00    1.30388   1.15790    0.000
 5783.00    1.20683   1.14985    0.000
 5784.00    1.05294   1.14850    0.000
 5785.00    0.95023   1.15158    0.000
 5786.00    1.13173   1.14857    0.000
 5787.00    1.27828   1.14303    0.000
 5788.00    1.26982   1.14392    0.000
 5789.00    1.29265   1.14619    0.000
 5790.00    1.42950   1.14343    0.000
 5791.00    1.50707   1.14155   -2.000
 5792.00    1.40361   1.14485   -2.000
 5793.00    1.35154   1.14816   -2.000
 5794.00    1.43289   1.14721   -2.000
 5795.00    1.47706   1.14655   -2.000
 5796.00    1.43824   1.15033   -2.000
 5797.00    1.36765   1.15628   -2.000
 5798.00    1.23561   1.15817   -2.000
 5799.00    1.21175   1.15711   -2.000
 5800.00    1.37040   1.16050   -2.000
 5801.00    1.44469   1.16764   -2.000
 5802.00    1.39428   1.16913   -2.000
 5803.00    1.28997   1.16723   -2.000
 5804.00    1.11561   1.17192   -2.000
 5805.00    0.99398   1.17870   -2.000
 5806.00    0.93272   1.17700   -2.000
 5807.00    1.01143   1.17476   -2.000
 5808.00    1.23146   1.18154   -2.000
 5809.00    1.30801   1.18635   -2.000
 5810.00    1.25679   1.18184   -2.000
 5811.00    1.15448   1.18102    0.000
 5812.00    1.01208   1.18814    0.000
 5813.00    0.99308   1.18936    0.000
 5814.00    1.05922   1.18403    0.000
 5815.00    1.14430   1.18598    0.000
 5816.00    1.24082   1.19260    0.000
 5817.00    1.26212   1.19066    0.000
 5818.00    1.24369   1.18627    0.000
 5819.00    1.13567   1.19051    0.000
 5820.00    0.98660   1.19556    0.000
 5821.00    0.92648   1.19201    0.000
 5822.00    0.90146   1.18979    0.000
 5823.00    1.06813   1.19559    0.000
 5824.00    1.29922   1.19824    0.000
 5825.00    1.44015   1.19363    0.000
 5826.00    1.55563   1.19379    0.000
 5827.00    1.51241   1.20036    0.000
 5828.00    1.43225   1.20044    0.000
 5829.00    1.46127   1.19538    0.000
 5830.00    1.51069   1.19751    0.000
 5831.00    1.42510   1.20350    0.000
 5832.00    1.32003   1.20102    0.000
 5833.00    1.36022   1.19652    0.000
 5834.00    1.41561   1.20064    0.000
 5835.00    1.52547   1.20434    0.000
 5836.00    1.63902   1.19890    0.000
 5837.00    1.41335   1.19562    0.000
 5838.00    1.17647   1.20100    0.000
 5839.00    1.01913   1.20196    0.000
 5840.00    0.86917   1.19500    0.000
 5841.00    0.95034   1.19337    0.000
 5842.00    1.03289   1.19797    0.000
 5843.00    1.13637   1.19572    0.000
 5844.00    1.24293   1.18858    0.000
 5845.00    1.37939   1.18853    0.000
 5846.00    1.51539   1.19094    0.000
 5847.00    1.64818   1.18553    0.000
 5848.00    1.73644   1.17933    0.000
 5849.00    1.58408   1.18066    0.000
 5850.00    1.43545   1.18039    0.000
 5851.00    1.30303   1.17249    0.000
 5852.00    1.20540   1.16766    0.000
 5853.00    1.23190   1.16967    0.000
 5854.00    1.29315   1.16757    0.000
 5855.00    1.45852   1.15920    0.000
 5856.00    1.55529   1.15532    0.000
 5857.00    1.47702   1.15691    0.000
 5858.00    1.43957   1.15448    0.000
 5859.00    1.49173   1.14829    0.000
 5860.00    1.53100   1.14540    0.000
 5861.00    1.54574   1.14587    0.000
 5862.00    1.55617   1.14416    0.000
 5863.00    1.55944   1.14113    0.000
 5864.00    1.55586   1.13991    0.000
 5865.00    1.54230   1.13993    0.000
 5866.00    1.51360   1.13861    0.000
 5867.00    1.46548   1.13696    0.000
 5868.00    1.46029   1.13732    0.000
 5869.00    1.50354   1.13852    0.000
 5870.00    1.48523   1.13755    0.000
 5871.00    1.40563   1.13463    0.000
 5872.00    1.36813   1.13450    0.000
 5873.00    1.36760   1.13648    0.000
 5874.00    1.44981   1.13552    0.000
 5875.00    1.59604   1.13078    0.000
 5876.00    1.63294   1.12890    0.000
 5877.00    1.59551   1.12946    0.000
 5878.00    1.36659   1.12552    0.000
 5879.00    1.02354   1.11861    0.000
 5880.00    0.81957   1.11559    0.000
 5881.00    0.68790   1.11327    0.000
 5882.00    0.78142   1.10513    0.000
 5883.00    0.97644   1.09597    0.000
 5884.00    1.10973   1.09140    0.000
 5885.00    1.21907   1.08663    0.000
 5886.00    1.32609   1.07575    0.000
 5887.00    1.43234   1.06358    0.000
 5888.00    1.42860   1.05655    0.000
 5889.00    1.39444   1.05105    0.000
 5890.00    1.33518   1.04045    0.000
 5891.00    1.27022   1.03019    0.000
 5892.00    1.20688   1.02564    0.000
 5893.00    1.14385   1.01832    0.000
 5894.00    1.16083   1.00647    0.000
 5895.00    1.18898   1.00309    0.000
 5896.00    1.23112   1.00583    0.000
 5897.00    1.27466   0.99962    0.000
 5898.00    1.23740   0.99035    0.000
 5899.00    1.19499   0.99384    0.000
 5900.00    1.11244   1.00158    0.000
 5901.00    1.02937   0.99923    0.004
 5902.00    1.17564   0.99671    0.004
 5903.00    1.32224   1.00498    0.004
 5904.00    1.47800   1.01322    0.004
 5905.00    1.61653   1.01466    0.004
 5906.00    1.50963   1.02121    0.004
 5907.00    1.40609   1.03326    0.004
 5908.00    1.33389   1.03761    0.004
 5909.00    1.26327   1.03969    0.004
 5910.00    1.20347   1.05190    0.004
 5911.00    1.14527   1.06384    0.004
 5912.00    1.09548   1.06495    0.004
 5913.00    1.07856   1.06818    0.004
 5914.00    1.20080   1.07974    0.004
 5915.00    1.29712   1.08711    0.004
 5916.00    1.30282   1.08734    0.004
 5917.00    1.29663   1.09188    0.004
 5918.00    1.25549   1.10004    0.004
 5919.00    1.21371   1.10241    0.004
 5920.00    1.17036   1.10201    0.004
 5921.00    1.14731   1.10668    0.004
 5922.00    1.16811   1.11214    0.004
 5923.00    1.16690   1.11161    0.004
 5924.00    1.12443   1.11061    0.004
 5925.00    1.08995   1.11470    0.004
 5926.00    1.06853   1.11889    0.004
 5927.00    1.07616   1.11699    0.004
 5928.00    1.12547   1.11455    0.004
 5929.00    1.10626   1.11826    0.004
 5930.00    1.00052   1.12292    0.004
 5931.00    0.91981   1.12047    0.004
 5932.00    0.86693   1.11654    0.004
 5933.00    0.82085   1.12009    0.004
 5934.00    0.78142   1.12509    0.004
 5935.00    0.77401   1.12177    0.004
 5936.00    0.79433   1.11776    0.004
 5937.00    0.84599   1.12255    0.004
 5938.00    0.92156   1.12643    0.004
 5939.00    0.91934   1.12099    0.004
 5940.00    0.86499   1.11836    0.004
 5941.00    0.84719   1.12478    0.004
 5942.00    0.85085   1.12649    0.004
 5943.00    0.91715   1.11949    0.004
 5944.00    1.01552   1.11938    0.004
 5945.00    1.07421   1.12700    0.004
 5946.00    1.11531   1.12553    0.004
 5947.00    1.14753   1.11706    0.004
 5948.00    1.17637   1.11998    0.004
 5949.00    1.13108   1.12849    0.004
 5950.00    1.06182   1.12406    0.004
 5951.00    1.06967   1.11559    0.004
 5952.00    1.09840   1.12096    0.004
 5953.00    1.07529   1.12857    0.004
 5954.00    1.04066   1.12226    0.004
 5955.00    1.02557   1.11592    0.004
 5956.00    1.01393   1.12283    0.004
 5957.00    1.07645   1.12822    0.004
 5958.00    1.14898   1.12175    0.004
 5959.00    1.03573   1.11855    0.004
 5960.00    0.90461   1.12541    0.004
 5961.00    0.81870   1.12869    0.004
 5962.00    0.73548   1.12365    0.004
 5963.00    0.87576   1.12289    0.004
 5964.00    1.02115   1.12865    0.004
 5965.00    1.07068   1.13072    0.004
 5966.00    1.12141   1.12689    0.004
 5967.00    1.20265   1.12713    0.004
 5968.00    1.27562   1.13201    0.004
 5969.00    1.23726   1.13349    0.004
 5970.00    1.20213   1.13022    0.004
 5971.00    1.19587   1.13017    0.004
 5972.00    1.18308   1.13399    0.004
 5973.00    1.12737   1.13479    0.004
 5974.00    1.07677   1.13136    0.004
 5975.00    1.05234   1.13051    0.004
 5976.00    1.02842   1.13347    0.004
 5977.00    1.00658   1.13333    0.004
 5978.00    0.97500   1.12941    0.004
 5979.00    0.91006   1.12859    0.004
 5980.00    0.88818   1.13142    0.004
 5981.00    0.99058   1.12957    0.004
 5982.00    1.07668   1.12426    0.004
 5983.00    1.12264   1.12452    0.004
 5984.00    1.18592   1.12818    0.004
 5985.00    1.28600   1.12471    0.004
 5986.00    1.35579   1.11905    0.004
 5987.00    1.36968   1.12131    0.004
 5988.00    1.33866   1.12500    0.004
 5989.00    1.23518   1.12011    0.004
 5990.00    1.22241   1.11525    0.004
 5991.00    1.33796   1.11937    0.004
 5992.00    1.40684   1.12233    0.004
 5993.00    1.41760   1.11690    0.004
 5994.00    1.34620   1.11373    0.004
 5995.00    1.18465   1.11837    0.004
 5996.00    1.08835   1.11959    0.004
 5997.00    1.05518   1.11423    0.004
 5998.00    1.06146   1.11302    0.004
 5999.00    1.10141   1.11757    0.004
 6000.00    1.12306   1.11699    0.004
 6001.00    1.13095   1.11152    0.004
 6002.00    1.11901   1.11119    0.004
 6003.00    1.09396   1.11480    0.004
 6004.00    1.12702   1.11372    0.004
 6005.00    1.19368   1.10913    0.004
 6006.00    1.20194   1.10753    0.004
 6007.00    1.18077   1.10917    0.004
 6008.00    1.17987   1.10965    0.004
 6009.00    1.18782   1.10709    0.004
 6010.00    1.10032   1.10363    0.004
 6011.00    0.97711   1.10293    0.004
 6012.00    0.93796   1.10529    0.004
 6013.00    0.92550   1.10476    0.004
 6014.00    1.01164   1.09961    0.004
 6015.00    1.12392   1.09831    0.004
 6016.00    1.11100   1.10300    0.004
 6017.00    1.07093   1.10312    0.004
 6018.00    1.04120   1.09690    0.004
 6019.00    1.01326   1.09707    0.004
 6020.00    1.08073   1.10341    0.004
 6021.00    1.16067   1.10295    0.004
 6022.00    1.13261   1.09728    0.004
 6023.00    1.09464   1.10042    0.004
 6024.00    1.15479   1.10732    0.004
 6025.00    1.22041   1.10528    0.004
 6026.00    1.22030   1.10150    0.004
 6027.00    1.21777   1.10770    0.004
 6028.00    1.11892   1.11401    0.004
 6029.00    1.01834   1.11086    0.004
 6030.00    0.87756   1.10957    0.004
 6031.00    0.74985   1.11739    0.004
 6032.00    0.78894   1.12223    0.004
 6033.00    0.82380   1.11924    0.004
 6034.00    0.82224   1.12025    0.004
 6035.00    0.81618   1.12760    0.004
 6036.00    0.78133   1.13049    0.004
 6037.00    0.76250   1.12852    0.004
 6038.00    0.82372   1.13110    0.004
 6039.00    0.88081   1.13659    0.004
 6040.00    0.92115   1.13754    0.004
 6041.00    0.98980   1.13701    0.004
 6042.00    1.15348   1.14013    0.004
 6043.00    1.26585   1.14290    0.004
 6044.00    1.23284   1.14277    0.004
 6045.00    1.18741   1.14363    0.004
 6046.00    1.11192   1.14586    0.004
 6047.00    1.06593   1.14586    0.004
 6048.00    1.08164   1.14559    0.004
 6049.00    1.07590   1.14747    0.004
 6050.00    1.03117   1.14808    0.004
 6051.00    0.95081   1.14592    0.004
 6052.00    0.81385   1.14588    0.004
 6053.00    0.74919   1.14821    0.004
 6054.00    0.78535   1.14723    0.004
 6055.00    0.90396   1.14373    0.004
 6056.00    1.12377   1.14400    0.004
 6057.00    1.22110   1.14654    0.004
 6058.00    1.18592   1.14480    0.004
 6059.00    1.15986   1.14051    0.004
 6060.00    1.14249   1.14078    0.004
 6061.00    1.16904   1.14374    0.004
 6062.00    1.23252   1.14208    0.004
 6063.00    1.22858   1.13719    0.004
 6064.00    1.17470   1.13731    0.004
 6065.00    1.12560   1.14123    0.004
 6066.00    1.07963   1.14042    0.004
 6067.00    1.01024   1.13561    0.004
 6068.00    0.92752   1.13532    0.004
 6069.00    0.91437   1.13948    0.004
 6070.00    0.93573   1.13969    0.004
 6071.00    0.96094   1.13535    0.004
 6072.00    0.98781   1.13424    0.004
 6073.00    0.93729   1.13807    0.004
 6074.00    0.85833   1.13940    0.004
 6075.00    0.76022   1.13533    0.004
 6076.00    0.65615   1.13243    0.004
 6077.00    0.77783   1.13548    0.004
 6078.00    0.95809   1.13821    0.004
 6079.00    1.04101   1.13381    0.004
 6080.00    1.10334   1.12855    0.004
 6081.00    1.09768   1.13111    0.004
 6082.00    1.08065   1.13505    0.004
 6083.00    0.98380   1.12978    0.004
 6084.00    0.87689   1.12250    0.004
 6085.00    0.80435   1.12513    0.004
 6086.00    0.73481   1.13004    0.004
 6087.00    0.80071   1.12391    0.004
 6088.00    0.87362   1.11539    0.004
 6089.00    0.95236   1.11861    0.004
 6090.00    1.03013   1.12420    0.004
 6091.00    1.02834   1.11765    0.004
 6092.00    1.02359   1.10902    0.004
 6093.00    0.95576   1.11285    0.004
 6094.00    0.89252   1.11889    0.004
 6095.00    0.88473   1.11296    0.004
 6096.00    0.87919   1.10462    0.004
 6097.00    0.89230   1.10781    0.004
 6098.00    0.90971   1.11443    0.004
 6099.00    0.95376   1.11066    0.004
 6100.00    0.99502   1.10267    0.004
 6101.00    1.02267   1.10374    0.004
 6102.00    1.03876   1.11054    0.004
 6103.00    1.00905   1.10976    0.004
 6104.00    0.98315   1.10304    0.004
 6105.00    0.96977   1.10183    0.004
 6106.00    0.94828   1.10756    0.004
 6107.00    0.90420   1.10937    0.004
 6108.00    0.88940   1.10448    0.004
 6109.00    0.94436   1.10146    0.004
 6110.00    1.00801   1.10564    0.004
 6111.00    1.08956   1.10899    0.004
 6112.00    1.17672   1.10579    0.004
 6113.00    1.27393   1.10198    0.004
 6114.00    1.31980   1.10453    0.004
 6115.00    1.28533   1.10788    0.004
 6116.00    1.24999   1.10553    0.004
 6117.00    1.21344   1.10186    0.004
 6118.00    1.15531   1.10345    0.004
 6119.00    1.07107   1.10552    0.004
 6120.00    1.01151   1.10282    0.004
 6121.00    0.97826   1.10014    0.004
 6122.00    1.00221   1.10140    0.004
 6123.00    1.07998   1.10130    0.004
 6124.00    1.19221   1.09821    0.004
 6125.00    1.33302   1.09720    0.004
 6126.00    1.36618   1.09793    0.004
 6127.00    1.32074   1.09516    0.004
 6128.00    1.24996   1.09218    0.004
 6129.00    1.16292   1.09371    0.004
 6130.00    1.12689   1.09390    0.004
 6131.00    1.11945   1.08805    0.004
 6132.00    1.13427   1.08559    0.004
 6133.00    1.15997   1.09042    0.004
 6134.00    1.21777   1.09029    0.004
 6135.00    1.28911   1.08133    0.004
 6136.00    1.30504   1.07942    0.004
 6137.00    1.30098   1.08765    0.004
 6138.00    1.29891   1.08782    0.004
 6139.00    1.29745   1.07683    0.004
 6140.00    1.25903   1.07509    0.004
 6141.00    1.21124   1.08547    0.004
 6142.00    1.21025   1.08634    0.004
 6143.00    1.21893   1.07476    0.004
 6144.00    1.20120   1.07273    0.004
 6145.00    1.17918   1.08361    0.004
 6146.00    1.10957   1.08540    0.004
 6147.00    1.03418   1.07436    0.004
 6148.00    0.98758   1.07109    0.004
 6149.00    0.94339   1.08072    0.004
 6150.00    0.94056   1.08347    0.004
 6151.00    0.93971   1.07326    0.004
 6152.00    0.89351   1.06774    0.004
 6153.00    0.84814   1.07512    0.004
 6154.00    0.88930   1.07867    0.004
 6155.00    0.93694   1.06851    0.004
 6156.00    1.11188   1.06004    0.004
 6157.00    1.26442   1.06554    0.004
 6158.00    1.15844   1.06993    0.004
 6159.00    1.06636   1.05899    0.004
 6160.00    1.08540   1.04782    0.004
 6161.00    1.11802   1.05293    0.004
 6162.00    1.23235   1.05840    0.004
 6163.00    1.33079   1.04612    0.004
 6164.00    1.35366   1.03358    0.004
 6165.00    1.34912   1.04028    0.004
 6166.00    1.23837   1.04700    0.004
 6167.00    1.14107   1.03372    0.004
 6168.00    1.08721   1.02197    0.004
 6169.00    1.07310   1.03134    0.004
 6170.00    1.16761   1.03877    0.004
 6171.00    1.22967   1.02577    0.004
 6172.00    1.21571   1.01689    0.004
 6173.00    1.19774   1.02837    0.004
 6174.00    1.17167   1.03537    0.004
 6175.00    1.12873   1.02425    0.004
 6176.00    1.05605   1.01928    0.004
 6177.00    0.98816   1.03067    0.004
 6178.00    0.92765   1.03601    0.004
 6179.00    0.91947   1.02827    0.004
 6180.00    0.98216   1.02689    0.004
 6181.00    1.04330   1.03530    0.004
 6182.00    1.10258   1.03802    0.004
 6183.00    1.14483   1.03472    0.004
 6184.00    1.16918   1.03594    0.004
 6185.00    1.23161   1.03901    0.004
 6186.00    1.32936   1.03889    0.004
 6187.00    1.41473   1.04051    0.004
 6188.00    1.48997   1.04318    0.004
 6189.00    1.44477   1.04027    0.004
 6190.00    1.31287   1.03792    0.004
 6191.00    1.18873   1.04406    0.004
 6192.00    1.06950   1.04750    0.004
 6193.00    1.04896   1.03967    0.004
 6194.00    1.08294   1.03602    0.004
 6195.00    1.31516   1.04555    0.004
 6196.00    1.64258   1.04958   -2.000
 6197.00    2.19542   1.03906   -2.000
 6198.00    2.84170   1.03493   -2.000
 6199.00    2.98661   1.04602   -2.000
 6200.00    2.95381   1.05041   -2.000
 6201.00    2.15740   1.03946   -2.000
 6202.00    1.13248   1.03527   -2.000
 6203.00    0.59035   1.04580   -2.000
 6204.00    0.16814   1.05002   -2.000
 6205.00    0.28763   1.04011   -2.000
 6206.00    0.51620   1.03589   -2.000
 6207.00    0.78738   1.04417   -2.000
 6208.00    1.06528   1.04748    0.004
 6209.00    1.15897   1.03903    0.004
 6210.00    1.23107   1.03468    0.004
 6211.00    1.25124   1.03996    0.004
 6212.00    1.26729   1.04181    0.004
 6213.00    1.16253   1.03461    0.004
 6214.00    1.05246   1.03013    0.004
 6215.00    1.00598   1.03279    0.004
 6216.00    0.95747   1.03325    0.004
 6217.00    0.77866   1.02692    0.004
 6218.00    0.60696   1.02253    0.004
 6219.00    0.56489   1.02362    0.004
 6220.00    0.54322   1.02328    0.004
 6221.00    0.74612   1.01770    0.004
 6222.00    0.94220   1.01379    0.004
 6223.00    1.08556   1.01439    0.004
 6224.00    1.19468   1.01381    0.004
 6225.00    1.10355   1.00905    0.004
 6226.00    1.02891   1.00608    0.004
 6227.00    1.03078   1.00683    0.004
 6228.00    1.02751   1.00619    0.004
 6229.00    1.00473   1.00227    0.004
 6230.00    0.95921   1.00051    0.004
 6231.00    0.84169   1.00163    0.004
 6232.00    0.75385   1.00076    0.004
 6233.00    0.74564   0.99744    0.004
 6234.00    0.78496   0.99679    0.004
 6235.00    0.93371   0.99828    0.004
 6236.00    1.05553   0.99705    0.004
 6237.00    1.12370   0.99389    0.004
 6238.00    1.18908   0.99390    0.004
 6239.00    1.24964   0.99568    0.004
 6240.00    1.29250   0.99417    0.004
 6241.00    1.30848   0.99086    0.004
 6242.00    1.29375   0.99096    0.004
 6243.00    1.23803   0.99282    0.004
 6244.00    1.18416   0.99122    0.004
 6245.00    1.13244   0.98788    0.004
 6246.00    1.13738   0.98775    0.004
 6247.00    1.20107   0.98919    0.004
 6248.00    1.23539   0.98767    0.004
 6249.00    1.24285   0.98503    0.004
 6250.00    1.26102   0.98476    0.004
 6251.00    1.28781   0.98508    0.004
 6252.00    1.24074   0.98371    0.004
 6253.00    1.14127   0.98288    0.004
 6254.00    1.07928   0.98299    0.004
 6255.00    1.04060   0.98155    0.004
 6256.00    1.04561   0.98038    0.004
 6257.00    1.07438   0.98241    0.004
 6258.00    1.17317   0.98355    0.004
 6259.00    1.30504   0.98014    0.004
 6260.00    1.50785   0.97919    0.004
 6261.00    1.73958   0.98455    0.005
 6262.00    1.64415   0.98718    0.005
 6263.00    1.43486   0.98212    0.005
 6264.00    1.18456   0.98141    0.005
 6265.00    0.92222   0.98964    0.005
 6266.00    0.73538   0.99374    0.005
 6267.00    0.56689   0.98776    0.004
 6268.00    0.62471   0.98723    0.004
 6269.00    0.72696   0.99710    0.004
 6270.00    0.85033   1.00202    0.004
 6271.00    0.97693   0.99597    0.004
 6272.00    1.02264   0.99558    0.004
 6273.00    1.05922   1.00548    0.004
 6274.00    1.12357   1.01032    0.004
 6275.00    1.18999   1.00485    0.004
 6276.00    1.21742   1.00465    0.003
 6277.00    1.24328   1.01335    0.003
 6278.00    1.20199   1.01727    0.003
 6279.00    1.15838   1.01267    0.003
 6280.00    1.04113   1.01276    0.000
 6281.00    0.92420   1.01977    0.000
 6282.00    0.81262   1.02237    0.000
 6283.00    0.71658   1.01845    0.000
 6284.00    0.78414   1.01888    0.000
 6285.00    0.84946   1.02447    0.000
 6286.00    0.89814   1.02573    0.000
 6287.00    0.93780   1.02193    0.000
 6288.00    0.92613   1.02252    0.000
 6289.00    0.88866   1.02736    0.000
 6290.00    0.73432   1.02760    0.000
 6291.00    0.60653   1.02316    0.000
 6292.00    0.57730   1.02350    0.000
 6293.00    0.59337   1.02837    0.000
 6294.00    0.75008   1.02810    0.000
 6295.00    0.88189   1.02241    0.000
 6296.00    0.94806   1.02193    0.000
 6297.00    1.01811   1.02743    0.000
 6298.00    1.09695   1.02748    0.000
 6299.00    1.15609   1.02045    0.000
 6300.00    1.17662   1.01852    0.000
 6301.00    1.16234   1.02480    0.000
 6302.00    1.08855   1.02622    0.000
 6303.00    1.00251   1.01850    0.000
 6304.00    0.89811   1.01457    0.000
 6305.00    0.81463   1.02107    0.000
 6306.00    0.75867   1.02478    0.000
 6307.00    0.74779   1.01771    0.000
 6308.00    0.78915   1.01146    0.000
 6309.00    0.82801   1.01693    0.000
 6310.00    0.86430   1.02333    0.000
 6311.00    0.90618   1.01847    0.000
 6312.00    0.95309   1.00998    0.000
 6313.00    0.99618   1.01296    0.000
 6314.00    1.03625   1.02181    0.000
 6315.00    1.03095   1.02046    0.000
 6316.00    0.99392   1.01035    0.000
 6317.00    0.97808   1.00984    0.000
 6318.00    0.97521   1.02033    0.000
 6319.00    0.98363   1.02302    0.000
 6320.00    0.99808   1.01232    0.000
 6321.00    0.94146   1.00826    0.004
 6322.00    0.85179   1.01942    0.004
 6323.00    0.77820   1.02583    0.004
 6324.00    0.71106   1.01559    0.004
 6325.00    0.67150   1.00866    0.004
 6326.00    0.64136   1.01948    0.003
 6327.00    0.63873   1.02870    0.003
 6328.00    0.64400   1.01986    0.003
 6329.00    0.65209   1.01082    0.003
 6330.00    0.66085   1.01995    0.003
 6331.00    0.75573   1.03104    0.003
 6332.00    0.86708   1.02452    0.003
 6333.00    1.01182   1.01375    0.003
 6334.00    1.16151   1.01989    0.003
 6335.00    1.13648   1.03210    0.003
 6336.00    1.09252   1.02836    0.003
 6337.00    0.98322   1.01627    0.003
 6338.00    0.86928   1.01891    0.004
 6339.00    0.73896   1.03142    0.004
 6340.00    0.60805   1.03043    0.003
 6341.00    0.60221   1.01783    0.003
 6342.00    0.60026   1.01730    0.004
 6343.00    0.71902   1.02915    0.004
 6344.00    0.83057   1.03012    0.004
 6345.00    0.82700   1.01820    0.004
 6346.00    0.82408   1.01600    0.004
 6347.00    0.82766   1.02629    0.004
 6348.00    0.83260   1.02751    0.003
 6349.00    0.84741   1.01700    0.003
 6350.00    0.85827   1.01487    0.004
 6351.00    0.84725   1.02311    0.003
 6352.00    0.82343   1.02290    0.003
 6353.00    0.74301   1.01393    0.003
 6354.00    0.66526   1.01367    0.003
 6355.00    0.59717   1.02010    0.003
 6356.00    0.56395   1.01708    0.003
 6357.00    0.63698   1.00922    0.003
 6358.00    0.72378   1.01178    0.003
 6359.00    0.84627   1.01733    0.003
 6360.00    0.96374   1.01155    0.003
 6361.00    1.07001   1.00441    0.004
 6362.00    1.14598   1.00985    0.004
 6363.00    1.16346   1.01555    0.004
 6364.00    1.15036   1.00825    0.004
 6365.00    1.08575   1.00200    0.004
 6366.00    0.98961   1.00963    0.004
 6367.00    0.84694   1.01598    0.004
 6368.00    0.71061   1.00880    0.004
 6369.00    0.58250   1.00369    0.004
 6370.00    0.54598   1.01243    0.004
 6371.00    0.61415   1.01950    0.004
 6372.00    0.65358   1.01360    0.004
 6373.00    0.66402   1.00947    0.004
 6374.00    0.64014   1.01796    0.003
 6375.00    0.58574   1.02526    0.003
 6376.00    0.54819   1.02116    0.003
 6377.00    0.52383   1.01772    0.003
 6378.00    0.55755   1.02444    0.003
 6379.00    0.63130   1.03098    0.003
 6380.00    0.70873   1.02895    0.003
 6381.00    0.78839   1.02621    0.003
 6382.00    0.83508   1.02996    0.003
 6383.00    0.86439   1.03447    0.003
 6384.00    0.84777   1.03453    0.003
 6385.00    0.81013   1.03293    0.003
 6386.00    0.71816   1.03329    0.003
 6387.00    0.60480   1.03493    0.003
 6388.00    0.58938   1.03684    0.003
 6389.00    0.60679   1.03674    0.004
 6390.00    0.70975   1.03420    0.004
 6391.00    0.83679   1.03315    0.004
 6392.00    0.92107   1.03634    0.004
 6393.00    0.99543   1.03748    0.004
 6394.00    1.06574   1.03303    0.004
 6395.00    1.13529   1.03040    0.004
 6396.00    1.07040   1.03449    0.004
 6397.00    0.98619   1.03594    0.004
 6398.00    0.73964   1.03020    0.004
 6399.00    0.47620   1.02801    0.004
 6400.00    0.42274   1.03338    0.004
 6401.00    0.38339   1.03358    0.004
 6402.00    0.54155   1.02624    0.003
 6403.00    0.70615   1.02621    0.003
 6404.00    0.77284   1.03347    0.003
 6405.00    0.83722   1.03167    0.003
 6406.00    0.83053   1.02292    0.003
 6407.00    0.82834   1.02516    0.003
 6408.00    0.89377   1.03388    0.003
 6409.00    0.95481   1.03047    0.003
 6410.00    0.97334   1.02091    0.003
 6411.00    0.99371   1.02459    0.003
 6412.00    1.02688   1.03405    0.003
 6413.00    1.05293   1.03012    0.004
 6414.00    1.04069   1.02054    0.004
 6415.00    1.02234   1.02408    0.004
 6416.00    0.97764   1.03319    0.004
 6417.00    0.94086   1.03060    0.004
 6418.00    0.93224   1.02220    0.004
 6419.00    0.95371   1.02378    0.004
 6420.00    1.06511   1.03138    0.004
 6421.00    1.15497   1.03152    0.004
 6422.00    1.18998   1.02524    0.004
 6423.00    1.19382   1.02413    0.004
 6424.00    1.12939   1.02919    0.003
 6425.00    1.04238   1.03207    0.003
 6426.00    0.91246   1.02915    0.003
 6427.00    0.81503   1.02639    0.004
 6428.00    0.77147   1.02782    0.004
 6429.00    0.74410   1.03129    0.004
 6430.00    0.74026   1.03250    0.004
 6431.00    0.70206   1.03050    0.003
 6432.00    0.61993   1.02805    0.003
 6433.00    0.56919   1.02945    0.003
 6434.00    0.55381   1.03406    0.003
 6435.00    0.55201   1.03477    0.003
 6436.00    0.56370   1.02991    0.003
 6437.00    0.63512   1.02829    0.003
 6438.00    0.75889   1.03434    0.004
 6439.00    0.80567   1.03781    0.004
 6440.00    0.79300   1.03215    0.004
 6441.00    0.78931   1.02794    0.004
 6442.00    0.79173   1.03374    0.004
 6443.00    0.83193   1.03864    0.004
 6444.00    0.89461   1.03362    0.004
 6445.00    0.92117   1.02904    0.004
 6446.00    0.92899   1.03350    0.004
 6447.00    0.90240   1.03731    0.004
 6448.00    0.86035   1.03299    0.004
 6449.00    0.78101   1.03009    0.004
 6450.00    0.68724   1.03392    0.004
 6451.00    0.63500   1.03540    0.004
 6452.00    0.59641   1.03052    0.003
 6453.00    0.57103   1.02939    0.003
 6454.00    0.54928   1.03384    0.003
 6455.00    0.59901   1.03461    0.003
 6456.00    0.66495   1.02924    0.003
 6457.00    0.68678   1.02797    0.003
 6458.00    0.70061   1.03306    0.003
 6459.00    0.64784   1.03474    0.003
 6460.00    0.58581   1.02883    0.003
 6461.00    0.63388   1.02650    0.003
 6462.00    0.69294   1.03293    0.003
 6463.00    0.80221   1.03629    0.004
 6464.00    0.91465   1.02939    0.004
 6465.00    0.88483   1.02516    0.004
 6466.00    0.85096   1.03250    0.004
 6467.00    0.82870   1.03780    0.004
 6468.00    0.80763   1.03129    0.004
 6469.00    0.81985   1.02555    0.004
 6470.00    0.83027   1.03191    0.004
 6471.00    0.81534   1.03818    0.004
 6472.00    0.80170   1.03286    0.004
 6473.00    0.80004   1.02589    0.003
 6474.00    0.80187   1.03029    0.003
 6475.00    0.82730   1.03700    0.003
 6476.00    0.84005   1.03267    0.003
 6477.00    0.78633   1.02504    0.003
 6478.00    0.74286   1.02774    0.003
 6479.00    0.74271   1.03343    0.003
 6480.00    0.76534   1.02890    0.003
 6481.00    0.86739   1.02164    0.003
 6482.00    0.93791   1.02376    0.003
 6483.00    0.91593   1.02729    0.003
 6484.00    0.88663   1.02118    0.003
 6485.00    0.83902   1.01440    0.003
 6486.00    0.80553   1.01685    0.004
 6487.00    0.80245   1.01887    0.004
 6488.00    0.82193   1.01109    0.004
 6489.00    0.88359   1.00420    0.004
 6490.00    0.96577   1.00723    0.003
 6491.00    1.08144   1.00894    0.003
 6492.00    1.15357   0.99983    0.003
 6493.00    1.16328   0.99214    0.004
 6494.00    1.10818   0.99596    0.004
 6495.00    0.97141   0.99904    0.004
 6496.00    0.89307   0.99012    0.003
 6497.00    0.87964   0.98138    0.003
 6498.00    0.88929   0.98518    0.003
 6499.00    0.92155   0.99070    0.003
 6500.00    0.93048   0.98520    0.003
 6501.00    0.91924   0.97668    0.003
 6502.00    0.92034   0.97920    0.003
 6503.00    0.93083   0.98651    0.003
 6504.00    0.96697   0.98535    0.003
 6505.00    1.02028   0.97883    0.003
 6506.00    1.04680   0.97981    0.003
 6507.00    1.05764   0.98714    0.003
 6508.00    1.01278   0.98995    0.003
 6509.00    0.93946   0.98639    0.003
 6510.00    0.89083   0.98613    0.003
 6511.00    0.85312   0.99208    0.003
 6512.00    0.81235   0.99686    0.003
 6513.00    0.77041   0.99590    0.004
 6514.00    0.77457   0.99546    0.004
 6515.00    0.79362   0.99991    0.003
 6516.00    0.72942   1.00428    0.003
 6517.00    0.64273   1.00405    0.003
 6518.00    0.68251   1.00430    0.003
 6519.00    0.75029   1.00793    0.003
 6520.00    0.82310   1.01043    0.003
 6521.00    0.89679   1.00954    0.003
 6522.00    0.95249   1.01073    0.003
 6523.00    1.00576   1.01429    0.003
 6524.00    1.04398   1.01536    0.003
 6525.00    1.08075   1.01342    0.003
 6526.00    1.07289   1.01425    0.003
 6527.00    1.06240   1.01777    0.003
 6528.00    0.96138   1.01854    0.000
 6529.00    0.85859   1.01619    0.000
 6530.00    0.82865   1.01588    0.000
 6531.00    0.80144   1.01830    0.000
 6532.00    0.84321   1.01956    0.000
 6533.00    0.88251   1.01852    0.000
 6534.00    0.88882   1.01711    0.000
 6535.00    0.89783   1.01673    0.000
 6536.00    0.93100   1.01745    0.000
 6537.00    0.95743   1.01854    0.000
 6538.00    0.93964   1.01777    0.000
 6539.00    0.92425   1.01452    0.000
 6540.00    0.92109   1.01267    0.000
 6541.00    0.92470   1.01468    0.000
 6542.00    0.95626   1.01581    0.000
 6543.00    0.96843   1.01104    0.000
 6544.00    0.91437   1.00528    0.000
 6545.00    0.86069   1.00610    0.000
 6546.00    0.80816   1.00938    0.000
 6547.00    0.78288   1.00494    0.000
 6548.00    0.82463   0.99508    0.000
 6549.00    0.84969   0.99304    0.000
 6550.00    0.83937   0.99780    0.000
 6551.00    0.84170   0.99503    0.000
 6552.00    0.86736   0.98268    0.000
 6553.00    0.87753   0.97674    0.000
 6554.00    0.86279   0.98164    0.000
 6555.00    0.83156   0.98148    0.000
 6556.00    0.77704   0.96779    0.000
 6557.00    0.73640   0.95791    0.000
 6558.00    0.71301   0.96317    0.000
 6559.00    0.73335   0.96670    0.000
 6560.00    0.80159   0.95281    0.000
 6561.00    0.91645   0.93930    0.000
 6562.00    1.07635   0.94557    0.000
 6563.00    1.17882   0.95373    0.000
 6564.00    1.23237   0.94068    0.000
 6565.00    1.17836   0.92420    0.000
 6566.00    1.04366   0.93087    0.000
 6567.00    0.93881   0.94322    0.000
 6568.00    0.85363   0.93556    0.000
 6569.00    0.77203   0.92136    0.000
 6570.00    0.69250   0.92519    0.000
 6571.00    0.68168   0.93719    0.000
 6572.00    0.70539   0.93612    0.000
 6573.00    0.74444   0.92654    0.000
 6574.00    0.79016   0.92761    0.000
 6575.00    0.82758   0.93834    0.000
 6576.00    0.86191   0.94269    0.000
 6577.00    0.90962   0.93739    0.000
 6578.00    0.96157   0.93666    0.000
 6579.00    1.00926   0.94531    0.000
 6580.00    1.05582   0.95258    0.000
 6581.00    1.00108   0.95134    0.000
 6582.00    0.92443   0.94960    0.000
 6583.00    0.86883   0.95455    0.000
 6584.00    0.81684   0.96177    0.000
 6585.00    0.85712   0.96374    0.000
 6586.00    0.90940   0.96243    0.000
 6587.00    0.93243   0.96374    0.000
 6588.00    0.95278   0.96866    0.000
 6589.00    0.93736   0.97296    0.000
 6590.00    0.91997   0.97301    0.000
 6591.00    0.91606   0.97058    0.000
 6592.00    0.91250   0.97268    0.000
 6593.00    0.91467   0.97851    0.000
 6594.00    0.91613   0.97914    0.000
 6595.00    0.90146   0.97409    0.000
 6596.00    0.88721   0.97404    0.000
 6597.00    0.87833   0.98030    0.000
 6598.00    0.87413   0.98216    0.000
 6599.00    0.91012   0.97729    0.000
 6600.00    0.94584   0.97535    0.000
 6601.00    0.97980   0.97999    0.000
 6602.00    1.00856   0.98283    0.000
 6603.00    1.01146   0.97926    0.000
 6604.00    0.98335   0.97665    0.000
 6605.00    0.83008   0.98035    0.000
 6606.00    0.70844   0.98317    0.000
 6607.00    0.69271   0.97995    0.000
 6608.00    0.67854   0.97762    0.000
 6609.00    0.66878   0.98175    0.003
 6610.00    0.67165   0.98451    0.003
 6611.00    0.70505   0.98062    0.003
 6612.00    0.74003   0.97822    0.003
 6613.00    0.77830   0.98344    0.003
 6614.00    0.82112   0.98677    0.003
 6615.00    0.87219   0.98250    0.003
 6616.00    0.88298   0.97946    0.003
 6617.00    0.82989   0.98436    0.003
 6618.00    0.77588   0.98792    0.003
 6619.00    0.72061   0.98415    0.003
 6620.00    0.67532   0.98097    0.003
 6621.00    0.64228   0.98443    0.003
 6622.00    0.64757   0.98759    0.003
 6623.00    0.69425   0.98455    0.003
 6624.00    0.73522   0.98140    0.003
 6625.00    0.77074   0.98328    0.004
 6626.00    0.80847   0.98570    0.004
 6627.00    0.84806   0.98288    0.004
 6628.00    0.84911   0.97960    0.004
 6629.00    0.82166   0.98060    0.003
 6630.00    0.83422   0.98298    0.003
 6631.00    0.87276   0.98059    0.003
 6632.00    0.88655   0.97638    0.003
 6633.00    0.88628   0.97649    0.003
 6634.00    0.81283   0.97926    0.003
 6635.00    0.70317   0.97766    0.003
 6636.00    0.66531   0.97285    0.003
 6637.00    0.65817   0.97177    0.003
 6638.00    0.71016   0.97461    0.003
 6639.00    0.78385   0.97539    0.003
 6640.00    0.83652   0.97159    0.003
 6641.00    0.88266   0.96801    0.003
 6642.00    0.82943   0.96933    0.003
 6643.00    0.75049   0.97310    0.003
 6644.00    0.72001   0.97173    0.003
 6645.00    0.69977   0.96595    0.003
 6646.00    0.76421   0.96499    0.003
 6647.00    0.84277   0.97056    0.003
 6648.00    0.82314   0.97200    0.003
 6649.00    0.79117   0.96606    0.003
 6650.00    0.74441   0.96277    0.003
 6651.00    0.69635   0.96742    0.003
 6652.00    0.70299   0.97085    0.003
 6653.00    0.71244   0.96678    0.003
 6654.00    0.72273   0.96193    0.003
 6655.00    0.73241   0.96397    0.003
 6656.00    0.69806   0.96841    0.003
 6657.00    0.66736   0.96691    0.003
 6658.00    0.71356   0.96141    0.003
 6659.00    0.75875   0.96084    0.003
 6660.00    0.79189   0.96522    0.003
 6661.00    0.82056   0.96493    0.003
 6662.00    0.81232   0.95969    0.003
 6663.00    0.79168   0.95841    0.003
 6664.00    0.69456   0.96204    0.003
 6665.00    0.60493   0.96156    0.003
 6666.00    0.55165   0.95717    0.003
 6667.00    0.49973   0.95614    0.003
 6668.00    0.45316   0.95896    0.003
 6669.00    0.43929   0.95911    0.003
 6670.00    0.53283   0.95554    0.003
 6671.00    0.62896   0.95352    0.003
 6672.00    0.73225   0.95555    0.003
 6673.00    0.77556   0.95756    0.003
 6674.00    0.67633   0.95552    0.003
 6675.00    0.60089   0.95185    0.003
 6676.00    0.57427   0.95185    0.003
 6677.00    0.59729   0.95569    0.003
 6678.00    0.70896   0.95651    0.003
 6679.00    0.79785   0.95193    0.003
 6680.00    0.85115   0.94901    0.003
 6681.00    0.89177   0.95281    0.003
 6682.00    0.91498   0.95656    0.003
 6683.00    0.89071   0.95354    0.003
 6684.00    0.80909   0.94920    0.003
 6685.00    0.75742   0.95060    0.003
 6686.00    0.73763   0.95509    0.003
 6687.00    0.75229   0.95514    0.003
 6688.00    0.79931   0.95090    0.003
 6689.00    0.84012   0.94912    0.003
 6690.00    0.87578   0.95247    0.003
 6691.00    0.92339   0.95532    0.003
 6692.00    0.97970   0.95267    0.004
 6693.00    0.97805   0.94868    0.004
 6694.00    0.93931   0.94975    0.003
 6695.00    0.94856   0.95347    0.003
 6696.00    0.98467   0.95294    0.000
 6697.00    0.94304   0.94912    0.000
 6698.00    0.86355   0.94773    0.000
 6699.00    0.84619   0.94999    0.000
 6700.00    0.85497   0.95097    0.000
 6701.00    0.87927   0.94879    0.000
 6702.00    0.90917   0.94626    0.000
 6703.00    0.87730   0.94637    0.000
 6704.00    0.82661   0.94786    0.000
 6705.00    0.85759   0.94702    0.000
 6706.00    0.90925   0.94375    0.000
 6707.00    0.89859   0.94223    0.000
 6708.00    0.87511   0.94376    0.000
 6709.00    0.89445   0.94413    0.000
 6710.00    0.92074   0.94121    0.000
 6711.00    0.87748   0.93833    0.000
 6712.00    0.82580   0.93892    0.000
 6713.00    0.79292   0.94043    0.000
 6714.00    0.76160   0.93857    0.000
 6715.00    0.75169   0.93452    0.000
 6716.00    0.74279   0.93417    0.000
 6717.00    0.85266   0.93711    0.000
 6718.00    0.96261   0.93651    0.000
 6719.00    0.98343   0.93146    0.000
 6720.00    1.00230   0.92964    0.000
 6721.00    0.98299   0.93391    0.000
 6722.00    0.96401   0.93573    0.000
 6723.00    0.94885   0.93108    0.000
 6724.00    0.92788   0.92740    0.000
 6725.00    0.86056   0.93092    0.000
 6726.00    0.80128   0.93515    0.000
 6727.00    0.79022   0.93231    0.000
 6728.00    0.77045   0.92709    0.000
 6729.00    0.70938   0.92903    0.000
 6730.00    0.67079   0.93475    0.000
 6731.00    0.71910   0.93390    0.000
 6732.00    0.74995   0.92827    0.000
 6733.00    0.72457   0.92824    0.000
 6734.00    0.68485   0.93429    0.000
 6735.00    0.60601   0.93538    0.000
 6736.00    0.55193   0.93000    0.000
 6737.00    0.55570   0.92781    0.000
 6738.00    0.57531   0.93284    0.000
 6739.00    0.62690   0.93575    0.000
 6740.00    0.70814   0.93125    0.000
 6741.00    0.84153   0.92715    0.000
 6742.00    0.93357   0.93030    0.000
 6743.00    0.96196   0.93450    0.000
 6744.00    0.92605   0.93159    0.000
 6745.00    0.80317   0.92683    0.000
 6746.00    0.75174   0.92808    0.000
 6747.00    0.78536   0.93214    0.000
 6748.00    0.87407   0.93102    0.000
 6749.00    1.02060   0.92712    0.000
 6750.00    1.05453   0.92665    0.000
 6751.00    0.98420   0.92938    0.000
 6752.00    0.95346   0.93017    0.000
 6753.00    0.95503   0.92812    0.004
 6754.00    0.92192   0.92686    0.004
 6755.00    0.86391   0.92784    0.004
 6756.00    0.67713   0.92965    0.004
 6757.00    0.40916   0.92926    0.004
 6758.00    0.30603   0.92863    0.004
 6759.00    0.29375   0.92925    0.004
 6760.00    0.50458   0.92985    0.004
 6761.00    0.82233   0.92991    0.004
 6762.00    0.96823   0.93125    0.004
 6763.00    1.04306   0.93233    0.004
 6764.00    1.02286   0.93107    0.004
 6765.00    0.96906   0.93041    0.004
 6766.00    0.84911   0.93278    0.004
 6767.00    0.70942   0.93526    0.004
 6768.00    0.82972   0.93376    0.004
 6769.00    1.01442   0.93157    0.004
 6770.00    1.13479   0.93275    0.004
 6771.00    1.24225   0.93635    0.004
 6772.00    1.15365   0.93668    0.004
 6773.00    1.03422   0.93339    0.004
 6774.00    0.81455   0.93246    0.004
 6775.00    0.58319   0.93576    0.004
 6776.00    0.50828   0.93773    0.004
 6777.00    0.44571   0.93531    0.004
 6778.00    0.75404   0.93271    0.004
 6779.00    1.07853   0.93396    0.004
 6780.00    1.06378   0.93670    0.004
 6781.00    1.04400   0.93614    0.004
 6782.00    0.95542   0.93279    0.004
 6783.00    0.87161   0.93192    0.004
 6784.00    0.87437   0.93422    0.004
 6785.00    0.86813   0.93495    0.004
 6786.00    0.76346   0.93268    0.004
 6787.00    0.67545   0.93063    0.003
 6788.00    0.71561   0.93105    0.004
 6789.00    0.75713   0.93247    0.004
 6790.00    0.80657   0.93261    0.004
 6791.00    0.82065   0.93030    0.004
 6792.00    0.67114   0.92863    0.004
 6793.00    0.58345   0.92976    0.004
 6794.00    0.72950   0.93119    0.004
 6795.00    0.84885   0.92958    0.004
 6796.00    0.88387   0.92741    0.004
 6797.00    0.92785   0.92777    0.004
 6798.00    0.99582   0.92930    0.004
 6799.00    1.08298   0.92926    0.004
 6800.00    1.21422   0.92757    0.004
 6801.00    1.26258   0.92675    0.004
 6802.00    1.14613   0.92829    0.004
 6803.00    1.06194   0.92971    0.004
 6804.00    1.03364   0.92823    0.004
 6805.00    1.03729   0.92669    0.004
 6806.00    1.08939   0.92811    0.005
 6807.00    1.08492   0.93003    0.005
 6808.00    1.00506   0.92867    0.005
 6809.00    0.98980   0.92697    0.005
 6810.00    1.05035   0.92851    0.004
 6811.00    1.11785   0.93062    0.004
 6812.00    1.19253   0.92956    0.004
 6813.00    1.16908   0.92756    0.004
 6814.00    1.05604   0.92863    0.004
 6815.00    0.96573   0.93151    0.004
 6816.00    0.89371   0.93151    0.004
 6817.00    0.82992   0.92809    0.004
 6818.00    0.77197   0.92765    0.004
 6819.00    0.78372   0.93167    0.004
 6820.00    0.83876   0.93373    0.004
 6821.00    0.83602   0.92994    0.004
 6822.00    0.80192   0.92700    0.004
 6823.00    0.81140   0.93049    0.004
 6824.00    0.84144   0.93467    0.004
 6825.00    0.81861   0.93249    0.004
 6826.00    0.77430   0.92747    0.003
 6827.00    0.83355   0.92851    0.004
 6828.00    0.92876   0.93372    0.004
 6829.00    0.86451   0.93443    0.004
 6830.00    0.75360   0.92857    0.005
 6831.00    0.58307   0.92584    0.005
 6832.00    0.39809   0.93037    0.005
 6833.00    0.71203   0.93423    0.005
 6834.00    1.12358   0.93037    0.005
 6835.00    1.25639   0.92467    0.005
 6836.00    1.34671   0.92616    0.004
 6837.00    1.34567   0.93113    0.004
 6838.00    1.33438   0.93036    0.004
 6839.00    1.11497   0.92400    0.004
 6840.00    0.88001   0.92198    0.004
 6841.00    0.64446   0.92600    0.004
 6842.00    0.40889   0.92828    0.004
 6843.00    0.41803   0.92361    0.004
 6844.00    0.43630   0.91856    0.004
 6845.00    0.75107   0.92035    0.004
 6846.00    1.03962   0.92450    0.003
 6847.00    0.88515   0.92297    0.003
 6848.00    0.73579   0.91749    0.003
 6849.00    0.63981   0.91636    0.003
 6850.00    0.56357   0.91955    0.003
 6851.00    0.63400   0.92050    0.003
 6852.00    0.72084   0.91666    0.004
 6853.00    0.90065   0.91340    0.003
 6854.00    1.04095   0.91493    0.003
 6855.00    1.00292   0.91771    0.004
 6856.00    0.95276   0.91601    0.004
 6857.00    0.85773   0.91172    0.004
 6858.00    0.79483   0.91156    0.004
 6859.00    0.83141   0.91435    0.004
 6860.00    0.88061   0.91408    0.004
 6861.00    0.96300   0.91117    0.004
 6862.00    0.99851   0.91002    0.004
 6863.00    0.92806   0.91123    0.004
 6864.00    0.86941   0.91185    0.003
 6865.00    0.83387   0.91018    0.004
 6866.00    0.73905   0.90826    0.004
 6867.00    0.54308   0.90936    0.003
 6868.00    0.46494   0.91128    0.003
 6869.00    0.56293   0.90970    0.003
 6870.00    0.65095   0.90705    0.003
 6871.00    0.72588   0.90806    0.003
 6872.00    0.74087   0.91072    0.003
 6873.00    0.68649   0.91012    0.003
 6874.00    0.65866   0.90770    0.003
 6875.00    0.65792   0.90764    0.003
 6876.00    0.68866   0.91051    0.003
 6877.00    0.74774   0.91219    0.003
 6878.00    0.75847   0.91025    0.003
 6879.00    0.73085   0.90809    0.003
 6880.00    0.77625   0.91032    0.004
 6881.00    0.87258   0.91411    0.003
 6882.00    0.94023   0.91413    0.004
 6883.00    0.99031   0.91178    0.004
 6884.00    1.00714   0.91163    0.004
 6885.00    1.00619   0.91469    0.004
 6886.00    0.99780   0.91730    0.004
 6887.00    0.98596   0.91711    0.004
 6888.00    0.91670   0.91558    0.003
 6889.00    0.82449   0.91670    0.003
 6890.00    0.75598   0.91994    0.003
 6891.00    0.69556   0.92187    0.003
 6892.00    0.63699   0.92116    0.003
 6893.00    0.57895   0.92009    0.003
 6894.00    0.74498   0.92128    0.003
 6895.00    0.96407   0.92474    0.004
 6896.00    0.86537   0.92700    0.004
 6897.00    0.70609   0.92511    0.004
 6898.00    0.73874   0.92356    0.004
 6899.00    0.79976   0.92627    0.004
 6900.00    0.65951   0.93042    0.004
 6901.00    0.49755   0.93037    0.004
 6902.00    0.49568   0.92743    0.004
 6903.00    0.50512   0.92693    0.004
 6904.00    0.36870   0.93097    0.004
 6905.00    0.22704   0.93396    0.003
 6906.00    0.28587   0.93110    0.003
 6907.00    0.34420   0.92772    0.003
 6908.00    0.36257   0.93001    0.003
 6909.00    0.37873   0.93479    0.003
 6910.00    0.35981   0.93383    0.003
 6911.00    0.34727   0.92954    0.003
 6912.00    0.39875   0.92891    0.003
 6913.00    0.45828   0.93270    0.003
 6914.00    0.57565   0.93425    0.003
 6915.00    0.67760   0.93091    0.003
 6916.00    0.69453   0.92800    0.003
 6917.00    0.72607   0.92960    0.003
 6918.00    0.82206   0.93238    0.003
 6919.00    0.89519   0.93075    0.004
 6920.00    0.88546   0.92808    0.004
 6921.00    0.86786   0.92786    0.004
 6922.00    0.82635   0.92904    0.004
 6923.00    0.81029   0.92901    0.004
 6924.00    0.86004   0.92776    0.004
 6925.00    0.88245   0.92660    0.004
 6926.00    0.84409   0.92611    0.003
 6927.00    0.78497   0.92611    0.003
 6928.00    0.68582   0.92583    0.003
 6929.00    0.62357   0.92613    0.003
 6930.00    0.62330   0.92559    0.003
 6931.00    0.58896   0.92395    0.003
 6932.00    0.50442   0.92386    0.003
 6933.00    0.43682   0.92559    0.003
 6934.00    0.39118   0.92562    0.003
 6935.00    0.47730   0.92275    0.003
 6936.00    0.71376   0.92149    0.004
 6937.00    0.80525   0.92352    0.004
 6938.00    0.75090   0.92519    0.004
 6939.00    0.67680   0.92376    0.004
 6940.00    0.58517   0.92132    0.004
 6941.00    0.62458   0.92205    0.004
 6942.00    0.76646   0.92460    0.004
 6943.00    0.74832   0.92435    0.004
 6944.00    0.62015   0.92135    0.004
 6945.00    0.51020   0.92103    0.004
 6946.00    0.41123   0.92338    0.004
 6947.00    0.39389   0.92377    0.003
 6948.00    0.41949   0.92234    0.003
 6949.00    0.48031   0.92158    0.003
 6950.00    0.55720   0.92255    0.003
 6951.00    0.59767   0.92378    0.003
 6952.00    0.62384   0.92354    0.003
 6953.00    0.55093   0.92240    0.003
 6954.00    0.44487   0.92283    0.003
 6955.00    0.47106   0.92367    0.003
 6956.00    0.53440   0.92313    0.003
 6957.00    0.54085   0.92344    0.004
 6958.00    0.53413   0.92445    0.004
 6959.00    0.56744   0.92445    0.004
 6960.00    0.60818   0.92443    0.004
 6961.00    0.60680   0.92554    0.004
 6962.00    0.59939   0.92608    0.004
 6963.00    0.67834   0.92568    0.004
 6964.00    0.76624   0.92494    0.004
 6965.00    0.69711   0.92556    0.004
 6966.00    0.61752   0.92792    0.004
 6967.00    0.71475   0.92811    0.004
 6968.00    0.81761   0.92557    0.004
 6969.00    0.71501   0.92535    0.004
 6970.00    0.61955   0.92865    0.003
 6971.00    0.74283   0.92962    0.003
 6972.00    0.85874   0.92656    0.003
 6973.00    0.86520   0.92422    0.003
 6974.00    0.85387   0.92659    0.004
 6975.00    0.67177   0.93017    0.004
 6976.00    0.51889   0.92813    0.004
 6977.00    0.56922   0.92337    0.004
 6978.00    0.59877   0.92388    0.004
 6979.00    0.51678   0.92833    0.004
 6980.00    0.44745   0.92832    0.004
 6981.00    0.43261   0.92392    0.004
 6982.00    0.43520   0.92204    0.004
 6983.00    0.49963   0.92501    0.004
 6984.00    0.54240   0.92792    0.004
 6985.00    0.52061   0.92594    0.004
 6986.00    0.52479   0.92269    0.004
 6987.00    0.59495   0.92343    0.004
 6988.00    0.65971   0.92610    0.004
 6989.00    0.71269   0.92583    0.004
 6990.00    0.76724   0.92408    0.004
 6991.00    0.82477   0.92400    0.004
 6992.00    0.79541   0.92476    0.004
 6993.00    0.62218   0.92543    0.003
 6994.00    0.55941   0.92618    0.003
 6995.00    0.65695   0.92645    0.004
 6996.00    0.72521   0.92555    0.004
 6997.00    0.75611   0.92428    0.004
 6998.00    0.75244   0.92468    0.004
 6999.00    0.70989   0.92654    0.004
 7000.00    0.73685   0.92672    0.004
 7001.00    0.83279   0.92395    0.004
 7002.00    0.81727   0.92263    0.004
 7003.00    0.70426   0.92521    0.004
 7004.00    0.71921   0.92691    0.004
 7005.00    0.83281   0.92426    0.004
 7006.00    0.76936   0.92104    0.004
 7007.00    0.58594   0.92207    0.004
 7008.00    0.51671   0.92438    0.004
 7009.00    0.51529   0.92291    0.004
 7010.00    0.54980   0.91947    0.004
 7011.00    0.60292   0.91949    0.004
 7012.00    0.69422   0.92200    0.004
 7013.00    0.80266   0.92132    0.004
 7014.00    0.92341   0.91801    0.004
 7015.00    1.04892   0.91753    0.004
 7016.00    0.95733   0.92030    0.004
 7017.00    0.79448   0.92008    0.004
 7018.00    0.76829   0.91587    0.004
 7019.00    0.77969   0.91485    0.004
 7020.00    0.76108   0.91913    0.004
 7021.00    0.73568   0.92097    0.004
 7022.00    0.78212   0.91668    0.004
 7023.00    0.84154   0.91385    0.004
 7024.00    0.81154   0.91773    0.004
 7025.00    0.76914   0.92207    0.004
 7026.00    0.64804   0.91939    0.004
 7027.00    0.51913   0.91405    0.004
 7028.00    0.59259   0.91596    0.004
 7029.00    0.67872   0.92303    0.004
 7030.00    0.75148   0.92415    0.004
 7031.00    0.82300   0.91840    0.004
 7032.00    0.66838   0.91695    0.004
 7033.00    0.52286   0.92318    0.004
 7034.00    0.62742   0.92769    0.004
 7035.00    0.71601   0.92448    0.004
 7036.00    0.58052   0.91983    0.004
 7037.00    0.46020   0.92263    0.004
 7038.00    0.47971   0.92962    0.004
 7039.00    0.49637   0.93078    0.004
 7040.00    0.49382   0.92557    0.004
 7041.00    0.50327   0.92417    0.004
 7042.00    0.57542   0.92944    0.004
 7043.00    0.64621   0.93324    0.004
 7044.00    0.71129   0.93109    0.004
 7045.00    0.76760   0.92708    0.004
 7046.00    0.79343   0.92760    0.004
 7047.00    0.82354   0.93140    0.004
 7048.00    0.86615   0.93229    0.004
 7049.00    0.89748   0.92873    0.004
 7050.00    0.90068   0.92640   -2.000
 7051.00    0.87399   0.92747   -2.000
 7052.00    0.78304   0.92789   -2.000
 7053.00    0.70051   0.92618   -2.000
 7054.00    0.63369   0.92349   -2.000
 7055.00    0.55960   0.92143   -2.000
 7056.00    0.47364   0.91990   -2.000
 7057.00    0.50509   0.91818   -2.000
 7058.00    0.70448   0.91637   -2.000
 7059.00    0.76453   0.91473   -2.000
 7060.00    0.64923   0.91226   -2.000
 7061.00    0.62212   0.90822   -2.000
 7062.00    0.69280   0.90566   -2.000
 7063.00    0.73875   0.90533   -2.000
 7064.00    0.76051   0.90385   -2.000
 7065.00    0.75969   0.89952   -2.000
 7066.00    0.73941   0.89548   -2.000
 7067.00    0.72035   0.89483   -2.000
 7068.00    0.70223   0.89531   -2.000
 7069.00    0.66350   0.89309   -2.000
 7070.00    0.61100   0.88808   -2.000
 7071.00    0.70789   0.88541   -2.000
 7072.00    0.89215   0.88664   -2.000
 7073.00    0.97091   0.88699   -2.000
 7074.00    0.99587   0.88379   -2.000
 7075.00    0.99001   0.88029   -2.000
 7076.00    0.97054   0.87978   -2.000
 7077.00    0.94173   0.88017   -2.000
 7078.00    0.90939   0.87912   -2.000
 7079.00    0.71922   0.87662   -2.000
 7080.00    0.47822   0.87489   -2.000
 7081.00    0.65334   0.87434   -2.000
 7082.00    0.94056   0.87336   -2.000
 7083.00    0.87470   0.87200   -2.000
 7084.00    0.73088   0.87101   -2.000
 7085.00    0.73686   0.86957   -2.000
 7086.00    0.76917   0.86629   -2.000
 7087.00    0.73875   0.86426   -2.000
 7088.00    0.69993   0.86483   -2.000
 7089.00    0.70629   0.86465   -2.000
 7090.00    0.71695   0.86110   -2.000
 7091.00    0.80156   0.85664   -2.000
 7092.00    0.89050   0.85600   -2.000
 7093.00    1.00279   0.85798   -2.000
 7094.00    1.11317   0.85677   -2.000
 7095.00    0.88482   0.85063   -2.000
 7096.00    0.66132   0.84721   -2.000
 7097.00    0.55814   0.84979   -2.000
 7098.00    0.46420   0.85195   -2.000
 7099.00    0.49284   0.84819   -2.000
 7100.00    0.52809   0.84214   -2.000
 7101.00    0.62201   0.84184   -2.000
 7102.00    0.69560   0.84627   -2.000
 7103.00    0.63640   0.84689   -2.000
 7104.00    0.58863   0.84089   -2.000
 7105.00    0.59908   0.83701   -2.000
 7106.00    0.61940   0.84040   -2.000
 7107.00    0.68031   0.84485   -2.000
 7108.00    0.69872   0.84273   -2.000
 7109.00    0.57227   0.83660   -2.000
 7110.00    0.56200   0.83576   -2.000
 7111.00    0.88558   0.84099   -2.000
 7112.00    1.07108   0.84362   -2.000
 7113.00    0.91782   0.83898   -2.000
 7114.00    0.76794   0.83424   -2.000
 7115.00    0.62520   0.83608   -2.000
 7116.00    0.58661   0.84136   -2.000
 7117.00    0.73955   0.84155   -2.000
 7118.00    0.85539   0.83597   -2.000
 7119.00    0.91162   0.83272   -2.000
 7120.00    0.85802   0.83585   -2.000
 7121.00    0.64962   0.84021   -2.000
 7122.00    0.58662   0.83838   -2.000
 7123.00    0.70397   0.83256   -2.000
 7124.00    0.87107   0.83031   -2.000
 7125.00    1.09256   0.83460   -2.000
 7126.00    1.07844   0.83803   -2.000
 7127.00    0.83712   0.83438   -2.000
 7128.00    0.60667   0.82835   -2.000
 7129.00    0.38545   0.82769   -2.000
 7130.00    0.47640   0.83337   -2.000
 7131.00    0.80113   0.83536   -2.000
 7132.00    0.99317   0.82939   -2.000
 7133.00    1.09790   0.82375   -2.000
 7134.00    0.92940   0.82675   -2.000
 7135.00    0.60353   0.83282   -2.000
 7136.00    0.55574   0.83165   -2.000
 7137.00    0.64750   0.82487   -2.000
 7138.00    0.84867   0.82216   -2.000
 7139.00    1.09735   0.82822   -2.000
 7140.00    1.05466   0.83235   -2.000
 7141.00    0.90344   0.82767   -2.000
 7142.00    0.88654   0.82230   -2.000
 7143.00    0.91209   0.82455   -2.000
 7144.00    0.92363   0.83041   -2.000
 7145.00    0.93148   0.83082   -2.000
 7146.00    0.97065   0.82624   -2.000
 7147.00    1.01657   0.82419   -2.000
 7148.00    1.03527   0.82830   -2.000
 7149.00    1.04932   0.83125   -2.000
 7150.00    0.84099   0.82962   -2.000
 7151.00    0.60387   0.82786   -2.000
 7152.00    0.73037   0.82868   -2.000
 7153.00    0.88988   0.83064   -2.000
 7154.00    0.97839   0.83133   -2.000
 7155.00    1.06302   0.83154   -2.000
 7156.00    0.97087   0.83187   -2.000
 7157.00    0.87575   0.83170   -2.000
 7158.00    0.84795   0.83054   -2.000
 7159.00    0.84334   0.83220   -2.000
 7160.00    1.36525   0.83582   -2.000
 7161.00    1.84960   0.83594   -2.000
 7162.00    1.86095   0.83253   -2.000
 7163.00    1.87068   0.83115   -2.000
 7164.00    1.86666   0.83546   -2.000
 7165.00    1.76205   0.83933   -2.000
 7166.00    1.01992   0.83700   -2.000
 7167.00    0.47967   0.83202   -2.000
 7168.00    0.94182   0.83313   -2.000
 7169.00    1.31018   0.83912   -2.000
 7170.00    1.30102   0.84113   -2.000
 7171.00    1.19976   0.83694   -2.000
 7172.00    0.79077   0.83293   -2.000
 7173.00    0.52453   0.83555   -2.000
 7174.00    0.66095   0.83997   -2.000
 7175.00    0.77603   0.84005   -2.000
 7176.00    0.83964   0.83674   -2.000
 7177.00    0.86142   0.83481   -2.000
 7178.00    0.79610   0.83671   -2.000
 7179.00    0.85097   0.83940   -2.000
 7180.00    1.12345   0.83901   -2.000
 7181.00    1.19779   0.83602   -2.000
 7182.00    0.95852   0.83440   -2.000
 7183.00    0.87832   0.83510   -2.000
 7184.00    1.01914   0.83734   -2.000
 7185.00    0.97315   0.83803   -2.000
 7186.00    0.69875   0.83505   -2.000
 7187.00    0.70416   0.83259   -2.000
 7188.00    1.01118   0.83385   -2.000
 7189.00    1.02590   0.83582   -2.000
 7190.00    0.76268   0.83470   -2.000
 7191.00    0.66445   0.83159   -2.000
 7192.00    0.70452   0.83077   -2.000
 7193.00    0.66335   0.83365   -2.000
 7194.00    0.56221   0.83462   -2.000
 7195.00    0.70285   0.83073   -2.000
 7196.00    1.00023   0.82825   -2.000
 7197.00    0.80156   0.83099   -2.000
 7198.00    0.32149   0.83426   -2.000
 7199.00    0.63454   0.83217   -2.000
 7200.00    1.33928   0.82716   -2.000
 7201.00    1.66767   0.82790   -2.000
 7202.00    1.83535   0.83364   -2.000
 7203.00    1.57522   0.83453   -2.000
 7204.00    1.15856   0.82903   -2.000
 7205.00    0.70991   0.82617   -2.000
 7206.00    0.25135   0.83080   -2.000
 7207.00    0.36593   0.83633   -2.000
 7208.00    0.62843   0.83433   -2.000
 7209.00    0.64226   0.82795   -2.000
 7210.00    0.60378   0.82837   -2.000
 7211.00    0.68988   0.83535   -2.000
 7212.00    0.79667   0.83841   -2.000
 7213.00    0.96487   0.83450   -2.000
 7214.00    1.14076   0.83069   -2.000
 7215.00    1.18613   0.83378   -2.000
 7216.00    1.22020   0.83915   -2.000
 7217.00    0.89345   0.83944   -2.000
 7218.00    0.54837   0.83658   -2.000
