###################################################################
## OUTPUT of StarlightChains_v04.for    [Cid@UFSC - 01/Apr/2007] ##
###################################################################

## Some input info
KUG0210-078._22_24.txt                   [arq_obs]
Base.CB07.vall.4m                        [arq_base]
Masks.EmLines.NEW.gm                     [arq_masks]
StCv04.C11.config                        [arq_config]
   66                                    [N_base]
    0                                    [N_YAV_components = # of components with extra extinction!]
    0                                    [i_FitPowerLaw (1/0 = Yes/No)]
-9.99                                    [alpha_PowerLaw]
CCM                                      [red_law_option]
 1.458241                                [q_norm = A(l_norm)/A(V)]

## (Re)Sampling Parameters
 3741.00                                 [l_ini (A)]
 7218.00                                 [l_fin (A)]
    1.00                                 [dl    (A)]     (OBS: dl_cushion =    50.00 A)

## Normalization info
 4020.00                                 [l_norm (A) - for base]
 4010.00                                 [llow_norm (A) - window for f_obs]
 4060.00                                 [lupp_norm (A) - window for f_obs]
7.280764E-18                             [fobs_norm (in input units)]

## S/N
 3691.00                                 [llow_SN (A) - window for S/N]
 7268.00                                 [lupp_SN (A) - window for S/N]
   3.204                                 [S/N in S/N window]
   2.575                                 [S/N in norm. window]
   0.011                                 [S/N_err in S/N window]
   0.009                                 [S/N_err in norm. window]
  1.0000                                 [fscale_chi2]

## etc...
    -2007240                             [idum_orig]
  2376                                   [NOl_eff]
  2350                                   [Nl_eff]
    26    NSIGMA                         [Ntot_cliped & clip_method]
  1386000                                [Nglobal_steps]
   7                                     [N_chains]
  21                                     [NEX0s_base = N_base in EX0s-fits]
 0   0   1       26   2.0   1.570E+03    [Clip-Bug, RC-Crash & Burn-In warning-flags, n_censored_weights, wei_nsig_threshold & wei_limit]
    21     19.944     19.442      0.502  [idt_all, wdt_TotTime, wdt_UsrTime & wdt_SysTime (sec)]

## Synthesis Results - Best model ##

 6.52470E-05                             [chi2/Nl_eff]
    57.44276                             [adev (%)]

   130.00000                             [sum-of-x (%)]
 4.91750E-17                             [Flux_tot (units of input spectrum!)]
 5.85240E-13                             [Mini_tot (???)]
 2.97213E-13                             [Mcor_tot (???)]

-369.88                                  [v0_min  (km/s)]
   0.00                                  [vd_min  (km/s)]
 1.2269                                  [AV_min  (mag)]
 0.0000                                  [YAV_min (mag)]

# j     x_j(%)      Mini_j(%)     Mcor_j(%)     age_j(yr)     Z_j      (L/M)_j    YAV?  Mstars   component_j        a/Fe...       SSP_chi2r SSP_adev(%)   SSP_AV   SSP_x(%)
  1     13.3674     7.8976E-02    1.5551E-01    1.000000E+06  0.00400  1.094E-02    0   1.0000   age020_m42            0.0000     6.9424E-05    63.0854   2.8078   122.8270
  2      0.0000     0.0000E+00    0.0000E+00    3.160000E+06  0.00400  4.007E-02    0   0.9999   age045_m42            0.0000     7.3557E-05    63.4822   2.0820   130.4566
  3      0.0000     0.0000E+00    0.0000E+00    5.010000E+06  0.00400  2.539E-02    0   0.9488   age055_m42            0.0000     7.0782E-05    63.4457   2.3976   127.8004
  4      0.0000     0.0000E+00    0.0000E+00    6.610000E+06  0.00400  2.620E-02    0   0.9220   age061_m42            0.0000     7.3289E-05    63.1856   2.0185   130.4140
  5      0.0000     0.0000E+00    0.0000E+00    1.000000E+07  0.00400  1.322E-02    0   0.8862   age070_m42            0.0000     7.1136E-05    61.7605   1.7901   131.5242
  6      0.0000     0.0000E+00    0.0000E+00    1.445000E+07  0.00400  7.883E-03    0   0.8571   age078_m42            0.0000     7.0048E-05    61.9770   2.1080   128.7351
  7      0.0000     0.0000E+00    0.0000E+00    2.512000E+07  0.00400  5.251E-03    0   0.8174   age090_m42            0.0000     7.1176E-05    61.4513   1.6763   131.7469
  8      0.0000     0.0000E+00    0.0000E+00    4.000000E+07  0.00400  3.649E-03    0   0.7851   age104_m42            0.0000     7.2310E-05    61.5622   1.4443   132.8185
  9      0.0000     0.0000E+00    0.0000E+00    5.500000E+07  0.00400  3.098E-03    0   0.7629   age110_m42            0.0000     7.4459E-05    62.1787   1.5758   133.3175
 10      0.0000     0.0000E+00    0.0000E+00    1.015200E+08  0.00400  2.228E-03    0   0.7207   age116_m42            0.0000     7.6180E-05    62.3670   1.5891   133.6093
 11      0.0000     0.0000E+00    0.0000E+00    2.861200E+08  0.00400  1.093E-03    0   0.6648   age125_m42            0.0000     7.6830E-05    61.7341   1.0414   136.5082
 12      0.0000     0.0000E+00    0.0000E+00    5.088000E+08  0.00400  6.597E-04    0   0.6365   age130_m42            0.0000     7.9648E-05    62.2410   1.0154   137.8776
 13      0.0000     0.0000E+00    0.0000E+00    1.434000E+09  0.00400  2.132E-04    0   0.5798   age139_m42            0.0000     8.2152E-05    62.6325   0.0374   140.0880
 14      0.0000     0.0000E+00    0.0000E+00    4.250000E+09  0.00400  5.895E-05    0   0.5377   age158_m42            0.0000     8.0356E-05    64.2776  -0.4733   137.1327
 15      0.0000     0.0000E+00    0.0000E+00    7.500000E+09  0.00400  3.510E-05    0   0.5212   age171_m42            0.0000     8.1541E-05    64.8111  -0.6792   136.5116
 16      0.0000     0.0000E+00    0.0000E+00    1.300000E+10  0.00400  2.005E-05    0   0.5034   age193_m42            0.0000     8.2400E-05    65.1400  -0.8584   135.9977
 17      0.0000     0.0000E+00    0.0000E+00    1.800000E+10  0.00400  1.525E-05    0   0.4967   age213_m42            0.0000     8.1906E-05    65.1043  -0.8788   135.4062
 18      2.5606     1.3369E-02    2.6324E-02    1.000000E+06  0.00800  1.238E-02    0   1.0000   age020_m52            0.0000     6.9509E-05    63.0990   2.8041   123.0490
 19      1.7929     3.7699E-03    7.3980E-03    3.160000E+06  0.00800  3.074E-02    0   0.9966   age045_m52            0.0000     6.9581E-05    63.2763   2.7228   124.2114
 20      0.0000     0.0000E+00    0.0000E+00    5.010000E+06  0.00800  2.668E-02    0   0.9443   age055_m52            0.0000     7.0379E-05    63.1864   2.4871   126.5127
 21      0.0000     0.0000E+00    0.0000E+00    6.610000E+06  0.00800  2.136E-02    0   0.9177   age061_m52            0.0000     7.0521E-05    62.0836   1.2858   133.1869
 22      0.2939     1.5637E-03    2.7179E-03    1.000000E+07  0.00800  1.215E-02    0   0.8827   age070_m52            0.0000     7.0043E-05    61.2716   1.9911   130.7380
 23      0.0000     0.0000E+00    0.0000E+00    1.445000E+07  0.00800  8.717E-03    0   0.8552   age078_m52            0.0000     7.0487E-05    61.9092   2.0792   130.2698
 24      0.0000     0.0000E+00    0.0000E+00    2.512000E+07  0.00800  5.592E-03    0   0.8162   age090_m52            0.0000     7.1581E-05    61.3975   1.7458   133.0460
 25      0.0000     0.0000E+00    0.0000E+00    4.000000E+07  0.00800  3.896E-03    0   0.7841   age104_m52            0.0000     7.3114E-05    61.6655   1.6503   134.1192
 26      0.0000     0.0000E+00    0.0000E+00    1.015200E+08  0.00800  2.148E-03    0   0.7226   age116_m52            0.0000     7.5193E-05    62.1086   1.5662   134.3836
 27      0.0000     0.0000E+00    0.0000E+00    2.861200E+08  0.00800  9.925E-04    0   0.6683   age125_m52            0.0000     8.0519E-05    61.8787   1.0944   138.5114
 28      0.0000     0.0000E+00    0.0000E+00    9.047900E+08  0.00800  3.141E-04    0   0.6138   age135_m52            0.0000     8.5005E-05    63.2584   0.2640   144.3998
 29      0.0000     0.0000E+00    0.0000E+00    1.434000E+09  0.00800  1.719E-04    0   0.5853   age139_m52            0.0000     8.2382E-05    63.7867  -0.3437   142.4856
 30      0.0000     0.0000E+00    0.0000E+00    2.500000E+09  0.00800  7.872E-05    0   0.5600   age150_m52            0.0000     8.3500E-05    65.1511  -0.6687   140.4081
 31      0.0000     0.0000E+00    0.0000E+00    4.250000E+09  0.00800  4.336E-05    0   0.5426   age158_m52            0.0000     8.3231E-05    65.3433  -0.6900   139.3193
 32      0.0000     0.0000E+00    0.0000E+00    6.250000E+09  0.00800  3.159E-05    0   0.5319   age166_m52            0.0000     8.5664E-05    65.7153  -0.9072   139.4332
 33      0.0000     0.0000E+00    0.0000E+00    1.300000E+10  0.00800  1.361E-05    0   0.5073   age193_m52            0.0000     9.0004E-05    60.2392  -1.0000   127.3384
 34      4.9937     3.2649E+01    3.2080E+01    1.800000E+10  0.00800  9.886E-06    0   0.4990   age213_m52            0.0000     9.3620E-05    58.8950  -1.0000   122.9104
 35      0.0000     0.0000E+00    0.0000E+00    1.000000E+06  0.02000  1.544E-02    0   1.0000   age020_m62            0.0000     6.9425E-05    63.1140   2.7991   123.3543
 36      0.0000     0.0000E+00    0.0000E+00    3.160000E+06  0.02000  3.762E-02    0   0.9858   age045_m62            0.0000     6.9218E-05    63.4500   2.7288   124.6399
 37      0.0000     0.0000E+00    0.0000E+00    5.010000E+06  0.02000  3.296E-02    0   0.9342   age055_m62            0.0000     7.2188E-05    63.4234   2.3578   129.1839
 38      0.0000     0.0000E+00    0.0000E+00    8.710000E+06  0.02000  1.154E-02    0   0.8861   age067_m62            0.0000     6.5899E-05    58.7408   1.5402   131.3897
 39      0.0000     0.0000E+00    0.0000E+00    1.445000E+07  0.02000  7.663E-03    0   0.8472   age078_m62            0.0000     6.8893E-05    60.6409   1.6644   132.7758
 40      0.0000     0.0000E+00    0.0000E+00    2.512000E+07  0.02000  4.532E-03    0   0.8099   age090_m62            0.0000     6.9001E-05    60.3171   1.6644   132.1107
 41      0.0000     0.0000E+00    0.0000E+00    5.500000E+07  0.02000  2.733E-03    0   0.7595   age110_m62            0.0000     7.2266E-05    61.5852   1.6275   133.3840
 42      0.0000     0.0000E+00    0.0000E+00    1.609000E+08  0.02000  1.369E-03    0   0.6985   age120_m62            0.0000     7.7661E-05    61.7989   1.4561   136.6876
 43      0.0000     0.0000E+00    0.0000E+00    2.861200E+08  0.02000  9.013E-04    0   0.6714   age125_m62            0.0000     8.2140E-05    61.6429   1.2187   139.5639
 44      0.0000     0.0000E+00    0.0000E+00    5.088000E+08  0.02000  5.028E-04    0   0.6449   age130_m62            0.0000     8.6652E-05    62.7632   0.8121   143.5073
 45      0.0000     0.0000E+00    0.0000E+00    9.047900E+08  0.02000  2.428E-04    0   0.6179   age135_m62            0.0000     8.5053E-05    64.2793   0.1671   144.7050
 46      0.0000     0.0000E+00    0.0000E+00    1.434000E+09  0.02000  1.263E-04    0   0.5908   age139_m62            0.0000     8.3940E-05    65.1256  -0.3082   143.6173
 47      0.0000     0.0000E+00    0.0000E+00    2.500000E+09  0.02000  5.985E-05    0   0.5673   age150_m62            0.0000     8.5261E-05    66.0279  -0.7163   142.7923
 48      0.7810     1.5433E+00    1.6617E+00    4.250000E+09  0.02000  3.271E-05    0   0.5468   age158_m62            0.0000     8.8964E-05    65.7657  -1.0000   140.5215
 49      0.0000     0.0000E+00    0.0000E+00    1.000000E+10  0.02000  1.360E-05    0   0.5167   age181_m62            0.0000     9.5378E-05    60.7266  -1.0000   128.8043
 50      0.9200     8.3473E+00    8.2396E+00    1.800000E+10  0.02000  7.124E-06    0   0.5013   age213_m62            0.0000     1.0068E-04    57.9637  -1.0000   120.3744
 51     18.4131     4.5915E-02    9.0394E-02    1.000000E+06  0.05000  2.592E-02    0   0.9998   age020_m72            0.0000     6.9357E-05    63.0189   2.7937   123.2723
 52      0.0000     0.0000E+00    0.0000E+00    3.160000E+06  0.05000  4.845E-02    0   0.9577   age045_m72            0.0000     7.0153E-05    63.4539   2.6141   126.1310
 53      0.0000     0.0000E+00    0.0000E+00    5.010000E+06  0.05000  3.072E-02    0   0.9147   age055_m72            0.0000     6.8616E-05    61.5779   2.2071   129.2332
 54     79.3089     3.5231E-01    6.1583E-01    6.610000E+06  0.05000  1.455E-02    0   0.8877   age061_m72            0.0000     6.4922E-05    58.3425   1.6142   131.3604
 55      0.0000     0.0000E+00    0.0000E+00    1.000000E+07  0.05000  9.074E-03    0   0.8524   age070_m72            0.0000     6.8838E-05    61.6817   2.3843   128.8634
 56      0.0000     0.0000E+00    0.0000E+00    2.512000E+07  0.05000  4.250E-03    0   0.7902   age090_m72            0.0000     7.0633E-05    61.3330   2.0984   130.7041
 57      0.0000     0.0000E+00    0.0000E+00    4.000000E+07  0.05000  3.087E-03    0   0.7618   age104_m72            0.0000     7.1606E-05    61.0698   1.8810   132.3114
 58      0.0000     0.0000E+00    0.0000E+00    1.015200E+08  0.05000  1.700E-03    0   0.7096   age116_m72            0.0000     7.6677E-05    61.3485   1.6187   135.6010
 59      0.0000     0.0000E+00    0.0000E+00    2.861200E+08  0.05000  7.384E-04    0   0.6633   age125_m72            0.0000     8.4918E-05    62.2133   1.0761   141.4283
 60      0.0000     0.0000E+00    0.0000E+00    5.088000E+08  0.05000  3.819E-04    0   0.6372   age130_m72            0.0000     8.6167E-05    63.9929   0.5211   145.5374
 61      0.0000     0.0000E+00    0.0000E+00    9.047900E+08  0.05000  1.676E-04    0   0.6110   age135_m72            0.0000     8.6125E-05    65.7740  -0.2492   145.3595
 62      0.0000     0.0000E+00    0.0000E+00    1.434000E+09  0.05000  8.837E-05    0   0.5874   age139_m72            0.0000     8.6942E-05    65.9353  -0.7125   144.4552
 63      0.0000     0.0000E+00    0.0000E+00    2.500000E+09  0.05000  4.233E-05    0   0.5598   age150_m72            0.0000     9.0171E-05    65.8771  -1.0000   141.7027
 64      3.3477     1.5079E+01    1.5585E+01    6.250000E+09  0.05000  1.435E-05    0   0.5249   age166_m72            0.0000     9.6851E-05    59.5668  -1.0000   125.1202
 65      4.2207     4.1886E+01    4.1536E+01    1.300000E+10  0.05000  6.513E-06    0   0.5036   age193_m72            0.0000     1.0397E-04    55.9894  -1.0000   115.9429
 66      0.0000     0.0000E+00    0.0000E+00    1.800000E+10  0.05000  4.527E-06    0   0.4945   age213_m72            0.0000     1.0818E-04    54.2503  -1.0000   109.6493


## Synthesis Results - Average & Chains ##

# j      x_j: min, <> & last-chain-values for 1 ...  7 chains
  1     13.3674      0.5772      0.9227      0.6675      0.8355      0.2271      1.1638      1.0378      5.5060
  2      0.0000      0.6224      0.0000      0.0044      0.0000      0.0000      0.0000      0.0400      3.1323
  3      0.0000      0.7124      0.6637      0.8040      0.6509      0.1061      0.8033      0.6590      3.7291
  4      0.0000      0.7800      0.0000      0.0060      0.2602      0.0000      0.1950      0.0000      1.7944
  5      0.0000      0.7120      0.2426      0.0000      0.1664      1.0996      0.3809      0.1754      0.3176
  6      0.0000      1.6895      2.2879      2.6016      2.2490      1.6360      2.2847      2.2139      0.2961
  7      0.0000      0.7523      0.0590      0.0000      0.0311      0.7393      0.0478      0.0000      1.7218
  8      0.0000      0.5666      0.0056      0.0051      0.0000      0.6847      0.0166      0.0000      0.5113
  9      0.0000      0.5010      0.0138      0.0000      0.0000      0.6102      0.1467      0.0000      0.0000
 10      0.0000      0.7235      0.0000      0.7368      0.0069      0.3952      0.0000      0.0000      0.0000
 11      0.0000      0.6529      0.0000      0.0109      0.0042      0.7002      0.1626      0.2871      1.0573
 12      0.0000      0.5743      0.0617      0.0000      0.0000      1.6211      0.0000      0.0000      2.9719
 13      0.0000      0.5855      0.0000      0.0000      0.0000      0.4594      0.0756      0.0000      0.0000
 14      0.0000      0.5724      0.0000      0.0000      0.0000      0.0000      0.0000      0.0000      0.0000
 15      0.0000      0.9124      0.0007      0.1438      0.0000      1.3515      0.0181      0.0000      1.9526
 16      0.0000      0.7954      0.0000      0.0035      0.0000      1.5931      0.0000      0.0003      5.6446
 17      0.0000      0.5634      0.0000      0.0000      0.0000      1.1890      0.0567      0.0000      0.5797
 18      2.5606      2.6611      4.7510      5.4691      4.8847      2.8883      4.5813      4.6654      0.4964
 19      1.7929      0.6816      0.8592      0.6037      0.5667      0.4014      0.6746      0.5120      0.0000
 20      0.0000      0.5990      0.0000      0.0000      0.0401      1.8184      0.0000      0.0226      0.8585
 21      0.0000      0.9129      0.0120      0.0000      0.0000      0.3107      0.0672      0.0000      0.0000
 22      0.2939      0.8764      2.1556      3.6298      2.1405      0.2952      1.9661      1.9342      0.3896
 23      0.0000      0.8004      0.1693      0.0000      0.2022      0.8095      0.2911      0.2297      1.0168
 24      0.0000      0.5345      0.0532      0.0434      0.0125      0.9172      0.0000      0.0000      0.0000
 25      0.0000      0.7558      0.0067      0.0283      0.0161      0.0630      0.0572      0.0137      1.4419
 26      0.0000      0.5755      0.5279      0.0236      0.0000      0.1299      0.1332      0.0315      0.0000
 27      0.0000      0.6090      0.0000      0.0073      0.0000      0.1391      0.0647      0.0702      0.0000
 28      0.0000      0.6502      0.0000      0.0000      0.0004      0.3651      0.0000      0.0098      0.2434
 29      0.0000      0.7279      0.0000      0.1188      0.0000      0.0539      0.0500      0.0000      0.0000
 30      0.0000      0.7692      0.0000      0.0000      0.0000      0.9717      0.0034      0.0000      1.3414
 31      0.0000      0.6717      0.0000      0.0000      0.0031      0.1869      0.1334      0.2914      1.9840
 32      0.0000      0.7224      0.0008      0.0000      0.0041      2.8658      0.0974      0.0000      0.4177
 33      0.0000      0.7522      0.0000      0.0000      0.0072      0.0000      0.0000      0.0000      0.1000
 34      4.9937      1.5396      3.9770      2.1667      3.7631      1.0240      3.7818      3.9455      0.0000
 35      0.0000      1.3847      2.5180      2.4219      2.5302      0.3886      2.3970      3.4600      0.2849
 36      0.0000      1.2068      0.2470      0.2294      0.3097      4.3543      0.3389      0.2733      1.6367
 37      0.0000      0.4320      0.0000      0.0000      0.0000      0.1173      0.0547      0.0017      1.8729
 38      0.0000      6.7213     14.3312     14.7919     13.8968     10.1144     14.2882     13.7740      3.7933
 39      0.0000      0.5232      0.0395      0.0508      0.0031      0.8177      0.0634      0.0121      0.0000
 40      0.0000      1.6923      3.3914      2.8119      3.2963      1.6455      3.0869      2.7252      1.1550
 41      0.0000      0.6179      0.0000      0.0441      0.0000      1.2594      0.0160      0.0000      0.0000
 42      0.0000      0.7996      0.0115      0.0000      0.0000      0.0000      0.0262      0.0000      0.0000
 43      0.0000      0.5451      0.0120      0.0000      0.0000      0.0000      0.0570      0.0000      0.0000
 44      0.0000      0.6875      0.0006      0.0000      0.0000      1.0041      0.1151      0.0000      0.0341
 45      0.0000      0.5808      0.0000      0.2187      0.0000      0.5078      0.1454      0.4919      0.0000
 46      0.0000      0.6211      0.0513      0.0336      0.0000      1.3721      0.0015      0.5214      0.0000
 47      0.0000      0.5602      0.0000      0.3159      0.0000      0.0000      0.0385      0.0000      0.6699
 48      0.7810      0.9171      0.0000      0.4736      0.0000      0.1600      0.0189      0.0000      1.9247
 49      0.0000      0.8982      0.0304      0.0000      0.0000      0.9973      0.0304      0.0143      0.9966
 50      0.9200      0.9592      1.6687      2.0892      1.9036      0.0000      0.0116      1.2516      1.2242
 51     18.4131      0.6072      0.6369      0.5567      0.6590      0.3873      0.6410      0.5676      0.4754
 52      0.0000      0.8260      0.0439      0.0351      0.0125      0.7775      0.2179      0.0014      0.5840
 53      0.0000      0.7805      0.0390      0.0337      0.7669      0.7317      0.0043      0.5430      4.0366
 54     79.3089      5.1479     11.0808     10.9307     11.1958      5.8701     10.3575     10.7759      2.7009
 55      0.0000      0.8759      0.5719      0.1695      0.5713      0.5746      0.6793      0.4947      2.4398
 56      0.0000      2.1766      3.3254      3.0030      3.7746      1.6430      3.7254      3.7365      0.0000
 57      0.0000      0.8150      0.0000      0.0154      0.0000      1.0449      0.0462      0.0000      0.0000
 58      0.0000      0.5064      0.0000      0.0000      0.0000      0.7992      0.1388      0.3962      0.0000
 59      0.0000      0.5983      0.0000      0.0008      0.0000      0.0000      0.0464      0.0000      0.0000
 60      0.0000      0.7925      0.0000      0.3244      0.0000      0.2562      0.0689      0.0000      1.2534
 61      0.0000      0.8318      0.0000      0.0000      0.0000      0.0745      0.0160      0.0000      0.0000
 62      0.0000      0.7939      0.0000      0.0002      0.0000      0.6353      0.0366      0.0000      1.3746
 63      0.0000      0.8577      0.0000      0.0000      0.0000      0.0000      0.1115      0.0000      1.0552
 64      3.3477      0.9854      0.0000      0.9148      0.0000      1.6925      0.0522      0.0000      1.2574
 65      4.2207      0.8287      1.1240      0.5558      1.1268      1.1299      1.1025      1.1110      1.2018
 66      0.0000      6.8000     14.1062     13.3515     14.1086      7.7060     14.8925     13.7084      4.4145

# j      m_j: min, <> & last-chain-values for 1 ...  7 chains
  1  1.5551E-01  4.4236E-03  4.3212E-03  3.3699E-03  3.9027E-03  1.6450E-03  5.5398E-03  5.0380E-03  4.7911E-02
  2  0.0000E+00  1.3023E-03  0.0000E+00  6.0590E-06  0.0000E+00  0.0000E+00  0.0000E+00  5.3007E-05  7.4409E-03
  3  0.0000E+00  2.2323E-03  1.2706E-03  1.6595E-03  1.2430E-03  3.1403E-04  1.5631E-03  1.3077E-03  1.3266E-02
  4  0.0000E+00  2.3017E-03  0.0000E+00  1.1609E-05  4.6796E-04  0.0000E+00  3.5742E-04  0.0000E+00  6.0113E-03
  5  0.0000E+00  4.0022E-03  8.3335E-04  0.0000E+00  5.6988E-04  5.8401E-03  1.3296E-03  6.2451E-04  2.0266E-03
  6  0.0000E+00  1.5403E-02  1.2745E-02  1.5624E-02  1.2496E-02  1.4093E-02  1.2936E-02  1.2784E-02  3.0644E-03
  7  0.0000E+00  9.8198E-03  4.7015E-04  0.0000E+00  2.4738E-04  9.1180E-03  3.8710E-04  0.0000E+00  2.5515E-02
  8  0.0000E+00  1.0221E-02  6.1196E-05  6.0786E-05  0.0000E+00  1.1672E-02  1.8642E-04  0.0000E+00  1.0472E-02
  9  0.0000E+00  1.0344E-02  1.7420E-04  0.0000E+00  0.0000E+00  1.1906E-02  1.8813E-03  0.0000E+00  0.0000E+00
 10  0.0000E+00  1.9623E-02  0.0000E+00  1.3163E-02  1.1357E-04  1.0129E-02  0.0000E+00  0.0000E+00  0.0000E+00
 11  0.0000E+00  3.3296E-02  0.0000E+00  3.6519E-04  1.3012E-04  3.3742E-02  5.1498E-03  9.2744E-03  6.1222E-02
 12  0.0000E+00  4.6459E-02  3.0487E-03  0.0000E+00  0.0000E+00  1.2392E-01  0.0000E+00  0.0000E+00  2.7297E-01
 13  0.0000E+00  1.3351E-01  0.0000E+00  0.0000E+00  0.0000E+00  9.8977E-02  1.0710E-02  0.0000E+00  0.0000E+00
 14  0.0000E+00  4.3776E-01  0.0000E+00  0.0000E+00  0.0000E+00  0.0000E+00  0.0000E+00  0.0000E+00  0.0000E+00
 15  0.0000E+00  1.1360E+00  5.3164E-04  1.1796E-01  0.0000E+00  1.5900E+00  1.4031E-02  0.0000E+00  2.7601E+00
 16  0.0000E+00  1.6744E+00  0.0000E+00  4.7976E-03  0.0000E+00  3.1690E+00  0.0000E+00  3.7180E-04  1.3491E+01
 17  0.0000E+00  1.5386E+00  0.0000E+00  0.0000E+00  0.0000E+00  3.0683E+00  9.6084E-02  0.0000E+00  1.7973E+00
 18  2.6324E-02  1.8023E-02  1.9662E-02  2.4400E-02  2.0164E-02  1.8484E-02  1.9270E-02  2.0013E-02  3.8170E-03
 19  7.3980E-03  1.8529E-03  1.4272E-03  1.0810E-03  9.3890E-04  1.0312E-03  1.1388E-03  8.8145E-04  0.0000E+00
 20  0.0000E+00  1.7776E-03  0.0000E+00  0.0000E+00  7.2591E-05  5.0990E-03  0.0000E+00  4.2558E-05  2.8926E-03
 21  0.0000E+00  3.2888E-03  2.6386E-05  0.0000E+00  0.0000E+00  1.0577E-03  1.5036E-04  0.0000E+00  0.0000E+00
 22  2.7179E-03  5.3386E-03  8.0234E-03  1.4565E-02  7.9470E-03  1.6993E-03  7.4381E-03  7.4625E-03  2.6943E-03
 23  0.0000E+00  6.5843E-03  8.5108E-04  0.0000E+00  1.0140E-03  6.2925E-03  1.4869E-03  1.1966E-03  9.4967E-03
 24  0.0000E+00  6.5420E-03  3.9747E-04  3.4971E-04  9.2999E-05  1.0607E-02  0.0000E+00  0.0000E+00  0.0000E+00
 25  0.0000E+00  1.2754E-02  6.9490E-05  3.1485E-04  1.6539E-04  1.0045E-03  5.9923E-04  1.4687E-04  2.7625E-02
 26  0.0000E+00  1.6234E-02  9.0984E-03  4.3890E-04  0.0000E+00  3.4616E-03  2.3327E-03  5.6245E-04  0.0000E+00
 27  0.0000E+00  3.4386E-02  0.0000E+00  2.7098E-04  0.0000E+00  7.4191E-03  2.2686E-03  2.5111E-03  0.0000E+00
 28  0.0000E+00  1.0654E-01  0.0000E+00  0.0000E+00  4.0289E-05  5.6525E-02  0.0000E+00  1.0201E-03  4.5272E-02
 29  0.0000E+00  2.0782E-01  0.0000E+00  2.2337E-02  0.0000E+00  1.4538E-02  8.8624E-03  0.0000E+00  0.0000E+00
 30  0.0000E+00  4.5879E-01  0.0000E+00  0.0000E+00  0.0000E+00  5.4766E-01  1.2777E-03  0.0000E+00  9.0838E-01
 31  0.0000E+00  7.0481E-01  0.0000E+00  0.0000E+00  2.0013E-03  1.8533E-01  8.6929E-02  1.9368E-01  2.3635E+00
 32  0.0000E+00  1.0199E+00  6.9334E-04  0.0000E+00  3.4905E-03  3.8230E+00  8.5361E-02  0.0000E+00  6.6953E-01
 33  0.0000E+00  2.3509E+00  0.0000E+00  0.0000E+00  1.3703E-02  0.0000E+00  0.0000E+00  0.0000E+00  3.5472E-01
 34  3.2080E+01  6.5162E+00  1.0285E+01  6.0406E+00  9.7068E+00  4.0952E+00  9.9404E+00  1.0576E+01  0.0000E+00
 35  0.0000E+00  7.5196E-03  8.3552E-03  8.6637E-03  8.3744E-03  1.9942E-03  8.0842E-03  1.1901E-02  1.7568E-03
 36  0.0000E+00  2.6515E-03  3.3156E-04  3.3208E-04  4.1467E-04  9.0400E-03  4.6245E-04  3.8038E-04  4.0828E-03
 37  0.0000E+00  1.0267E-03  0.0000E+00  0.0000E+00  0.0000E+00  2.6346E-04  8.0795E-05  2.6110E-06  5.0534E-03
 38  0.0000E+00  4.3275E-02  5.6378E-02  6.2734E-02  5.4531E-02  6.1531E-02  5.7132E-02  5.6168E-02  2.7728E-02
 39  0.0000E+00  4.8498E-03  2.2371E-04  3.1015E-04  1.7237E-05  7.1622E-03  3.6489E-04  7.0819E-05  0.0000E+00
 40  0.0000E+00  2.5358E-02  3.1050E-02  2.7755E-02  3.0104E-02  2.3297E-02  2.8726E-02  2.5864E-02  1.9650E-02
 41  0.0000E+00  1.4398E-02  0.0000E+00  6.7673E-04  0.0000E+00  2.7728E-02  2.3102E-04  0.0000E+00  0.0000E+00
 42  0.0000E+00  3.4208E-02  3.0069E-04  0.0000E+00  0.0000E+00  0.0000E+00  6.9699E-04  0.0000E+00  0.0000E+00
 43  0.0000E+00  3.4049E-02  4.5826E-04  0.0000E+00  0.0000E+00  0.0000E+00  2.2118E-03  0.0000E+00  0.0000E+00
 44  0.0000E+00  7.3941E-02  4.1615E-05  0.0000E+00  0.0000E+00  1.0204E-01  7.6863E-03  0.0000E+00  4.1655E-03
 45  0.0000E+00  1.2393E-01  0.0000E+00  3.0736E-02  0.0000E+00  1.0238E-01  1.9269E-02  6.6487E-02  0.0000E+00
 46  0.0000E+00  2.4360E-01  1.2284E-02  8.6734E-03  0.0000E+00  5.0852E-01  3.7637E-04  1.2953E-01  0.0000E+00
 47  0.0000E+00  4.4520E-01  0.0000E+00  1.6537E-01  0.0000E+00  0.0000E+00  1.8986E-02  0.0000E+00  6.0446E-01
 48  1.6617E+00  1.2854E+00  0.0000E+00  4.3725E-01  0.0000E+00  2.1191E-01  1.6414E-02  0.0000E+00  3.0628E+00
 49  0.0000E+00  2.8613E+00  5.9104E-02  0.0000E+00  0.0000E+00  3.0020E+00  6.0065E-02  2.8898E-02  3.6045E+00
 50  8.2396E+00  5.6595E+00  6.0161E+00  8.1199E+00  6.8452E+00  0.0000E+00  4.2671E-02  4.6772E+00  8.2006E+00
 51  9.0394E-02  1.9640E-03  1.2586E-03  1.1860E-03  1.2990E-03  1.1836E-03  1.2876E-03  1.1628E-03  1.7458E-03
 52  0.0000E+00  1.3691E-03  4.4484E-05  3.8304E-05  1.2657E-05  1.2176E-03  2.2433E-04  1.4611E-06  1.0989E-03
 53  0.0000E+00  1.9486E-03  5.9425E-05  5.5474E-05  1.1670E-03  1.7261E-03  6.7106E-06  8.5869E-04  1.1442E-02
 54  6.1583E-01  2.6335E-02  3.4636E-02  3.6834E-02  3.4907E-02  2.8374E-02  3.2906E-02  3.4915E-02  1.5687E-02
 55  0.0000E+00  6.8991E-03  2.7522E-03  8.7922E-04  2.7425E-03  4.2765E-03  3.3231E-03  2.4678E-03  2.1818E-02
 56  0.0000E+00  3.3933E-02  3.1677E-02  3.0840E-02  3.5864E-02  2.4203E-02  3.6070E-02  3.6895E-02  0.0000E+00
 57  0.0000E+00  1.6864E-02  0.0000E+00  2.0940E-04  0.0000E+00  2.0430E-02  5.9307E-04  0.0000E+00  0.0000E+00
 58  0.0000E+00  1.7724E-02  0.0000E+00  0.0000E+00  0.0000E+00  2.6431E-02  3.0179E-03  8.7822E-03  0.0000E+00
 59  0.0000E+00  4.5065E-02  0.0000E+00  3.7308E-05  0.0000E+00  0.0000E+00  2.1726E-03  0.0000E+00  0.0000E+00
 60  0.0000E+00  1.1088E-01  0.0000E+00  2.9893E-02  0.0000E+00  3.3865E-02  5.9885E-03  0.0000E+00  1.9909E-01
 61  0.0000E+00  2.5426E-01  0.0000E+00  0.0000E+00  0.0000E+00  2.1523E-02  3.0387E-03  0.0000E+00  0.0000E+00
 62  0.0000E+00  4.4251E-01  0.0000E+00  7.6789E-05  0.0000E+00  3.3458E-01  1.2678E-02  0.0000E+00  8.6981E-01
 63  0.0000E+00  9.5106E-01  0.0000E+00  0.0000E+00  0.0000E+00  0.0000E+00  7.6764E-02  0.0000E+00  1.3284E+00
 64  1.5585E+01  3.0223E+00  0.0000E+00  1.8481E+00  0.0000E+00  4.9049E+00  9.9415E-02  0.0000E+00  4.3784E+00
 65  4.1536E+01  5.3729E+00  4.4528E+00  2.3736E+00  4.4526E+00  6.9218E+00  4.4394E+00  4.5620E+00  8.8465E+00
 66  0.0000E+00  6.2282E+01  7.8944E+01  8.0554E+01  7.8757E+01  6.6691E+01  8.4712E+01  7.9523E+01  4.5905E+01

# AV, chi2 & Mass for <> & i_chain = 1 ...  7 solutions
AV       1.2269      1.6287      1.5927      1.6502      1.5979      1.7223      1.6152      1.6207      1.7548
chi2 6.5247E-05  1.0140E-04  9.9590E-05  9.9070E-05  9.9539E-05  9.9086E-05  9.9546E-05  9.9609E-05  9.9145E-05
Mass 2.9721E-13  7.7388E-13  1.2069E-12  1.2094E-12  1.2183E-12  9.2882E-13  1.2237E-12  1.2089E-12  8.0751E-13
-369.88                                  [v0_min (km/s) before EX0s...]
   0.00                                  [vd_min (km/s) before EX0s...]


## Synthetic spectrum (Best Model) ##l_obs f_obs f_syn wei
 3478    [Nl_obs]
 3741.00    0.34957   1.17675    0.000
 3742.00    0.63358   1.13382    0.000
 3743.00    0.63435   1.07349    0.000
 3744.00    0.53720   0.99417    0.000
 3745.00    0.38299   0.93821    0.028
 3746.00   -0.07884   0.95414    0.000
 3747.00   -0.69688   1.02810    0.000
 3748.00   -0.41038   1.10754    0.000
 3749.00    0.27388   1.16633    0.029
 3750.00    1.47189   1.20784    0.030
 3751.00    2.86385   1.23455    0.030
 3752.00    2.46169   1.24254    0.029
 3753.00    1.48454   1.24195    0.028
 3754.00    1.67008   1.24204    0.028
 3755.00    2.16721   1.24800    0.028
 3756.00    3.74531   1.26328    0.029
 3757.00    5.56066   1.26935    0.030
 3758.00    5.43108   1.26139    0.033
 3759.00    4.96197   1.25370    0.037
 3760.00    1.90623   1.24261    0.051
 3761.00   -1.49312   1.21298    0.000
 3762.00   -1.41529   1.16639    0.000
 3763.00   -1.01070   1.11179    0.000
 3764.00    0.39461   1.04423    0.028
 3765.00    1.85764   0.96961    0.028
 3766.00   -0.02574   0.93713    0.000
 3767.00   -1.95919   0.98138    0.000
 3768.00   -0.33413   1.06232    0.000
 3769.00    1.19928   1.13185    0.027
 3770.00    0.50664   1.18660    0.026
 3771.00   -0.12038   1.22992    0.000
 3772.00    0.11241   1.25684    0.025
 3773.00    0.41366   1.27170    0.024
 3774.00    1.31590   1.28848    0.025
 3775.00    2.12662   1.31199    0.025
 3776.00    2.34397   1.33093    0.027
 3777.00    2.40421   1.33847    0.028
 3778.00    1.66925   1.34006    0.026
 3779.00    0.89365   1.33605    0.025
 3780.00   -0.04823   1.32445    0.000
 3781.00   -0.54304   1.31185    0.000
 3782.00    0.47851   1.30194    0.025
 3783.00    1.61004   1.29392    0.025
 3784.00    3.05611   1.28412    0.026
 3785.00    3.75250   1.26720    0.027
 3786.00    2.61720   1.24291    0.027
 3787.00    1.59567   1.22138    0.026
 3788.00    0.81391   1.19819    0.025
 3789.00    0.54958   1.15564    0.025
 3790.00    1.23303   1.09082    0.025
 3791.00    1.60376   1.00898    0.026
 3792.00    1.47393   0.91937    0.026
 3793.00    1.48925   0.86354    0.026
 3794.00    1.70847   0.89015    0.026
 3795.00    1.44257   0.98092    0.026
 3796.00    0.57707   1.07732    0.025
 3797.00    0.29526   1.14857    0.025
 3798.00    0.64935   1.19894    0.025
 3799.00    0.85111   1.23590    0.026
 3800.00    0.90648   1.24752    0.026
 3801.00    1.04963   1.23282    0.027
 3802.00    1.26716   1.23373    0.027
 3803.00    1.41565   1.26854    0.027
 3804.00    1.51262   1.30298    0.027
 3805.00    1.07174   1.31965    0.026
 3806.00    0.27826   1.32553    0.025
 3807.00    0.49625   1.32386    0.025
 3808.00    1.29465   1.31408    0.025
 3809.00    1.86176   1.30291    0.026
 3810.00    2.31327   1.29357    0.027
 3811.00    2.09137   1.28473    0.028
 3812.00    1.57825   1.27298    0.028
 3813.00    1.38655   1.23116    0.026
 3814.00    1.31404   1.14567    0.024
 3815.00    1.94981   1.09580    0.024
 3816.00    2.80824   1.14074    0.025
 3817.00    2.11688   1.21694    0.025
 3818.00    1.01898   1.26058    0.025
 3819.00   -0.06013   1.26700    0.000
 3820.00   -1.13521   1.25681    0.000
 3821.00   -0.46229   1.24732    0.000
 3822.00    0.50728   1.23864    0.022
 3823.00    1.40450   1.22653    0.023
 3824.00    2.29243   1.20719    0.025
 3825.00    1.83266   1.17963    0.025
 3826.00    1.25192   1.13908    0.024
 3827.00    0.39474   1.07939    0.023
 3828.00   -0.47729   1.00281    0.000
 3829.00    0.21213   0.91215    0.024
 3830.00    0.91745   0.83637    0.024
 3831.00    0.32506   0.83109    0.024
 3832.00   -0.23104   0.89492    0.000
 3833.00    0.01902   0.97391    0.025
 3834.00    0.27418   1.04831    0.025
 3835.00    0.59265   1.11407    0.025
 3836.00    0.83534   1.16259    0.025
 3837.00    0.43750   1.19937    0.025
 3838.00    0.03867   1.22766    0.025
 3839.00   -0.36642   1.25011    0.000
 3840.00   -0.57516   1.26577    0.000
 3841.00    0.18493   1.27427    0.024
 3842.00    0.91332   1.27893    0.024
 3843.00    1.51481   1.28094    0.025
 3844.00    1.95939   1.27981    0.025
 3845.00    1.88228   1.26930    0.025
 3846.00    1.67458   1.26412    0.025
 3847.00    1.10015   1.27831    0.000
 3848.00    0.73548   1.28963    0.000
 3849.00    0.87459   1.28467    0.000
 3850.00    0.62591   1.27060    0.000
 3851.00   -0.42698   1.25704    0.000
 3852.00   -0.55425   1.26003    0.000
 3853.00    0.98797   1.27128    0.000
 3854.00    1.99483   1.27038    0.000
 3855.00    2.15741   1.26032    0.000
 3856.00    1.69499   1.25944    0.000
 3857.00    0.36736   1.26817    0.000
 3858.00   -0.30341   1.26930    0.000
 3859.00   -0.17380   1.25987    0.000
 3860.00    0.08635   1.25787    0.000
 3861.00    0.48671   1.26085    0.000
 3862.00    1.00462   1.24697    0.000
 3863.00    1.63391   1.24331    0.000
 3864.00    1.88738   1.26398    0.000
 3865.00    1.82689   1.26909    0.000
 3866.00    1.57128   1.24195    0.000
 3867.00    1.17215   1.21512    0.000
 3868.00    1.12063   1.22656    0.000
 3869.00    1.29365   1.25371    0.000
 3870.00    1.52034   1.25186    0.000
 3871.00    1.77735   1.22276    0.000
 3872.00    1.79614   1.21108    0.000
 3873.00    1.69774   1.21871    0.000
 3874.00    1.27629   1.22420    0.000
 3875.00    0.71747   1.22391    0.000
 3876.00    0.12612   1.20675    0.000
 3877.00   -0.47708   1.17614    0.000
 3878.00    0.39840   1.15633    0.000
 3879.00    1.72972   1.14468    0.000
 3880.00    1.50048   1.10744    0.000
 3881.00    0.87061   1.03742    0.022
 3882.00    0.62055   0.95090    0.022
 3883.00    0.44990   0.85462    0.022
 3884.00    0.27713   0.79357    0.022
 3885.00    0.10401   0.83068    0.022
 3886.00    0.66013   0.93508    0.022
 3887.00    1.30656   1.03469    0.022
 3888.00    2.08188   1.10536    0.023
 3889.00    2.86824   1.15161    0.023
 3890.00    2.19383   1.18001    0.023
 3891.00    1.44662   1.20411    0.023
 3892.00    0.53270   1.22715    0.022
 3893.00   -0.36383   1.23313    0.000
 3894.00    0.03957   1.22712    0.021
 3895.00    0.45507   1.23777    0.020
 3896.00    1.11789   1.26246    0.021
 3897.00    1.73350   1.27597    0.021
 3898.00    1.79094   1.27727    0.020
 3899.00    1.80066   1.27947    0.020
 3900.00    1.42158   1.27720    0.019
 3901.00    1.09394   1.27255    0.019
 3902.00    1.08046   1.27824    0.019
 3903.00    1.04050   1.29228    0.018
 3904.00    0.87315   1.30409    0.018
 3905.00    0.74085   1.30542    0.017
 3906.00    0.74579   1.29285    0.018
 3907.00    0.86515   1.28236    0.018
 3908.00    1.35741   1.29080    0.019
 3909.00    1.60272   1.30281    0.020
 3910.00    1.16704   1.30609    0.020
 3911.00    0.77426   1.30182    0.020
 3912.00    0.48278   1.29184    0.020
 3913.00    0.60792   1.26239    0.020
 3914.00    1.58337   1.21468    0.021
 3915.00    2.17531   1.18174    0.022
 3916.00    2.08608   1.18944    0.022
 3917.00    1.79385   1.22314    0.023
 3918.00    1.18620   1.23700    0.022
 3919.00    0.37360   1.23030    0.022
 3920.00   -0.71862   1.22061    0.000
 3921.00   -0.81133   1.20282    0.000
 3922.00    0.29658   1.19410    0.022
 3923.00    0.83875   1.20340    0.022
 3924.00    0.78175   1.21286    0.022
 3925.00    0.93553   1.21990    0.022
 3926.00    1.28621   1.21796    0.022
 3927.00    0.93258   1.20446    0.022
 3928.00   -0.00111   1.18176    0.000
 3929.00    0.08501   1.17192    0.021
 3930.00    0.91042   1.18413    0.022
 3931.00    1.51281   1.20199    0.022
 3932.00    1.97327   1.22003    0.023
 3933.00    1.54186   1.23410    0.022
 3934.00    0.61410   1.24518    0.022
 3935.00    0.35418   1.25465    0.021
 3936.00    0.41756   1.25741    0.021
 3937.00    1.01736   1.25591    0.021
 3938.00    1.84143   1.24825    0.021
 3939.00    0.78947   1.23309    0.021
 3940.00   -0.93356   1.22917    0.000
 3941.00   -0.46635   1.24766    0.000
 3942.00    0.66287   1.25958    0.021
 3943.00    2.27401   1.25797    0.021
 3944.00    4.00617   1.26340    0.022
 3945.00    2.59536   1.27502    0.021
 3946.00    0.54363   1.27886    0.021
 3947.00    0.41885   1.26796    0.021
 3948.00    0.60262   1.25395    0.021
 3949.00    1.26274   1.24330    0.021
 3950.00    1.97973   1.24040    0.022
 3951.00    0.91589   1.23901    0.021
 3952.00   -0.29298   1.24000    0.000
 3953.00   -0.00988   1.24411    0.000
 3954.00    0.34179   1.24264    0.022
 3955.00    0.22340   1.22147    0.021
 3956.00    0.10914   1.17781    0.020
 3957.00    0.52416   1.14308    0.021
 3958.00    0.91285   1.12244    0.022
 3959.00    0.80285   1.08052    0.021
 3960.00    0.66175   1.03540    0.000
 3961.00    0.17011   1.00742    0.000
 3962.00   -0.17990   0.95890    0.000
 3963.00    0.58326   0.87527    0.000
 3964.00    1.27800   0.77695    0.000
 3965.00    1.56673   0.72275    0.000
 3966.00    1.72498   0.76687    0.000
 3967.00    1.27061   0.86508    0.000
 3968.00    0.92484   0.95156    0.000
 3969.00    0.99526   1.02697    0.000
 3970.00    0.79852   1.09366    0.000
 3971.00   -0.25218   1.13752    0.000
 3972.00   -0.97818   1.16788    0.000
 3973.00   -0.82482   1.19294    0.000
 3974.00   -0.57475   1.21273    0.000
 3975.00   -0.10013   1.23018    0.000
 3976.00    0.31347   1.23852    0.000
 3977.00    0.60451   1.23084    0.000
 3978.00    0.85583   1.22511    0.000
 3979.00    1.03771   1.23827    0.000
 3980.00    1.22725   1.25839    0.000
 3981.00    1.42855   1.26963    0.020
 3982.00    1.68631   1.27788    0.020
 3983.00    2.02002   1.28802    0.020
 3984.00    1.93659   1.28758    0.020
 3985.00    1.35916   1.28229    0.020
 3986.00    0.93989   1.28450    0.020
 3987.00    0.68576   1.29176    0.020
 3988.00    0.80756   1.29252    0.020
 3989.00    1.27561   1.27390    0.020
 3990.00    1.37093   1.25768    0.020
 3991.00    1.16362   1.26351    0.020
 3992.00    1.13384   1.27144    0.020
 3993.00    1.23090   1.26986    0.019
 3994.00    1.71659   1.27983    0.020
 3995.00    2.44595   1.29430    0.020
 3996.00    2.47915   1.29760    0.020
 3997.00    2.13085   1.29622    0.020
 3998.00    1.88730   1.29243    0.020
 3999.00    1.69364   1.27673    0.019
 4000.00    1.59054   1.25349    0.020
 4001.00    1.52464   1.24609    0.020
 4002.00    1.41290   1.25069    0.020
 4003.00    1.28506   1.23123    0.019
 4004.00    1.32381   1.20114    0.019
 4005.00    1.41193   1.21240    0.020
 4006.00    1.53654   1.25282    0.020
 4007.00    1.67011   1.28017    0.020
 4008.00    1.79808   1.29160    0.020
 4009.00    1.92493   1.29695    0.020
 4010.00    2.09385   1.30239    0.020
 4011.00    2.26930   1.30331    0.020
 4012.00    2.45347   1.29495    0.021
 4013.00    2.63865   1.29269    0.021
 4014.00    1.84504   1.30070    0.021
 4015.00    0.97575   1.30004    0.021
 4016.00    0.93765   1.28711    0.021
 4017.00    0.93454   1.27173    0.020
 4018.00    0.70985   1.24884    0.020
 4019.00    0.48601   1.20142    0.020
 4020.00    0.38796   1.12152    0.020
 4021.00    0.33046   1.06589    0.021
 4022.00    0.98788   1.11290    0.021
 4023.00    1.54138   1.20843    0.020
 4024.00    0.97675   1.25682    0.020
 4025.00    0.46369   1.25635    0.020
 4026.00    0.34215   1.24449    0.019
 4027.00    0.34863   1.23855    0.019
 4028.00    1.09346   1.23495    0.020
 4029.00    1.72255   1.23439    0.020
 4030.00    1.82114   1.24111    0.020
 4031.00    1.78155   1.27039    0.019
 4032.00    1.22364   1.30344    0.019
 4033.00    0.78184   1.31327    0.019
 4034.00    0.70404   1.30582    0.019
 4035.00    0.72314   1.28838    0.018
 4036.00    1.00000   1.27295    0.018
 4037.00    1.06849   1.27564    0.018
 4038.00    0.66116   1.27124    0.018
 4039.00    0.41636   1.24675    0.018
 4040.00    0.49287   1.22232    0.018
 4041.00    0.71482   1.22209    0.018
 4042.00    1.18734   1.24806    0.019
 4043.00    1.51567   1.27299    0.019
 4044.00    1.62648   1.28631    0.018
 4045.00    1.66748   1.29774    0.018
 4046.00    1.61593   1.30195    0.018
 4047.00    1.34382   1.29327    0.018
 4048.00    0.81420   1.27751    0.018
 4049.00    0.31126   1.26234    0.018
 4050.00   -0.16421   1.25636    0.000
 4051.00    0.20952   1.25969    0.018
 4052.00    1.35440   1.25851    0.019
 4053.00    1.86383   1.25401    0.019
 4054.00    1.86466   1.25329    0.019
 4055.00    1.43875   1.25345    0.019
 4056.00    0.71234   1.25387    0.019
 4057.00    0.67000   1.24284    0.019
 4058.00    1.05019   1.22200    0.018
 4059.00    1.30144   1.22234    0.019
 4060.00    1.48310   1.24784    0.019
 4061.00    1.33629   1.26099    0.019
 4062.00    1.03553   1.25186    0.019
 4063.00    1.18227   1.23915    0.019
 4064.00    1.50981   1.22222    0.020
 4065.00    1.00090   1.20306    0.019
 4066.00    0.20359   1.18852    0.019
 4067.00    0.56439   1.18875    0.019
 4068.00    1.26148   1.22082    0.019
 4069.00    1.23184   1.23542    0.019
 4070.00    1.02765   1.20424    0.019
 4071.00    0.90997   1.18048    0.019
 4072.00    0.80906   1.18973    0.019
 4073.00    1.09411   1.20625    0.019
 4074.00    1.43731   1.22439    0.019
 4075.00    1.85075   1.24895    0.019
 4076.00    2.27196   1.26453    0.019
 4077.00    1.49254   1.26064    0.019
 4078.00    0.62519   1.24443    0.019
 4079.00    0.96122   1.22677    0.019
 4080.00    1.34332   1.22118    0.019
 4081.00    1.24063   1.23135    0.019
 4082.00    1.14236   1.23965    0.018
 4083.00    1.31248   1.23018    0.018
 4084.00    1.44071   1.21775    0.019
 4085.00    0.87877   1.22911    0.018
 4086.00    0.42473   1.23889    0.018
 4087.00    1.08108   1.22158    0.018
 4088.00    1.68609   1.20619    0.018
 4089.00    1.91442   1.19536    0.018
 4090.00    2.18344   1.15644    0.018
 4091.00    2.68082   1.09872    0.018
 4092.00    3.01444   1.05466    0.000
 4093.00    2.61529   1.02650    0.000
 4094.00    2.04707   0.98219    0.000
 4095.00    0.85789   0.89239    0.000
 4096.00    0.04641   0.79059    0.000
 4097.00    0.39658   0.77097    0.000
 4098.00    0.66612   0.85232    0.000
 4099.00    0.72493   0.95129    0.000
 4100.00    0.82194   1.03185    0.000
 4101.00    1.00472   1.09973    0.000
 4102.00    1.22085   1.14252    0.000
 4103.00    1.50189   1.16307    0.000
 4104.00    1.54474   1.17334    0.000
 4105.00    1.18346   1.17496    0.000
 4106.00    0.93287   1.17946    0.000
 4107.00    0.84682   1.19454    0.000
 4108.00    0.76796   1.21597    0.000
 4109.00    0.69849   1.22525    0.000
 4110.00    0.67188   1.21869    0.000
 4111.00    0.69462   1.21729    0.000
 4112.00    0.75732   1.22714    0.000
 4113.00    0.86059   1.21383    0.017
 4114.00    1.08652   1.17468    0.018
 4115.00    1.42228   1.14426    0.018
 4116.00    1.32536   1.14513    0.018
 4117.00    0.88708   1.18248    0.017
 4118.00    0.82939   1.22526    0.017
 4119.00    1.03583   1.25138    0.017
 4120.00    1.18041   1.26475    0.018
 4121.00    1.28735   1.25869    0.018
 4122.00    0.78786   1.23718    0.018
 4123.00   -0.03381   1.21923    0.000
 4124.00   -0.09161   1.21872    0.000
 4125.00    0.20282   1.21407    0.019
 4126.00    0.77709   1.19969    0.018
 4127.00    1.46248   1.18905    0.018
 4128.00    1.60395   1.19515    0.018
 4129.00    1.56134   1.21499    0.018
 4130.00    1.60089   1.24003    0.018
 4131.00    1.66382   1.25372    0.018
 4132.00    0.97230   1.24990    0.018
 4133.00    0.10365   1.24677    0.017
 4134.00    0.16509   1.24795    0.018
 4135.00    0.40208   1.24434    0.018
 4136.00   -0.01226   1.22635    0.000
 4137.00   -0.52171   1.17133    0.000
 4138.00    0.04376   1.09919    0.018
 4139.00    0.72347   1.08800    0.018
 4140.00    0.46052   1.15041    0.018
 4141.00    0.13236   1.20813    0.018
 4142.00    0.73851   1.23221    0.018
 4143.00    1.37689   1.23770    0.018
 4144.00    1.11119   1.22536    0.018
 4145.00    0.83476   1.21260    0.018
 4146.00    0.26327   1.21609    0.018
 4147.00   -0.23780   1.21220    0.000
 4148.00    0.35006   1.20056    0.018
 4149.00    0.89686   1.20598    0.018
 4150.00    1.03882   1.21712    0.018
 4151.00    1.13845   1.21581    0.018
 4152.00    0.93745   1.22238    0.018
 4153.00    0.78755   1.24155    0.018
 4154.00    0.91658   1.25394    0.018
 4155.00    0.99540   1.25358    0.017
 4156.00    0.85482   1.24895    0.017
 4157.00    0.70509   1.24602    0.017
 4158.00    0.52250   1.24199    0.017
 4159.00    0.49075   1.23377    0.016
 4160.00    0.91422   1.22967    0.016
 4161.00    1.19852   1.22887    0.016
 4162.00    1.12543   1.22000    0.016
 4163.00    1.04335   1.20666    0.017
 4164.00    0.94142   1.20870    0.016
 4165.00    0.96806   1.22301    0.016
 4166.00    1.24098   1.22006    0.016
 4167.00    1.30634   1.20029    0.017
 4168.00    1.02479   1.19207    0.017
 4169.00    0.90710   1.19868    0.017
 4170.00    1.02943   1.20616    0.017
 4171.00    0.96281   1.20848    0.016
 4172.00    0.65282   1.20916    0.016
 4173.00    0.41251   1.21389    0.016
 4174.00    0.25125   1.22289    0.016
 4175.00    0.28044   1.22985    0.016
 4176.00    0.50023   1.22814    0.016
 4177.00    0.65128   1.22413    0.016
 4178.00    0.74165   1.22669    0.016
 4179.00    0.88038   1.22900    0.016
 4180.00    1.05673   1.22469    0.016
 4181.00    0.75199   1.21392    0.016
 4182.00    0.11824   1.20346    0.016
 4183.00   -0.18812   1.20482    0.000
 4184.00   -0.29823   1.20618    0.000
 4185.00   -0.32897   1.20751    0.000
 4186.00   -0.31821   1.21832    0.000
 4187.00    0.05987   1.23486    0.016
 4188.00    0.60457   1.24672    0.016
 4189.00    0.78070   1.24074    0.016
 4190.00    0.81300   1.21936    0.016
 4191.00    0.44755   1.20243    0.016
 4192.00   -0.05001   1.19253    0.000
 4193.00   -0.07947   1.17847    0.000
 4194.00    0.02155   1.16482    0.017
 4195.00    0.05699   1.16405    0.017
 4196.00    0.07738   1.17347    0.017
 4197.00    0.62042   1.18612    0.017
 4198.00    1.25951   1.20337    0.017
 4199.00    0.57571   1.21657    0.017
 4200.00   -0.29517   1.22391    0.000
 4201.00    0.35192   1.23373    0.017
 4202.00    1.15378   1.24310    0.017
 4203.00    0.89800   1.24795    0.017
 4204.00    0.57332   1.24261    0.017
 4205.00    0.49373   1.23327    0.017
 4206.00    0.42257   1.23164    0.017
 4207.00    0.92587   1.23382    0.017
 4208.00    1.40484   1.23041    0.017
 4209.00    1.16888   1.21723    0.017
 4210.00    0.93472   1.20004    0.017
 4211.00    0.72686   1.20147    0.017
 4212.00    0.52698   1.22565    0.017
 4213.00    0.40267   1.24377    0.017
 4214.00    0.43558   1.24806    0.017
 4215.00    1.54918   1.24733    0.017
 4216.00    2.37923   1.23910    0.017
 4217.00    1.70225   1.21990    0.017
 4218.00    1.15044   1.20166    0.017
 4219.00    1.13322   1.18221    0.017
 4220.00    1.12686   1.15366    0.017
 4221.00    1.15880   1.12591    0.017
 4222.00    1.21246   1.12324    0.017
 4223.00    1.33045   1.15756    0.017
 4224.00    1.46324   1.19802    0.017
 4225.00    1.63338   1.22004    0.017
 4226.00    1.59486   1.22663    0.016
 4227.00    1.10293   1.21940    0.016
 4228.00    0.84545   1.20725    0.016
 4229.00    1.03011   1.20683    0.016
 4230.00    1.16900   1.20410    0.015
 4231.00    1.23251   1.18988    0.016
 4232.00    1.13324   1.18851    0.015
 4233.00    0.79897   1.20153    0.015
 4234.00    0.64792   1.21006    0.015
 4235.00    0.72949   1.21197    0.015
 4236.00    0.91712   1.21247    0.015
 4237.00    1.22341   1.21771    0.015
 4238.00    1.32867   1.23496    0.015
 4239.00    1.23557   1.25461    0.015
 4240.00    1.05567   1.25481    0.015
 4241.00    0.80023   1.23578    0.015
 4242.00    0.76511   1.21878    0.015
 4243.00    0.89888   1.21116    0.016
 4244.00    0.78699   1.20222    0.016
 4245.00    0.50954   1.19032    0.016
 4246.00    0.74792   1.19234    0.016
 4247.00    1.29085   1.19496    0.016
 4248.00    1.30783   1.17131    0.016
 4249.00    1.05402   1.15458    0.016
 4250.00    0.85626   1.17616    0.016
 4251.00    0.68350   1.20936    0.016
 4252.00    0.64317   1.22343    0.016
 4253.00    0.65362   1.21300    0.016
 4254.00    0.62953   1.19322    0.015
 4255.00    0.59418   1.18012    0.015
 4256.00    0.17128   1.18763    0.015
 4257.00   -0.35741   1.21461    0.000
 4258.00   -0.11568   1.23934    0.000
 4259.00    0.29871   1.24669    0.016
 4260.00    0.37754   1.22989    0.016
 4261.00    0.39635   1.18002    0.015
 4262.00    0.61320   1.13878    0.015
 4263.00    0.85716   1.15652    0.015
 4264.00    1.11129   1.18818    0.015
 4265.00    1.36642   1.18119    0.015
 4266.00    0.68112   1.15682    0.015
 4267.00   -0.06170   1.14969    0.000
 4268.00    0.66704   1.15560    0.015
 4269.00    1.43273   1.15022    0.015
 4270.00    1.65918   1.14130    0.015
 4271.00    1.85795   1.15324    0.015
 4272.00    1.32496   1.18443    0.015
 4273.00    0.81296   1.21573    0.015
 4274.00    0.58955   1.22354    0.015
 4275.00    0.34497   1.20860    0.016
 4276.00   -0.09202   1.19472    0.000
 4277.00   -0.42120   1.18683    0.000
 4278.00   -0.03217   1.18294    0.000
 4279.00    0.30291   1.18096    0.016
 4280.00    0.35874   1.17893    0.016
 4281.00    0.42752   1.18622    0.016
 4282.00    0.55037   1.19299   -2.000
 4283.00    0.71696   1.17659   -2.000
 4284.00    1.03453   1.14894   -2.000
 4285.00    1.08450   1.14127   -2.000
 4286.00    0.35668   1.16124   -2.000
 4287.00   -0.28429   1.19108   -2.000
 4288.00   -0.70985   1.20091   -2.000
 4289.00   -0.75451   1.18545   -2.000
 4290.00    0.01511   1.18011   -2.000
 4291.00    0.50269   1.18730   -2.000
 4292.00    0.46662   1.18328   -2.000
 4293.00    0.66318   1.16492   -2.000
 4294.00    1.23702   1.14283   -2.000
 4295.00    1.59414   1.13575   -2.000
 4296.00    1.64295   1.14185   -2.000
 4297.00    1.23233   1.13554   -2.000
 4298.00    0.24669   1.12229    0.016
 4299.00   -0.33028   1.12630    0.000
 4300.00   -0.45646   1.13647    0.000
 4301.00   -0.18936   1.13266    0.000
 4302.00    0.46037   1.11619    0.016
 4303.00    0.92914   1.10470    0.016
 4304.00    1.24266   1.11270    0.016
 4305.00    1.10128   1.13611    0.016
 4306.00    0.61615   1.15839    0.016
 4307.00    0.15300   1.16828    0.016
 4308.00   -0.29554   1.16885    0.000
 4309.00   -0.16612   1.17508    0.000
 4310.00    0.29940   1.19807    0.016
 4311.00    0.86572   1.22521    0.016
 4312.00    1.48311   1.23470    0.016
 4313.00    1.34111   1.22851    0.016
 4314.00    0.86587   1.22020    0.015
 4315.00    0.68004   1.21869    0.015
 4316.00    0.60323   1.22286    0.016
 4317.00    1.02872   1.21744    0.016
 4318.00    1.61480   1.19012    0.016
 4319.00    1.43455   1.14556    0.016
 4320.00    1.04948   1.10895    0.016
 4321.00    1.22647   1.11609    0.016
 4322.00    1.52645   1.16366    0.016
 4323.00    1.17042   1.20493    0.016
 4324.00    0.70027   1.21327    0.016
 4325.00    0.56845   1.19977    0.016
 4326.00    0.48138   1.18443    0.016
 4327.00    0.82668   1.17486    0.016
 4328.00    1.21237   1.16825    0.016
 4329.00    1.23750   1.16270    0.016
 4330.00    1.24201   1.14214    0.000
 4331.00    1.25557   1.08179    0.000
 4332.00    1.26628   0.99030    0.000
 4333.00    0.92362   0.89777    0.000
 4334.00    0.59589   0.81132    0.000
 4335.00    0.62676   0.76532    0.000
 4336.00    0.68637   0.81587    0.000
 4337.00    1.12005   0.92430    0.000
 4338.00    1.49066   1.00703    0.000
 4339.00    1.31034   1.05488    0.000
 4340.00    1.11809   1.09189    0.000
 4341.00    0.84883   1.11737    0.000
 4342.00    0.56981   1.13740    0.000
 4343.00    0.24152   1.16339    0.000
 4344.00    0.04003   1.17951    0.000
 4345.00    0.35607   1.16184    0.000
 4346.00    0.66211   1.12926    0.000
 4347.00    0.93427   1.12803    0.000
 4348.00    1.04262   1.15916    0.000
 4349.00    0.68352   1.18982    0.000
 4350.00    0.52624   1.21193    0.000
 4351.00    0.86101   1.23028    0.015
 4352.00    1.08839   1.23520    0.015
 4353.00    1.08988   1.22110    0.015
 4354.00    1.10193   1.20855    0.015
 4355.00    1.13328   1.21481    0.015
 4356.00    1.21956   1.23031    0.015
 4357.00    1.39363   1.24210    0.015
 4358.00    1.41213   1.24858    0.015
 4359.00    1.21253   1.25466    0.015
 4360.00    1.21475   1.25164    0.015
 4361.00    1.46599   1.22807    0.015
 4362.00    1.36997   1.20573    0.015
 4363.00    0.89628   1.20521    0.015
 4364.00    0.56799   1.21525    0.015
 4365.00    0.37917   1.21866    0.015
 4366.00    0.71040   1.21168    0.015
 4367.00    1.48155   1.20079    0.015
 4368.00    1.48013   1.18833    0.015
 4369.00    0.90325   1.17544    0.015
 4370.00    0.65865   1.17649    0.015
 4371.00    0.63147   1.19914    0.015
 4372.00    0.61354   1.22382    0.015
 4373.00    0.60092   1.22909    0.015
 4374.00    0.47478   1.22224    0.015
 4375.00    0.29201   1.21704    0.015
 4376.00    0.47006   1.20018    0.015
 4377.00    0.80383   1.15580    0.015
 4378.00    1.05518   1.10779    0.015
 4379.00    1.27604   1.09932    0.015
 4380.00    0.92645   1.12859    0.015
 4381.00    0.39798   1.14051    0.015
 4382.00    0.15749   1.11574    0.015
 4383.00   -0.00766   1.10979    0.000
 4384.00    0.09526   1.14221    0.014
 4385.00    0.25545   1.17337    0.014
 4386.00    0.31579   1.19543    0.014
 4387.00    0.35925   1.21481    0.015
 4388.00    0.55289   1.21692    0.014
 4389.00    0.76572   1.20139    0.014
 4390.00    0.97655   1.19653    0.014
 4391.00    1.18719   1.22194    0.014
 4392.00    1.26815   1.25038    0.014
 4393.00    1.34220   1.24990    0.014
 4394.00    1.16651   1.22699    0.014
 4395.00    0.98968   1.20983    0.014
 4396.00    1.11745   1.21806    0.014
 4397.00    1.24061   1.22742    0.014
 4398.00    1.26268   1.19910    0.015
 4399.00    1.27588   1.15570    0.015
 4400.00    1.17961   1.14741    0.015
 4401.00    1.09703   1.16833    0.015
 4402.00    1.12953   1.18158    0.015
 4403.00    1.11533   1.18885    0.015
 4404.00    0.80840   1.20938    0.015
 4405.00    0.53505   1.23005    0.015
 4406.00    0.42692   1.23987    0.015
 4407.00    0.40712   1.24418    0.015
 4408.00    0.73999   1.22200    0.015
 4409.00    0.93910   1.17144    0.015
 4410.00    0.69464   1.14370    0.015
 4411.00    0.50372   1.15951    0.015
 4412.00    0.46280   1.19408    0.014
 4413.00    0.43424   1.22799    0.014
 4414.00    0.43528   1.24793    0.014
 4415.00    0.48932   1.24842    0.015
 4416.00    0.65305   1.23399    0.015
 4417.00    0.69373   1.21897    0.014
 4418.00    0.51291   1.22094    0.014
 4419.00    0.29093   1.23029    0.014
 4420.00    0.00415   1.22801    0.014
 4421.00   -0.06919   1.21895    0.000
 4422.00    0.15243   1.21827    0.014
 4423.00    0.24665   1.22445    0.014
 4424.00    0.18592   1.21854    0.014
 4425.00    0.31051   1.20687    0.014
 4426.00    0.63382   1.21181    0.014
 4427.00    0.84534   1.21759    0.014
 4428.00    0.95115   1.20357    0.014
 4429.00    0.77818   1.18198    0.014
 4430.00    0.37273   1.17300    0.014
 4431.00    0.45285   1.18456    0.014
 4432.00    0.88946   1.21232    0.015
 4433.00    1.14459   1.24512    0.015
 4434.00    1.28273   1.25987    0.015
 4435.00    1.14113   1.24196    0.015
 4436.00    0.84175   1.20783    0.015
 4437.00    0.49307   1.18635    0.015
 4438.00    0.12019   1.19561    0.015
 4439.00   -0.03236   1.22801    0.000
 4440.00   -0.09142   1.25018    0.000
 4441.00    0.10494   1.24304    0.015
 4442.00    0.39411   1.23259    0.015
 4443.00    0.67791   1.23979    0.015
 4444.00    0.96006   1.24641    0.015
 4445.00    0.99993   1.24395    0.015
 4446.00    0.97778   1.24015    0.015
 4447.00    0.78904   1.23257    0.015
 4448.00    0.56558   1.21727    0.015
 4449.00    0.65766   1.19603    0.015
 4450.00    0.80159   1.18470    0.015
 4451.00    0.99897   1.19224    0.015
 4452.00    1.20294   1.20112    0.015
 4453.00    1.12989   1.19953    0.015
 4454.00    1.03327   1.19406    0.015
 4455.00    0.85922   1.18654    0.015
 4456.00    0.68135   1.18024    0.015
 4457.00    0.35935   1.19299    0.014
 4458.00    0.04385   1.21821    0.014
 4459.00    0.27999   1.22486    0.014
 4460.00    0.50297   1.21332    0.015
 4461.00    0.45939   1.20372    0.000
 4462.00    0.41825   1.19693    0.000
 4463.00    0.40575   1.18138    0.000
 4464.00    0.37595   1.14547    0.000
 4465.00    0.20591   1.09100    0.000
 4466.00    0.14937   1.06919    0.000
 4467.00    0.78358   1.12546    0.000
 4468.00    1.23595   1.20525    0.000
 4469.00    0.81605   1.24249    0.000
 4470.00    0.52768   1.25323    0.000
 4471.00    0.75302   1.26916    0.000
 4472.00    0.92705   1.28146    0.000
 4473.00    0.93423   1.26571    0.000
 4474.00    0.88887   1.21762    0.000
 4475.00    0.69898   1.16810    0.000
 4476.00    0.66420   1.15984    0.000
 4477.00    0.99494   1.19821    0.000
 4478.00    1.38254   1.24586    0.000
 4479.00    1.88595   1.27541    0.000
 4480.00    1.96775   1.28788    0.000
 4481.00    1.30215   1.28301    0.000
 4482.00    0.74611   1.25832    0.014
 4483.00    0.35997   1.22702    0.014
 4484.00    0.35460   1.21291    0.014
 4485.00    0.86784   1.22654    0.015
 4486.00    1.13219   1.25118    0.015
 4487.00    1.09812   1.26096    0.015
 4488.00    0.83817   1.24511    0.015
 4489.00    0.33943   1.22073    0.014
 4490.00    0.37185   1.21197    0.014
 4491.00    0.89960   1.22208    0.014
 4492.00    1.07682   1.24371    0.014
 4493.00    0.96589   1.26391    0.015
 4494.00    0.86160   1.26850    0.015
 4495.00    0.76211   1.25713    0.015
 4496.00    0.53365   1.25279    0.015
 4497.00    0.22326   1.27592    0.015
 4498.00    0.50158   1.30584    0.015
 4499.00    1.10691   1.31338    0.015
 4500.00    0.93463   1.30031    0.015
 4501.00    0.38669   1.28268    0.014
 4502.00    0.53398   1.27329    0.014
 4503.00    0.97131   1.27601    0.015
 4504.00    1.04612   1.28287    0.015
 4505.00    0.99155   1.28127    0.015
 4506.00    1.24327   1.26570    0.014
 4507.00    1.58735   1.24624    0.014
 4508.00    1.56005   1.23473    0.014
 4509.00    1.43974   1.23444    0.014
 4510.00    1.45734   1.24517    0.014
 4511.00    1.50297   1.25232    0.014
 4512.00    0.83517   1.24812    0.014
 4513.00    0.05356   1.25125    0.014
 4514.00    0.33053   1.26909    0.014
 4515.00    0.73330   1.28574    0.014
 4516.00    0.95456   1.28072    0.014
 4517.00    1.16115   1.25742    0.014
 4518.00    1.13061   1.24144    0.014
 4519.00    1.08928   1.23503    0.014
 4520.00    1.08791   1.22379    0.014
 4521.00    1.08501   1.20478    0.014
 4522.00    0.97860   1.18135    0.014
 4523.00    0.86379   1.16430    0.014
 4524.00    0.59134   1.16697    0.014
 4525.00    0.36702   1.18813    0.014
 4526.00    0.68211   1.21459    0.014
 4527.00    1.01279   1.22371    0.014
 4528.00    1.46559   1.20581    0.014
 4529.00    1.77668   1.18373    0.014
 4530.00    1.24991   1.19128    0.014
 4531.00    0.86175   1.23340    0.014
 4532.00    1.12247   1.26866    0.014
 4533.00    1.31128   1.26624    0.014
 4534.00    1.22525   1.23690    0.014
 4535.00    1.12710   1.20720    0.014
 4536.00    0.99033   1.20405    0.014
 4537.00    0.84671   1.22714    0.014
 4538.00    0.68454   1.24128    0.014
 4539.00    0.56974   1.23497    0.014
 4540.00    0.56470   1.23329    0.014
 4541.00    0.56682   1.24268    0.014
 4542.00    0.58330   1.24445    0.014
 4543.00    0.67230   1.23087    0.014
 4544.00    0.88792   1.22629    0.014
 4545.00    0.99497   1.23518    0.014
 4546.00    0.93611   1.22464    0.014
 4547.00    0.98024   1.20201    0.014
 4548.00    1.16261   1.19700    0.014
 4549.00    1.18052   1.20630    0.014
 4550.00    1.00400   1.22534    0.000
 4551.00    0.71684   1.25514    0.000
 4552.00    0.31435   1.27953    0.000
 4553.00    0.42632   1.28786    0.000
 4554.00    1.01128   1.28537    0.000
 4555.00    1.26468   1.28284    0.000
 4556.00    1.24936   1.28274    0.000
 4557.00    0.97075   1.27083    0.000
 4558.00    0.50434   1.24814    0.000
 4559.00    0.56789   1.23535    0.000
 4560.00    0.96308   1.24188    0.000
 4561.00    0.97971   1.25755    0.000
 4562.00    0.78928   1.26849    0.000
 4563.00    0.75390   1.27548    0.000
 4564.00    0.79222   1.27514    0.000
 4565.00    0.74272   1.25635    0.000
 4566.00    0.65719   1.24418    0.000
 4567.00    1.01753   1.26199    0.000
 4568.00    1.53409   1.27643    0.000
 4569.00    1.59603   1.26941    0.000
 4570.00    1.52361   1.26924    0.000
 4571.00    1.44457   1.27865    0.000
 4572.00    1.36392   1.27590    0.000
 4573.00    0.92851   1.25447    0.000
 4574.00    0.42278   1.23084    0.000
 4575.00    0.41932   1.22676    0.000
 4576.00    0.49360   1.24248    0.000
 4577.00    0.81049   1.25493    0.000
 4578.00    1.15513   1.25195    0.000
 4579.00    1.20208   1.24201    0.000
 4580.00    1.22617   1.23474    0.000
 4581.00    1.32123   1.24092    0.000
 4582.00    1.41924   1.26136    0.000
 4583.00    1.10136   1.27733    0.000
 4584.00    0.78894   1.26833    0.000
 4585.00    0.86565   1.24190    0.000
 4586.00    0.95765   1.22779    0.000
 4587.00    1.31692   1.23260    0.000
 4588.00    1.61477   1.23527    0.000
 4589.00    1.25553   1.22483    0.000
 4590.00    0.97876   1.21566    0.000
 4591.00    1.32541   1.22168    0.000
 4592.00    1.59438   1.23835    0.000
 4593.00    1.41691   1.25108    0.000
 4594.00    1.20852   1.24492    0.000
 4595.00    0.85883   1.22476    0.000
 4596.00    0.64969   1.21913    0.000
 4597.00    0.96639   1.23207    0.000
 4598.00    1.28684   1.24440    0.000
 4599.00    1.61900   1.24353    0.000
 4600.00    1.70775   1.23660    0.000
 4601.00    1.15039   1.24146    0.000
 4602.00    0.74867   1.26464    0.000
 4603.00    0.70160   1.28616    0.000
 4604.00    0.77735   1.28762    0.000
 4605.00    1.09543   1.28088    0.000
 4606.00    1.24601   1.27439    0.000
 4607.00    1.10857   1.26306    0.000
 4608.00    1.00533   1.26246    0.000
 4609.00    0.95361   1.27949    0.000
 4610.00    0.85801   1.29037    0.000
 4611.00    0.70436   1.29307    0.000
 4612.00    0.78095   1.28322    0.000
 4613.00    1.12588   1.25913    0.000
 4614.00    1.28961   1.25275    0.000
 4615.00    1.26712   1.27065    0.000
 4616.00    1.24405   1.28210    0.000
 4617.00    1.22045   1.28607    0.000
 4618.00    1.07552   1.29048    0.000
 4619.00    0.83365   1.28548    0.000
 4620.00    0.82203   1.27407    0.000
 4621.00    0.97224   1.27064    0.000
 4622.00    1.08146   1.27137    0.000
 4623.00    1.16542   1.25927    0.000
 4624.00    1.23804   1.24490    0.000
 4625.00    1.30457   1.25203    0.000
 4626.00    1.30250   1.26663    0.000
 4627.00    1.26834   1.26092    0.000
 4628.00    1.27841   1.24850    0.000
 4629.00    1.30632   1.24789    0.000
 4630.00    1.17969   1.25244    0.000
 4631.00    0.99989   1.24413    0.000
 4632.00    1.24776   1.22129    0.000
 4633.00    1.61948   1.20158    0.000
 4634.00    1.43762   1.19562    0.000
 4635.00    1.12315   1.20174    0.000
 4636.00    1.40199   1.21298    0.000
 4637.00    1.79542   1.22389    0.000
 4638.00    1.37412   1.23221    0.000
 4639.00    0.83053   1.22801    0.000
 4640.00    0.87617   1.19786    0.000
 4641.00    0.98665   1.16279    0.000
 4642.00    1.11865   1.15091    0.000
 4643.00    1.25221   1.15708    0.000
 4644.00    1.75223   1.16637    0.000
 4645.00    2.26610   1.18473    0.000
 4646.00    1.70154   1.21645    0.000
 4647.00    1.14831   1.24246    0.000
 4648.00    1.21790   1.23639    0.000
 4649.00    1.26381   1.21954    0.000
 4650.00    0.92245   1.21759    0.000
 4651.00    0.63505   1.23197    0.000
 4652.00    0.89999   1.26125    0.000
 4653.00    1.17277   1.29254    0.000
 4654.00    1.50286   1.30331    0.000
 4655.00    1.71834   1.28426    0.000
 4656.00    1.29307   1.25492    0.000
 4657.00    1.01763   1.23948    0.000
 4658.00    1.41068   1.24053    0.000
 4659.00    1.66540   1.24041    0.000
 4660.00    1.41337   1.21889    0.000
 4661.00    1.24877   1.18190    0.000
 4662.00    1.35244   1.16393    0.000
 4663.00    1.36535   1.18089    0.000
 4664.00    1.14157   1.21522    0.000
 4665.00    0.93544   1.24358    0.000
 4666.00    0.76888   1.24932    0.000
 4667.00    0.71422   1.23447    0.000
 4668.00    0.87690   1.22131    0.000
 4669.00    1.01686   1.22103    0.000
 4670.00    1.11833   1.23324    0.000
 4671.00    1.25503   1.24357    0.000
 4672.00    1.44398   1.24261    0.000
 4673.00    1.46943   1.23355    0.000
 4674.00    1.28161   1.22445    0.000
 4675.00    1.19831   1.21546    0.000
 4676.00    1.23509   1.21295    0.000
 4677.00    1.28999   1.22288    0.000
 4678.00    1.36326   1.22481    0.000
 4679.00    1.38180   1.20527    0.000
 4680.00    1.35142   1.19249    0.000
 4681.00    1.36451   1.20299    0.000
 4682.00    1.41185   1.22101    0.000
 4683.00    1.69669   1.23610    0.000
 4684.00    2.14604   1.24023    0.000
 4685.00    1.79050   1.23220    0.000
 4686.00    0.94611   1.23186    0.000
 4687.00    0.90480   1.24157    0.000
 4688.00    1.28929   1.25122    0.000
 4689.00    1.36056   1.26249    0.000
 4690.00    1.28771   1.27163    0.000
 4691.00    1.48315   1.26434    0.000
 4692.00    1.78489   1.23127    0.000
 4693.00    1.49750   1.20158    0.000
 4694.00    1.01120   1.20503    0.000
 4695.00    0.75719   1.21927    0.000
 4696.00    0.56910   1.21686    0.000
 4697.00    0.93798   1.21059    0.000
 4698.00    1.43725   1.21462    0.000
 4699.00    1.47778   1.22353    0.000
 4700.00    1.43201   1.22553    0.000
 4701.00    1.17923   1.22204    0.000
 4702.00    0.89635   1.21611    0.000
 4703.00    0.97661   1.21131    0.000
 4704.00    1.09525   1.21967    0.000
 4705.00    1.56888   1.24282    0.000
 4706.00    2.06689   1.23318    0.000
 4707.00    1.59321   1.19362    0.000
 4708.00    1.08649   1.17850    0.000
 4709.00    1.32955   1.20079    0.000
 4710.00    1.55734   1.22618    0.000
 4711.00    1.25095   1.24832    0.000
 4712.00    0.97136   1.26568    0.000
 4713.00    1.10297   1.28143    0.000
 4714.00    1.19456   1.29184    0.000
 4715.00    0.89373   1.29093    0.000
 4716.00    0.67721   1.27829    0.000
 4717.00    1.05675   1.27058    0.000
 4718.00    1.37379   1.28107    0.000
 4719.00    1.35084   1.29521    0.000
 4720.00    1.25888   1.28762    0.000
 4721.00    0.86610   1.25099    0.000
 4722.00    0.59498   1.21508    0.000
 4723.00    0.76034   1.20573    0.000
 4724.00    1.02549   1.21299    0.000
 4725.00    1.59108   1.22340    0.000
 4726.00    1.89866   1.23729    0.000
 4727.00    1.54511   1.24843    0.000
 4728.00    1.24035   1.25469    0.000
 4729.00    1.04313   1.26246    0.000
 4730.00    0.88632   1.25572    0.000
 4731.00    0.80674   1.24432    0.000
 4732.00    0.87994   1.25701    0.000
 4733.00    1.20797   1.27265    0.000
 4734.00    1.32016   1.26574    0.000
 4735.00    1.11675   1.25015    0.000
 4736.00    1.02294   1.24846    0.000
 4737.00    1.07003   1.26195    0.000
 4738.00    0.97654   1.27001    0.000
 4739.00    0.72381   1.26654    0.000
 4740.00    0.80887   1.27265    0.000
 4741.00    1.23141   1.28421    0.000
 4742.00    1.46691   1.28432    0.000
 4743.00    1.53760   1.28176    0.000
 4744.00    1.48642   1.28291    0.000
 4745.00    1.34063   1.27943    0.000
 4746.00    1.23873   1.26791    0.000
 4747.00    1.16680   1.26040    0.000
 4748.00    1.25080   1.25695    0.000
 4749.00    1.42808   1.25820    0.000
 4750.00    1.53402   1.25954    0.000
 4751.00    1.60272   1.25799    0.000
 4752.00    1.43832   1.25518    0.000
 4753.00    1.16840   1.25690    0.000
 4754.00    1.15891   1.26085    0.000
 4755.00    1.25082   1.24922    0.000
 4756.00    1.22126   1.22559    0.000
 4757.00    1.15144   1.21277    0.000
 4758.00    1.19500   1.20787    0.000
 4759.00    1.27009   1.19688    0.000
 4760.00    1.23036   1.18853    0.000
 4761.00    1.16437   1.19769    0.012
 4762.00    1.21903   1.21654    0.012
 4763.00    1.29578   1.23566    0.012
 4764.00    1.29472   1.24588    0.012
 4765.00    1.28271   1.23685    0.012
 4766.00    1.05573   1.22357    0.012
 4767.00    0.80694   1.22809    0.012
 4768.00    1.04936   1.24802    0.012
 4769.00    1.32353   1.26087    0.012
 4770.00    1.34785   1.25923    0.012
 4771.00    1.36453   1.26047    0.012
 4772.00    1.34263   1.26112    0.012
 4773.00    1.32020   1.25021    0.012
 4774.00    1.28238   1.24116    0.012
 4775.00    1.24766   1.23969    0.012
 4776.00    1.25787   1.23271    0.012
 4777.00    1.27663   1.21820    0.012
 4778.00    1.37588   1.21926    0.012
 4779.00    1.46420   1.22997    0.012
 4780.00    1.47771   1.22348    0.012
 4781.00    1.47339   1.21686    0.011
 4782.00    1.37462   1.22171    0.011
 4783.00    1.29554   1.22123    0.011
 4784.00    1.30034   1.22349    0.011
 4785.00    1.29513   1.23093    0.011
 4786.00    1.25474   1.23918    0.011
 4787.00    1.20432   1.25635    0.011
 4788.00    1.12425   1.28007    0.011
 4789.00    1.09469   1.29205    0.011
 4790.00    1.19230   1.28533    0.011
 4791.00    1.24251   1.27010    0.011
 4792.00    1.18990   1.25206    0.011
 4793.00    1.14451   1.23506    0.011
 4794.00    1.11270   1.23285    0.011
 4795.00    1.07274   1.24952    0.011
 4796.00    1.01937   1.26636    0.011
 4797.00    1.04226   1.26922    0.011
 4798.00    1.17504   1.25801    0.011
 4799.00    1.30503   1.24014    0.012
 4800.00    1.43147   1.23081    0.012
 4801.00    1.47394   1.22487    0.011
 4802.00    1.42261   1.21927    0.011
 4803.00    1.41200   1.22515    0.011
 4804.00    1.44148   1.23692    0.011
 4805.00    1.50119   1.24221    0.011
 4806.00    1.58715   1.23755    0.011
 4807.00    1.55318   1.23201    0.011
 4808.00    1.42744   1.23286    0.011
 4809.00    1.35532   1.23803    0.011
 4810.00    1.31927   1.24678    0.011
 4811.00    1.28205   1.26101    0.011
 4812.00    1.24414   1.26747    0.011
 4813.00    1.13344   1.26241    0.011
 4814.00    0.98534   1.25810    0.011
 4815.00    1.04842   1.26185    0.011
 4816.00    1.20554   1.25558    0.011
 4817.00    1.18320   1.22626    0.012
 4818.00    1.09221   1.21349    0.012
 4819.00    1.20787   1.23478    0.012
 4820.00    1.39071   1.25551    0.012
 4821.00    1.51296   1.25148    0.012
 4822.00    1.61870   1.23005    0.012
 4823.00    1.40268   1.22118    0.012
 4824.00    1.11476   1.23351    0.012
 4825.00    1.03487   1.23232    0.012
 4826.00    0.99206   1.21408    0.012
 4827.00    1.19718   1.22164    0.012
 4828.00    1.43608   1.24575    0.012
 4829.00    1.57057   1.25403    0.012
 4830.00    1.69493   1.24940    0.012
 4831.00    1.73614   1.24981    0.012
 4832.00    1.77231   1.24582    0.012
 4833.00    1.50895   1.22940    0.012
 4834.00    1.23943   1.21882    0.012
 4835.00    1.28953   1.22524    0.012
 4836.00    1.33155   1.22675    0.012
 4837.00    1.16262   1.21242    0.012
 4838.00    1.01487   1.21351    0.011
 4839.00    1.15635   1.23674    0.012
 4840.00    1.27983   1.24896    0.012
 4841.00    1.24056   1.23512    0.012
 4842.00    1.21226   1.20622    0.012
 4843.00    1.25672   1.19396    0.012
 4844.00    1.25270   1.20441    0.012
 4845.00    0.99846   1.20506    0.012
 4846.00    0.78758   1.19603    0.011
 4847.00    0.75713   1.18844    0.012
 4848.00    0.79539   1.16034    0.000
 4849.00    1.07023   1.11368    0.000
 4850.00    1.24424   1.09026    0.000
 4851.00    1.12587   1.08854    0.000
 4852.00    1.08740   1.06009    0.000
 4853.00    1.24672   0.98805    0.000
 4854.00    1.33366   0.87831    0.000
 4855.00    1.26621   0.79006    0.000
 4856.00    1.23264   0.81764    0.000
 4857.00    1.26187   0.92938    0.000
 4858.00    1.30757   1.01115    0.000
 4859.00    1.37995   1.06105    0.000
 4860.00    1.55943   1.10449    0.000
 4861.00    1.89098   1.13155    0.000
 4862.00    1.91924   1.14773    0.000
 4863.00    1.56859   1.16706    0.000
 4864.00    1.38756   1.16076    0.000
 4865.00    1.39331   1.12612    0.000
 4866.00    1.06247   1.12384    0.000
 4867.00    0.40473   1.16402    0.000
 4868.00    0.40429   1.19211    0.000
 4869.00    0.96679   1.19359    0.000
 4870.00    1.12052   1.20222    0.000
 4871.00    0.96589   1.21825    0.000
 4872.00    0.94995   1.22879    0.000
 4873.00    1.02593   1.24733    0.000
 4874.00    1.02491   1.24832    0.000
 4875.00    0.97918   1.21943    0.012
 4876.00    1.10441   1.21020    0.012
 4877.00    1.31611   1.22744    0.012
 4878.00    1.32073   1.22779    0.012
 4879.00    1.23468   1.20444    0.012
 4880.00    1.31711   1.18943    0.012
 4881.00    1.46286   1.19932    0.012
 4882.00    1.40014   1.21474    0.012
 4883.00    1.27094   1.21202    0.012
 4884.00    1.04494   1.18236    0.012
 4885.00    0.79313   1.15570    0.012
 4886.00    1.05351   1.18530    0.012
 4887.00    1.42563   1.24069    0.012
 4888.00    1.38741   1.27511    0.012
 4889.00    1.27806   1.29547    0.012
 4890.00    1.18902   1.30203    0.012
 4891.00    1.10266   1.30050    0.011
 4892.00    1.11593   1.29438    0.011
 4893.00    1.13845   1.27068    0.012
 4894.00    1.24318   1.24764    0.011
 4895.00    1.35256   1.25345    0.011
 4896.00    1.19856   1.25905    0.011
 4897.00    1.03942   1.24549    0.012
 4898.00    0.97558   1.24434    0.011
 4899.00    0.92440   1.26892    0.011
 4900.00    1.17378   1.28677    0.011
 4901.00    1.41023   1.27946    0.011
 4902.00    1.47944   1.26073    0.011
 4903.00    1.52782   1.24104    0.011
 4904.00    1.39509   1.22586    0.011
 4905.00    1.29390   1.23249    0.011
 4906.00    1.39566   1.25051    0.011
 4907.00    1.44559   1.26145    0.011
 4908.00    1.23484   1.27022    0.011
 4909.00    1.06798   1.28573    0.011
 4910.00    1.07973   1.28935    0.011
 4911.00    1.10696   1.26504    0.011
 4912.00    1.18644   1.21619    0.011
 4913.00    1.24214   1.16200    0.011
 4914.00    1.23015   1.11989    0.011
 4915.00    1.25833   1.09613    0.011
 4916.00    1.38424   1.12456    0.011
 4917.00    1.43711   1.17061    0.011
 4918.00    1.33667   1.19145    0.011
 4919.00    1.19355   1.20185    0.011
 4920.00    0.97258   1.24460    0.011
 4921.00    0.92541   1.28085    0.011
 4922.00    1.15539   1.29618    0.011
 4923.00    1.26795   1.31006    0.011
 4924.00    1.21618   1.31367    0.011
 4925.00    1.03996   1.30836    0.011
 4926.00    0.71049   1.29000    0.011
 4927.00    0.63017   1.25052    0.011
 4928.00    0.82034   1.23339    0.011
 4929.00    1.11557   1.25974    0.011
 4930.00    1.51142   1.27333    0.011
 4931.00    1.59973   1.24507    0.011
 4932.00    1.42835   1.20503    0.010
 4933.00    1.38171   1.19649    0.010
 4934.00    1.42781   1.22514    0.011
 4935.00    1.39513   1.25712    0.011
 4936.00    1.31100   1.26330    0.011
 4937.00    1.25427   1.27481    0.011
 4938.00    1.21320   1.29218    0.011
 4939.00    1.18600   1.29259    0.011
 4940.00    1.16570   1.28636    0.000
 4941.00    1.33799   1.29678    0.000
 4942.00    1.59322   1.30738    0.000
 4943.00    1.47850   1.31093    0.000
 4944.00    1.22719   1.31773    0.000
 4945.00    1.16782   1.32454    0.000
 4946.00    1.16849   1.31543    0.000
 4947.00    1.21550   1.29203    0.000
 4948.00    1.27458   1.26645    0.000
 4949.00    1.22366   1.23774    0.000
 4950.00    1.14931   1.19431    0.000
 4951.00    1.39359   1.14187    0.000
 4952.00    1.69156   1.13870    0.000
 4953.00    1.65718   1.19352    0.000
 4954.00    1.58053   1.23831    0.000
 4955.00    1.30480   1.24507    0.000
 4956.00    1.01141   1.23941    0.000
 4957.00    1.20902   1.23974    0.000
 4958.00    1.43253   1.23055    0.000
 4959.00    1.59477   1.20711    0.000
 4960.00    1.75150   1.19444    0.000
 4961.00    1.56812   1.19840    0.000
 4962.00    1.38356   1.20513    0.000
 4963.00    1.17354   1.21579    0.000
 4964.00    0.99604   1.22500    0.000
 4965.00    1.21783   1.23471    0.000
 4966.00    1.41780   1.24721    0.000
 4967.00    1.43500   1.25560    0.000
 4968.00    1.45568   1.26188    0.000
 4969.00    1.49798   1.26194    0.000
 4970.00    1.52788   1.25463    0.000
 4971.00    1.49693   1.24218    0.000
 4972.00    1.48154   1.22273    0.000
 4973.00    1.52810   1.21141    0.000
 4974.00    1.51684   1.20800    0.000
 4975.00    1.31430   1.18703    0.000
 4976.00    1.18292   1.15261    0.000
 4977.00    1.25045   1.14276    0.000
 4978.00    1.23881   1.16415    0.000
 4979.00    1.03784   1.18715    0.000
 4980.00    0.98955   1.20552    0.000
 4981.00    1.25664   1.22774    0.000
 4982.00    1.39900   1.23824    0.000
 4983.00    1.31728   1.23085    0.000
 4984.00    1.35459   1.21720    0.000
 4985.00    1.57892   1.21152    0.000
 4986.00    1.63818   1.22421    0.000
 4987.00    1.46974   1.22669    0.000
 4988.00    1.37699   1.21759    0.000
 4989.00    1.37613   1.22600    0.000
 4990.00    1.46089   1.23906    0.000
 4991.00    1.63731   1.23740    0.000
 4992.00    1.63026   1.22358    0.000
 4993.00    1.45000   1.19432    0.000
 4994.00    1.45372   1.16181    0.000
 4995.00    1.61061   1.15001    0.000
 4996.00    1.52862   1.15843    0.000
 4997.00    1.27158   1.17475    0.000
 4998.00    1.12497   1.16881    0.000
 4999.00    1.04943   1.14514    0.000
 5000.00    1.05182   1.12987    0.000
 5001.00    1.09810   1.14896    0.000
 5002.00    1.20368   1.18614    0.000
 5003.00    1.33831   1.20370    0.000
 5004.00    1.27951   1.19685    0.000
 5005.00    1.13879   1.18143    0.000
 5006.00    1.21864   1.15764    0.000
 5007.00    1.37848   1.13092    0.000
 5008.00    1.44879   1.10573    0.000
 5009.00    1.49163   1.09261    0.000
 5010.00    1.44304   1.11623    0.000
 5011.00    1.37109   1.14893    0.000
 5012.00    1.45448   1.16786    0.000
 5013.00    1.57013   1.17978    0.000
 5014.00    1.65408   1.19016    0.000
 5015.00    1.73284   1.18384    0.000
 5016.00    1.42122   1.17058    0.000
 5017.00    1.06169   1.17889    0.000
 5018.00    0.89016   1.19945    0.000
 5019.00    0.73451   1.20594    0.000
 5020.00    1.03874   1.19890    0.000
 5021.00    1.36543   1.18559    0.000
 5022.00    1.45071   1.18880    0.000
 5023.00    1.52600   1.21248    0.000
 5024.00    1.21971   1.22679    0.000
 5025.00    0.92885   1.23297    0.000
 5026.00    0.94724   1.24518    0.000
 5027.00    0.96570   1.25782    0.000
 5028.00    0.98511   1.24750    0.000
 5029.00    1.01198   1.20961    0.011
 5030.00    1.09904   1.18360    0.010
 5031.00    1.18840   1.19312    0.010
 5032.00    1.29172   1.19455    0.010
 5033.00    1.36680   1.16144    0.010
 5034.00    1.30681   1.11385    0.011
 5035.00    1.22330   1.09909    0.011
 5036.00    1.04823   1.14357    0.011
 5037.00    0.97823   1.20378    0.010
 5038.00    1.24903   1.23392    0.011
 5039.00    1.42797   1.25315    0.011
 5040.00    1.35476   1.25837    0.011
 5041.00    1.26543   1.23145    0.011
 5042.00    1.13821   1.19357    0.010
 5043.00    1.07947   1.17920    0.010
 5044.00    1.15995   1.18476    0.010
 5045.00    1.25524   1.18927    0.010
 5046.00    1.37672   1.19831    0.010
 5047.00    1.40978   1.21626    0.010
 5048.00    1.30596   1.23165    0.011
 5049.00    1.24918   1.22960    0.011
 5050.00    1.25634   1.22677    0.011
 5051.00    1.19130   1.23798    0.011
 5052.00    1.03982   1.25516    0.011
 5053.00    1.12615   1.25887    0.011
 5054.00    1.46343   1.26512    0.011
 5055.00    1.59261   1.27561    0.011
 5056.00    1.52805   1.27184    0.011
 5057.00    1.38011   1.24258    0.011
 5058.00    1.16375   1.19943    0.010
 5059.00    1.16918   1.18179    0.010
 5060.00    1.33482   1.19915    0.011
 5061.00    1.52007   1.20953    0.011
 5062.00    1.71776   1.20516    0.011
 5063.00    1.68021   1.21356    0.011
 5064.00    1.51225   1.22910    0.011
 5065.00    1.32111   1.22227    0.011
 5066.00    1.11878   1.20498    0.011
 5067.00    1.16135   1.21006    0.011
 5068.00    1.30587   1.22399    0.011
 5069.00    1.42989   1.22089    0.011
 5070.00    1.54660   1.21696    0.011
 5071.00    1.34600   1.22142    0.011
 5072.00    1.04998   1.20528    0.011
 5073.00    1.25940   1.16173    0.011
 5074.00    1.59506   1.14223    0.011
 5075.00    1.30073   1.15959    0.011
 5076.00    0.87872   1.17645    0.011
 5077.00    0.91406   1.18139    0.010
 5078.00    1.02208   1.19394    0.010
 5079.00    1.14537   1.21216    0.011
 5080.00    1.27047   1.21937    0.011
 5081.00    1.25286   1.21963    0.011
 5082.00    1.22378   1.22425    0.010
 5083.00    1.18901   1.23081    0.010
 5084.00    1.15398   1.22944    0.010
 5085.00    1.31712   1.23023    0.010
 5086.00    1.47831   1.24355    0.010
 5087.00    1.42556   1.25692    0.010
 5088.00    1.37933   1.25096    0.010
 5089.00    1.45443   1.23187    0.010
 5090.00    1.51215   1.21615    0.010
 5091.00    1.37636   1.20138    0.010
 5092.00    1.25426   1.17970    0.010
 5093.00    1.23889   1.16713    0.010
 5094.00    1.25951   1.18550    0.010
 5095.00    1.49222   1.21443    0.010
 5096.00    1.66316   1.22372    0.010
 5097.00    1.54580   1.21546    0.010
 5098.00    1.45542   1.20662    0.010
 5099.00    1.46785   1.20432    0.010
 5100.00    1.48034   1.19804    0.010
 5101.00    1.49303   1.18635    0.010
 5102.00    1.48741   1.18337    0.010
 5103.00    1.43245   1.18392    0.010
 5104.00    1.33135   1.18238    0.010
 5105.00    1.12353   1.19413    0.010
 5106.00    0.99836   1.20753    0.010
 5107.00    1.03854   1.21146    0.010
 5108.00    1.11688   1.22122    0.010
 5109.00    1.26173   1.23559    0.010
 5110.00    1.31649   1.24877    0.010
 5111.00    1.23384   1.26103    0.010
 5112.00    1.21174   1.26185    0.010
 5113.00    1.27078   1.24849    0.010
 5114.00    1.29555   1.22908    0.010
 5115.00    1.27989   1.20716    0.010
 5116.00    1.33504   1.18311    0.010
 5117.00    1.46386   1.15999    0.010
 5118.00    1.48482   1.15617    0.010
 5119.00    1.40676   1.16876    0.010
 5120.00    1.43769   1.17094    0.010
 5121.00    1.55679   1.16309    0.010
 5122.00    1.55358   1.16260    0.010
 5123.00    1.46329   1.17107    0.010
 5124.00    1.31671   1.18563    0.010
 5125.00    1.13496   1.20278    0.010
 5126.00    1.11466   1.20716    0.010
 5127.00    1.18248   1.20649    0.010
 5128.00    1.13522   1.22154    0.010
 5129.00    1.03336   1.23948    0.010
 5130.00    1.04839   1.23084    0.010
 5131.00    1.11126   1.20715    0.010
 5132.00    1.14332   1.18672    0.010
 5133.00    1.16461   1.18220    0.010
 5134.00    1.23421   1.20124    0.010
 5135.00    1.31806   1.20560    0.010
 5136.00    1.36137   1.17932    0.010
 5137.00    1.39478   1.16989    0.011
 5138.00    1.39990   1.17973    0.011
 5139.00    1.39942   1.17702    0.011
 5140.00    1.49448   1.16896    0.010
 5141.00    1.60426   1.17301    0.010
 5142.00    1.47858   1.18494    0.011
 5143.00    1.32608   1.19229    0.011
 5144.00    1.09878   1.17984    0.010
 5145.00    0.86577   1.16243    0.010
 5146.00    1.07246   1.15704    0.010
 5147.00    1.29724   1.16187    0.010
 5148.00    1.16936   1.17316    0.010
 5149.00    1.04235   1.19340    0.010
 5150.00    1.07423   1.22095    0.010
 5151.00    1.10248   1.24527    0.010
 5152.00    1.06782   1.25272    0.010
 5153.00    1.05039   1.24606    0.010
 5154.00    1.21635   1.24731    0.010
 5155.00    1.35978   1.24590    0.010
 5156.00    1.33363   1.23192    0.010
 5157.00    1.33126   1.21856    0.010
 5158.00    1.46513   1.19453    0.010
 5159.00    1.55993   1.13788    0.010
 5160.00    1.47673   1.06480    0.010
 5161.00    1.39552   1.01562    0.010
 5162.00    1.32170   1.01824    0.010
 5163.00    1.23874   1.05690    0.010
 5164.00    1.12728   1.07748    0.010
 5165.00    1.08441   1.04510    0.010
 5166.00    1.22323   1.00204    0.010
 5167.00    1.25461   1.01645    0.010
 5168.00    1.04168   1.07903    0.010
 5169.00    0.89786   1.12759    0.010
 5170.00    0.89011   1.14563    0.010
 5171.00    0.87606   1.15476    0.010
 5172.00    0.85121   1.15919    0.010
 5173.00    0.89069   1.15187    0.010
 5174.00    1.02688   1.13562    0.010
 5175.00    1.10285   1.10387    0.010
 5176.00    1.09928   1.04953    0.010
 5177.00    1.09410   1.00685    0.010
 5178.00    1.08706   1.02881    0.010
 5179.00    1.22011   1.10139    0.010
 5180.00    1.49689   1.16139    0.010
 5181.00    1.45072   1.18288    0.010
 5182.00    1.11232   1.18648    0.010
 5183.00    0.95166   1.19332    0.009
 5184.00    0.93275   1.18393    0.009
 5185.00    0.96848   1.14191    0.009
 5186.00    1.04254   1.11102    0.009
 5187.00    1.13118   1.12185    0.010
 5188.00    1.22879   1.14401    0.010
 5189.00    1.22557   1.15748    0.010
 5190.00    1.16815   1.17569    0.000
 5191.00    1.08611   1.19486    0.000
 5192.00    0.99258   1.20621    0.000
 5193.00    1.02033   1.20940    0.000
 5194.00    1.09686   1.20219    0.000
 5195.00    1.16893   1.19122    0.000
 5196.00    1.23946   1.18240    0.000
 5197.00    1.33302   1.16370    0.000
 5198.00    1.43322   1.12294    0.000
 5199.00    1.34297   1.08733    0.000
 5200.00    1.20722   1.08070    0.000
 5201.00    1.29754   1.08263    0.000
 5202.00    1.43138   1.08001    0.000
 5203.00    1.30974   1.09409    0.000
 5204.00    1.14989   1.12738    0.000
 5205.00    1.08872   1.16531    0.000
 5206.00    1.03835   1.19928    0.000
 5207.00    1.03082   1.21920    0.000
 5208.00    1.02638   1.21491    0.000
 5209.00    0.91274   1.19433    0.000
 5210.00    0.79503   1.18613    0.000
 5211.00    1.02866   1.20187    0.010
 5212.00    1.25963   1.22446    0.010
 5213.00    1.33380   1.23856    0.010
 5214.00    1.40267   1.24615    0.010
 5215.00    1.38549   1.24897    0.010
 5216.00    1.35856   1.23672    0.010
 5217.00    1.23231   1.20566    0.010
 5218.00    1.13170   1.16519    0.010
 5219.00    1.21761   1.12595    0.010
 5220.00    1.28502   1.10301    0.010
 5221.00    1.24928   1.12438    0.010
 5222.00    1.22813   1.18371    0.010
 5223.00    1.27183   1.23124    0.010
 5224.00    1.26216   1.24971    0.010
 5225.00    1.05746   1.24544    0.010
 5226.00    0.93269   1.21815    0.010
 5227.00    1.05252   1.19380    0.010
 5228.00    1.07399   1.19726    0.010
 5229.00    0.83954   1.22267    0.010
 5230.00    0.72781   1.25283    0.010
 5231.00    0.89054   1.26906    0.010
 5232.00    1.01681   1.26549    0.010
 5233.00    1.07243   1.25340    0.010
 5234.00    1.10193   1.24700    0.010
 5235.00    1.08730   1.24639    0.010
 5236.00    1.09931   1.24564    0.010
 5237.00    1.15080   1.25272    0.010
 5238.00    1.22166   1.26509    0.010
 5239.00    1.31773   1.24850    0.009
 5240.00    1.37567   1.19959    0.009
 5241.00    1.38987   1.17303    0.009
 5242.00    1.36526   1.18465    0.009
 5243.00    1.30140   1.18778    0.009
 5244.00    1.24798   1.17516    0.009
 5245.00    1.20388   1.18250    0.009
 5246.00    1.17409   1.20703    0.009
 5247.00    1.15556   1.21650    0.010
 5248.00    1.12841   1.20434    0.010
 5249.00    1.09529   1.20524    0.010
 5250.00    1.10270   1.23877    0.010
 5251.00    1.13468   1.27505    0.010
 5252.00    1.04140   1.28626    0.010
 5253.00    0.88185   1.27244    0.010
 5254.00    1.09492   1.24451    0.010
 5255.00    1.47909   1.21015    0.010
 5256.00    1.54232   1.17106    0.010
 5257.00    1.47865   1.13492    0.010
 5258.00    1.44141   1.10954    0.010
 5259.00    1.41309   1.10084    0.010
 5260.00    1.24926   1.12266    0.010
 5261.00    1.04707   1.14890    0.010
 5262.00    0.96212   1.12089    0.010
 5263.00    0.90453   1.06799    0.010
 5264.00    0.98314   1.07857    0.010
 5265.00    1.08729   1.14456    0.010
 5266.00    0.89299   1.19328    0.011
 5267.00    0.65544   1.20689    0.011
 5268.00    0.78421   1.20221    0.011
 5269.00    0.95150   1.19828    0.011
 5270.00    1.11296   1.22258    0.011
 5271.00    1.27401   1.26437    0.011
 5272.00    1.05804   1.28429    0.011
 5273.00    0.82943   1.27294    0.011
 5274.00    0.90521   1.24648    0.010
 5275.00    0.98173   1.22083    0.010
 5276.00    1.07152   1.20235    0.010
 5277.00    1.15784   1.19865    0.010
 5278.00    1.19133   1.22601    0.010
 5279.00    1.22852   1.27486    0.010
 5280.00    1.30185   1.30592    0.010
 5281.00    1.35029   1.30320    0.010
 5282.00    1.22344   1.28989    0.010
 5283.00    1.12584   1.28963    0.010
 5284.00    1.18682   1.29799    0.010
 5285.00    1.21038   1.29833    0.010
 5286.00    1.07133   1.28904    0.009
 5287.00    0.97216   1.28363    0.009
 5288.00    1.01565   1.28025    0.009
 5289.00    1.06170   1.25577    0.010
 5290.00    1.11540   1.20515    0.009
 5291.00    1.21305   1.16559    0.009
 5292.00    1.42311   1.17443    0.010
 5293.00    1.57186   1.21124    0.010
 5294.00    1.58572   1.22761    0.010
 5295.00    1.52892   1.22708    0.010
 5296.00    1.33730   1.24290    0.010
 5297.00    1.20858   1.27812    0.009
 5298.00    1.18460   1.30831    0.009
 5299.00    1.20270   1.31187    0.009
 5300.00    1.28220   1.29319    0.009
 5301.00    1.25055   1.28046    0.009
 5302.00    1.07624   1.28937    0.009
 5303.00    0.99784   1.30275    0.009
 5304.00    1.02789   1.30366    0.009
 5305.00    1.11775   1.29567    0.009
 5306.00    1.26727   1.28624    0.009
 5307.00    1.25071   1.28136    0.009
 5308.00    1.08807   1.28054    0.009
 5309.00    1.17576   1.27499    0.009
 5310.00    1.45745   1.26714    0.010
 5311.00    1.43672   1.26730    0.010
 5312.00    1.20993   1.26974    0.010
 5313.00    1.08283   1.26589    0.010
 5314.00    1.01526   1.26319    0.010
 5315.00    1.09826   1.26298    0.010
 5316.00    1.25970   1.25296    0.010
 5317.00    1.51611   1.23197    0.010
 5318.00    1.81541   1.22593    0.010
 5319.00    1.64313   1.23221    0.010
 5320.00    1.28763   1.20053    0.009
 5321.00    1.15303   1.12693    0.009
 5322.00    1.09145   1.09395    0.010
 5323.00    1.25999   1.14141    0.010
 5324.00    1.49235   1.20870    0.010
 5325.00    1.36748   1.23964    0.010
 5326.00    1.16114   1.24336    0.010
 5327.00    1.24411   1.25504    0.010
 5328.00    1.37989   1.27680    0.010
 5329.00    0.94167   1.28427    0.012
 5330.00    0.42294   1.27728    0.014
 5331.00    0.44404   1.27101    0.014
 5332.00    0.51960   1.25635    0.014
 5333.00    0.21398   1.22050    0.014
 5334.00   -0.11609   1.19323    0.000
 5335.00    0.62497   1.20819    0.011
 5336.00    1.39572   1.24156    0.010
 5337.00    1.25993   1.25970    0.010
 5338.00    1.12894   1.25141    0.009
 5339.00    1.13492   1.23624    0.009
 5340.00    1.13904   1.23855    0.009
 5341.00    1.11648   1.24115    0.009
 5342.00    1.11876   1.22647    0.009
 5343.00    1.35343   1.22467    0.009
 5344.00    1.56207   1.25368    0.009
 5345.00    1.59324   1.28694    0.009
 5346.00    1.59468   1.30171    0.009
 5347.00    1.43913   1.31105    0.009
 5348.00    1.31055   1.32617    0.009
 5349.00    1.29648   1.33440    0.009
 5350.00    1.26237   1.33419    0.009
 5351.00    1.15808   1.33316    0.009
 5352.00    1.10691   1.33065    0.009
 5353.00    1.21235   1.32244    0.009
 5354.00    1.29717   1.30466    0.009
 5355.00    1.33021   1.28391    0.009
 5356.00    1.34545   1.27488    0.009
 5357.00    1.32217   1.27295    0.009
 5358.00    1.29766   1.26620    0.009
 5359.00    1.27083   1.26180    0.009
 5360.00    1.22672   1.26345    0.009
 5361.00    1.15423   1.26412    0.009
 5362.00    1.12825   1.24981    0.009
 5363.00    1.16915   1.21030    0.009
 5364.00    1.21689   1.16794    0.009
 5365.00    1.27328   1.16877    0.009
 5366.00    1.28178   1.22105    0.009
 5367.00    1.23689   1.27853    0.009
 5368.00    1.18514   1.30676   -2.000
 5369.00    1.12665   1.30510   -2.000
 5370.00    1.08531   1.29286   -2.000
 5371.00    1.05885   1.29543   -2.000
 5372.00    0.96466   1.30849   -2.000
 5373.00    0.81872   1.30836   -2.000
 5374.00    0.92014   1.29486   -2.000
 5375.00    1.18764   1.28233   -2.000
 5376.00    1.28252   1.27267   -2.000
 5377.00    1.27587   1.27180   -2.000
 5378.00    1.21811   1.28302   -2.000
 5379.00    1.13414   1.29187   -2.000
 5380.00    1.00059   1.29200   -2.000
 5381.00    0.84501   1.28630   -2.000
 5382.00    0.93021   1.27089   -2.000
 5383.00    1.10733   1.24881    0.010
 5384.00    1.22858   1.23569    0.010
 5385.00    1.33171   1.23667    0.009
 5386.00    1.32931   1.24213    0.009
 5387.00    1.29826   1.24290    0.009
 5388.00    1.29541   1.23821    0.009
 5389.00    1.29884   1.21537    0.009
 5390.00    1.36882   1.18056    0.009
 5391.00    1.45061   1.18614    0.009
 5392.00    1.21664   1.23138    0.009
 5393.00    0.93982   1.25829    0.009
 5394.00    1.01896   1.25869    0.009
 5395.00    1.13248   1.26238    0.009
 5396.00    1.20893   1.26023    0.009
 5397.00    1.28315   1.22675    0.009
 5398.00    1.13158   1.17558    0.009
 5399.00    0.97541   1.15030    0.009
 5400.00    1.03259   1.17218    0.009
 5401.00    1.07989   1.20406    0.009
 5402.00    0.87263   1.19911    0.009
 5403.00    0.69792   1.17221    0.009
 5404.00    0.96447   1.17660    0.009
 5405.00    1.21230   1.21545    0.009
 5406.00    1.29164   1.25140    0.009
 5407.00    1.32314   1.26599    0.009
 5408.00    1.03850   1.27087    0.009
 5409.00    0.82885   1.28570    0.009
 5410.00    1.00497   1.30591    0.009
 5411.00    1.15055   1.31244    0.009
 5412.00    1.16931   1.30122    0.009
 5413.00    1.16724   1.28285    0.009
 5414.00    1.09361   1.27595    0.009
 5415.00    1.07080   1.28729    0.009
 5416.00    1.19501   1.28843    0.009
 5417.00    1.26958   1.26758    0.009
 5418.00    1.22156   1.26178    0.009
 5419.00    1.21505   1.28596    0.009
 5420.00    1.29696   1.31329    0.009
 5421.00    1.35471   1.30256    0.009
 5422.00    1.36777   1.24227    0.009
 5423.00    1.32442   1.20047    0.009
 5424.00    1.18992   1.22010    0.009
 5425.00    1.18955   1.24051    0.009
 5426.00    1.37929   1.22661    0.009
 5427.00    1.42591   1.20438    0.009
 5428.00    1.29401   1.19836    0.009
 5429.00    1.14172   1.21096    0.009
 5430.00    0.96700   1.23619    0.009
 5431.00    0.94608   1.26950    0.009
 5432.00    1.07428   1.30152    0.009
 5433.00    1.10758   1.32279    0.009
 5434.00    1.05973   1.33144    0.009
 5435.00    1.09882   1.33393    0.009
 5436.00    1.20336   1.33592    0.009
 5437.00    1.25069   1.32771    0.009
 5438.00    1.26016   1.29169    0.009
 5439.00    1.31430   1.22874    0.009
 5440.00    1.39432   1.17890    0.009
 5441.00    1.45088   1.18318    0.009
 5442.00    1.49561   1.21594    0.009
 5443.00    1.40700   1.23617    0.009
 5444.00    1.26012   1.23720    0.009
 5445.00    1.22686   1.22981    0.009
 5446.00    1.23621   1.21567    0.009
 5447.00    1.16637   1.19156    0.009
 5448.00    1.07133   1.15767    0.008
 5449.00    1.02059   1.14878    0.008
 5450.00    0.98162   1.18132    0.008
 5451.00    1.14407   1.22538    0.008
 5452.00    1.35032   1.24575    0.008
 5453.00    1.42993   1.23820    0.009
 5454.00    1.48766   1.22336    0.009
 5455.00    1.43105   1.21128    0.009
 5456.00    1.35945   1.20020    0.009
 5457.00    1.22870   1.20566    0.009
 5458.00    1.09250   1.22428    0.009
 5459.00    1.10033   1.23061    0.009
 5460.00    1.11625   1.23330    0.009
 5461.00    1.28025   1.24397    0.009
 5462.00    1.44516   1.24563    0.009
 5463.00    1.36018   1.23103    0.009
 5464.00    1.27635   1.22303    0.009
 5465.00    1.21930   1.22361    0.009
 5466.00    1.16564   1.21221    0.009
 5467.00    1.15543   1.20145    0.009
 5468.00    1.14581   1.20077    0.009
 5469.00    1.14127   1.18156    0.009
 5470.00    1.14759   1.15989    0.009
 5471.00    1.22340   1.18290    0.009
 5472.00    1.23995   1.22529    0.009
 5473.00    0.95950   1.23352    0.009
 5474.00    0.77147   1.20516    0.009
 5475.00    0.95860   1.18982    0.009
 5476.00    1.07767   1.20675    0.009
 5477.00    0.96765   1.23758    0.009
 5478.00    0.92849   1.26257   -2.000
 5479.00    1.09066   1.26308   -2.000
 5480.00    1.17129   1.23894   -2.000
 5481.00    1.05397   1.22315   -2.000
 5482.00    0.97219   1.23020   -2.000
 5483.00    0.96487   1.23604   -2.000
 5484.00    0.82672   1.24141   -2.000
 5485.00    0.45033   1.25171   -2.000
 5486.00    0.03172   1.24890   -2.000
 5487.00   -0.45412   1.24092   -2.000
 5488.00   -0.58098   1.24481   -2.000
 5489.00   -0.20637   1.24283   -2.000
 5490.00    0.37896   1.22211   -2.000
 5491.00    1.22336   1.21801   -2.000
 5492.00    1.95733   1.24174   -2.000
 5493.00    2.57163   1.25055   -2.000
 5494.00    2.66417   1.22779   -2.000
 5495.00    2.25795   1.20936   -2.000
 5496.00    1.71437   1.21350   -2.000
 5497.00    1.05499   1.22408   -2.000
 5498.00    0.88351   1.22079   -2.000
 5499.00    1.07412   1.19919   -2.000
 5500.00    1.21467   1.19196   -2.000
 5501.00    1.32258   1.21671   -2.000
 5502.00    1.28248   1.23630    0.008
 5503.00    1.15792   1.23531    0.008
 5504.00    1.11041   1.22011    0.008
 5505.00    1.10120   1.19478    0.008
 5506.00    1.04155   1.17929    0.008
 5507.00    0.96024   1.18073    0.008
 5508.00    0.96721   1.19010    0.008
 5509.00    1.00671   1.20504    0.008
 5510.00    1.11006   1.22545    0.009
 5511.00    1.23333   1.25373    0.009
 5512.00    1.36937   1.27563    0.014
 5513.00    1.50873   1.27697    0.097
 5514.00    1.43284   1.26966   -1.000
 5515.00    1.31126   1.26699   -1.000
 5516.00    1.21826   1.26780   -1.000
 5517.00    1.13006   1.26666   -1.000
 5518.00    1.07872   1.25875   -1.000
 5519.00    1.03206   1.24409   -1.000
 5520.00    1.03902   1.22113    0.019
 5521.00    1.05070   1.19824    0.009
 5522.00    1.09737   1.20551    0.009
 5523.00    1.14587   1.23965    0.009
 5524.00    1.29924   1.26151    0.009
 5525.00    1.44987   1.25978    0.009
 5526.00    1.24425   1.25118    0.008
 5527.00    1.05309   1.24228    0.008
 5528.00    1.17323   1.23264    0.008
 5529.00    1.27691   1.23571    0.009
 5530.00    1.17985   1.24643    0.009
 5531.00    1.08717   1.24839    0.008
 5532.00    1.03104   1.25455    0.008
 5533.00    0.98853   1.27208    0.008
 5534.00    1.03075   1.28587    0.008
 5535.00    1.08428   1.28059    0.008
 5536.00    1.19307   1.26286    0.008
 5537.00    1.25758   1.25512    0.008
 5538.00    1.14624   1.25663    0.008
 5539.00    1.09264   1.25293    0.008
 5540.00    1.22954   1.25690    0.008
 5541.00    1.33183   1.27639    0.008
 5542.00    1.33757   1.29098    0.008
 5543.00    1.33743   1.29271    0.008
 5544.00    1.32326   1.28951    0.008
 5545.00    1.30672   1.28214    0.008
 5546.00    1.28534   1.26779    0.008
 5547.00    1.26881   1.25455    0.008
 5548.00    1.26099   1.25210    0.008
 5549.00    1.29954   1.25559    0.008
 5550.00    1.41080   1.25256    0.008
 5551.00    1.42802   1.25011    0.008
 5552.00    1.31575   1.25573    0.008
 5553.00    1.28546   1.25865    0.008
 5554.00    1.35451   1.25351    0.008
 5555.00    1.38076   1.24347    0.008
 5556.00    1.36127   1.23671    0.008
 5557.00    1.40938   1.23862    0.008
 5558.00    1.52119   1.23535    0.008
 5559.00    1.48224   1.22405    0.008
 5560.00    1.31804   1.22388    0.008
 5561.00    1.29751   1.23102    0.008
 5562.00    1.38208   1.22996    0.008
 5563.00    1.30174   1.23247    0.008
 5564.00    1.11548   1.24708    0.008
 5565.00    1.08875   1.24108    0.008
 5566.00    1.15166   1.22390    0.008
 5567.00    1.18942   1.23574    0.008
 5568.00    1.21487   1.25243    0.008
 5569.00    1.32070   1.25147    0.008
 5570.00    1.46048   1.25451    0.008
 5571.00    1.45594   1.25672    0.008
 5572.00    1.39918   1.25373    0.008
 5573.00    1.38495   1.25991    0.008
 5574.00    1.38373   1.25994    0.008
 5575.00    1.33904   1.24790    0.008
 5576.00    1.28327   1.24530    0.008
 5577.00    1.21103   1.24445    0.008
 5578.00    1.13538   1.23199    0.008
 5579.00    1.01521   1.20734    0.008
 5580.00    0.88779   1.17708    0.008
 5581.00    1.08176   1.15991    0.008
 5582.00    1.31500   1.16284    0.008
 5583.00    1.33256   1.18235    0.008
 5584.00    1.33200   1.20033    0.008
 5585.00    1.41965   1.20349    0.008
 5586.00    1.51157   1.20145    0.008
 5587.00    1.42283   1.20523    0.008
 5588.00    1.33172   1.22397    0.008
 5589.00    1.26078   1.25457    0.008
 5590.00    1.19408   1.25117    0.008
 5591.00    1.21175   1.20860    0.008
 5592.00    1.22662   1.18259    0.008
 5593.00    1.20894   1.18290    0.008
 5594.00    1.20369   1.18197    0.008
 5595.00    1.29832   1.17732    0.008
 5596.00    1.38709   1.18144    0.008
 5597.00    1.44050   1.20407    0.008
 5598.00    1.48985   1.22972    0.009
 5599.00    1.51985   1.24919    0.009
 5600.00    1.51250   1.26004    0.009
 5601.00    1.36008   1.26298    0.009
 5602.00    1.22217   1.25884    0.009
 5603.00    1.13120   1.25433    0.008
 5604.00    1.05698   1.25832    0.008
 5605.00    1.02865   1.27010    0.008
 5606.00    1.02712   1.27163    0.008
 5607.00    1.08848   1.23714    0.008
 5608.00    1.17268   1.17820    0.008
 5609.00    1.30324   1.15937    0.008
 5610.00    1.39841   1.19084    0.008
 5611.00    1.43106   1.21449    0.008
 5612.00    1.44355   1.21211    0.008
 5613.00    1.42489   1.20827    0.008
 5614.00    1.39840   1.22158    0.008
 5615.00    1.36130   1.23767    0.008
 5616.00    1.30110   1.22794    0.008
 5617.00    1.21329   1.19093    0.008
 5618.00    1.18644   1.17081    0.008
 5619.00    1.22380   1.19041    0.008
 5620.00    1.14344   1.21509    0.008
 5621.00    0.95368   1.22305    0.008
 5622.00    0.94237   1.22784    0.008
 5623.00    1.07726   1.23330    0.008
 5624.00    1.19593   1.23818    0.008
 5625.00    1.30291   1.24204    0.008
 5626.00    1.36173   1.24302    0.008
 5627.00    1.39008   1.23878    0.008
 5628.00    1.34048   1.22885    0.008
 5629.00    1.24773   1.21407    0.008
 5630.00    1.27353   1.20196    0.008
 5631.00    1.35637   1.20189    0.008
 5632.00    1.39638   1.20412    0.008
 5633.00    1.41861   1.19905    0.008
 5634.00    1.41278   1.18902    0.008
 5635.00    1.39698   1.19529    0.008
 5636.00    1.32798   1.20718    0.008
 5637.00    1.24303   1.21161    0.008
 5638.00    1.23482   1.21490    0.008
 5639.00    1.24574   1.21842    0.008
 5640.00    1.43740   1.22201    0.008
 5641.00    1.66557   1.22373    0.008
 5642.00    1.55102   1.22287    0.008
 5643.00    1.38221   1.22847    0.008
 5644.00    1.37019   1.24321    0.008
 5645.00    1.37662   1.25860    0.008
 5646.00    1.35588   1.26205    0.008
 5647.00    1.33296   1.24706    0.008
 5648.00    1.20684   1.23348    0.008
 5649.00    1.07612   1.23953    0.008
 5650.00    1.13004   1.22549    0.008
 5651.00    1.18465   1.17637    0.008
 5652.00    1.17013   1.16248    0.008
 5653.00    1.15555   1.20048    0.008
 5654.00    1.13982   1.21403    0.008
 5655.00    1.13542   1.19274    0.008
 5656.00    1.25645   1.18732    0.008
 5657.00    1.34108   1.21202    0.008
 5658.00    1.14334   1.23033    0.008
 5659.00    0.98265   1.22804    0.008
 5660.00    1.03949   1.21359    0.008
 5661.00    1.08825   1.20276    0.008
 5662.00    1.09943   1.20846    0.007
 5663.00    1.11237   1.21470    0.007
 5664.00    1.13203   1.21908    0.007
 5665.00    1.16501   1.23436    0.007
 5666.00    1.24029   1.25836    0.007
 5667.00    1.32113   1.26384    0.007
 5668.00    1.41692   1.25087    0.007
 5669.00    1.48931   1.25069    0.007
 5670.00    1.50771   1.26271    0.008
 5671.00    1.47101   1.25816    0.008
 5672.00    1.32427   1.24145    0.008
 5673.00    1.23561   1.23889    0.008
 5674.00    1.24795   1.24130    0.008
 5675.00    1.25382   1.22944    0.008
 5676.00    1.24982   1.22016    0.008
 5677.00    1.25404   1.23799    0.008
 5678.00    1.26925   1.25059    0.008
 5679.00    1.25608   1.23851    0.008
 5680.00    1.20947   1.21498    0.008
 5681.00    1.27028   1.20903    0.008
 5682.00    1.44266   1.22282    0.008
 5683.00    1.42322   1.24453    0.008
 5684.00    1.22805   1.26110    0.008
 5685.00    1.13891   1.27527    0.008
 5686.00    1.13538   1.28054    0.008
 5687.00    1.15815   1.27078    0.008
 5688.00    1.19962   1.25397    0.008
 5689.00    1.25148   1.24723    0.008
 5690.00    1.30982   1.24437    0.008
 5691.00    1.29825   1.23359    0.008
 5692.00    1.24857   1.22878    0.008
 5693.00    1.17730   1.22737    0.008
 5694.00    1.09581   1.21514    0.008
 5695.00    1.12079   1.20522    0.008
 5696.00    1.18924   1.21500    0.008
 5697.00    1.30204   1.23472    0.008
 5698.00    1.43031   1.24067    0.008
 5699.00    1.41186   1.22305    0.008
 5700.00    1.35026   1.20227    0.008
 5701.00    1.25212   1.18600    0.008
 5702.00    1.14507   1.17510    0.008
 5703.00    1.09052   1.18483    0.007
 5704.00    1.04631   1.19403    0.007
 5705.00    1.05835   1.19551    0.007
 5706.00    1.07903   1.22293    0.007
 5707.00    1.08081   1.25124    0.007
 5708.00    1.08046   1.26100    0.007
 5709.00    1.05109   1.26491    0.007
 5710.00    1.01952   1.26137    0.007
 5711.00    1.06216   1.25371    0.007
 5712.00    1.10783   1.25755    0.007
 5713.00    1.17382   1.26731    0.008
 5714.00    1.23853   1.27448    0.008
 5715.00    1.24420   1.28244    0.008
 5716.00    1.24716   1.28711    0.008
 5717.00    1.20377   1.28411    0.008
 5718.00    1.16875   1.27792    0.008
 5719.00    1.22232   1.25769    0.008
 5720.00    1.28045   1.23335    0.008
 5721.00    1.37267   1.23686    0.008
 5722.00    1.44317   1.26294    0.008
 5723.00    1.38971   1.26834    0.008
 5724.00    1.34248   1.24895    0.008
 5725.00    1.32353   1.24530    0.008
 5726.00    1.32178   1.26691    0.008
 5727.00    1.38406   1.28339    0.008
 5728.00    1.41727   1.28479    0.008
 5729.00    1.36004   1.27732    0.008
 5730.00    1.33078   1.26914    0.008
 5731.00    1.37546   1.26371    0.008
 5732.00    1.39231   1.25915    0.008
 5733.00    1.34601   1.25883    0.008
 5734.00    1.32563   1.26540    0.008
 5735.00    1.35622   1.26966    0.008
 5736.00    1.37231   1.26373    0.007
 5737.00    1.36357   1.27235    0.007
 5738.00    1.37069   1.29224    0.007
 5739.00    1.40160   1.29946    0.007
 5740.00    1.40863   1.27933    0.000
 5741.00    1.38417   1.25296    0.000
 5742.00    1.35131   1.25804    0.000
 5743.00    1.30871   1.28446    0.000
 5744.00    1.31355   1.29358    0.000
 5745.00    1.36697   1.27288    0.000
 5746.00    1.37538   1.24272    0.000
 5747.00    1.34313   1.23112    0.000
 5748.00    1.31691   1.25179    0.000
 5749.00    1.29550   1.28563    0.000
 5750.00    1.24797   1.30478    0.000
 5751.00    1.18215   1.30561    0.000
 5752.00    1.19451   1.28741    0.000
 5753.00    1.25489   1.25722    0.000
 5754.00    1.27353   1.22913    0.000
 5755.00    1.26978   1.21143    0.000
 5756.00    1.26865   1.21746    0.000
 5757.00    1.26875   1.25068    0.000
 5758.00    1.26322   1.27834    0.000
 5759.00    1.25543   1.28488    0.000
 5760.00    1.18493   1.28439    0.000
 5761.00    1.09295   1.28376    0.000
 5762.00    1.14074   1.28030    0.000
 5763.00    1.22880   1.27747    0.000
 5764.00    1.29678   1.27393    0.000
 5765.00    1.35998   1.26856    0.000
 5766.00    1.39882   1.26707    0.000
 5767.00    1.43298   1.26525    0.000
 5768.00    1.44680   1.26477    0.000
 5769.00    1.45758   1.27090    0.000
 5770.00    1.42430   1.27644    0.000
 5771.00    1.38622   1.27654    0.000
 5772.00    1.34191   1.26534    0.000
 5773.00    1.29716   1.23539    0.000
 5774.00    1.31449   1.20088    0.000
 5775.00    1.33410   1.19256    0.000
 5776.00    1.44006   1.20398    0.000
 5777.00    1.54160   1.20407    0.000
 5778.00    1.47200   1.19363    0.000
 5779.00    1.40337   1.20539    0.000
 5780.00    1.35031   1.23615    0.000
 5781.00    1.29728   1.25676    0.000
 5782.00    1.24454   1.26329    0.000
 5783.00    1.18463   1.25350    0.000
 5784.00    1.07266   1.24084    0.000
 5785.00    0.98671   1.25335    0.000
 5786.00    1.04515   1.27847    0.000
 5787.00    1.09472   1.29778    0.000
 5788.00    1.10494   1.30803    0.000
 5789.00    1.12555   1.29871    0.000
 5790.00    1.18399   1.27060    0.000
 5791.00    1.23500   1.25745   -2.000
 5792.00    1.26330   1.28059   -2.000
 5793.00    1.26862   1.30943   -2.000
 5794.00    1.21426   1.32204   -2.000
 5795.00    1.17475   1.32574   -2.000
 5796.00    1.16840   1.31633   -2.000
 5797.00    1.17949   1.29337   -2.000
 5798.00    1.22433   1.28211   -2.000
 5799.00    1.26517   1.28692   -2.000
 5800.00    1.29929   1.29398   -2.000
 5801.00    1.32535   1.29745   -2.000
 5802.00    1.33950   1.29778   -2.000
 5803.00    1.35333   1.29586   -2.000
 5804.00    1.36675   1.29007   -2.000
 5805.00    1.36154   1.28325   -2.000
 5806.00    1.33502   1.27871   -2.000
 5807.00    1.30135   1.27043   -2.000
 5808.00    1.26047   1.25271   -2.000
 5809.00    1.26326   1.24235   -2.000
 5810.00    1.30494   1.25317   -2.000
 5811.00    1.32486   1.27493    0.000
 5812.00    1.32770   1.28741    0.000
 5813.00    1.31880   1.29113    0.000
 5814.00    1.30180   1.29203    0.000
 5815.00    1.32258   1.28673    0.000
 5816.00    1.36621   1.27943    0.000
 5817.00    1.34408   1.27935    0.000
 5818.00    1.28722   1.28701    0.000
 5819.00    1.26110   1.29145    0.000
 5820.00    1.24907   1.29150    0.000
 5821.00    1.24590   1.29326    0.000
 5822.00    1.24623   1.29892    0.000
 5823.00    1.24466   1.30309    0.000
 5824.00    1.24244   1.30148    0.000
 5825.00    1.30868   1.29962    0.000
 5826.00    1.39423   1.29295    0.000
 5827.00    1.42128   1.28017    0.000
 5828.00    1.43471   1.27618    0.000
 5829.00    1.47356   1.28842    0.000
 5830.00    1.51715   1.29167    0.000
 5831.00    1.39042   1.27855    0.000
 5832.00    1.23911   1.27353    0.000
 5833.00    1.25745   1.28687    0.000
 5834.00    1.29354   1.30256    0.000
 5835.00    1.34304   1.31058    0.000
 5836.00    1.39344   1.31054    0.000
 5837.00    1.43904   1.30388    0.000
 5838.00    1.48447   1.29286    0.000
 5839.00    1.41636   1.27770    0.000
 5840.00    1.34915   1.26055    0.000
 5841.00    1.31280   1.25200    0.000
 5842.00    1.27937   1.25257    0.000
 5843.00    1.29000   1.25177    0.000
 5844.00    1.29398   1.24135    0.000
 5845.00    1.23334   1.22166    0.000
 5846.00    1.18367   1.20647    0.000
 5847.00    1.21091   1.21248    0.000
 5848.00    1.24537   1.22584    0.000
 5849.00    1.31888   1.21732    0.000
 5850.00    1.37626   1.19342    0.000
 5851.00    1.36371   1.18793    0.000
 5852.00    1.34491   1.20827    0.000
 5853.00    1.30379   1.22986    0.000
 5854.00    1.27589   1.23720    0.000
 5855.00    1.28761   1.22739    0.000
 5856.00    1.28303   1.21963    0.000
 5857.00    1.23687   1.22583    0.000
 5858.00    1.22285   1.22889    0.000
 5859.00    1.27939   1.21781    0.000
 5860.00    1.32287   1.21230    0.000
 5861.00    1.34150   1.22584    0.000
 5862.00    1.35996   1.24408    0.000
 5863.00    1.37814   1.25294    0.000
 5864.00    1.36427   1.24908    0.000
 5865.00    1.30370   1.23515    0.000
 5866.00    1.26992   1.21636    0.000
 5867.00    1.27048   1.18350    0.000
 5868.00    1.31148   1.15189    0.000
 5869.00    1.39812   1.14631    0.000
 5870.00    1.43458   1.17094    0.000
 5871.00    1.42106   1.20029    0.000
 5872.00    1.39001   1.19567    0.000
 5873.00    1.34356   1.18678    0.000
 5874.00    1.31494   1.19355    0.000
 5875.00    1.30011   1.20750    0.000
 5876.00    1.32870   1.20780    0.000
 5877.00    1.38683   1.20123    0.000
 5878.00    1.38010   1.20044    0.000
 5879.00    1.33471   1.19638    0.000
 5880.00    1.28348   1.16663    0.000
 5881.00    1.22921   1.08547    0.000
 5882.00    1.21390   0.97446    0.000
 5883.00    1.21615   0.92247    0.000
 5884.00    1.19895   0.97717    0.000
 5885.00    1.17422   1.06240    0.000
 5886.00    1.17668   1.10090    0.000
 5887.00    1.18812   1.08347    0.000
 5888.00    1.12115   1.01914    0.000
 5889.00    1.03251   0.98722    0.000
 5890.00    0.93288   1.03850    0.000
 5891.00    0.83076   1.10519    0.000
 5892.00    0.81332   1.13432    0.000
 5893.00    0.81129   1.15174    0.000
 5894.00    0.82949   1.17209    0.000
 5895.00    0.85051   1.18439    0.000
 5896.00    0.93373   1.19122    0.000
 5897.00    1.02320   1.19243    0.000
 5898.00    1.08926   1.18546    0.000
 5899.00    1.15383   1.18143    0.000
 5900.00    1.11659   1.18889    0.000
 5901.00    1.07673   1.19814    0.007
 5902.00    1.16574   1.20096    0.007
 5903.00    1.24976   1.20295    0.007
 5904.00    1.19333   1.20832    0.007
 5905.00    1.14002   1.20535    0.007
 5906.00    1.13112   1.18743    0.007
 5907.00    1.13202   1.17023    0.007
 5908.00    1.22428   1.16844    0.007
 5909.00    1.30811   1.17602    0.007
 5910.00    1.33471   1.18770    0.007
 5911.00    1.34308   1.19558    0.007
 5912.00    1.25551   1.19857    0.007
 5913.00    1.17648   1.20282    0.007
 5914.00    1.13361   1.20039    0.007
 5915.00    1.11986   1.19353    0.007
 5916.00    1.20790   1.19431    0.007
 5917.00    1.27032   1.20090    0.007
 5918.00    1.25738   1.20667    0.007
 5919.00    1.24330   1.21045    0.007
 5920.00    1.22634   1.20744    0.007
 5921.00    1.22593   1.19682    0.007
 5922.00    1.26127   1.18595    0.007
 5923.00    1.31865   1.18521    0.007
 5924.00    1.41737   1.20013    0.007
 5925.00    1.46635   1.21534    0.007
 5926.00    1.43391   1.21102    0.007
 5927.00    1.41259   1.19618    0.007
 5928.00    1.40723   1.19269    0.007
 5929.00    1.38613   1.20660    0.007
 5930.00    1.34516   1.21981    0.007
 5931.00    1.35458   1.22634    0.007
 5932.00    1.42007   1.22570    0.007
 5933.00    1.44128   1.20973    0.007
 5934.00    1.41902   1.19091    0.007
 5935.00    1.37184   1.19292    0.007
 5936.00    1.30308   1.20847    0.007
 5937.00    1.24578   1.22314    0.007
 5938.00    1.19721   1.23527    0.007
 5939.00    1.19832   1.24058    0.007
 5940.00    1.23272   1.22948    0.007
 5941.00    1.26340   1.20632    0.007
 5942.00    1.29188   1.19337    0.007
 5943.00    1.33674   1.19994    0.007
 5944.00    1.38998   1.20600    0.007
 5945.00    1.40863   1.19698    0.007
 5946.00    1.41193   1.19233    0.007
 5947.00    1.49368   1.20278    0.007
 5948.00    1.60531   1.20336    0.008
 5949.00    1.60055   1.18704    0.009
 5950.00    1.55813   1.17839    0.009
 5951.00    1.53269   1.18838    0.009
 5952.00    1.51183   1.20731    0.009
 5953.00    1.52117   1.22442    0.008
 5954.00    1.53721   1.23368    0.007
 5955.00    1.50517   1.23496    0.007
 5956.00    1.46462   1.23182    0.007
 5957.00    1.42614   1.22673    0.007
 5958.00    1.38795   1.21900    0.007
 5959.00    1.39028   1.21834    0.007
 5960.00    1.39650   1.22986    0.007
 5961.00    1.39380   1.24029    0.007
 5962.00    1.39057   1.24565    0.007
 5963.00    1.37460   1.24978    0.007
 5964.00    1.35848   1.24995    0.007
 5965.00    1.36886   1.24570    0.007
 5966.00    1.37731   1.24116    0.007
 5967.00    1.33656   1.23383    0.007
 5968.00    1.29967   1.22011    0.007
 5969.00    1.31480   1.20566    0.007
 5970.00    1.32993   1.19693    0.007
 5971.00    1.34504   1.19566    0.007
 5972.00    1.36081   1.20624    0.007
 5973.00    1.38096   1.22268    0.007
 5974.00    1.40362   1.23053    0.007
 5975.00    1.43921   1.22117    0.007
 5976.00    1.46097   1.19942    0.007
 5977.00    1.42546   1.18514    0.007
 5978.00    1.37793   1.19764    0.007
 5979.00    1.28920   1.22061    0.007
 5980.00    1.24069   1.22914    0.007
 5981.00    1.30828   1.23020    0.007
 5982.00    1.36809   1.23514    0.007
 5983.00    1.40874   1.23729    0.007
 5984.00    1.41676   1.23491    0.007
 5985.00    1.35544   1.24116    0.007
 5986.00    1.29884   1.25857    0.007
 5987.00    1.25094   1.26922    0.007
 5988.00    1.24618   1.26354    0.007
 5989.00    1.31101   1.24783    0.007
 5990.00    1.34412   1.23342    0.007
 5991.00    1.33235   1.22733    0.007
 5992.00    1.34252   1.22918    0.007
 5993.00    1.38000   1.23316    0.007
 5994.00    1.40251   1.23091    0.007
 5995.00    1.40857   1.22195    0.007
 5996.00    1.39571   1.22234    0.007
 5997.00    1.36453   1.23436    0.007
 5998.00    1.34169   1.23525    0.007
 5999.00    1.32598   1.21899    0.007
 6000.00    1.33448   1.19888    0.007
 6001.00    1.36119   1.19460    0.007
 6002.00    1.36483   1.21701    0.007
 6003.00    1.35324   1.24359    0.007
 6004.00    1.33284   1.24643    0.007
 6005.00    1.30734   1.22947    0.007
 6006.00    1.28021   1.21823    0.007
 6007.00    1.25226   1.22492    0.007
 6008.00    1.28530   1.23127    0.007
 6009.00    1.34493   1.22455    0.007
 6010.00    1.37857   1.22055    0.007
 6011.00    1.40248   1.22479    0.007
 6012.00    1.39690   1.22459    0.007
 6013.00    1.38196   1.22142    0.007
 6014.00    1.31716   1.22448    0.007
 6015.00    1.23914   1.23115    0.007
 6016.00    1.20011   1.23555    0.007
 6017.00    1.16955   1.24143    0.007
 6018.00    1.25932   1.25163    0.007
 6019.00    1.36981   1.25650    0.007
 6020.00    1.33434   1.25834    0.007
 6021.00    1.27982   1.26739    0.007
 6022.00    1.25862   1.27450    0.007
 6023.00    1.24047   1.27004    0.007
 6024.00    1.28023   1.26357    0.007
 6025.00    1.32322   1.26773    0.007
 6026.00    1.31020   1.27819    0.007
 6027.00    1.29681   1.28344    0.007
 6028.00    1.36941   1.28150    0.007
 6029.00    1.43892   1.27748    0.007
 6030.00    1.43673   1.27608    0.007
 6031.00    1.43516   1.27538    0.007
 6032.00    1.44156   1.27148    0.007
 6033.00    1.44308   1.26946    0.007
 6034.00    1.40256   1.27278    0.007
 6035.00    1.36272   1.27969    0.007
 6036.00    1.32728   1.29089    0.007
 6037.00    1.29127   1.30020    0.007
 6038.00    1.25237   1.30396    0.006
 6039.00    1.22609   1.30534    0.006
 6040.00    1.25088   1.30332    0.007
 6041.00    1.27395   1.29780    0.007
 6042.00    1.29130   1.29700    0.007
 6043.00    1.29814   1.30244    0.007
 6044.00    1.27522   1.30225    0.007
 6045.00    1.25842   1.29322    0.007
 6046.00    1.25642   1.28407    0.007
 6047.00    1.26560   1.27860    0.007
 6048.00    1.29815   1.27247    0.007
 6049.00    1.32120   1.26488    0.007
 6050.00    1.32698   1.26199    0.007
 6051.00    1.34969   1.26892    0.007
 6052.00    1.39930   1.28264    0.007
 6053.00    1.40576   1.29189    0.007
 6054.00    1.35202   1.28911    0.007
 6055.00    1.28792   1.27593    0.007
 6056.00    1.21110   1.25725    0.007
 6057.00    1.23221   1.23624    0.007
 6058.00    1.35925   1.22940    0.007
 6059.00    1.43403   1.25534    0.007
 6060.00    1.45895   1.29277    0.007
 6061.00    1.44996   1.31183    0.007
 6062.00    1.41245   1.31578    0.007
 6063.00    1.37607   1.31717    0.007
 6064.00    1.34052   1.31915    0.007
 6065.00    1.34227   1.31922    0.007
 6066.00    1.36830   1.31824    0.007
 6067.00    1.35067   1.31802    0.007
 6068.00    1.30816   1.31527    0.007
 6069.00    1.28960   1.30724    0.006
 6070.00    1.28291   1.29230    0.006
 6071.00    1.30926   1.27659    0.006
 6072.00    1.34978   1.27192    0.007
 6073.00    1.41487   1.26959    0.007
 6074.00    1.48898   1.25787    0.007
 6075.00    1.44320   1.25304    0.007
 6076.00    1.36010   1.26512    0.007
 6077.00    1.32282   1.27418    0.007
 6078.00    1.29742   1.27258    0.007
 6079.00    1.28031   1.27569    0.007
 6080.00    1.26494   1.28526    0.007
 6081.00    1.33309   1.28527    0.007
 6082.00    1.41520   1.26871    0.007
 6083.00    1.44345   1.25373    0.007
 6084.00    1.46490   1.25577    0.007
 6085.00    1.49288   1.26327    0.007
 6086.00    1.52143   1.27180    0.007
 6087.00    1.46642   1.28985    0.007
 6088.00    1.40709   1.30350    0.007
 6089.00    1.33791   1.29781    0.007
 6090.00    1.26949   1.28924    0.007
 6091.00    1.26987   1.29573    0.007
 6092.00    1.27119   1.30881    0.007
 6093.00    1.29259   1.30361    0.007
 6094.00    1.31325   1.26121    0.007
 6095.00    1.32485   1.21085    0.006
 6096.00    1.33475   1.21084    0.006
 6097.00    1.33050   1.25378    0.006
 6098.00    1.32313   1.28641    0.006
 6099.00    1.29633   1.29151    0.006
 6100.00    1.28157   1.28452    0.006
 6101.00    1.32544   1.28601    0.006
 6102.00    1.34899   1.29486    0.006
 6103.00    1.29203   1.29111    0.007
 6104.00    1.23569   1.28213    0.007
 6105.00    1.18138   1.29107    0.007
 6106.00    1.15226   1.31136    0.007
 6107.00    1.19324   1.32020    0.007
 6108.00    1.23423   1.30919    0.007
 6109.00    1.27527   1.29586    0.007
 6110.00    1.32378   1.29735    0.007
 6111.00    1.38766   1.29572    0.007
 6112.00    1.42754   1.27205    0.007
 6113.00    1.42446   1.23668    0.007
 6114.00    1.42748   1.20680    0.007
 6115.00    1.44004   1.21045    0.007
 6116.00    1.43465   1.25406    0.007
 6117.00    1.40458   1.28955    0.007
 6118.00    1.38794   1.29008    0.007
 6119.00    1.38754   1.27632    0.007
 6120.00    1.36687   1.26500    0.007
 6121.00    1.32457   1.26470    0.007
 6122.00    1.28868   1.28265    0.006
 6123.00    1.25882   1.30645    0.007
 6124.00    1.26377   1.31676    0.006
 6125.00    1.29758   1.31354    0.006
 6126.00    1.31555   1.29945    0.006
 6127.00    1.32195   1.26620    0.006
 6128.00    1.32731   1.21421    0.006
 6129.00    1.33199   1.16483    0.007
 6130.00    1.36161   1.16267    0.007
 6131.00    1.40521   1.22165    0.006
 6132.00    1.45201   1.28271    0.007
 6133.00    1.50037   1.29056    0.007
 6134.00    1.45938   1.26735    0.007
 6135.00    1.38072   1.26856    0.007
 6136.00    1.37702   1.29919    0.007
 6137.00    1.40037   1.32366    0.007
 6138.00    1.40608   1.32639    0.007
 6139.00    1.40639   1.31764    0.007
 6140.00    1.32920   1.30010    0.007
 6141.00    1.23233   1.26908    0.007
 6142.00    1.18327   1.23845    0.007
 6143.00    1.14409   1.23310    0.007
 6144.00    1.24072   1.25332    0.007
 6145.00    1.35942   1.27535    0.007
 6146.00    1.41417   1.27587    0.007
 6147.00    1.46115   1.25880    0.007
 6148.00    1.36635   1.25011    0.007
 6149.00    1.25970   1.24872    0.006
 6150.00    1.30097   1.23761    0.006
 6151.00    1.34932   1.21631    0.006
 6152.00    1.36068   1.18539    0.006
 6153.00    1.37257   1.13554    0.006
 6154.00    1.44683   1.08173    0.006
 6155.00    1.51925   1.06386    0.006
 6156.00    1.55547   1.09036    0.007
 6157.00    1.57938   1.12836    0.007
 6158.00    1.46118   1.15170    0.007
 6159.00    1.34962   1.16521    0.007
 6160.00    1.29116   1.16869    0.007
 6161.00    1.25002   1.14446    0.007
 6162.00    1.31313   1.11685    0.007
 6163.00    1.36117   1.12999    0.007
 6164.00    1.33749   1.16803    0.007
 6165.00    1.31745   1.18424    0.007
 6166.00    1.31151   1.17799    0.007
 6167.00    1.30339   1.17317    0.007
 6168.00    1.28822   1.17359    0.007
 6169.00    1.28003   1.17576    0.007
 6170.00    1.29090   1.18577    0.007
 6171.00    1.28581   1.19901    0.007
 6172.00    1.24334   1.20189    0.007
 6173.00    1.19598   1.20241    0.007
 6174.00    1.13870   1.20961    0.007
 6175.00    1.10819   1.21255    0.006
 6176.00    1.12487   1.20819    0.006
 6177.00    1.13637   1.20038    0.006
 6178.00    1.13988   1.18245    0.006
 6179.00    1.13491   1.15819    0.006
 6180.00    1.11843   1.14495    0.006
 6181.00    1.12361   1.14349    0.006
 6182.00    1.15461   1.13479    0.006
 6183.00    1.19391   1.10788    0.006
 6184.00    1.24193   1.09206    0.006
 6185.00    1.24128   1.11452    0.006
 6186.00    1.19551   1.14824    0.006
 6187.00    1.14752   1.16721    0.007
 6188.00    1.09772   1.17765    0.007
 6189.00    1.09500   1.18646    0.007
 6190.00    1.12616   1.18606    0.007
 6191.00    1.16765   1.16813    0.007
 6192.00    1.21569   1.14738    0.007
 6193.00    1.22882   1.14965    0.007
 6194.00    1.22267   1.17250    0.007
 6195.00    1.26556   1.19250    0.007
 6196.00    1.33198   1.19742   -2.000
 6197.00    1.30026   1.19400   -2.000
 6198.00    1.22785   1.19446   -2.000
 6199.00    0.95964   1.19966   -2.000
 6200.00    0.62202   1.20341   -2.000
 6201.00    0.42761   1.20255   -2.000
 6202.00    0.27605   1.19457   -2.000
 6203.00    0.35695   1.18208   -2.000
 6204.00    0.49559   1.17004   -2.000
 6205.00    0.69409   1.14901   -2.000
 6206.00    0.90465   1.11947   -2.000
 6207.00    0.97201   1.09889   -2.000
 6208.00    1.01679   1.09537    0.007
 6209.00    1.08915   1.11010    0.007
 6210.00    1.16475   1.12871    0.006
 6211.00    1.18977   1.12924    0.006
 6212.00    1.21077   1.11977    0.006
 6213.00    1.22719   1.11911    0.006
 6214.00    1.24340   1.12576    0.006
 6215.00    1.27544   1.12726    0.006
 6216.00    1.30702   1.12006    0.006
 6217.00    1.30903   1.11746    0.006
 6218.00    1.30823   1.12507    0.006
 6219.00    1.25615   1.13253    0.007
 6220.00    1.20755   1.13410    0.007
 6221.00    1.19742   1.12225    0.007
 6222.00    1.18674   1.09133    0.007
 6223.00    1.17186   1.06682    0.007
 6224.00    1.14106   1.07374    0.007
 6225.00    1.01716   1.09825    0.007
 6226.00    0.85467   1.12773    0.007
 6227.00    0.51316   1.15512    0.007
 6228.00    0.27382   1.16610    0.006
 6229.00    0.42179   1.15909    0.007
 6230.00    0.60100   1.14203    0.007
 6231.00    0.87907   1.11966    0.007
 6232.00    1.09119   1.10055    0.007
 6233.00    1.12627   1.10220    0.006
 6234.00    1.15293   1.11023    0.006
 6235.00    1.16020   1.09830    0.006
 6236.00    1.18074   1.08918    0.006
 6237.00    1.22775   1.09843    0.006
 6238.00    1.25185   1.10843    0.006
 6239.00    1.23621   1.12362    0.006
 6240.00    1.22879   1.14741    0.006
 6241.00    1.23385   1.16194    0.006
 6242.00    1.24265   1.16283    0.006
 6243.00    1.25642   1.15237    0.006
 6244.00    1.24045   1.12879    0.006
 6245.00    1.18950   1.11061    0.006
 6246.00    1.17544   1.11212    0.006
 6247.00    1.19964   1.12069    0.006
 6248.00    1.21943   1.11767    0.007
 6249.00    1.23519   1.09794    0.007
 6250.00    1.23747   1.07411    0.007
 6251.00    1.22886   1.07320    0.007
 6252.00    1.24043   1.10327    0.006
 6253.00    1.26631   1.13098    0.006
 6254.00    1.26313   1.14989    0.006
 6255.00    1.24188   1.17300    0.007
 6256.00    1.24388   1.18216    0.007
 6257.00    1.25852   1.16619    0.006
 6258.00    1.26951   1.15427    0.007
 6259.00    1.27878   1.16123    0.007
 6260.00    1.21393   1.16461    0.007
 6261.00    1.11888   1.15589    0.007
 6262.00    1.06303   1.15370    0.008
 6263.00    1.02084   1.16342    0.008
 6264.00    1.03915   1.17547    0.008
 6265.00    1.07521   1.18138    0.008
 6266.00    1.16911   1.17712    0.007
 6267.00    1.27705   1.17155    0.007
 6268.00    1.32286   1.17163    0.007
 6269.00    1.35648   1.17430    0.006
 6270.00    1.30695   1.17792    0.006
 6271.00    1.24470   1.17610    0.006
 6272.00    1.25675   1.16141    0.006
 6273.00    1.27719   1.15036    0.007
 6274.00    1.32292   1.15752    0.007
 6275.00    1.37056   1.17473    0.007
 6276.00    1.38329   1.18989    0.007
 6277.00    1.39463   1.19222    0.007
 6278.00    1.37609   1.19347    0.007
 6279.00    1.35748   1.20671    0.006
 6280.00    1.34462   1.22218    0.000
 6281.00    1.33465   1.23029    0.000
 6282.00    1.37415   1.22563    0.000
 6283.00    1.41286   1.21230    0.000
 6284.00    1.44327   1.19914    0.000
 6285.00    1.46315   1.19083    0.000
 6286.00    1.40440   1.19364    0.000
 6287.00    1.34964   1.19478    0.000
 6288.00    1.31764   1.17618    0.000
 6289.00    1.29724   1.15689    0.000
 6290.00    1.32942   1.16163    0.000
 6291.00    1.35875   1.18219    0.000
 6292.00    1.37753   1.19301    0.000
 6293.00    1.39880   1.18320    0.000
 6294.00    1.42779   1.17151    0.000
 6295.00    1.45228   1.17857    0.000
 6296.00    1.46486   1.19324    0.000
 6297.00    1.47166   1.19572    0.000
 6298.00    1.46536   1.19542    0.000
 6299.00    1.44163   1.21481    0.000
 6300.00    1.38370   1.23939    0.000
 6301.00    1.36855   1.24541    0.000
 6302.00    1.42654   1.23422    0.000
 6303.00    1.47047   1.21660    0.000
 6304.00    1.49334   1.20714    0.000
 6305.00    1.48059   1.21229    0.000
 6306.00    1.42096   1.21326    0.000
 6307.00    1.39314   1.20164    0.000
 6308.00    1.40220   1.20077    0.000
 6309.00    1.42826   1.20459    0.000
 6310.00    1.47168   1.19049    0.000
 6311.00    1.47791   1.18585    0.000
 6312.00    1.45060   1.20546    0.000
 6313.00    1.40214   1.22016    0.000
 6314.00    1.33686   1.21929    0.000
 6315.00    1.34054   1.22199    0.000
 6316.00    1.39242   1.23408    0.000
 6317.00    1.39159   1.23943    0.000
 6318.00    1.35846   1.24022    0.000
 6319.00    1.33782   1.24111    0.000
 6320.00    1.32387   1.24565    0.000
 6321.00    1.30868   1.25254    0.006
 6322.00    1.29290   1.24647    0.006
 6323.00    1.29855   1.24350    0.006
 6324.00    1.31279   1.25803    0.006
 6325.00    1.32884   1.27199    0.006
 6326.00    1.34551   1.26383    0.006
 6327.00    1.36717   1.22624    0.006
 6328.00    1.39027   1.19413    0.006
 6329.00    1.39998   1.20196    0.006
 6330.00    1.40651   1.22883    0.006
 6331.00    1.38965   1.24419    0.006
 6332.00    1.36832   1.25647    0.006
 6333.00    1.35727   1.26960    0.006
 6334.00    1.34774   1.26561    0.006
 6335.00    1.39844   1.24234    0.006
 6336.00    1.45568   1.21431    0.006
 6337.00    1.49146   1.20478    0.006
 6338.00    1.52572   1.21245    0.006
 6339.00    1.46070   1.22801    0.006
 6340.00    1.39206   1.24389    0.006
 6341.00    1.33952   1.26085    0.006
 6342.00    1.28838   1.26942    0.006
 6343.00    1.28467   1.26864    0.006
 6344.00    1.28202   1.26413    0.006
 6345.00    1.29640   1.25377    0.006
 6346.00    1.30579   1.23354    0.006
 6347.00    1.26493   1.21536    0.006
 6348.00    1.22390   1.21790    0.006
 6349.00    1.18162   1.22117    0.006
 6350.00    1.16281   1.19962    0.006
 6351.00    1.27383   1.17562    0.006
 6352.00    1.38232   1.17289    0.006
 6353.00    1.47964   1.17586    0.006
 6354.00    1.55170   1.17076    0.007
 6355.00    1.53195   1.17086    0.006
 6356.00    1.51027   1.18375    0.006
 6357.00    1.48272   1.20196    0.006
 6358.00    1.43910   1.21853    0.006
 6359.00    1.35387   1.23719    0.006
 6360.00    1.28147   1.25859    0.006
 6361.00    1.23766   1.26824    0.006
 6362.00    1.22832   1.25884    0.006
 6363.00    1.28555   1.25396    0.006
 6364.00    1.33212   1.26721    0.006
 6365.00    1.36075   1.28685    0.006
 6366.00    1.36251   1.29295    0.006
 6367.00    1.32464   1.28728    0.006
 6368.00    1.31497   1.28675    0.006
 6369.00    1.34186   1.28611    0.006
 6370.00    1.39657   1.26861    0.006
 6371.00    1.48307   1.24648    0.006
 6372.00    1.53266   1.24217    0.006
 6373.00    1.54504   1.24832    0.006
 6374.00    1.53163   1.25968    0.006
 6375.00    1.49529   1.26776    0.006
 6376.00    1.49069   1.26125    0.006
 6377.00    1.51097   1.25282    0.007
 6378.00    1.51344   1.25883    0.006
 6379.00    1.50364   1.26784    0.006
 6380.00    1.48698   1.26741    0.006
 6381.00    1.46619   1.26685    0.006
 6382.00    1.50558   1.27193    0.006
 6383.00    1.57669   1.27303    0.006
 6384.00    1.55580   1.25305    0.006
 6385.00    1.49283   1.21618    0.006
 6386.00    1.42406   1.20715    0.006
 6387.00    1.35300   1.24099    0.006
 6388.00    1.36968   1.27829    0.006
 6389.00    1.41577   1.29722    0.006
 6390.00    1.49692   1.29492    0.006
 6391.00    1.58795   1.25954    0.006
 6392.00    1.59566   1.21226    0.006
 6393.00    1.58405   1.21881    0.006
 6394.00    1.57581   1.27041    0.006
 6395.00    1.56821   1.30438    0.006
 6396.00    1.56958   1.31469    0.007
 6397.00    1.57225   1.31212    0.007
 6398.00    1.56689   1.30055    0.007
 6399.00    1.56070   1.28136    0.006
 6400.00    1.55278   1.26685    0.006
 6401.00    1.54475   1.28085    0.007
 6402.00    1.51668   1.29703    0.007
 6403.00    1.48797   1.27916    0.007
 6404.00    1.47538   1.25711    0.007
 6405.00    1.46207   1.25680    0.007
 6406.00    1.42568   1.26540    0.006
 6407.00    1.39155   1.27772    0.006
 6408.00    1.39125   1.29166    0.006
 6409.00    1.39235   1.29545    0.006
 6410.00    1.40688   1.28508    0.006
 6411.00    1.41197   1.26421    0.006
 6412.00    1.35113   1.23502    0.006
 6413.00    1.30770   1.21833    0.006
 6414.00    1.35798   1.24017    0.006
 6415.00    1.41221   1.28384    0.006
 6416.00    1.48349   1.30133    0.006
 6417.00    1.53861   1.29552    0.006
 6418.00    1.53621   1.29776    0.006
 6419.00    1.52847   1.30973    0.006
 6420.00    1.50476   1.31319    0.006
 6421.00    1.47738   1.29528    0.006
 6422.00    1.44067   1.25401    0.006
 6423.00    1.40342   1.22269    0.006
 6424.00    1.36498   1.23865    0.006
 6425.00    1.35324   1.27490    0.006
 6426.00    1.39222   1.29547    0.006
 6427.00    1.41698   1.30162    0.006
 6428.00    1.41814   1.30721    0.006
 6429.00    1.42901   1.30503    0.007
 6430.00    1.45398   1.27472    0.007
 6431.00    1.49135   1.24489    0.007
 6432.00    1.54458   1.26552    0.006
 6433.00    1.58563   1.31210    0.006
 6434.00    1.61298   1.33667    0.006
 6435.00    1.64281   1.34223    0.006
 6436.00    1.67509   1.34144    0.006
 6437.00    1.67717   1.34110    0.006
 6438.00    1.65277   1.34308    0.006
 6439.00    1.60902   1.33642    0.006
 6440.00    1.55033   1.30153    0.006
 6441.00    1.51059   1.23588    0.006
 6442.00    1.48372   1.18832    0.006
 6443.00    1.45087   1.20972    0.006
 6444.00    1.41446   1.26260    0.006
 6445.00    1.42636   1.30291    0.006
 6446.00    1.46332   1.31654    0.006
 6447.00    1.49758   1.29811    0.006
 6448.00    1.53063   1.28190    0.007
 6449.00    1.51976   1.29943    0.007
 6450.00    1.49191   1.33029    0.007
 6451.00    1.47199   1.35006    0.007
 6452.00    1.45468   1.35104    0.007
 6453.00    1.39896   1.32364    0.006
 6454.00    1.33264   1.26517    0.006
 6455.00    1.34776   1.23383    0.006
 6456.00    1.38135   1.26695    0.006
 6457.00    1.41707   1.30896    0.006
 6458.00    1.45317   1.32786    0.006
 6459.00    1.45752   1.33755    0.006
 6460.00    1.45745   1.34214    0.006
 6461.00    1.45332   1.33535    0.006
 6462.00    1.44878   1.32249    0.006
 6463.00    1.50400   1.30995    0.006
 6464.00    1.56300   1.30747    0.006
 6465.00    1.47964   1.31331    0.006
 6466.00    1.39231   1.29875    0.006
 6467.00    1.34399   1.27710    0.006
 6468.00    1.29937   1.28565    0.006
 6469.00    1.35761   1.31232    0.006
 6470.00    1.41067   1.32089    0.006
 6471.00    1.39030   1.31408    0.006
 6472.00    1.37282   1.30221    0.006
 6473.00    1.38201   1.27095    0.006
 6474.00    1.39761   1.23351    0.006
 6475.00    1.45650   1.22420    0.006
 6476.00    1.50753   1.24545    0.006
 6477.00    1.51728   1.26773    0.006
 6478.00    1.51809   1.28162    0.006
 6479.00    1.48119   1.29112    0.006
 6480.00    1.44106   1.29565    0.006
 6481.00    1.38968   1.28932    0.006
 6482.00    1.35608   1.27188    0.006
 6483.00    1.37461   1.26099    0.006
 6484.00    1.40381   1.25693    0.006
 6485.00    1.45966   1.22624    0.006
 6486.00    1.51789   1.16278    0.006
 6487.00    1.58119   1.11916    0.006
 6488.00    1.62047   1.12019    0.006
 6489.00    1.61477   1.14331    0.006
 6490.00    1.60391   1.17135    0.006
 6491.00    1.58461   1.18695    0.006
 6492.00    1.54434   1.20831    0.006
 6493.00    1.47402   1.23915    0.006
 6494.00    1.40759   1.26048    0.006
 6495.00    1.34609   1.27236    0.006
 6496.00    1.31362   1.27807    0.006
 6497.00    1.31340   1.28566    0.006
 6498.00    1.31692   1.29536    0.006
 6499.00    1.32410   1.29015    0.006
 6500.00    1.33901   1.27058    0.006
 6501.00    1.36060   1.26282    0.006
 6502.00    1.41117   1.27835    0.006
 6503.00    1.48379   1.29598    0.006
 6504.00    1.50179   1.29765    0.006
 6505.00    1.48325   1.29394    0.006
 6506.00    1.49709   1.28997    0.006
 6507.00    1.52991   1.27826    0.006
 6508.00    1.54285   1.26686    0.006
 6509.00    1.54564   1.26223    0.006
 6510.00    1.51689   1.25563    0.006
 6511.00    1.47419   1.25890    0.006
 6512.00    1.42734   1.28041    0.006
 6513.00    1.37892   1.29930    0.006
 6514.00    1.32443   1.30488    0.006
 6515.00    1.26799   1.30291    0.006
 6516.00    1.28284   1.30511    0.006
 6517.00    1.31694   1.30760    0.006
 6518.00    1.34440   1.29752    0.006
 6519.00    1.37039   1.28445    0.006
 6520.00    1.38536   1.29038    0.006
 6521.00    1.39838   1.30845    0.006
 6522.00    1.41301   1.31641    0.006
 6523.00    1.42786   1.30712    0.006
 6524.00    1.42592   1.29022    0.006
 6525.00    1.42239   1.28528    0.006
 6526.00    1.47727   1.30078    0.006
 6527.00    1.53561   1.32315    0.006
 6528.00    1.52514   1.33149    0.000
 6529.00    1.51286   1.32127    0.000
 6530.00    1.48754   1.31524    0.000
 6531.00    1.46339   1.32956    0.000
 6532.00    1.46891   1.34493    0.000
 6533.00    1.47442   1.33971    0.000
 6534.00    1.47989   1.31954    0.000
 6535.00    1.48316   1.29602    0.000
 6536.00    1.46688   1.27947    0.000
 6537.00    1.45327   1.26321    0.000
 6538.00    1.45712   1.24327    0.000
 6539.00    1.46247   1.24553    0.000
 6540.00    1.47544   1.26802    0.000
 6541.00    1.48328   1.27709    0.000
 6542.00    1.46995   1.26623    0.000
 6543.00    1.47130   1.24998    0.000
 6544.00    1.52281   1.24297    0.000
 6545.00    1.55731   1.23979    0.000
 6546.00    1.54286   1.22266    0.000
 6547.00    1.53825   1.20113    0.000
 6548.00    1.55783   1.19378    0.000
 6549.00    1.59385   1.20113    0.000
 6550.00    1.66472   1.20658    0.000
 6551.00    1.70342   1.20032    0.000
 6552.00    1.68285   1.17413    0.000
 6553.00    1.63950   1.08630    0.000
 6554.00    1.55948   0.93256    0.000
 6555.00    1.49012   0.84959    0.000
 6556.00    1.43583   0.94821    0.000
 6557.00    1.40015   1.10350    0.000
 6558.00    1.38759   1.18672    0.000
 6559.00    1.42589   1.22164    0.000
 6560.00    1.51990   1.23308    0.000
 6561.00    1.69136   1.22612    0.000
 6562.00    1.93766   1.22806    0.000
 6563.00    2.22931   1.23793    0.000
 6564.00    2.55958   1.22776    0.000
 6565.00    2.76335   1.20626    0.000
 6566.00    2.87221   1.19933    0.000
 6567.00    2.73171   1.21222    0.000
 6568.00    2.42685   1.23774    0.000
 6569.00    2.09852   1.25802    0.000
 6570.00    1.75665   1.26447    0.000
 6571.00    1.53708   1.25985    0.000
 6572.00    1.37901   1.25085    0.000
 6573.00    1.33968   1.24004    0.000
 6574.00    1.35201   1.24567    0.000
 6575.00    1.37638   1.26792    0.000
 6576.00    1.40525   1.28019    0.000
 6577.00    1.45063   1.28493    0.000
 6578.00    1.50123   1.28231    0.000
 6579.00    1.53547   1.29193    0.000
 6580.00    1.56538   1.31003    0.000
 6581.00    1.62148   1.31607    0.000
 6582.00    1.68325   1.31110    0.000
 6583.00    1.81550   1.28925    0.000
 6584.00    1.95983   1.24280    0.000
 6585.00    2.06679   1.20187    0.000
 6586.00    2.16890   1.20816    0.000
 6587.00    2.13206   1.24890    0.000
 6588.00    2.08254   1.27661    0.000
 6589.00    1.94584   1.27603    0.000
 6590.00    1.80432   1.26170    0.000
 6591.00    1.70595   1.25773    0.000
 6592.00    1.60870   1.27784    0.000
 6593.00    1.53035   1.30164    0.000
 6594.00    1.45590   1.30796    0.000
 6595.00    1.47072   1.30100    0.000
 6596.00    1.48413   1.28665    0.000
 6597.00    1.47980   1.27059    0.000
 6598.00    1.46962   1.26072    0.000
 6599.00    1.40933   1.25430    0.000
 6600.00    1.35949   1.24054    0.000
 6601.00    1.37611   1.22797    0.000
 6602.00    1.39596   1.24471    0.000
 6603.00    1.43195   1.28107    0.000
 6604.00    1.45287   1.29626    0.000
 6605.00    1.41297   1.28572    0.000
 6606.00    1.39239   1.27936    0.000
 6607.00    1.43656   1.29404    0.000
 6608.00    1.47290   1.30490    0.000
 6609.00    1.48710   1.29957    0.006
 6610.00    1.48472   1.29185    0.006
 6611.00    1.44227   1.29229    0.006
 6612.00    1.40171   1.29848    0.006
 6613.00    1.36507   1.30106    0.006
 6614.00    1.35626   1.29286    0.006
 6615.00    1.39793   1.27225    0.006
 6616.00    1.42590   1.24588    0.006
 6617.00    1.43217   1.23256    0.006
 6618.00    1.44052   1.24480    0.006
 6619.00    1.45176   1.26142    0.006
 6620.00    1.45436   1.26633    0.006
 6621.00    1.44637   1.26411    0.006
 6622.00    1.45365   1.26098    0.006
 6623.00    1.47741   1.25989    0.006
 6624.00    1.49891   1.25335    0.006
 6625.00    1.51826   1.23789    0.006
 6626.00    1.52496   1.23012    0.006
 6627.00    1.52102   1.24062    0.006
 6628.00    1.51498   1.25714    0.006
 6629.00    1.50738   1.26777    0.006
 6630.00    1.48469   1.26920    0.006
 6631.00    1.45219   1.26338    0.006
 6632.00    1.41878   1.26192    0.006
 6633.00    1.38486   1.27072    0.006
 6634.00    1.38076   1.26846    0.006
 6635.00    1.39140   1.24721    0.006
 6636.00    1.42183   1.23916    0.006
 6637.00    1.46072   1.25658    0.006
 6638.00    1.44834   1.26994    0.006
 6639.00    1.41716   1.26659    0.006
 6640.00    1.42966   1.26198    0.006
 6641.00    1.45573   1.26140    0.006
 6642.00    1.42796   1.25112    0.006
 6643.00    1.38626   1.23065    0.006
 6644.00    1.40638   1.21790    0.006
 6645.00    1.43954   1.22138    0.006
 6646.00    1.48694   1.23028    0.006
 6647.00    1.53671   1.23525    0.006
 6648.00    1.51184   1.23397    0.006
 6649.00    1.47760   1.23189    0.006
 6650.00    1.50139   1.23394    0.006
 6651.00    1.53024   1.23500    0.006
 6652.00    1.52167   1.23182    0.006
 6653.00    1.51118   1.22658    0.006
 6654.00    1.46224   1.21486    0.006
 6655.00    1.41315   1.19927    0.006
 6656.00    1.40162   1.20203    0.006
 6657.00    1.39141   1.21823    0.006
 6658.00    1.40915   1.22198    0.006
 6659.00    1.42322   1.21928    0.006
 6660.00    1.39313   1.22698    0.006
 6661.00    1.37183   1.24424    0.006
 6662.00    1.42306   1.25968    0.006
 6663.00    1.46971   1.26618    0.006
 6664.00    1.48811   1.26578    0.006
 6665.00    1.50431   1.26286    0.006
 6666.00    1.50982   1.26065    0.006
 6667.00    1.50426   1.25629    0.006
 6668.00    1.45496   1.23062    0.006
 6669.00    1.41259   1.17841    0.006
 6670.00    1.39301   1.14551    0.006
 6671.00    1.39448   1.16266    0.006
 6672.00    1.45439   1.19467    0.006
 6673.00    1.51175   1.19891    0.006
 6674.00    1.56306   1.19415    0.006
 6675.00    1.59104   1.20340    0.007
 6676.00    1.57112   1.21476    0.019
 6677.00    1.54507   1.21860   -1.000
 6678.00    1.50804   1.21652   -1.000
 6679.00    1.49205   1.21262   -1.000
 6680.00    1.50895   1.21149   -1.000
 6681.00    1.52573   1.21691   -1.000
 6682.00    1.54236   1.22287   -1.000
 6683.00    1.52708   1.22451   -1.000
 6684.00    1.47329   1.22361   -1.000
 6685.00    1.45059   1.22288   -1.000
 6686.00    1.46100   1.21960   -1.000
 6687.00    1.49470   1.20810    0.024
 6688.00    1.55026   1.19525    0.008
 6689.00    1.56802   1.19552    0.006
 6690.00    1.55449   1.20642    0.006
 6691.00    1.52729   1.22082    0.006
 6692.00    1.49011   1.23522    0.006
 6693.00    1.42628   1.24101    0.006
 6694.00    1.34540   1.23605    0.006
 6695.00    1.34086   1.22493    0.006
 6696.00    1.37906   1.21649    0.000
 6697.00    1.41435   1.21896    0.000
 6698.00    1.44823   1.22680    0.000
 6699.00    1.46079   1.23115    0.000
 6700.00    1.46438   1.23277    0.000
 6701.00    1.44223   1.23119    0.000
 6702.00    1.41081   1.22510    0.000
 6703.00    1.39984   1.22281    0.000
 6704.00    1.39510   1.22156    0.000
 6705.00    1.37135   1.20929    0.000
 6706.00    1.34277   1.18779    0.000
 6707.00    1.38627   1.16536    0.000
 6708.00    1.44460   1.14617    0.000
 6709.00    1.46622   1.13371    0.000
 6710.00    1.48191   1.13969    0.000
 6711.00    1.44100   1.16223    0.000
 6712.00    1.39325   1.17676    0.000
 6713.00    1.48609   1.17752    0.000
 6714.00    1.59060   1.17785    0.000
 6715.00    1.63648   1.18628    0.000
 6716.00    1.67959   1.19226    0.000
 6717.00    1.68254   1.18749    0.000
 6718.00    1.68572   1.18266    0.000
 6719.00    1.73426   1.18735    0.000
 6720.00    1.77817   1.19626    0.000
 6721.00    1.73179   1.20212    0.000
 6722.00    1.68327   1.20587    0.000
 6723.00    1.61014   1.20735    0.000
 6724.00    1.54552   1.20521    0.000
 6725.00    1.54871   1.20181    0.000
 6726.00    1.54086   1.20206    0.000
 6727.00    1.46673   1.20650    0.000
 6728.00    1.40190   1.20987    0.000
 6729.00    1.38109   1.20461    0.000
 6730.00    1.38845   1.19302    0.000
 6731.00    1.50467   1.18704    0.000
 6732.00    1.60648   1.19336    0.000
 6733.00    1.66189   1.20105    0.000
 6734.00    1.68696   1.19503    0.000
 6735.00    1.62929   1.18783    0.000
 6736.00    1.56032   1.19507    0.000
 6737.00    1.46494   1.20262    0.000
 6738.00    1.40442   1.19650    0.000
 6739.00    1.41434   1.18315    0.000
 6740.00    1.41098   1.17211    0.000
 6741.00    1.38424   1.16795    0.000
 6742.00    1.35588   1.17139    0.000
 6743.00    1.32502   1.17667    0.000
 6744.00    1.32794   1.17210    0.000
 6745.00    1.37654   1.16729    0.000
 6746.00    1.40220   1.17821    0.000
 6747.00    1.40055   1.19346    0.000
 6748.00    1.36963   1.20597    0.000
 6749.00    1.30798   1.21773    0.000
 6750.00    1.24432   1.22460    0.000
 6751.00    1.17880   1.22654    0.000
 6752.00    1.16180   1.22721    0.000
 6753.00    1.18441   1.22483    0.007
 6754.00    1.21570   1.22164    0.007
 6755.00    1.25321   1.22419    0.007
 6756.00    1.23368   1.22775    0.007
 6757.00    1.17818   1.22208    0.007
 6758.00    1.21235   1.20733    0.007
 6759.00    1.29594   1.19835    0.007
 6760.00    1.35585   1.20549    0.007
 6761.00    1.40440   1.21563    0.007
 6762.00    1.48066   1.21418    0.007
 6763.00    1.56837   1.21072    0.007
 6764.00    1.69056   1.21940    0.008
 6765.00    1.82492   1.23459    0.008
 6766.00    1.82203   1.24596    0.007
 6767.00    1.77815   1.25345    0.007
 6768.00    1.71408   1.25696    0.007
 6769.00    1.64500   1.25592    0.007
 6770.00    1.58266   1.25486    0.007
 6771.00    1.52166   1.25464    0.007
 6772.00    1.57702   1.24714    0.007
 6773.00    1.65066   1.22567    0.007
 6774.00    1.56779   1.19497    0.007
 6775.00    1.46668   1.16870    0.007
 6776.00    1.40310   1.15700    0.007
 6777.00    1.34249   1.16016    0.007
 6778.00    1.35113   1.17373    0.007
 6779.00    1.36278   1.19170    0.007
 6780.00    1.42162   1.20355    0.007
 6781.00    1.47947   1.20310    0.007
 6782.00    1.46798   1.20019    0.007
 6783.00    1.46105   1.20317    0.007
 6784.00    1.53648   1.20329    0.007
 6785.00    1.60555   1.19630    0.007
 6786.00    1.60509   1.19370    0.007
 6787.00    1.60012   1.19961    0.007
 6788.00    1.56046   1.20789    0.007
 6789.00    1.53155   1.21515    0.007
 6790.00    1.56533   1.21850    0.007
 6791.00    1.58002   1.22123    0.007
 6792.00    1.50641   1.22794    0.007
 6793.00    1.45683   1.23399    0.008
 6794.00    1.49809   1.23564    0.018
 6795.00    1.51628   1.23188   -1.000
 6796.00    1.46165   1.22814   -1.000
 6797.00    1.47064   1.22866   -1.000
 6798.00    1.65000   1.22676   -1.000
 6799.00    1.75974   1.22621   -1.000
 6800.00    1.70952   1.23130   -1.000
 6801.00    1.65333   1.23269   -1.000
 6802.00    1.58526   1.23140   -1.000
 6803.00    1.55010   1.23501   -1.000
 6804.00    1.57195   1.23769   -1.000
 6805.00    1.55267   1.23264    0.033
 6806.00    1.47102   1.21962    0.009
 6807.00    1.38730   1.21070    0.007
 6808.00    1.30083   1.21986    0.007
 6809.00    1.30952   1.23569    0.007
 6810.00    1.42988   1.23941    0.007
 6811.00    1.53230   1.23183    0.007
 6812.00    1.61615   1.22650    0.007
 6813.00    1.67123   1.23290    0.007
 6814.00    1.70006   1.24500    0.007
 6815.00    1.68124   1.25202    0.007
 6816.00    1.62408   1.25406    0.007
 6817.00    1.53506   1.25540    0.007
 6818.00    1.42349   1.25188    0.007
 6819.00    1.36735   1.23880    0.007
 6820.00    1.34563   1.22688    0.007
 6821.00    1.36444   1.22992    0.007
 6822.00    1.40523   1.24241    0.007
 6823.00    1.44796   1.24829    0.007
 6824.00    1.49159   1.24380    0.007
 6825.00    1.47822   1.24446    0.007
 6826.00    1.44166   1.25741    0.007
 6827.00    1.44230   1.26797    0.007
 6828.00    1.45585   1.26737    0.007
 6829.00    1.43612   1.26058    0.007
 6830.00    1.40664   1.25002    0.007
 6831.00    1.36217   1.23546    0.007
 6832.00    1.31407   1.22008    0.007
 6833.00    1.33475   1.20999    0.007
 6834.00    1.36889   1.21464    0.007
 6835.00    1.42607   1.23465    0.007
 6836.00    1.48676   1.25620    0.007
 6837.00    1.44621   1.26577    0.007
 6838.00    1.39429   1.26430    0.007
 6839.00    1.32048   1.26270    0.007
 6840.00    1.24503   1.26086    0.008
 6841.00    1.26141   1.25157    0.007
 6842.00    1.28144   1.24136    0.007
 6843.00    1.20951   1.23867    0.007
 6844.00    1.14223   1.23963    0.007
 6845.00    1.28527   1.23533    0.007
 6846.00    1.41852   1.22145    0.007
 6847.00    1.38628   1.21011    0.007
 6848.00    1.35404   1.21405    0.007
 6849.00    1.32172   1.22445    0.007
 6850.00    1.30045   1.23147    0.006
 6851.00    1.36124   1.23098    0.007
 6852.00    1.41696   1.21783    0.007
 6853.00    1.44396   1.20482    0.007
 6854.00    1.44967   1.21582    0.007
 6855.00    1.35925   1.24612    0.007
 6856.00    1.30938   1.26573    0.007
 6857.00    1.40961   1.26283    0.007
 6858.00    1.47132   1.24697    0.007
 6859.00    1.41369   1.22723    0.007
 6860.00    1.39010   1.21801    0.007
 6861.00    1.45605   1.22841    0.007
 6862.00    1.47572   1.23938    0.007
 6863.00    1.39081   1.23426    0.007
 6864.00    1.35144   1.22833    0.007
 6865.00    1.40123   1.23523    0.007
 6866.00    1.45099   1.24502    0.007
 6867.00    1.50070   1.25100    0.007
 6868.00    1.55879   1.25916    0.007
 6869.00    1.62939   1.27110    0.007
 6870.00    1.63480   1.27973    0.007
 6871.00    1.55457   1.27952    0.007
 6872.00    1.48224   1.27011    0.007
 6873.00    1.41905   1.25400    0.007
 6874.00    1.37346   1.23917    0.007
 6875.00    1.34583   1.23667    0.007
 6876.00    1.35800   1.24743    0.007
 6877.00    1.40600   1.25696    0.007
 6878.00    1.43028   1.26229    0.007
 6879.00    1.43576   1.27184    0.007
 6880.00    1.46785   1.28048    0.007
 6881.00    1.51850   1.28550    0.007
 6882.00    1.54373   1.29116    0.007
 6883.00    1.55341   1.29269    0.007
 6884.00    1.48501   1.28915    0.007
 6885.00    1.37489   1.28886    0.007
 6886.00    1.31590   1.29087    0.007
 6887.00    1.28062   1.28825    0.007
 6888.00    1.27695   1.28571    0.007
 6889.00    1.28591   1.29146    0.007
 6890.00    1.32766   1.29673    0.007
 6891.00    1.38059   1.28853    0.007
 6892.00    1.42944   1.27878    0.007
 6893.00    1.47711   1.28718    0.007
 6894.00    1.49867   1.30346    0.007
 6895.00    1.51405   1.30633    0.007
 6896.00    1.47765   1.29980    0.007
 6897.00    1.43138   1.30217    0.007
 6898.00    1.42957   1.31496    0.007
 6899.00    1.43434   1.32354    0.007
 6900.00    1.45168   1.32474    0.007
 6901.00    1.47037   1.32499    0.007
 6902.00    1.40838   1.32156    0.007
 6903.00    1.34068   1.31239    0.007
 6904.00    1.42093   1.30164    0.007
 6905.00    1.50650   1.29166    0.007
 6906.00    1.43786   1.29021    0.007
 6907.00    1.37154   1.29904    0.007
 6908.00    1.40346   1.30461    0.007
 6909.00    1.43320   1.30432    0.007
 6910.00    1.42835   1.30232    0.007
 6911.00    1.41899   1.30222    0.007
 6912.00    1.36441   1.30889    0.007
 6913.00    1.32881   1.31625    0.007
 6914.00    1.42969   1.31339    0.007
 6915.00    1.51377   1.29575    0.007
 6916.00    1.50525   1.27428    0.007
 6917.00    1.49214   1.26715    0.007
 6918.00    1.45882   1.27983    0.007
 6919.00    1.43115   1.30044    0.007
 6920.00    1.42397   1.31365    0.007
 6921.00    1.41837   1.31688    0.007
 6922.00    1.41758   1.31550    0.007
 6923.00    1.39982   1.31013    0.007
 6924.00    1.33821   1.29840    0.007
 6925.00    1.29999   1.29322    0.007
 6926.00    1.31375   1.30449    0.007
 6927.00    1.31557   1.31729    0.007
 6928.00    1.29435   1.31907    0.007
 6929.00    1.31090   1.31614    0.007
 6930.00    1.39096   1.31783    0.007
 6931.00    1.46568   1.32710    0.007
 6932.00    1.53256   1.33841    0.007
 6933.00    1.52817   1.33996    0.007
 6934.00    1.43149   1.33016    0.007
 6935.00    1.39479   1.31477    0.007
 6936.00    1.42652   1.29859    0.007
 6937.00    1.45207   1.29718    0.007
 6938.00    1.47140   1.31756    0.007
 6939.00    1.44776   1.33929    0.007
 6940.00    1.38599   1.34877    0.007
 6941.00    1.41114   1.34861    0.007
 6942.00    1.50427   1.33776    0.007
 6943.00    1.54465   1.32201    0.007
 6944.00    1.54877   1.31079    0.007
 6945.00    1.47666   1.30431    0.007
 6946.00    1.35860   1.30815    0.007
 6947.00    1.33718   1.32425    0.007
 6948.00    1.36661   1.33881    0.007
 6949.00    1.39650   1.34364    0.007
 6950.00    1.42660   1.34433    0.007
 6951.00    1.44376   1.34718    0.007
 6952.00    1.45584   1.35313    0.007
 6953.00    1.39695   1.35826    0.007
 6954.00    1.31432   1.36289    0.007
 6955.00    1.31677   1.36764    0.007
 6956.00    1.34311   1.36571    0.007
 6957.00    1.28693   1.35789    0.007
 6958.00    1.21165   1.35841    0.007
 6959.00    1.27720   1.37275    0.007
 6960.00    1.36890   1.38369    0.007
 6961.00    1.37566   1.37815    0.007
 6962.00    1.37026   1.36457    0.007
 6963.00    1.34011   1.35910    0.007
 6964.00    1.30739   1.36775    0.007
 6965.00    1.33650   1.37451    0.007
 6966.00    1.36973   1.36754    0.007
 6967.00    1.40312   1.35352    0.007
 6968.00    1.43650   1.33419    0.007
 6969.00    1.45184   1.30017    0.007
 6970.00    1.46602   1.27095    0.007
 6971.00    1.44475   1.28294    0.007
 6972.00    1.42621   1.32400    0.007
 6973.00    1.44834   1.35919    0.007
 6974.00    1.47188   1.37932    0.007
 6975.00    1.50890   1.38765    0.007
 6976.00    1.54768   1.39145    0.007
 6977.00    1.59867   1.39471    0.007
 6978.00    1.63372   1.39271    0.007
 6979.00    1.58316   1.38019    0.007
 6980.00    1.53811   1.35864    0.007
 6981.00    1.51680   1.34178    0.007
 6982.00    1.48913   1.34326    0.007
 6983.00    1.43891   1.36029    0.007
 6984.00    1.39702   1.37488    0.007
 6985.00    1.37993   1.37480    0.007
 6986.00    1.37650   1.36778    0.007
 6987.00    1.40776   1.36716    0.007
 6988.00    1.42769   1.37207    0.007
 6989.00    1.42284   1.37355    0.007
 6990.00    1.42177   1.36083    0.007
 6991.00    1.42787   1.34278    0.007
 6992.00    1.43202   1.34312    0.007
 6993.00    1.43293   1.36267    0.007
 6994.00    1.42688   1.37704    0.007
 6995.00    1.41070   1.36910    0.007
 6996.00    1.40896   1.35224    0.007
 6997.00    1.42565   1.34817    0.007
 6998.00    1.46287   1.35622    0.007
 6999.00    1.52321   1.36535    0.007
 7000.00    1.48588   1.37547    0.007
 7001.00    1.35166   1.38173    0.007
 7002.00    1.34908   1.37638    0.007
 7003.00    1.46167   1.37450    0.007
 7004.00    1.53713   1.38599    0.007
 7005.00    1.58397   1.39015    0.007
 7006.00    1.52696   1.36442    0.007
 7007.00    1.39958   1.32117    0.007
 7008.00    1.33816   1.30697    0.007
 7009.00    1.31590   1.34203    0.007
 7010.00    1.29640   1.38787    0.007
 7011.00    1.27833   1.41022    0.007
 7012.00    1.31851   1.41489    0.007
 7013.00    1.38483   1.40728    0.007
 7014.00    1.43856   1.38285    0.007
 7015.00    1.48744   1.35653    0.007
 7016.00    1.50512   1.35154    0.007
 7017.00    1.51256   1.36662    0.007
 7018.00    1.44618   1.37720    0.007
 7019.00    1.35949   1.37720    0.007
 7020.00    1.28849   1.38229    0.007
 7021.00    1.22103   1.39487    0.007
 7022.00    1.28090   1.40432    0.007
 7023.00    1.36378   1.40440    0.007
 7024.00    1.46869   1.39819    0.007
 7025.00    1.57666   1.39478    0.007
 7026.00    1.51480   1.39981    0.007
 7027.00    1.43609   1.40940    0.007
 7028.00    1.35462   1.40342    0.007
 7029.00    1.27298   1.36985    0.007
 7030.00    1.33329   1.34912    0.007
 7031.00    1.39729   1.37778    0.007
 7032.00    1.37115   1.42626    0.007
 7033.00    1.34538   1.45682    0.007
 7034.00    1.32952   1.46652    0.007
 7035.00    1.31971   1.45863    0.007
 7036.00    1.39493   1.44007    0.007
 7037.00    1.46633   1.43368    0.007
 7038.00    1.50250   1.44696    0.007
 7039.00    1.52811   1.46645    0.007
 7040.00    1.48253   1.47790    0.007
 7041.00    1.43936   1.47266    0.007
 7042.00    1.40875   1.45377    0.007
 7043.00    1.42551   1.41911    0.008
 7044.00    1.64171   1.36433    0.008
 7045.00    1.78247   1.29762    0.007
 7046.00    1.66080   1.24231    0.007
 7047.00    1.54556   1.23115    0.007
 7048.00    1.44917   1.25825    0.008
 7049.00    1.37385   1.28056    0.008
 7050.00    1.35112   1.27181   -2.000
 7051.00    1.36384   1.24373   -2.000
 7052.00    1.45281   1.22601   -2.000
 7053.00    1.48804   1.22805   -2.000
 7054.00    1.42293   1.23746   -2.000
 7055.00    1.39162   1.24869   -2.000
 7056.00    1.41542   1.25483   -2.000
 7057.00    1.50373   1.24709   -2.000
 7058.00    1.68432   1.23352   -2.000
 7059.00    1.73166   1.22225   -2.000
 7060.00    1.61132   1.22247   -2.000
 7061.00    1.54278   1.24426   -2.000
 7062.00    1.53168   1.27557   -2.000
 7063.00    1.52854   1.29484   -2.000
 7064.00    1.53320   1.30084   -2.000
 7065.00    1.53884   1.30195   -2.000
 7066.00    1.54533   1.30032   -2.000
 7067.00    1.46047   1.29838   -2.000
 7068.00    1.30620   1.29994   -2.000
 7069.00    1.27354   1.30532   -2.000
 7070.00    1.32207   1.31137   -2.000
 7071.00    1.39584   1.32026   -2.000
 7072.00    1.48437   1.32978   -2.000
 7073.00    1.43121   1.32588   -2.000
 7074.00    1.30583   1.30066   -2.000
 7075.00    1.31015   1.26289   -2.000
 7076.00    1.37174   1.23680   -2.000
 7077.00    1.47201   1.23563   -2.000
 7078.00    1.58695   1.22368   -2.000
 7079.00    1.66988   1.18253   -2.000
 7080.00    1.74251   1.15018   -2.000
 7081.00    1.73488   1.14702   -2.000
 7082.00    1.70564   1.16048   -2.000
 7083.00    1.62748   1.17737   -2.000
 7084.00    1.53852   1.17987   -2.000
 7085.00    1.58028   1.17388   -2.000
 7086.00    1.64502   1.16871   -2.000
 7087.00    1.64541   1.16723   -2.000
 7088.00    1.63719   1.17180   -2.000
 7089.00    1.65152   1.18117   -2.000
 7090.00    1.66799   1.19534   -2.000
 7091.00    1.52095   1.20529   -2.000
 7092.00    1.36431   1.20344   -2.000
 7093.00    1.37289   1.19240   -2.000
 7094.00    1.38646   1.18248   -2.000
 7095.00    1.52544   1.18783   -2.000
 7096.00    1.65571   1.20698   -2.000
 7097.00    1.56909   1.21960   -2.000
 7098.00    1.47904   1.21973   -2.000
 7099.00    1.34336   1.22145   -2.000
 7100.00    1.20731   1.22691   -2.000
 7101.00    1.06807   1.22040   -2.000
 7102.00    0.96854   1.20180   -2.000
 7103.00    1.12846   1.19453   -2.000
 7104.00    1.27506   1.20794   -2.000
 7105.00    1.35386   1.22408   -2.000
 7106.00    1.40110   1.23078   -2.000
 7107.00    1.31847   1.23730   -2.000
 7108.00    1.26449   1.24640   -2.000
 7109.00    1.30816   1.24994   -2.000
 7110.00    1.36856   1.24992   -2.000
 7111.00    1.47703   1.25044   -2.000
 7112.00    1.51088   1.25074   -2.000
 7113.00    1.36160   1.24592   -2.000
 7114.00    1.29777   1.24540   -2.000
 7115.00    1.41477   1.24278   -2.000
 7116.00    1.44913   1.20728   -2.000
 7117.00    1.33154   1.14979   -2.000
 7118.00    1.28601   1.11932   -2.000
 7119.00    1.35624   1.12763   -2.000
 7120.00    1.37983   1.13853   -2.000
 7121.00    1.33766   1.12927   -2.000
 7122.00    1.31480   1.11327   -2.000
 7123.00    1.31588   1.11294   -2.000
 7124.00    1.22758   1.12681   -2.000
 7125.00    1.04156   1.14410   -2.000
 7126.00    0.99772   1.15559   -2.000
 7127.00    1.09098   1.15950   -2.000
 7128.00    1.09450   1.16418   -2.000
 7129.00    1.02171   1.16329   -2.000
 7130.00    1.04451   1.15326   -2.000
 7131.00    1.13890   1.15302   -2.000
 7132.00    1.27721   1.16798   -2.000
 7133.00    1.44440   1.18019   -2.000
 7134.00    1.45301   1.18353   -2.000
 7135.00    1.37029   1.18479   -2.000
 7136.00    1.36822   1.18572   -2.000
 7137.00    1.40661   1.18662   -2.000
 7138.00    1.37481   1.17945   -2.000
 7139.00    1.31251   1.16149   -2.000
 7140.00    1.39114   1.15625   -2.000
 7141.00    1.52227   1.16821   -2.000
 7142.00    1.33910   1.18098   -2.000
 7143.00    1.05665   1.19621   -2.000
 7144.00    1.05516   1.21661   -2.000
 7145.00    1.12775   1.22636   -2.000
 7146.00    1.19290   1.22134   -2.000
 7147.00    1.25644   1.22250   -2.000
 7148.00    1.34185   1.23817   -2.000
 7149.00    1.43101   1.23793   -2.000
 7150.00    1.37057   1.21331   -2.000
 7151.00    1.29077   1.19263   -2.000
 7152.00    1.21439   1.19529   -2.000
 7153.00    1.13833   1.21286   -2.000
 7154.00    1.22132   1.21739   -2.000
 7155.00    1.31302   1.19553   -2.000
 7156.00    1.31335   1.17299   -2.000
 7157.00    1.31391   1.18015   -2.000
 7158.00    1.51010   1.20852   -2.000
 7159.00    1.67187   1.22839   -2.000
 7160.00    1.05241   1.22733   -2.000
 7161.00    0.37671   1.22241   -2.000
 7162.00   -1.00742   1.23057   -2.000
 7163.00   -2.06184   1.24437   -2.000
 7164.00   -0.30344   1.25068   -2.000
 7165.00    1.22671   1.24745   -2.000
 7166.00    1.31017   1.23929   -2.000
 7167.00    1.38484   1.23065   -2.000
 7168.00    1.41579   1.23254   -2.000
 7169.00    1.37958   1.24627   -2.000
 7170.00    1.07303   1.24902   -2.000
 7171.00    0.91995   1.22983   -2.000
 7172.00    1.27967   1.20952   -2.000
 7173.00    1.54916   1.21432   -2.000
 7174.00    1.56410   1.24562   -2.000
 7175.00    1.50443   1.27476   -2.000
 7176.00    1.26479   1.28148   -2.000
 7177.00    1.18905   1.26297   -2.000
 7178.00    1.45457   1.22785   -2.000
 7179.00    1.61263   1.19884   -2.000
 7180.00    1.57610   1.19613   -2.000
 7181.00    1.54467   1.21777   -2.000
 7182.00    1.52131   1.24644   -2.000
 7183.00    1.43269   1.25470   -2.000
 7184.00    1.25340   1.24564   -2.000
 7185.00    1.17598   1.24792   -2.000
 7186.00    1.22311   1.26121   -2.000
 7187.00    1.24839   1.26095   -2.000
 7188.00    1.25013   1.23788   -2.000
 7189.00    1.28558   1.22015   -2.000
 7190.00    1.35309   1.22882   -2.000
 7191.00    1.38971   1.24337   -2.000
 7192.00    1.40044   1.24072   -2.000
 7193.00    1.32906   1.22883   -2.000
 7194.00    1.19708   1.23641   -2.000
 7195.00    1.13782   1.26017   -2.000
 7196.00    1.12570   1.27038   -2.000
 7197.00    1.24241   1.25010   -2.000
 7198.00    1.43222   1.20975   -2.000
 7199.00    1.34480   1.18908   -2.000
 7200.00    1.12046   1.19994   -2.000
 7201.00    0.91701   1.22694   -2.000
 7202.00    0.72249   1.26009   -2.000
 7203.00    0.73364   1.27547   -2.000
 7204.00    0.82005   1.26538   -2.000
 7205.00    0.97157   1.25152   -2.000
 7206.00    1.14327   1.24793   -2.000
 7207.00    1.22397   1.25278   -2.000
 7208.00    1.28120   1.26665   -2.000
 7209.00    1.19619   1.28834   -2.000
 7210.00    1.08128   1.29759   -2.000
 7211.00    0.98025   1.29112   -2.000
 7212.00    0.88153   1.28606   -2.000
 7213.00    0.99784   1.28524   -2.000
 7214.00    1.14102   1.28061   -2.000
 7215.00    1.03111   1.28311   -2.000
 7216.00    0.89929   1.30403   -2.000
 7217.00    1.09300   1.32423   -2.000
 7218.00    1.30326   1.33271   -2.000
