###################################################################
## OUTPUT of StarlightChains_v04.for    [Cid@UFSC - 01/Apr/2007] ##
###################################################################

## Some input info
KUG0210-078._29_39.txt                   [arq_obs]
Base.CB07.vall.4m                        [arq_base]
Masks.EmLines.NEW.gm                     [arq_masks]
StCv04.C11.config                        [arq_config]
   66                                    [N_base]
    0                                    [N_YAV_components = # of components with extra extinction!]
    0                                    [i_FitPowerLaw (1/0 = Yes/No)]
-9.99                                    [alpha_PowerLaw]
CCM                                      [red_law_option]
 1.458241                                [q_norm = A(l_norm)/A(V)]

## (Re)Sampling Parameters
 3741.00                                 [l_ini (A)]
 7218.00                                 [l_fin (A)]
    1.00                                 [dl    (A)]     (OBS: dl_cushion =    50.00 A)

## Normalization info
 4020.00                                 [l_norm (A) - for base]
 4010.00                                 [llow_norm (A) - window for f_obs]
 4060.00                                 [lupp_norm (A) - window for f_obs]
1.330513E-17                             [fobs_norm (in input units)]

## S/N
 3691.00                                 [llow_SN (A) - window for S/N]
 7268.00                                 [lupp_SN (A) - window for S/N]
   6.001                                 [S/N in S/N window]
   4.625                                 [S/N in norm. window]
   0.022                                 [S/N_err in S/N window]
   0.017                                 [S/N_err in norm. window]
  1.0000                                 [fscale_chi2]

## etc...
    -2007415                             [idum_orig]
  2432                                   [NOl_eff]
  2414                                   [Nl_eff]
    18    NSIGMA                         [Ntot_cliped & clip_method]
   470120                                [Nglobal_steps]
   7                                     [N_chains]
  10                                     [NEX0s_base = N_base in EX0s-fits]
 0   0   1       18   2.0   2.342E+03    [Clip-Bug, RC-Crash & Burn-In warning-flags, n_censored_weights, wei_nsig_threshold & wei_limit]
    11     10.317      9.932      0.384  [idt_all, wdt_TotTime, wdt_UsrTime & wdt_SysTime (sec)]

## Synthesis Results - Best model ##

 8.15313E-06                             [chi2/Nl_eff]
     8.55071                             [adev (%)]

   120.46899                             [sum-of-x (%)]
 1.77286E-17                             [Flux_tot (units of input spectrum!)]
 3.48068E-13                             [Mini_tot (???)]
 1.87992E-13                             [Mcor_tot (???)]

-213.11                                  [v0_min  (km/s)]
 489.58                                  [vd_min  (km/s)]
 0.0751                                  [AV_min  (mag)]
 0.0000                                  [YAV_min (mag)]

# j     x_j(%)      Mini_j(%)     Mcor_j(%)     age_j(yr)     Z_j      (L/M)_j    YAV?  Mstars   component_j        a/Fe...       SSP_chi2r SSP_adev(%)   SSP_AV   SSP_x(%)
  1      0.0000     0.0000E+00    0.0000E+00    1.000000E+06  0.00400  1.094E-02    0   1.0000   age020_m42            0.0000     1.3724E-05    11.0926   3.4701   104.5272
  2      0.0000     0.0000E+00    0.0000E+00    3.160000E+06  0.00400  4.007E-02    0   0.9999   age045_m42            0.0000     1.1843E-05    10.2208   2.7361   111.8648
  3      0.0000     0.0000E+00    0.0000E+00    5.010000E+06  0.00400  2.539E-02    0   0.9488   age055_m42            0.0000     1.2551E-05    10.5508   3.0616   108.9765
  4      0.0000     0.0000E+00    0.0000E+00    6.610000E+06  0.00400  2.620E-02    0   0.9220   age061_m42            0.0000     1.1760E-05    10.1039   2.6621   112.0546
  5      0.0000     0.0000E+00    0.0000E+00    1.000000E+07  0.00400  1.322E-02    0   0.8862   age070_m42            0.0000     1.2170E-05    10.0618   2.3894   113.6256
  6      0.0000     0.0000E+00    0.0000E+00    1.445000E+07  0.00400  7.883E-03    0   0.8571   age078_m42            0.0000     1.2606E-05    10.2826   2.7155   110.8674
  7      0.0000     0.0000E+00    0.0000E+00    2.512000E+07  0.00400  5.251E-03    0   0.8174   age090_m42            0.0000     1.2191E-05    10.0647   2.2610   114.1224
  8      0.0000     0.0000E+00    0.0000E+00    4.000000E+07  0.00400  3.649E-03    0   0.7851   age104_m42            0.0000     1.1744E-05     9.8801   2.0317   115.1972
  9      0.0000     0.0000E+00    0.0000E+00    5.500000E+07  0.00400  3.098E-03    0   0.7629   age110_m42            0.0000     1.1505E-05     9.7325   2.1788   115.6341
 10      0.0000     0.0000E+00    0.0000E+00    1.015200E+08  0.00400  2.228E-03    0   0.7207   age116_m42            0.0000     1.1395E-05     9.6410   2.1943   116.1317
 11      0.0000     0.0000E+00    0.0000E+00    2.861200E+08  0.00400  1.093E-03    0   0.6648   age125_m42            0.0000     1.1099E-05     9.3949   1.6165   119.4331
 12      0.0000     0.0000E+00    0.0000E+00    5.088000E+08  0.00400  6.597E-04    0   0.6365   age130_m42            0.0000     1.0766E-05     9.1955   1.6032   120.8333
 13      0.0000     0.0000E+00    0.0000E+00    1.434000E+09  0.00400  2.132E-04    0   0.5798   age139_m42            0.0000     9.1371E-06     8.6406   0.6380   123.1639
 14     96.9836     6.9559E+01    6.9249E+01    4.250000E+09  0.00400  5.895E-05    0   0.5377   age158_m42            0.0000     8.1960E-06     8.5280   0.1950   118.8722
 15      0.0000     0.0000E+00    0.0000E+00    7.500000E+09  0.00400  3.510E-05    0   0.5212   age171_m42            0.0000     8.1332E-06     8.4972   0.0020   118.3305
 16      0.0000     0.0000E+00    0.0000E+00    1.300000E+10  0.00400  2.005E-05    0   0.5034   age193_m42            0.0000     8.2144E-06     8.5190  -0.1683   117.9121
 17      0.0000     0.0000E+00    0.0000E+00    1.800000E+10  0.00400  1.525E-05    0   0.4967   age213_m42            0.0000     8.2354E-06     8.5344  -0.1904   117.3361
 18      0.0000     0.0000E+00    0.0000E+00    1.000000E+06  0.00800  1.238E-02    0   1.0000   age020_m52            0.0000     1.3750E-05    11.0986   3.4664   104.7405
 19      0.0000     0.0000E+00    0.0000E+00    3.160000E+06  0.00800  3.074E-02    0   0.9966   age045_m52            0.0000     1.3576E-05    11.0449   3.3902   105.6886
 20      0.0000     0.0000E+00    0.0000E+00    5.010000E+06  0.00800  2.668E-02    0   0.9443   age055_m52            0.0000     1.2816E-05    10.6619   3.1438   108.0289
 21      0.0000     0.0000E+00    0.0000E+00    6.610000E+06  0.00800  2.136E-02    0   0.9177   age061_m52            0.0000     1.1290E-05     9.8584   1.8942   114.8963
 22      0.0000     0.0000E+00    0.0000E+00    1.000000E+07  0.00800  1.215E-02    0   0.8827   age070_m52            0.0000     1.2712E-05    10.2607   2.5684   113.2098
 23      0.0000     0.0000E+00    0.0000E+00    1.445000E+07  0.00800  8.717E-03    0   0.8552   age078_m52            0.0000     1.2438E-05    10.1877   2.6808   112.4085
 24      0.0000     0.0000E+00    0.0000E+00    2.512000E+07  0.00800  5.592E-03    0   0.8162   age090_m52            0.0000     1.2204E-05    10.0261   2.3208   115.5559
 25      0.0000     0.0000E+00    0.0000E+00    4.000000E+07  0.00800  3.896E-03    0   0.7841   age104_m52            0.0000     1.1721E-05     9.7986   2.2277   116.6976
 26      0.0000     0.0000E+00    0.0000E+00    1.015200E+08  0.00800  2.148E-03    0   0.7226   age116_m52            0.0000     1.1133E-05     9.5672   2.1610   116.9343
 27      0.0000     0.0000E+00    0.0000E+00    2.861200E+08  0.00800  9.925E-04    0   0.6683   age125_m52            0.0000     1.0811E-05     9.2042   1.6667   122.0256
 28      0.0000     0.0000E+00    0.0000E+00    9.047900E+08  0.00800  3.141E-04    0   0.6138   age135_m52            0.0000     9.3691E-06     8.5833   0.8582   127.7389
 29      0.0000     0.0000E+00    0.0000E+00    1.434000E+09  0.00800  1.719E-04    0   0.5853   age139_m52            0.0000     8.3533E-06     8.3800   0.2791   125.0298
 30      0.0000     0.0000E+00    0.0000E+00    2.500000E+09  0.00800  7.872E-05    0   0.5600   age150_m52            0.0000     8.1787E-06     8.4421   0.0122   122.0940
 31      0.0000     0.0000E+00    0.0000E+00    4.250000E+09  0.00800  4.336E-05    0   0.5426   age158_m52            0.0000     8.1836E-06     8.4422  -0.0032   120.9839
 32      1.8519     2.4786E+00    2.4409E+00    6.250000E+09  0.00800  3.159E-05    0   0.5319   age166_m52            0.0000     8.4237E-06     8.5468  -0.2109   121.3179
 33      0.0000     0.0000E+00    0.0000E+00    1.300000E+10  0.00800  1.361E-05    0   0.5073   age193_m52            0.0000     9.0978E-06     8.8904  -0.6843   120.8783
 34      0.0000     0.0000E+00    0.0000E+00    1.800000E+10  0.00800  9.886E-06    0   0.4990   age213_m52            0.0000     9.8742E-06     9.2788  -0.8003   120.7325
 35      0.0000     0.0000E+00    0.0000E+00    1.000000E+06  0.02000  1.544E-02    0   1.0000   age020_m62            0.0000     1.3829E-05    11.1221   3.4619   105.0082
 36      0.0000     0.0000E+00    0.0000E+00    3.160000E+06  0.02000  3.762E-02    0   0.9858   age045_m62            0.0000     1.3836E-05    11.1164   3.4007   105.9559
 37      0.0000     0.0000E+00    0.0000E+00    5.010000E+06  0.02000  3.296E-02    0   0.9342   age055_m62            0.0000     1.2314E-05    10.4358   3.0170   110.5525
 38      0.0000     0.0000E+00    0.0000E+00    8.710000E+06  0.02000  1.154E-02    0   0.8861   age067_m62            0.0000     1.6473E-05    11.9764   2.0289   114.8915
 39      0.0000     0.0000E+00    0.0000E+00    1.445000E+07  0.02000  7.663E-03    0   0.8472   age078_m62            0.0000     1.3274E-05    10.4981   2.2121   115.4427
 40      0.0000     0.0000E+00    0.0000E+00    2.512000E+07  0.02000  4.532E-03    0   0.8099   age090_m62            0.0000     1.3439E-05    10.5712   2.2017   115.0992
 41      0.0000     0.0000E+00    0.0000E+00    5.500000E+07  0.02000  2.733E-03    0   0.7595   age110_m62            0.0000     1.1709E-05     9.7913   2.2121   115.8226
 42      0.0000     0.0000E+00    0.0000E+00    1.609000E+08  0.02000  1.369E-03    0   0.6985   age120_m62            0.0000     1.1263E-05     9.4276   2.0391   119.6975
 43      0.0000     0.0000E+00    0.0000E+00    2.861200E+08  0.02000  9.013E-04    0   0.6714   age125_m62            0.0000     1.1242E-05     9.2648   1.7836   123.4861
 44      0.0000     0.0000E+00    0.0000E+00    5.088000E+08  0.02000  5.028E-04    0   0.6449   age130_m62            0.0000     1.0725E-05     9.0823   1.3968   127.4254
 45      0.0000     0.0000E+00    0.0000E+00    9.047900E+08  0.02000  2.428E-04    0   0.6179   age135_m62            0.0000     8.9561E-06     8.5860   0.8043   127.0515
 46      0.0000     0.0000E+00    0.0000E+00    1.434000E+09  0.02000  1.263E-04    0   0.5908   age139_m62            0.0000     8.3646E-06     8.4428   0.3625   125.1771
 47      0.0000     0.0000E+00    0.0000E+00    2.500000E+09  0.02000  5.985E-05    0   0.5673   age150_m62            0.0000     8.5567E-06     8.6399  -0.0096   123.9488
 48     21.6335     2.7963E+01    2.8310E+01    4.250000E+09  0.02000  3.271E-05    0   0.5468   age158_m62            0.0000     9.2156E-06     9.0330  -0.3217   123.3791
 49      0.0000     0.0000E+00    0.0000E+00    1.000000E+10  0.02000  1.360E-05    0   0.5167   age181_m62            0.0000     1.0686E-05     9.6638  -0.6826   123.5421
 50      0.0000     0.0000E+00    0.0000E+00    1.800000E+10  0.02000  7.124E-06    0   0.5013   age213_m62            0.0000     1.2247E-05    10.3205  -0.9048   123.1853
 51      0.0000     0.0000E+00    0.0000E+00    1.000000E+06  0.05000  2.592E-02    0   0.9998   age020_m72            0.0000     1.4057E-05    11.1862   3.4560   104.9509
 52      0.0000     0.0000E+00    0.0000E+00    3.160000E+06  0.05000  4.845E-02    0   0.9577   age045_m72            0.0000     1.3196E-05    10.8882   3.2801   107.5154
 53      0.0000     0.0000E+00    0.0000E+00    5.010000E+06  0.05000  3.072E-02    0   0.9147   age055_m72            0.0000     1.3415E-05    10.5742   2.7863   111.6813
 54      0.0000     0.0000E+00    0.0000E+00    6.610000E+06  0.05000  1.455E-02    0   0.8877   age061_m72            0.0000     2.1162E-05    14.3601   2.0354   115.8306
 55      0.0000     0.0000E+00    0.0000E+00    1.000000E+07  0.05000  9.074E-03    0   0.8524   age070_m72            0.0000     1.4608E-05    11.3281   2.9394   111.7965
 56      0.0000     0.0000E+00    0.0000E+00    2.512000E+07  0.05000  4.250E-03    0   0.7902   age090_m72            0.0000     1.3166E-05    10.5296   2.6548   113.7119
 57      0.0000     0.0000E+00    0.0000E+00    4.000000E+07  0.05000  3.087E-03    0   0.7618   age104_m72            0.0000     1.3138E-05    10.4787   2.4273   115.5086
 58      0.0000     0.0000E+00    0.0000E+00    1.015200E+08  0.05000  1.700E-03    0   0.7096   age116_m72            0.0000     1.1705E-05     9.6145   2.1797   119.0243
 59      0.0000     0.0000E+00    0.0000E+00    2.861200E+08  0.05000  7.384E-04    0   0.6633   age125_m72            0.0000     1.0975E-05     9.1227   1.6453   125.6032
 60      0.0000     0.0000E+00    0.0000E+00    5.088000E+08  0.05000  3.819E-04    0   0.6372   age130_m72            0.0000     9.7504E-06     8.8588   1.1473   128.2697
 61      0.0000     0.0000E+00    0.0000E+00    9.047900E+08  0.05000  1.676E-04    0   0.6110   age135_m72            0.0000     8.9163E-06     8.8093   0.4471   126.5746
 62      0.0000     0.0000E+00    0.0000E+00    1.434000E+09  0.05000  8.837E-05    0   0.5874   age139_m72            0.0000     8.7936E-06     8.6993  -0.0161   126.0487
 63      0.0000     0.0000E+00    0.0000E+00    2.500000E+09  0.05000  4.233E-05    0   0.5598   age150_m72            0.0000     9.6611E-06     9.2556  -0.3295   124.8455
 64      0.0000     0.0000E+00    0.0000E+00    6.250000E+09  0.05000  1.435E-05    0   0.5249   age166_m72            0.0000     1.1195E-05     9.9359  -0.7840   123.2917
 65      0.0000     0.0000E+00    0.0000E+00    1.300000E+10  0.05000  6.513E-06    0   0.5036   age193_m72            0.0000     1.3487E-05    10.6585  -1.0000   122.1873
 66      0.0000     0.0000E+00    0.0000E+00    1.800000E+10  0.05000  4.527E-06    0   0.4945   age213_m72            0.0000     1.6379E-05    11.3278  -1.0000   115.7806


## Synthesis Results - Average & Chains ##

# j      x_j: min, <> & last-chain-values for 1 ...  7 chains
  1      0.0000      1.5759      0.0000      0.0000      0.0000      0.0000      0.0000      0.0000      0.0000
  2      0.0000      1.3653      0.0000      0.0000      0.0000      0.0000      0.0000      0.0000      0.0000
  3      0.0000      1.3906      0.0000      0.0000      0.0000      0.0000      0.0000      0.0000      0.0000
  4      0.0000      1.5498      0.0000      0.0000      0.0000      0.0000      0.0000      0.0000      0.0000
  5      0.0000      1.8504      0.0000      0.0000      0.1539      0.0000      0.0000      0.0000      0.0000
  6      0.0000      2.4027      0.0000      0.0000      0.0000      0.0000      0.0000      0.0000      0.0000
  7      0.0000      1.6143      0.0000      0.0018      0.0000      0.0000      0.0000      0.0000      0.0000
  8      0.0000      1.2447      0.0000      0.0000      0.0000      0.0000      0.0000      0.0000      0.0000
  9      0.0000      1.2799      0.0000      0.0000      0.0000      0.0000      0.0000      0.0000      0.0000
 10      0.0000      1.4017      0.0000      0.0000      0.0000      0.0000      0.0000      0.0000      0.0000
 11      0.0000      1.0338      0.0000      0.0000      0.0000      0.0000      0.0000      0.0000      0.0000
 12      0.0000      1.3274      0.0000      0.0000      0.0000      0.0000      0.0000      0.0000      0.0000
 13      0.0000      1.5275      0.0000      0.0000      0.0000      0.0000      0.0000      0.0000      0.0000
 14     96.9836      7.0149     22.9680     22.9545     20.9319     23.0828     22.1460     21.9910     22.1961
 15      0.0000      7.1722     23.1631     22.9495     22.8281     23.0490     23.1270     23.2777     22.8359
 16      0.0000      0.9456      0.0008      0.0805      0.0000      0.0634      0.1686      0.1031      1.6685
 17      0.0000      3.2736      7.9803      8.0332      9.6894      8.1482      8.0406      8.7610      8.0497
 18      0.0000      1.5738      0.0000      0.0000      0.0000      0.0000      0.0000      0.0000      0.0000
 19      0.0000      1.5885      0.0000      0.0000      0.0000      0.0000      0.0000      0.0000      0.0000
 20      0.0000      1.3768      0.0000      0.0000      0.0000      0.0000      0.0000      0.0000      0.0000
 21      0.0000      1.7432      0.0000      0.0000      0.0000      0.0000      0.0000      0.0000      0.0000
 22      0.0000      1.1288      0.0000      0.0000      0.0000      0.0000      0.0000      0.0000      0.0000
 23      0.0000      1.2560      0.0000      0.0000      0.0000      0.0000      0.0000      0.0000      0.0000
 24      0.0000      1.4262      0.0000      0.0000      0.0000      0.0000      0.0000      0.0000      0.0000
 25      0.0000      1.3033      0.0000      0.0000      0.0000      0.0000      0.0000      0.0000      0.0000
 26      0.0000      1.3625      0.0000      0.0000      0.0000      0.0000      0.0000      0.0000      0.0000
 27      0.0000      1.2543      0.0000      0.0000      0.0000      0.0000      0.0000      0.0000      0.0000
 28      0.0000      0.8870      0.0000      0.0000      0.0000      0.0000      0.0000      0.0000      0.0000
 29      0.0000      1.2607      0.0000      0.0052      0.0000      0.0000      0.0000      0.0000      0.0000
 30      0.0000      1.6881      0.0000      0.0000      0.0000      0.0000      0.0000      0.0000      0.0000
 31      0.0000      1.1141      0.0000      0.0000      0.0000      0.0000      0.0664      0.0000      0.0000
 32      1.8519      2.0877      2.0439      2.1274      2.3372      2.4009      2.2587      2.4315      2.6605
 33      0.0000      1.3973      0.5204      0.2650      0.1234      0.0334      0.2374      0.0825      0.4205
 34      0.0000      1.1597      0.1521      0.3749      0.2557      0.0000      0.0234      0.0000      0.2233
 35      0.0000      1.5081      0.0000      0.0000      0.0000      0.0001      0.0000      0.0000      0.0000
 36      0.0000      1.2569      0.0000      0.0000      0.0000      0.0000      0.0000      0.0000      0.0000
 37      0.0000      1.5053      0.0000      0.0000      0.0000      0.0000      0.0000      0.0000      0.0002
 38      0.0000      2.6107      0.0000      0.0000      0.0000      0.1462      0.0000      0.0000      0.0000
 39      0.0000      1.7313      0.0000      0.0000      0.0000      0.0000      0.0000      0.0000      0.0000
 40      0.0000      1.4711      0.0000      0.0000      0.0000      0.0000      0.0000      0.0000      0.0000
 41      0.0000      1.1222      0.0000      0.0000      0.0000      0.0000      0.0016      0.0000      0.0000
 42      0.0000      1.4273      0.0000      0.0000      0.0000      0.0000      0.0000      0.0000      0.0000
 43      0.0000      1.1100      0.0000      0.0000      0.0000      0.0000      0.0000      0.0000      0.0000
 44      0.0000      1.6104      0.0000      0.0000      0.0000      0.0000      0.0000      0.0000      0.0000
 45      0.0000      1.0685      0.0000      0.0000      0.0000      0.0000      0.0000      0.0000      0.0000
 46      0.0000      1.1760      0.0000      0.0000      0.0000      0.0000      0.0000      0.0000      0.0000
 47      0.0000      2.3861      4.9150      0.8728      5.2685      5.0463      5.8284      4.4425      5.3527
 48     21.6335      5.6461     14.0835     15.7283     13.2007     13.4808     15.3604     13.5326     12.7527
 49      0.0000      1.7123      3.8942      5.3645      3.4620      3.6413      3.7389      3.7034      4.1485
 50      0.0000      2.0367      0.8735      0.8929      1.3341      0.8726      0.9063      0.9109      1.1298
 51      0.0000      1.1541      0.0068      0.0000      0.0000      0.0000      0.0000      0.0000      0.0000
 52      0.0000      1.1299      0.0000      0.0000      0.0000      0.0000      0.0000      0.0000      0.0000
 53      0.0000      1.7281      0.0000      0.0000      0.0000      0.0000      0.0000      0.0000      0.0000
 54      0.0000      1.9626      0.0000      0.0000      0.0000      0.0000      0.0000      0.0000      0.0000
 55      0.0000      1.5125      0.0000      0.0002      0.0000      0.0000      0.0000      0.0000      0.0000
 56      0.0000      1.2887      0.0000      0.0000      0.0000      0.0000      0.0000      0.0000      0.0000
 57      0.0000      1.4707      0.0000      0.0000      0.0000      0.0000      0.0000      0.0000      0.0000
 58      0.0000      2.1787      0.0000      0.0000      0.0000      0.0000      0.0000      0.0000      0.0000
 59      0.0000      1.4755      0.0000      0.0000      0.0040      0.0000      0.0000      0.0000      0.0080
 60      0.0000      1.3600      0.0000      0.0000      0.0000      0.0000      0.0002      0.0000      0.0000
 61      0.0000      1.2367      0.0000      0.0000      0.0114      0.0000      0.0000      0.0000      0.0000
 62      0.0000      6.4474     18.3847     19.3239     19.3253     18.8379     18.7668     19.5252     18.6874
 63      0.0000      9.3272     25.8175     26.3007     25.6916     26.7288     25.0926     26.8347     25.5718
 64      0.0000      2.4652      5.1961      4.7247      5.1945      4.3361      4.2368      4.4040      4.2943
 65      0.0000      1.5903      0.0000      0.0000      0.0000      0.1320      0.0000      0.0000      0.0000
 66      0.0000      1.3321      0.0000      0.0000      0.1884      0.0000      0.0000      0.0000      0.0000

# j      m_j: min, <> & last-chain-values for 1 ...  7 chains
  1  0.0000E+00  1.0576E-02  0.0000E+00  0.0000E+00  0.0000E+00  0.0000E+00  0.0000E+00  0.0000E+00  0.0000E+00
  2  0.0000E+00  2.5012E-03  0.0000E+00  0.0000E+00  0.0000E+00  0.0000E+00  0.0000E+00  0.0000E+00  0.0000E+00
  3  0.0000E+00  3.8150E-03  0.0000E+00  0.0000E+00  0.0000E+00  0.0000E+00  0.0000E+00  0.0000E+00  0.0000E+00
  4  0.0000E+00  4.0041E-03  0.0000E+00  0.0000E+00  0.0000E+00  0.0000E+00  0.0000E+00  0.0000E+00  0.0000E+00
  5  0.0000E+00  9.1066E-03  0.0000E+00  0.0000E+00  4.9654E-04  0.0000E+00  0.0000E+00  0.0000E+00  0.0000E+00
  6  0.0000E+00  1.9179E-02  0.0000E+00  0.0000E+00  0.0000E+00  0.0000E+00  0.0000E+00  0.0000E+00  0.0000E+00
  7  0.0000E+00  1.8449E-02  0.0000E+00  1.3419E-05  0.0000E+00  0.0000E+00  0.0000E+00  0.0000E+00  0.0000E+00
  8  0.0000E+00  1.9661E-02  0.0000E+00  0.0000E+00  0.0000E+00  0.0000E+00  0.0000E+00  0.0000E+00  0.0000E+00
  9  0.0000E+00  2.3140E-02  0.0000E+00  0.0000E+00  0.0000E+00  0.0000E+00  0.0000E+00  0.0000E+00  0.0000E+00
 10  0.0000E+00  3.3287E-02  0.0000E+00  0.0000E+00  0.0000E+00  0.0000E+00  0.0000E+00  0.0000E+00  0.0000E+00
 11  0.0000E+00  4.6165E-02  0.0000E+00  0.0000E+00  0.0000E+00  0.0000E+00  0.0000E+00  0.0000E+00  0.0000E+00
 12  0.0000E+00  9.4023E-02  0.0000E+00  0.0000E+00  0.0000E+00  0.0000E+00  0.0000E+00  0.0000E+00  0.0000E+00
 13  0.0000E+00  3.0496E-01  0.0000E+00  0.0000E+00  0.0000E+00  0.0000E+00  0.0000E+00  0.0000E+00  0.0000E+00
 14  6.9249E+01  4.6975E+00  1.0371E+01  1.0137E+01  9.1914E+00  1.0623E+01  1.0152E+01  1.0044E+01  9.9347E+00
 15  0.0000E+00  7.8187E+00  1.7027E+01  1.6499E+01  1.6319E+01  1.7269E+01  1.7258E+01  1.7308E+01  1.6639E+01
 16  0.0000E+00  1.7430E+00  1.0376E-03  9.7812E-02  0.0000E+00  8.0369E-02  2.1279E-01  1.2956E-01  2.0556E+00
 17  0.0000E+00  7.8278E+00  1.2867E+01  1.2668E+01  1.5193E+01  1.3391E+01  1.3161E+01  1.4288E+01  1.2866E+01
 18  0.0000E+00  9.3328E-03  0.0000E+00  0.0000E+00  0.0000E+00  0.0000E+00  0.0000E+00  0.0000E+00  0.0000E+00
 19  0.0000E+00  3.7809E-03  0.0000E+00  0.0000E+00  0.0000E+00  0.0000E+00  0.0000E+00  0.0000E+00  0.0000E+00
 20  0.0000E+00  3.5775E-03  0.0000E+00  0.0000E+00  0.0000E+00  0.0000E+00  0.0000E+00  0.0000E+00  0.0000E+00
 21  0.0000E+00  5.4984E-03  0.0000E+00  0.0000E+00  0.0000E+00  0.0000E+00  0.0000E+00  0.0000E+00  0.0000E+00
 22  0.0000E+00  6.0204E-03  0.0000E+00  0.0000E+00  0.0000E+00  0.0000E+00  0.0000E+00  0.0000E+00  0.0000E+00
 23  0.0000E+00  9.0461E-03  0.0000E+00  0.0000E+00  0.0000E+00  0.0000E+00  0.0000E+00  0.0000E+00  0.0000E+00
 24  0.0000E+00  1.5283E-02  0.0000E+00  0.0000E+00  0.0000E+00  0.0000E+00  0.0000E+00  0.0000E+00  0.0000E+00
 25  0.0000E+00  1.9257E-02  0.0000E+00  0.0000E+00  0.0000E+00  0.0000E+00  0.0000E+00  0.0000E+00  0.0000E+00
 26  0.0000E+00  3.3649E-02  0.0000E+00  0.0000E+00  0.0000E+00  0.0000E+00  0.0000E+00  0.0000E+00  0.0000E+00
 27  0.0000E+00  6.2007E-02  0.0000E+00  0.0000E+00  0.0000E+00  0.0000E+00  0.0000E+00  0.0000E+00  0.0000E+00
 28  0.0000E+00  1.2726E-01  0.0000E+00  0.0000E+00  0.0000E+00  0.0000E+00  0.0000E+00  0.0000E+00  0.0000E+00
 29  0.0000E+00  3.1513E-01  0.0000E+00  8.5630E-04  0.0000E+00  0.0000E+00  0.0000E+00  0.0000E+00  0.0000E+00
 30  0.0000E+00  8.8162E-01  0.0000E+00  0.0000E+00  0.0000E+00  0.0000E+00  0.0000E+00  0.0000E+00  0.0000E+00
 31  0.0000E+00  1.0236E+00  0.0000E+00  0.0000E+00  0.0000E+00  0.0000E+00  4.1771E-02  0.0000E+00  0.0000E+00
 32  2.4409E+00  2.5808E+00  1.7037E+00  1.7343E+00  1.8945E+00  2.0397E+00  1.9113E+00  2.0500E+00  2.1982E+00
 33  0.0000E+00  3.8237E+00  9.6024E-01  4.7828E-01  2.2138E-01  6.2822E-02  4.4466E-01  1.5403E-01  7.6906E-01
 34  0.0000E+00  4.2975E+00  3.8016E-01  9.1622E-01  6.2130E-01  0.0000E+00  5.9370E-02  0.0000E+00  5.5303E-01
 35  0.0000E+00  7.1710E-03  0.0000E+00  0.0000E+00  0.0000E+00  4.5664E-07  0.0000E+00  0.0000E+00  0.0000E+00
 36  0.0000E+00  2.4181E-03  0.0000E+00  0.0000E+00  0.0000E+00  0.0000E+00  0.0000E+00  0.0000E+00  0.0000E+00
 37  0.0000E+00  3.1323E-03  0.0000E+00  0.0000E+00  0.0000E+00  0.0000E+00  0.0000E+00  0.0000E+00  2.9141E-07
 38  0.0000E+00  1.4717E-02  0.0000E+00  0.0000E+00  0.0000E+00  5.6625E-04  0.0000E+00  0.0000E+00  0.0000E+00
 39  0.0000E+00  1.4052E-02  0.0000E+00  0.0000E+00  0.0000E+00  0.0000E+00  0.0000E+00  0.0000E+00  0.0000E+00
 40  0.0000E+00  1.9301E-02  0.0000E+00  0.0000E+00  0.0000E+00  0.0000E+00  0.0000E+00  0.0000E+00  0.0000E+00
 41  0.0000E+00  2.2895E-02  0.0000E+00  0.0000E+00  0.0000E+00  0.0000E+00  2.1662E-05  0.0000E+00  0.0000E+00
 42  0.0000E+00  5.3466E-02  0.0000E+00  0.0000E+00  0.0000E+00  0.0000E+00  0.0000E+00  0.0000E+00  0.0000E+00
 43  0.0000E+00  6.0706E-02  0.0000E+00  0.0000E+00  0.0000E+00  0.0000E+00  0.0000E+00  0.0000E+00  0.0000E+00
 44  0.0000E+00  1.5164E-01  0.0000E+00  0.0000E+00  0.0000E+00  0.0000E+00  0.0000E+00  0.0000E+00  0.0000E+00
 45  0.0000E+00  1.9964E-01  0.0000E+00  0.0000E+00  0.0000E+00  0.0000E+00  0.0000E+00  0.0000E+00  0.0000E+00
 46  0.0000E+00  4.0385E-01  0.0000E+00  0.0000E+00  0.0000E+00  0.0000E+00  0.0000E+00  0.0000E+00  0.0000E+00
 47  0.0000E+00  1.6604E+00  2.3063E+00  4.0057E-01  2.4041E+00  2.4134E+00  2.7764E+00  2.1085E+00  2.4897E+00
 48  2.8310E+01  6.9292E+00  1.1655E+01  1.2730E+01  1.0623E+01  1.1371E+01  1.2904E+01  1.1328E+01  1.0461E+01
 49  0.0000E+00  4.7762E+00  7.3243E+00  9.8680E+00  6.3319E+00  6.9802E+00  7.1389E+00  7.0455E+00  7.7342E+00
 50  0.0000E+00  1.0522E+01  3.0429E+00  3.0422E+00  4.5194E+00  3.0983E+00  3.2050E+00  3.2094E+00  3.9012E+00
 51  0.0000E+00  3.2681E-03  1.3079E-05  0.0000E+00  0.0000E+00  0.0000E+00  0.0000E+00  0.0000E+00  0.0000E+00
 52  0.0000E+00  1.6397E-03  0.0000E+00  0.0000E+00  0.0000E+00  0.0000E+00  0.0000E+00  0.0000E+00  0.0000E+00
 53  0.0000E+00  3.7776E-03  0.0000E+00  0.0000E+00  0.0000E+00  0.0000E+00  0.0000E+00  0.0000E+00  0.0000E+00
 54  0.0000E+00  8.7909E-03  0.0000E+00  0.0000E+00  0.0000E+00  0.0000E+00  0.0000E+00  0.0000E+00  0.0000E+00
 55  0.0000E+00  1.0431E-02  0.0000E+00  8.1191E-07  0.0000E+00  0.0000E+00  0.0000E+00  0.0000E+00  0.0000E+00
 56  0.0000E+00  1.7591E-02  0.0000E+00  0.0000E+00  0.0000E+00  0.0000E+00  0.0000E+00  0.0000E+00  0.0000E+00
 57  0.0000E+00  2.6645E-02  0.0000E+00  0.0000E+00  0.0000E+00  0.0000E+00  0.0000E+00  0.0000E+00  0.0000E+00
 58  0.0000E+00  6.6766E-02  0.0000E+00  0.0000E+00  0.0000E+00  0.0000E+00  0.0000E+00  0.0000E+00  0.0000E+00
 59  0.0000E+00  9.7305E-02  0.0000E+00  0.0000E+00  1.7290E-04  0.0000E+00  0.0000E+00  0.0000E+00  3.5160E-04
 60  0.0000E+00  1.6659E-01  0.0000E+00  0.0000E+00  0.0000E+00  0.0000E+00  1.4638E-05  0.0000E+00  0.0000E+00
 61  0.0000E+00  3.3101E-01  0.0000E+00  0.0000E+00  2.0006E-03  0.0000E+00  0.0000E+00  0.0000E+00  0.0000E+00
 62  0.0000E+00  3.1463E+00  6.0497E+00  6.2190E+00  6.1840E+00  6.3180E+00  6.2691E+00  6.4988E+00  6.0954E+00
 63  0.0000E+00  9.0557E+00  1.6902E+01  1.6840E+01  1.6357E+01  1.7835E+01  1.6677E+01  1.7770E+01  1.6595E+01
 64  0.0000E+00  6.6202E+00  9.4091E+00  8.3675E+00  9.1472E+00  8.0027E+00  7.7884E+00  8.0664E+00  7.7080E+00
 65  0.0000E+00  9.0277E+00  0.0000E+00  0.0000E+00  0.0000E+00  5.1514E-01  0.0000E+00  0.0000E+00  0.0000E+00
 66  0.0000E+00  1.0683E+01  0.0000E+00  0.0000E+00  9.9092E-01  0.0000E+00  0.0000E+00  0.0000E+00  0.0000E+00

# AV, chi2 & Mass for <> & i_chain = 1 ...  7 solutions
AV       0.0751     -0.3400     -0.2998     -0.3092     -0.3030     -0.2899     -0.2917     -0.2936     -0.2968
chi2 8.1531E-06  5.0490E-05  9.2990E-06  9.3124E-06  9.2987E-06  9.2866E-06  9.2929E-06  9.2957E-06  9.2998E-06
Mass 1.8799E-13  1.1480E-13  1.7968E-13  1.8141E-13  1.8397E-13  1.7864E-13  1.7893E-13  1.7912E-13  1.8199E-13
-213.11                                  [v0_min (km/s) before EX0s...]
 489.58                                  [vd_min (km/s) before EX0s...]


## Synthetic spectrum (Best Model) ##l_obs f_obs f_syn wei
 3478    [Nl_obs]
 3741.00    0.38221   0.62571    0.000
 3742.00    0.40918   0.62800    0.000
 3743.00    0.35053   0.62685    0.000
 3744.00    0.24760   0.62846    0.000
 3745.00    0.11886   0.63146    0.028
 3746.00    0.24638   0.63652    0.028
 3747.00    0.50403   0.64356    0.028
 3748.00    0.52927   0.64755    0.028
 3749.00    0.45231   0.65635    0.028
 3750.00    0.45962   0.66521    0.028
 3751.00    0.49874   0.67441    0.028
 3752.00    0.58353   0.68396    0.028
 3753.00    0.68295   0.68932    0.028
 3754.00    0.80512   0.69761    0.028
 3755.00    0.93339   0.70388    0.028
 3756.00    0.95338   0.70847    0.028
 3757.00    0.94961   0.71299    0.028
 3758.00    0.88827   0.71403    0.028
 3759.00    0.81687   0.71618    0.028
 3760.00    0.79172   0.71726    0.037
 3761.00    0.77271   0.71795    0.056
 3762.00    0.86710   0.72037    0.038
 3763.00    0.97214   0.72228    0.027
 3764.00    0.85602   0.72534    0.027
 3765.00    0.72714   0.72850    0.027
 3766.00    0.66006   0.73379    0.026
 3767.00    0.59681   0.74178    0.026
 3768.00    0.82143   0.75063    0.026
 3769.00    1.04113   0.76170    0.027
 3770.00    1.14119   0.77188    0.027
 3771.00    1.22898   0.78377    0.026
 3772.00    1.15595   0.79691    0.026
 3773.00    1.08081   0.80898    0.026
 3774.00    0.98728   0.82245    0.025
 3775.00    0.88359   0.83268    0.025
 3776.00    0.71404   0.84087    0.025
 3777.00    0.58979   0.84789    0.025
 3778.00    0.69479   0.85151    0.026
 3779.00    0.78849   0.85429    0.026
 3780.00    0.83587   0.85331    0.026
 3781.00    0.85550   0.84842    0.027
 3782.00    0.78097   0.84188    0.027
 3783.00    0.67565   0.83231    0.026
 3784.00    0.48223   0.82160    0.026
 3785.00    0.36644   0.80979    0.026
 3786.00    0.44033   0.79641    0.027
 3787.00    0.48450   0.78278    0.027
 3788.00    0.46604   0.76897    0.026
 3789.00    0.50939   0.75613    0.026
 3790.00    0.66597   0.74592    0.027
 3791.00    0.74557   0.73766    0.027
 3792.00    0.70195   0.73097    0.027
 3793.00    0.68404   0.72720    0.027
 3794.00    0.70225   0.72599    0.027
 3795.00    0.70528   0.72941    0.026
 3796.00    0.68956   0.73546    0.026
 3797.00    0.65694   0.74251    0.026
 3798.00    0.60590   0.75296    0.026
 3799.00    0.56154   0.76368    0.026
 3800.00    0.52361   0.77672    0.026
 3801.00    0.52602   0.78965    0.026
 3802.00    0.56263   0.79993    0.027
 3803.00    0.56016   0.81108    0.027
 3804.00    0.52854   0.81973    0.027
 3805.00    0.59307   0.82649    0.027
 3806.00    0.72062   0.83134    0.026
 3807.00    0.92636   0.83250    0.026
 3808.00    1.17697   0.83239    0.027
 3809.00    1.22476   0.83049    0.027
 3810.00    1.17118   0.82521    0.027
 3811.00    0.92211   0.81847    0.026
 3812.00    0.58850   0.81111    0.026
 3813.00    0.54413   0.80235    0.026
 3814.00    0.60704   0.79273    0.026
 3815.00    0.67636   0.78062    0.026
 3816.00    0.74769   0.76746    0.026
 3817.00    0.70371   0.75624    0.026
 3818.00    0.62948   0.74425    0.027
 3819.00    0.62636   0.73041    0.026
 3820.00    0.63848   0.71565    0.025
 3821.00    0.80447   0.70025    0.025
 3822.00    0.99657   0.68674    0.025
 3823.00    1.07535   0.67377    0.026
 3824.00    1.13960   0.65857    0.026
 3825.00    0.89282   0.64490    0.026
 3826.00    0.61812   0.63249    0.026
 3827.00    0.65913   0.62127    0.026
 3828.00    0.71711   0.61325    0.026
 3829.00    0.67136   0.60526    0.026
 3830.00    0.62292   0.60064    0.026
 3831.00    0.52220   0.60043    0.027
 3832.00    0.42469   0.60159    0.027
 3833.00    0.39854   0.60709    0.027
 3834.00    0.38859   0.61584    0.026
 3835.00    0.58018   0.62657    0.026
 3836.00    0.75700   0.64148    0.027
 3837.00    0.80890   0.65815    0.027
 3838.00    0.85111   0.67582    0.027
 3839.00    0.83235   0.69634    0.027
 3840.00    0.79113   0.71519    0.028
 3841.00    0.63910   0.73372    0.027
 3842.00    0.52690   0.75306    0.027
 3843.00    0.57414   0.76978    0.027
 3844.00    0.58893   0.78611    0.028
 3845.00    0.49590   0.79846    0.028
 3846.00    0.43624   0.80802    0.028
 3847.00    0.47034   0.81782    0.000
 3848.00    0.52584   0.82483    0.000
 3849.00    0.63276   0.83042    0.000
 3850.00    0.76256   0.83294    0.000
 3851.00    0.93980   0.83365    0.000
 3852.00    1.00510   0.83609    0.000
 3853.00    0.86849   0.83766    0.000
 3854.00    0.88272   0.83829    0.000
 3855.00    1.13483   0.83838    0.000
 3856.00    1.32445   0.83836    0.000
 3857.00    1.42757   0.84018    0.000
 3858.00    1.45699   0.84264    0.000
 3859.00    1.39659   0.84334    0.000
 3860.00    1.28374   0.84374    0.000
 3861.00    1.11454   0.84550    0.000
 3862.00    1.07354   0.84634    0.000
 3863.00    1.15399   0.84705    0.000
 3864.00    1.20092   0.84557    0.000
 3865.00    1.21984   0.84235    0.000
 3866.00    1.13847   0.84183    0.000
 3867.00    0.98332   0.83865    0.000
 3868.00    0.93093   0.83369    0.000
 3869.00    0.94491   0.82843    0.000
 3870.00    0.88087   0.82125    0.000
 3871.00    0.77274   0.81705    0.000
 3872.00    0.69496   0.81054    0.000
 3873.00    0.63212   0.80045    0.000
 3874.00    0.66913   0.79312    0.000
 3875.00    0.74862   0.78474    0.000
 3876.00    0.71528   0.77712    0.000
 3877.00    0.64084   0.76875    0.000
 3878.00    0.72641   0.75685    0.000
 3879.00    0.86130   0.75022    0.000
 3880.00    0.81040   0.74394    0.000
 3881.00    0.71180   0.73633    0.026
 3882.00    0.82538   0.73138    0.026
 3883.00    0.98332   0.72630    0.026
 3884.00    0.97748   0.72670    0.027
 3885.00    0.94464   0.72839    0.027
 3886.00    1.02188   0.72915    0.027
 3887.00    1.11276   0.73434    0.027
 3888.00    0.81335   0.74190    0.027
 3889.00    0.48054   0.75173    0.027
 3890.00    0.64448   0.76140    0.027
 3891.00    0.83318   0.77186    0.028
 3892.00    0.58820   0.78349    0.027
 3893.00    0.34354   0.79631    0.026
 3894.00    0.57763   0.80919    0.027
 3895.00    0.80293   0.81913    0.027
 3896.00    0.84839   0.83194    0.026
 3897.00    0.89150   0.84254    0.026
 3898.00    0.90690   0.85222    0.025
 3899.00    0.91725   0.86414    0.025
 3900.00    0.88644   0.87117    0.024
 3901.00    0.85195   0.88180    0.024
 3902.00    0.79493   0.89102    0.023
 3903.00    0.74698   0.89684    0.023
 3904.00    0.74262   0.90720    0.022
 3905.00    0.73973   0.91198    0.022
 3906.00    0.74259   0.91721    0.022
 3907.00    0.73071   0.92376    0.023
 3908.00    0.67082   0.92444    0.023
 3909.00    0.65377   0.92759    0.023
 3910.00    0.75488   0.92657    0.024
 3911.00    0.84080   0.92224    0.025
 3912.00    0.89083   0.91957    0.025
 3913.00    0.89399   0.91090    0.025
 3914.00    0.80150   0.90159    0.026
 3915.00    0.76918   0.89025    0.026
 3916.00    0.84373   0.87463    0.026
 3917.00    0.89716   0.85888    0.027
 3918.00    0.91777   0.83908    0.027
 3919.00    0.89836   0.81745    0.027
 3920.00    0.82436   0.79421    0.027
 3921.00    0.66307   0.76879    0.027
 3922.00    0.39691   0.74331    0.026
 3923.00    0.29725   0.71667    0.027
 3924.00    0.37392   0.69034    0.027
 3925.00    0.55581   0.66429    0.028
 3926.00    0.83600   0.64096    0.028
 3927.00    0.83603   0.62166    0.028
 3928.00    0.60533   0.60535    0.028
 3929.00    0.58063   0.59414    0.028
 3930.00    0.70526   0.58678    0.028
 3931.00    0.63291   0.58545    0.028
 3932.00    0.43520   0.59090    0.028
 3933.00    0.42649   0.59979    0.028
 3934.00    0.52298   0.61456    0.028
 3935.00    0.52744   0.63262    0.028
 3936.00    0.48736   0.65287    0.028
 3937.00    0.70235   0.67844    0.029
 3938.00    1.02396   0.70439    0.029
 3939.00    1.05795   0.72895    0.029
 3940.00    0.98906   0.75364    0.029
 3941.00    1.15480   0.77757    0.029
 3942.00    1.39146   0.80186    0.029
 3943.00    1.32866   0.82361    0.029
 3944.00    1.19064   0.83854    0.030
 3945.00    1.06698   0.85276    0.029
 3946.00    0.94625   0.86809    0.029
 3947.00    0.80061   0.87698    0.029
 3948.00    0.65097   0.88007    0.028
 3949.00    0.65461   0.88003    0.028
 3950.00    0.67655   0.87847    0.028
 3951.00    0.81812   0.87658    0.028
 3952.00    0.96943   0.86591    0.028
 3953.00    0.86436   0.84786    0.028
 3954.00    0.74750   0.83157    0.028
 3955.00    0.81112   0.81337    0.028
 3956.00    0.87690   0.79126    0.029
 3957.00    0.93483   0.76552    0.028
 3958.00    0.98514   0.73686    0.027
 3959.00    0.89103   0.71130    0.027
 3960.00    0.79896   0.68639    0.000
 3961.00    0.72982   0.66071    0.000
 3962.00    0.66798   0.63982    0.000
 3963.00    0.66351   0.62363    0.000
 3964.00    0.67462   0.61253    0.000
 3965.00    0.77819   0.60582    0.000
 3966.00    0.85522   0.60379    0.000
 3967.00    0.80761   0.61029    0.000
 3968.00    0.77764   0.62233    0.000
 3969.00    0.81529   0.63964    0.000
 3970.00    0.87590   0.66238    0.000
 3971.00    1.00988   0.68807    0.000
 3972.00    1.06198   0.71863    0.000
 3973.00    0.89231   0.74897    0.000
 3974.00    0.76220   0.77950    0.000
 3975.00    0.72396   0.81346    0.000
 3976.00    0.75101   0.84502    0.000
 3977.00    0.90920   0.87603    0.000
 3978.00    0.93591   0.90347    0.000
 3979.00    0.73267   0.92735    0.000
 3980.00    0.78562   0.95402    0.000
 3981.00    1.23081   0.97438    0.030
 3982.00    1.34321   0.99146    0.030
 3983.00    1.00806   1.00910    0.030
 3984.00    0.82786   1.02258    0.030
 3985.00    0.83117   1.03752    0.029
 3986.00    0.89633   1.04725    0.029
 3987.00    1.02609   1.05387    0.029
 3988.00    1.10995   1.06425    0.029
 3989.00    1.15154   1.07000    0.029
 3990.00    1.19520   1.07501    0.029
 3991.00    1.24053   1.08114    0.028
 3992.00    1.34913   1.08457    0.028
 3993.00    1.50295   1.08876    0.028
 3994.00    1.36911   1.09115    0.028
 3995.00    1.05493   1.09329    0.028
 3996.00    0.98228   1.09752    0.028
 3997.00    1.04199   1.09878    0.028
 3998.00    1.14818   1.09978    0.028
 3999.00    1.27650   1.10418    0.028
 4000.00    1.15823   1.10843    0.027
 4001.00    0.93860   1.10985    0.027
 4002.00    0.87368   1.11092    0.027
 4003.00    0.86309   1.11489    0.027
 4004.00    1.02670   1.12025    0.027
 4005.00    1.24193   1.12432    0.028
 4006.00    1.27415   1.12644    0.027
 4007.00    1.26142   1.13114    0.027
 4008.00    1.10189   1.13837    0.027
 4009.00    0.91318   1.14041    0.027
 4010.00    0.84206   1.14288    0.027
 4011.00    0.78922   1.14819    0.027
 4012.00    0.88205   1.15236    0.027
 4013.00    0.99163   1.15658    0.027
 4014.00    0.92974   1.15718    0.027
 4015.00    0.85460   1.15908    0.027
 4016.00    0.92424   1.16279    0.027
 4017.00    0.99997   1.16200    0.027
 4018.00    1.00000   1.16239    0.027
 4019.00    0.99813   1.16229    0.027
 4020.00    0.94331   1.16204    0.027
 4021.00    0.89808   1.16140    0.028
 4022.00    1.02193   1.15674    0.028
 4023.00    1.14074   1.15581    0.028
 4024.00    1.20520   1.15486    0.028
 4025.00    1.26825   1.15179    0.028
 4026.00    1.32054   1.15141    0.028
 4027.00    1.34320   1.14799    0.028
 4028.00    1.19491   1.14683    0.028
 4029.00    1.08279   1.14738    0.028
 4030.00    1.13635   1.14456    0.028
 4031.00    1.16345   1.14616    0.028
 4032.00    1.09125   1.14666    0.028
 4033.00    0.99261   1.14593    0.027
 4034.00    0.81109   1.14823    0.027
 4035.00    0.68304   1.14709    0.027
 4036.00    0.69722   1.14760    0.027
 4037.00    0.74505   1.14689    0.027
 4038.00    0.86972   1.14385    0.027
 4039.00    0.99487   1.14690    0.028
 4040.00    1.12099   1.14644    0.028
 4041.00    1.20967   1.14338    0.029
 4042.00    1.23385   1.14284    0.028
 4043.00    1.14956   1.14081    0.028
 4044.00    0.90165   1.14260    0.028
 4045.00    0.83965   1.14280    0.028
 4046.00    1.02409   1.13886    0.028
 4047.00    1.25392   1.14082    0.028
 4048.00    1.53672   1.14291    0.029
 4049.00    1.58500   1.14048    0.029
 4050.00    1.39183   1.13925    0.029
 4051.00    1.27294   1.13797    0.029
 4052.00    1.22150   1.13627    0.029
 4053.00    1.08452   1.13701    0.029
 4054.00    0.87907   1.13489    0.028
 4055.00    0.78434   1.12941    0.028
 4056.00    0.76757   1.12869    0.028
 4057.00    0.84115   1.12833    0.028
 4058.00    0.97054   1.12568    0.029
 4059.00    1.10266   1.12428    0.028
 4060.00    1.23625   1.11917    0.028
 4061.00    1.44654   1.11826    0.028
 4062.00    1.69278   1.12243    0.028
 4063.00    1.38577   1.11800    0.028
 4064.00    0.85525   1.11569    0.027
 4065.00    0.81539   1.11901    0.027
 4066.00    0.94471   1.11941    0.027
 4067.00    1.05254   1.12008    0.027
 4068.00    1.15414   1.11716    0.027
 4069.00    1.22773   1.11641    0.027
 4070.00    1.29460   1.12290    0.027
 4071.00    1.23486   1.12325    0.027
 4072.00    1.15058   1.12227    0.027
 4073.00    1.16581   1.12613    0.027
 4074.00    1.19604   1.12814    0.027
 4075.00    1.21296   1.13138    0.027
 4076.00    1.22841   1.13485    0.027
 4077.00    1.37381   1.13762    0.027
 4078.00    1.52872   1.14382    0.027
 4079.00    1.48916   1.14826    0.027
 4080.00    1.44216   1.15054    0.027
 4081.00    1.39942   1.15290    0.027
 4082.00    1.35706   1.15434    0.028
 4083.00    1.32785   1.15546    0.027
 4084.00    1.28647   1.15399    0.027
 4085.00    1.04461   1.15136    0.027
 4086.00    0.82914   1.14743    0.026
 4087.00    0.88522   1.13960    0.027
 4088.00    0.96706   1.13144    0.027
 4089.00    1.23785   1.11992    0.027
 4090.00    1.44501   1.10557    0.027
 4091.00    1.29520   1.09477    0.027
 4092.00    1.19431   1.08081    0.000
 4093.00    1.31232   1.06492    0.000
 4094.00    1.41613   1.05425    0.000
 4095.00    1.46779   1.04221    0.000
 4096.00    1.44685   1.03129    0.000
 4097.00    1.20262   1.02533    0.000
 4098.00    1.00103   1.01697    0.000
 4099.00    0.91087   1.01465    0.000
 4100.00    0.89160   1.01920    0.000
 4101.00    1.03156   1.01997    0.000
 4102.00    1.05036   1.02690    0.000
 4103.00    0.83341   1.03830    0.000
 4104.00    0.78828   1.04610    0.000
 4105.00    1.03472   1.05930    0.000
 4106.00    1.16967   1.07189    0.000
 4107.00    1.13888   1.08164    0.000
 4108.00    1.10390   1.09641    0.000
 4109.00    1.06345   1.10847    0.000
 4110.00    1.11225   1.11889    0.000
 4111.00    1.26377   1.13086    0.000
 4112.00    1.21355   1.13802    0.000
 4113.00    0.95857   1.14625    0.027
 4114.00    0.86441   1.15502    0.027
 4115.00    0.91424   1.15711    0.027
 4116.00    1.06349   1.16066    0.028
 4117.00    1.29117   1.16584    0.029
 4118.00    1.32767   1.16676    0.028
 4119.00    1.23150   1.16813    0.028
 4120.00    1.23990   1.16831    0.040
 4121.00    1.31194   1.16749    0.155
 4122.00    1.32279   1.16928   -1.000
 4123.00    1.30114   1.16642   -1.000
 4124.00    1.20493   1.16452   -1.000
 4125.00    1.07434   1.16617   -1.000
 4126.00    1.15380   1.16274   -1.000
 4127.00    1.31666   1.16288   -1.000
 4128.00    1.27207   1.16336    0.071
 4129.00    1.15727   1.15938    0.030
 4130.00    1.10246   1.16234    0.027
 4131.00    1.06472   1.16177    0.027
 4132.00    1.07230   1.15894    0.027
 4133.00    1.09051   1.16317    0.026
 4134.00    1.22743   1.16186    0.026
 4135.00    1.38676   1.16169    0.026
 4136.00    1.33482   1.16436    0.026
 4137.00    1.25203   1.16147    0.026
 4138.00    1.19815   1.16284    0.026
 4139.00    1.14734   1.16356    0.026
 4140.00    1.20227   1.15912    0.026
 4141.00    1.26451   1.16052    0.026
 4142.00    1.10015   1.16283    0.026
 4143.00    0.92798   1.16095    0.026
 4144.00    1.15356   1.16181    0.026
 4145.00    1.37143   1.16341    0.026
 4146.00    1.30860   1.16329    0.026
 4147.00    1.24476   1.16440    0.026
 4148.00    1.16516   1.16612    0.026
 4149.00    1.09191   1.16817    0.027
 4150.00    1.08137   1.17014    0.026
 4151.00    1.06784   1.17163    0.026
 4152.00    1.03310   1.17491    0.026
 4153.00    0.99634   1.17730    0.025
 4154.00    0.94863   1.17916    0.026
 4155.00    0.91449   1.18191    0.026
 4156.00    0.93968   1.18376    0.026
 4157.00    0.99907   1.18564    0.025
 4158.00    1.18145   1.18503    0.025
 4159.00    1.28946   1.18524    0.025
 4160.00    1.17307   1.18683    0.025
 4161.00    1.05642   1.18248    0.025
 4162.00    0.93907   1.18009    0.025
 4163.00    0.92371   1.17989    0.025
 4164.00    1.13363   1.17364    0.025
 4165.00    1.25093   1.16997    0.026
 4166.00    1.19078   1.16787    0.026
 4167.00    1.13022   1.16235    0.026
 4168.00    1.06897   1.15940    0.026
 4169.00    0.96271   1.15495    0.026
 4170.00    0.79054   1.15029    0.026
 4171.00    0.71872   1.15079    0.026
 4172.00    0.77614   1.14862    0.026
 4173.00    0.83998   1.14637    0.026
 4174.00    0.91110   1.14862    0.026
 4175.00    1.07126   1.14773    0.026
 4176.00    1.32055   1.14809    0.027
 4177.00    1.35259   1.15242    0.027
 4178.00    1.19288   1.15225    0.027
 4179.00    1.14829   1.15391    0.027
 4180.00    1.19323   1.15799    0.026
 4181.00    1.15655   1.15701    0.026
 4182.00    1.06403   1.16074    0.027
 4183.00    0.99263   1.16463    0.027
 4184.00    0.93390   1.16082    0.027
 4185.00    1.01533   1.16239    0.027
 4186.00    1.17007   1.16607    0.027
 4187.00    1.20113   1.16415    0.026
 4188.00    1.17609   1.16258    0.026
 4189.00    1.19352   1.16212    0.026
 4190.00    1.22753   1.16239    0.026
 4191.00    1.21861   1.16177    0.027
 4192.00    1.19543   1.15738    0.027
 4193.00    1.15804   1.15623    0.027
 4194.00    1.11669   1.15877    0.027
 4195.00    0.98086   1.15517    0.027
 4196.00    0.82335   1.15251    0.027
 4197.00    0.98325   1.15830    0.027
 4198.00    1.20148   1.15903    0.027
 4199.00    1.11285   1.15694    0.027
 4200.00    0.98084   1.16332    0.027
 4201.00    1.08125   1.16629    0.026
 4202.00    1.20537   1.16715    0.026
 4203.00    1.24046   1.17359    0.026
 4204.00    1.26974   1.17549    0.026
 4205.00    1.12869   1.17891    0.026
 4206.00    0.98290   1.18399    0.025
 4207.00    1.15959   1.18252    0.026
 4208.00    1.32895   1.18601    0.026
 4209.00    1.28293   1.18833    0.026
 4210.00    1.23834   1.18418    0.026
 4211.00    1.21463   1.18652    0.026
 4212.00    1.19302   1.18284    0.026
 4213.00    1.19120   1.17460    0.026
 4214.00    1.18060   1.17712    0.026
 4215.00    1.10961   1.17230    0.026
 4216.00    1.09657   1.16267    0.026
 4217.00    1.39148   1.16136    0.026
 4218.00    1.62518   1.15478    0.026
 4219.00    1.59741   1.14713    0.025
 4220.00    1.51571   1.14352    0.025
 4221.00    1.24402   1.13625    0.025
 4222.00    1.04347   1.13429    0.025
 4223.00    1.05354   1.13095    0.025
 4224.00    1.05714   1.12328    0.025
 4225.00    1.04437   1.12946    0.024
 4226.00    1.04927   1.13324    0.024
 4227.00    1.09255   1.12862    0.024
 4228.00    1.06685   1.13621    0.024
 4229.00    0.91107   1.14144    0.024
 4230.00    0.85893   1.13942    0.023
 4231.00    0.97739   1.14806    0.023
 4232.00    1.07103   1.15472    0.023
 4233.00    1.12884   1.15449    0.023
 4234.00    1.13868   1.16109    0.023
 4235.00    1.08761   1.16783    0.023
 4236.00    1.11086   1.16917    0.023
 4237.00    1.21725   1.17229    0.023
 4238.00    1.28553   1.17785    0.023
 4239.00    1.31620   1.17919    0.023
 4240.00    1.32989   1.17845    0.023
 4241.00    1.32881   1.18016    0.023
 4242.00    1.30025   1.18134    0.023
 4243.00    1.25062   1.18084    0.023
 4244.00    1.21294   1.17750    0.024
 4245.00    1.18331   1.17654    0.024
 4246.00    1.16658   1.17911    0.024
 4247.00    1.15747   1.17464    0.024
 4248.00    1.22676   1.17203    0.025
 4249.00    1.33642   1.17623    0.025
 4250.00    1.41474   1.17456    0.025
 4251.00    1.47910   1.17230    0.025
 4252.00    1.33215   1.17323    0.025
 4253.00    1.10418   1.17433    0.024
 4254.00    1.05153   1.17619    0.024
 4255.00    1.05602   1.17476    0.024
 4256.00    1.03979   1.17567    0.024
 4257.00    1.01789   1.17748    0.024
 4258.00    1.06470   1.17463    0.024
 4259.00    1.12689   1.17614    0.024
 4260.00    1.26190   1.17810    0.024
 4261.00    1.40992   1.17444    0.024
 4262.00    1.21053   1.17222    0.024
 4263.00    0.96361   1.17161    0.024
 4264.00    1.06902   1.16898    0.024
 4265.00    1.20886   1.16322    0.024
 4266.00    1.25292   1.16032    0.024
 4267.00    1.29113   1.16143    0.024
 4268.00    1.18470   1.15354    0.024
 4269.00    1.07452   1.14888    0.024
 4270.00    0.99554   1.15426    0.024
 4271.00    0.92463   1.14881    0.023
 4272.00    1.06715   1.14523    0.024
 4273.00    1.19306   1.14972    0.024
 4274.00    1.09072   1.14576    0.024
 4275.00    1.00912   1.14615    0.024
 4276.00    1.11596   1.14720    0.025
 4277.00    1.18074   1.14094    0.025
 4278.00    0.96538   1.14321    0.025
 4279.00    0.84605   1.14099    0.025
 4280.00    1.22384   1.13307    0.025
 4281.00    1.50851   1.13500    0.025
 4282.00    1.40446   1.12938   -2.000
 4283.00    1.27002   1.11935   -2.000
 4284.00    1.03069   1.11824   -2.000
 4285.00    0.80217   1.11078   -2.000
 4286.00    0.60508   1.10136   -2.000
 4287.00    0.55498   1.09622   -2.000
 4288.00    0.86943   1.08519   -2.000
 4289.00    1.09127   1.07852   -2.000
 4290.00    1.11509   1.07207   -2.000
 4291.00    1.11909   1.05743   -2.000
 4292.00    1.08626   1.05152   -2.000
 4293.00    1.00521   1.04315   -2.000
 4294.00    0.84596   1.02863   -2.000
 4295.00    0.87496   1.02541   -2.000
 4296.00    1.17178   1.01592   -2.000
 4297.00    1.25068   1.00424   -2.000
 4298.00    1.05682   1.00535    0.025
 4299.00    0.90644   0.99905    0.025
 4300.00    0.80403   0.99405    0.025
 4301.00    0.76307   0.99961    0.025
 4302.00    0.78192   0.99848    0.025
 4303.00    0.80963   1.00220    0.025
 4304.00    0.84494   1.01357    0.025
 4305.00    0.91493   1.01869    0.025
 4306.00    1.01113   1.02947    0.025
 4307.00    0.97379   1.04683    0.025
 4308.00    0.84778   1.05812    0.025
 4309.00    0.88648   1.07204    0.025
 4310.00    1.02097   1.09218    0.024
 4311.00    1.07481   1.10558    0.024
 4312.00    1.08779   1.11778    0.024
 4313.00    1.22291   1.13658    0.024
 4314.00    1.41163   1.14800    0.024
 4315.00    1.48099   1.15534    0.024
 4316.00    1.50539   1.16831    0.024
 4317.00    1.49076   1.17401    0.024
 4318.00    1.46364   1.17686    0.024
 4319.00    1.40864   1.18361    0.024
 4320.00    1.34620   1.18327    0.024
 4321.00    1.27764   1.18391    0.024
 4322.00    1.20773   1.18599    0.024
 4323.00    1.19021   1.18179    0.025
 4324.00    1.18180   1.18063    0.025
 4325.00    1.22114   1.17884    0.025
 4326.00    1.26679   1.17308    0.025
 4327.00    1.26658   1.16950    0.024
 4328.00    1.26209   1.16220    0.024
 4329.00    1.36454   1.15543    0.024
 4330.00    1.47312   1.15193    0.000
 4331.00    1.45899   1.13987    0.000
 4332.00    1.44167   1.13182    0.000
 4333.00    1.38595   1.13125    0.000
 4334.00    1.32934   1.11827    0.000
 4335.00    1.25116   1.11082    0.000
 4336.00    1.17216   1.11599    0.000
 4337.00    1.08255   1.10851    0.000
 4338.00    1.01296   1.10509    0.000
 4339.00    1.11822   1.11534    0.000
 4340.00    1.20375   1.11617    0.000
 4341.00    1.16177   1.11898    0.000
 4342.00    1.11710   1.13052    0.000
 4343.00    1.05883   1.13733    0.000
 4344.00    1.00756   1.14731    0.000
 4345.00    0.98486   1.15782    0.000
 4346.00    0.97527   1.16525    0.000
 4347.00    1.00999   1.17989    0.000
 4348.00    1.05175   1.19075    0.000
 4349.00    1.11360   1.19652    0.000
 4350.00    1.16449   1.21059    0.000
 4351.00    1.18870   1.22224    0.024
 4352.00    1.21563   1.22790    0.024
 4353.00    1.24828   1.23800    0.024
 4354.00    1.27412   1.24781    0.029
 4355.00    1.28750   1.25416    0.076
 4356.00    1.29215   1.26111   -1.000
 4357.00    1.28286   1.26712   -1.000
 4358.00    1.33281   1.27171   -1.000
 4359.00    1.46582   1.27642   -1.000
 4360.00    1.48389   1.27915   -1.000
 4361.00    1.36017   1.27934   -1.000
 4362.00    1.30923   1.28033    0.096
 4363.00    1.33745   1.28100    0.031
 4364.00    1.32319   1.27782    0.023
 4365.00    1.26818   1.27459    0.023
 4366.00    1.14840   1.27311    0.023
 4367.00    0.97384   1.26842    0.023
 4368.00    0.99458   1.26186    0.023
 4369.00    1.16079   1.25778    0.023
 4370.00    1.18628   1.25288    0.023
 4371.00    1.11969   1.24548    0.023
 4372.00    1.04734   1.24064    0.023
 4373.00    0.97170   1.23576    0.023
 4374.00    1.00933   1.22751    0.023
 4375.00    1.10346   1.22318    0.023
 4376.00    1.22972   1.21999    0.023
 4377.00    1.36984   1.21179    0.023
 4378.00    1.30065   1.20749    0.023
 4379.00    1.15401   1.20716    0.023
 4380.00    1.07559   1.20408    0.023
 4381.00    1.01855   1.20226    0.023
 4382.00    1.04327   1.20308    0.023
 4383.00    1.08937   1.20413    0.023
 4384.00    1.13830   1.20592    0.022
 4385.00    1.18782   1.20810    0.022
 4386.00    1.32121   1.21170    0.022
 4387.00    1.46877   1.21718    0.023
 4388.00    1.40314   1.22030    0.023
 4389.00    1.31027   1.22264    0.023
 4390.00    1.22585   1.22961    0.023
 4391.00    1.14219   1.23424    0.022
 4392.00    1.09208   1.23467    0.022
 4393.00    1.04376   1.24030    0.023
 4394.00    1.14526   1.24396    0.023
 4395.00    1.25007   1.24186    0.023
 4396.00    1.38518   1.24642    0.023
 4397.00    1.50565   1.25124    0.023
 4398.00    1.30441   1.24781    0.023
 4399.00    1.12642   1.24855    0.022
 4400.00    1.23553   1.25455    0.023
 4401.00    1.32565   1.25531    0.023
 4402.00    1.25605   1.25415    0.023
 4403.00    1.19442   1.25853    0.023
 4404.00    1.18279   1.26428    0.023
 4405.00    1.17875   1.26411    0.023
 4406.00    1.21214   1.26625    0.023
 4407.00    1.22863   1.27511    0.023
 4408.00    1.17766   1.27638    0.023
 4409.00    1.14729   1.27601    0.022
 4410.00    1.18526   1.28548    0.022
 4411.00    1.25064   1.28857    0.022
 4412.00    1.39282   1.28752    0.022
 4413.00    1.50229   1.29523    0.023
 4414.00    1.53340   1.29848    0.023
 4415.00    1.49130   1.29729    0.023
 4416.00    1.29768   1.30201    0.023
 4417.00    1.21737   1.30445    0.023
 4418.00    1.34100   1.30324    0.023
 4419.00    1.41574   1.30612    0.023
 4420.00    1.41350   1.30804    0.023
 4421.00    1.38349   1.30549    0.023
 4422.00    1.31510   1.30704    0.022
 4423.00    1.34990   1.30934    0.022
 4424.00    1.51019   1.30597    0.022
 4425.00    1.56073   1.30659    0.023
 4426.00    1.49359   1.30863    0.023
 4427.00    1.38053   1.30588    0.023
 4428.00    1.22402   1.30711    0.022
 4429.00    1.18637   1.30826    0.023
 4430.00    1.24783   1.30688    0.023
 4431.00    1.26691   1.30949    0.023
 4432.00    1.25489   1.30989    0.023
 4433.00    1.31851   1.31016    0.023
 4434.00    1.43090   1.31339    0.022
 4435.00    1.48435   1.31257    0.023
 4436.00    1.50454   1.31468    0.023
 4437.00    1.39498   1.31835    0.023
 4438.00    1.22172   1.31571    0.023
 4439.00    1.25648   1.31847    0.023
 4440.00    1.37952   1.32196    0.023
 4441.00    1.28293   1.31733    0.023
 4442.00    1.10653   1.31903    0.023
 4443.00    1.19008   1.32108    0.023
 4444.00    1.35357   1.31531    0.023
 4445.00    1.45905   1.31539    0.023
 4446.00    1.54969   1.31443    0.023
 4447.00    1.48122   1.30822    0.023
 4448.00    1.37958   1.30811    0.023
 4449.00    1.39478   1.30486    0.023
 4450.00    1.42917   1.29838    0.023
 4451.00    1.29260   1.29945    0.023
 4452.00    1.13496   1.29592    0.023
 4453.00    1.22654   1.29013    0.022
 4454.00    1.33931   1.29356    0.022
 4455.00    1.38794   1.29230    0.022
 4456.00    1.43340   1.28876    0.022
 4457.00    1.35926   1.29406    0.022
 4458.00    1.28679   1.29610    0.022
 4459.00    1.43862   1.29611    0.022
 4460.00    1.58030   1.30248    0.022
 4461.00    1.51638   1.30750    0.000
 4462.00    1.44781   1.31128    0.000
 4463.00    1.32458   1.31784    0.000
 4464.00    1.20639   1.32436    0.000
 4465.00    1.12911   1.33085    0.000
 4466.00    1.08674   1.33662    0.000
 4467.00    1.25687   1.34271    0.000
 4468.00    1.39348   1.35012    0.000
 4469.00    1.36923   1.35463    0.000
 4470.00    1.34351   1.35889    0.000
 4471.00    1.31209   1.36550    0.000
 4472.00    1.29537   1.36851    0.000
 4473.00    1.32642   1.37036    0.000
 4474.00    1.39499   1.37539    0.000
 4475.00    1.56679   1.37717    0.000
 4476.00    1.64189   1.37683    0.000
 4477.00    1.48915   1.37997    0.000
 4478.00    1.43435   1.38087    0.000
 4479.00    1.57905   1.37934    0.000
 4480.00    1.62729   1.38143    0.000
 4481.00    1.50455   1.38211    0.000
 4482.00    1.42901   1.38016    0.022
 4483.00    1.42667   1.38176    0.022
 4484.00    1.38434   1.38282    0.022
 4485.00    1.28754   1.38162    0.022
 4486.00    1.27521   1.38341    0.022
 4487.00    1.36415   1.38531    0.022
 4488.00    1.39480   1.38574    0.022
 4489.00    1.36380   1.38800    0.022
 4490.00    1.32966   1.39101    0.022
 4491.00    1.29260   1.39379    0.022
 4492.00    1.36602   1.39688    0.022
 4493.00    1.53028   1.40095    0.022
 4494.00    1.59941   1.40579    0.022
 4495.00    1.59972   1.40957    0.022
 4496.00    1.53894   1.41413    0.022
 4497.00    1.43936   1.41992    0.022
 4498.00    1.42362   1.42379    0.022
 4499.00    1.45447   1.42773    0.022
 4500.00    1.49771   1.43270    0.022
 4501.00    1.54694   1.43586    0.022
 4502.00    1.51418   1.43804    0.022
 4503.00    1.44722   1.44057    0.022
 4504.00    1.55028   1.44227    0.022
 4505.00    1.71402   1.44193    0.022
 4506.00    1.71465   1.44138    0.022
 4507.00    1.66611   1.44119    0.022
 4508.00    1.59796   1.43813    0.022
 4509.00    1.52491   1.43484    0.022
 4510.00    1.55938   1.43264    0.022
 4511.00    1.61570   1.42719    0.022
 4512.00    1.52010   1.42217    0.022
 4513.00    1.40026   1.41795    0.022
 4514.00    1.51686   1.41068    0.022
 4515.00    1.66155   1.40494    0.022
 4516.00    1.55145   1.39895    0.022
 4517.00    1.42074   1.39068    0.022
 4518.00    1.56899   1.38505    0.022
 4519.00    1.72993   1.37807    0.022
 4520.00    1.58471   1.37000    0.022
 4521.00    1.43723   1.36530    0.022
 4522.00    1.36633   1.35878    0.022
 4523.00    1.29425   1.35242    0.021
 4524.00    1.20024   1.34955    0.021
 4525.00    1.12481   1.34525    0.021
 4526.00    1.25762   1.34178    0.021
 4527.00    1.37553   1.34143    0.021
 4528.00    1.37682   1.34057    0.021
 4529.00    1.38914   1.34021    0.021
 4530.00    1.46664   1.34235    0.022
 4531.00    1.52522   1.34481    0.022
 4532.00    1.49523   1.34660    0.021
 4533.00    1.46712   1.35032    0.021
 4534.00    1.44616   1.35457    0.022
 4535.00    1.40955   1.35688    0.022
 4536.00    1.32300   1.36086    0.022
 4537.00    1.28979   1.36481    0.022
 4538.00    1.40069   1.36636    0.022
 4539.00    1.45484   1.36974    0.022
 4540.00    1.37749   1.37189    0.022
 4541.00    1.35294   1.37243    0.021
 4542.00    1.43423   1.37530    0.022
 4543.00    1.50003   1.37554    0.022
 4544.00    1.53878   1.37579    0.022
 4545.00    1.50586   1.37897    0.022
 4546.00    1.36341   1.37839    0.022
 4547.00    1.29179   1.37936    0.022
 4548.00    1.31523   1.38352    0.022
 4549.00    1.37556   1.38352    0.022
 4550.00    1.47949   1.38572    0.000
 4551.00    1.56018   1.39079    0.000
 4552.00    1.61665   1.39223    0.000
 4553.00    1.62450   1.39530    0.000
 4554.00    1.58767   1.40042    0.000
 4555.00    1.55201   1.40335    0.000
 4556.00    1.51731   1.40623    0.000
 4557.00    1.49451   1.41035    0.000
 4558.00    1.48020   1.41435    0.000
 4559.00    1.44910   1.41595    0.000
 4560.00    1.40750   1.41833    0.000
 4561.00    1.43763   1.42297    0.000
 4562.00    1.50701   1.42260    0.000
 4563.00    1.44981   1.42306    0.000
 4564.00    1.33245   1.42796    0.000
 4565.00    1.31441   1.42561    0.000
 4566.00    1.33711   1.42426    0.000
 4567.00    1.37792   1.42899    0.000
 4568.00    1.42508   1.42512    0.000
 4569.00    1.52908   1.42237    0.000
 4570.00    1.64989   1.42643    0.000
 4571.00    1.48304   1.42172    0.000
 4572.00    1.24573   1.41823    0.000
 4573.00    1.20646   1.42130    0.000
 4574.00    1.20643   1.41652    0.000
 4575.00    1.36441   1.41319    0.000
 4576.00    1.54686   1.41539    0.000
 4577.00    1.57899   1.41116    0.000
 4578.00    1.59392   1.40888    0.000
 4579.00    1.48772   1.41062    0.000
 4580.00    1.37221   1.40733    0.000
 4581.00    1.41947   1.40663    0.000
 4582.00    1.47350   1.40822    0.000
 4583.00    1.40374   1.40588    0.000
 4584.00    1.33523   1.40680    0.000
 4585.00    1.36669   1.40822    0.000
 4586.00    1.39594   1.40663    0.000
 4587.00    1.38661   1.40886    0.000
 4588.00    1.38334   1.40995    0.000
 4589.00    1.44499   1.40893    0.000
 4590.00    1.48829   1.41219    0.000
 4591.00    1.39291   1.41298    0.000
 4592.00    1.30647   1.41250    0.000
 4593.00    1.27140   1.41671    0.000
 4594.00    1.26261   1.41755    0.000
 4595.00    1.37382   1.41766    0.000
 4596.00    1.46017   1.42281    0.000
 4597.00    1.45351   1.42420    0.000
 4598.00    1.43534   1.42478    0.000
 4599.00    1.38117   1.43068    0.000
 4600.00    1.36132   1.43298    0.000
 4601.00    1.43251   1.43357    0.000
 4602.00    1.50290   1.43978    0.000
 4603.00    1.57146   1.44301    0.000
 4604.00    1.59887   1.44289    0.000
 4605.00    1.54508   1.44882    0.000
 4606.00    1.46503   1.45277    0.000
 4607.00    1.33982   1.45127    0.000
 4608.00    1.29590   1.45639    0.000
 4609.00    1.37439   1.46082    0.000
 4610.00    1.42125   1.45767    0.000
 4611.00    1.42624   1.46159    0.000
 4612.00    1.47227   1.46638    0.000
 4613.00    1.56615   1.46188    0.000
 4614.00    1.62646   1.46421    0.000
 4615.00    1.65228   1.46920    0.000
 4616.00    1.61832   1.46412    0.000
 4617.00    1.53017   1.46453    0.000
 4618.00    1.47354   1.46927    0.000
 4619.00    1.44208   1.46451    0.000
 4620.00    1.39991   1.46285    0.000
 4621.00    1.35021   1.46657    0.000
 4622.00    1.40434   1.46281    0.000
 4623.00    1.52248   1.45938    0.000
 4624.00    1.49223   1.46131    0.000
 4625.00    1.38206   1.45867    0.000
 4626.00    1.39980   1.45433    0.000
 4627.00    1.47737   1.45411    0.000
 4628.00    1.48808   1.45217    0.000
 4629.00    1.47184   1.44799    0.000
 4630.00    1.51994   1.44599    0.000
 4631.00    1.59017   1.44401    0.000
 4632.00    1.50675   1.44082    0.000
 4633.00    1.37882   1.43798    0.000
 4634.00    1.43027   1.43542    0.000
 4635.00    1.52468   1.43352    0.000
 4636.00    1.51328   1.43092    0.000
 4637.00    1.48145   1.42780    0.000
 4638.00    1.41843   1.42707    0.000
 4639.00    1.35072   1.42544    0.000
 4640.00    1.27862   1.42238    0.000
 4641.00    1.20604   1.42263    0.000
 4642.00    1.44727   1.42213    0.000
 4643.00    1.71132   1.41998    0.000
 4644.00    1.64995   1.42113    0.000
 4645.00    1.57627   1.42143    0.000
 4646.00    1.54355   1.42068    0.000
 4647.00    1.50618   1.42268    0.000
 4648.00    1.28877   1.42306    0.000
 4649.00    1.08826   1.42344    0.000
 4650.00    1.16417   1.42599    0.000
 4651.00    1.24969   1.42561    0.000
 4652.00    1.43361   1.42620    0.000
 4653.00    1.59156   1.42875    0.000
 4654.00    1.55986   1.42702    0.000
 4655.00    1.52638   1.42670    0.000
 4656.00    1.48292   1.42876    0.000
 4657.00    1.45042   1.42574    0.000
 4658.00    1.46685   1.42396    0.000
 4659.00    1.48916   1.42546    0.000
 4660.00    1.53306   1.42202    0.000
 4661.00    1.52839   1.41914    0.000
 4662.00    1.37470   1.42045    0.000
 4663.00    1.28753   1.41780    0.000
 4664.00    1.37382   1.41490    0.000
 4665.00    1.42911   1.41652    0.000
 4666.00    1.41490   1.41536    0.000
 4667.00    1.40808   1.41355    0.000
 4668.00    1.41558   1.41568    0.000
 4669.00    1.41547   1.41582    0.000
 4670.00    1.40246   1.41552    0.000
 4671.00    1.39805   1.41811    0.000
 4672.00    1.40639   1.41866    0.000
 4673.00    1.44950   1.41956    0.000
 4674.00    1.53794   1.42252    0.000
 4675.00    1.50074   1.42269    0.000
 4676.00    1.31919   1.42402    0.000
 4677.00    1.27744   1.42733    0.000
 4678.00    1.37734   1.42695    0.000
 4679.00    1.41987   1.42795    0.000
 4680.00    1.41111   1.43154    0.000
 4681.00    1.44595   1.43090    0.000
 4682.00    1.51513   1.43106    0.000
 4683.00    1.49660   1.43459    0.000
 4684.00    1.41732   1.43399    0.000
 4685.00    1.40620   1.43303    0.000
 4686.00    1.43648   1.43585    0.000
 4687.00    1.46681   1.43524    0.000
 4688.00    1.49717   1.43319    0.000
 4689.00    1.49856   1.43467    0.000
 4690.00    1.48662   1.43373    0.000
 4691.00    1.40579   1.43087    0.000
 4692.00    1.29768   1.43092    0.000
 4693.00    1.34566   1.42942    0.000
 4694.00    1.44633   1.42628    0.000
 4695.00    1.45212   1.42550    0.000
 4696.00    1.43099   1.42374    0.000
 4697.00    1.42166   1.42096    0.000
 4698.00    1.41509   1.42041    0.000
 4699.00    1.42000   1.41920    0.000
 4700.00    1.42707   1.41741    0.000
 4701.00    1.45706   1.41806    0.000
 4702.00    1.49037   1.41829    0.000
 4703.00    1.41995   1.41791    0.000
 4704.00    1.33856   1.42017    0.000
 4705.00    1.39391   1.42221    0.000
 4706.00    1.45864   1.42326    0.000
 4707.00    1.48268   1.42695    0.000
 4708.00    1.50534   1.43038    0.000
 4709.00    1.46634   1.43220    0.000
 4710.00    1.42680   1.43667    0.000
 4711.00    1.37241   1.44052    0.000
 4712.00    1.32710   1.44200    0.000
 4713.00    1.42099   1.44635    0.000
 4714.00    1.49920   1.44968    0.000
 4715.00    1.42373   1.44975    0.000
 4716.00    1.36342   1.45302    0.000
 4717.00    1.41030   1.45522    0.000
 4718.00    1.44992   1.45340    0.000
 4719.00    1.45006   1.45512    0.000
 4720.00    1.43270   1.45630    0.000
 4721.00    1.33910   1.45282    0.000
 4722.00    1.30521   1.45313    0.000
 4723.00    1.48550   1.45406    0.000
 4724.00    1.61242   1.44982    0.000
 4725.00    1.57864   1.44928    0.000
 4726.00    1.53729   1.45100    0.000
 4727.00    1.47653   1.44726    0.000
 4728.00    1.45123   1.44641    0.000
 4729.00    1.50407   1.44953    0.000
 4730.00    1.53260   1.44726    0.000
 4731.00    1.51464   1.44653    0.000
 4732.00    1.48887   1.45088    0.000
 4733.00    1.45006   1.45032    0.000
 4734.00    1.43177   1.44994    0.000
 4735.00    1.44349   1.45479    0.000
 4736.00    1.45950   1.45533    0.000
 4737.00    1.48104   1.45515    0.000
 4738.00    1.43302   1.45958    0.000
 4739.00    1.30622   1.46032    0.000
 4740.00    1.25044   1.46010    0.000
 4741.00    1.26561   1.46344    0.000
 4742.00    1.35152   1.46327    0.000
 4743.00    1.49975   1.46238    0.000
 4744.00    1.52563   1.46438    0.000
 4745.00    1.45652   1.46296    0.000
 4746.00    1.46566   1.46080    0.000
 4747.00    1.52820   1.46131    0.000
 4748.00    1.58673   1.45911    0.000
 4749.00    1.64286   1.45560    0.000
 4750.00    1.57904   1.45456    0.000
 4751.00    1.45260   1.45229    0.000
 4752.00    1.36938   1.44793    0.000
 4753.00    1.30573   1.44550    0.000
 4754.00    1.32506   1.44401    0.000
 4755.00    1.37669   1.44000    0.000
 4756.00    1.37612   1.43657    0.000
 4757.00    1.35826   1.43621    0.000
 4758.00    1.31852   1.43401    0.000
 4759.00    1.27269   1.43041    0.000
 4760.00    1.32514   1.43086    0.000
 4761.00    1.40006   1.43131    0.019
 4762.00    1.42300   1.42874    0.019
 4763.00    1.43642   1.42949    0.019
 4764.00    1.36888   1.43208    0.019
 4765.00    1.28994   1.43144    0.019
 4766.00    1.33242   1.43219    0.019
 4767.00    1.38721   1.43521    0.019
 4768.00    1.45836   1.43651    0.018
 4769.00    1.53056   1.43733    0.018
 4770.00    1.55240   1.43883    0.019
 4771.00    1.57244   1.44131    0.019
 4772.00    1.45918   1.44282    0.019
 4773.00    1.35095   1.44166    0.019
 4774.00    1.38852   1.44378    0.019
 4775.00    1.42741   1.44680    0.018
 4776.00    1.48532   1.44361    0.019
 4777.00    1.54221   1.44382    0.019
 4778.00    1.58947   1.44845    0.018
 4779.00    1.62293   1.44528    0.018
 4780.00    1.56194   1.44315    0.018
 4781.00    1.50857   1.44895    0.018
 4782.00    1.49557   1.44801    0.018
 4783.00    1.46486   1.44384    0.018
 4784.00    1.35876   1.44967    0.018
 4785.00    1.28993   1.45219    0.018
 4786.00    1.35215   1.44723    0.018
 4787.00    1.41721   1.45196    0.018
 4788.00    1.49067   1.45721    0.018
 4789.00    1.52989   1.45250    0.018
 4790.00    1.48289   1.45554    0.018
 4791.00    1.47190   1.46178    0.018
 4792.00    1.53903   1.45805    0.018
 4793.00    1.54122   1.45946    0.018
 4794.00    1.42118   1.46491    0.018
 4795.00    1.38051   1.46226    0.019
 4796.00    1.47026   1.46252    0.019
 4797.00    1.47603   1.46654    0.019
 4798.00    1.36080   1.46478    0.019
 4799.00    1.29856   1.46430    0.019
 4800.00    1.30348   1.46741    0.019
 4801.00    1.30040   1.46641    0.019
 4802.00    1.28838   1.46539    0.019
 4803.00    1.36778   1.46825    0.019
 4804.00    1.53724   1.46781    0.019
 4805.00    1.62499   1.46649    0.019
 4806.00    1.64177   1.46966    0.018
 4807.00    1.60231   1.46955    0.018
 4808.00    1.51980   1.46784    0.019
 4809.00    1.44417   1.47132    0.019
 4810.00    1.37316   1.47125    0.018
 4811.00    1.37357   1.46864    0.018
 4812.00    1.41606   1.47156    0.018
 4813.00    1.41854   1.47146    0.018
 4814.00    1.40045   1.46845    0.018
 4815.00    1.48348   1.47005    0.018
 4816.00    1.61155   1.46948    0.019
 4817.00    1.56656   1.46610    0.019
 4818.00    1.45535   1.46637    0.019
 4819.00    1.54391   1.46554    0.019
 4820.00    1.69741   1.46170    0.019
 4821.00    1.68720   1.46100    0.019
 4822.00    1.63241   1.46057    0.019
 4823.00    1.58023   1.45631    0.019
 4824.00    1.52862   1.45482    0.019
 4825.00    1.46627   1.45513    0.019
 4826.00    1.40202   1.45080    0.019
 4827.00    1.37230   1.44861    0.019
 4828.00    1.34728   1.44957    0.019
 4829.00    1.31014   1.44581    0.018
 4830.00    1.27183   1.44290    0.018
 4831.00    1.31854   1.44387    0.018
 4832.00    1.37040   1.44084    0.019
 4833.00    1.45189   1.43739    0.018
 4834.00    1.53306   1.43783    0.018
 4835.00    1.41444   1.43449    0.018
 4836.00    1.30219   1.42960    0.019
 4837.00    1.35590   1.42956    0.019
 4838.00    1.39960   1.42615    0.018
 4839.00    1.30672   1.41872    0.018
 4840.00    1.23445   1.41679    0.018
 4841.00    1.34856   1.41314    0.018
 4842.00    1.44586   1.40259    0.018
 4843.00    1.43166   1.39716    0.018
 4844.00    1.42346   1.39305    0.018
 4845.00    1.44625   1.37974    0.018
 4846.00    1.46325   1.37047    0.018
 4847.00    1.45616   1.36552    0.019
 4848.00    1.44189   1.34896    0.000
 4849.00    1.40288   1.33653    0.000
 4850.00    1.38492   1.33385    0.000
 4851.00    1.42804   1.31752    0.000
 4852.00    1.44537   1.30233    0.000
 4853.00    1.39886   1.30234    0.000
 4854.00    1.34379   1.29061    0.000
 4855.00    1.27045   1.27462    0.000
 4856.00    1.28490   1.27769    0.000
 4857.00    1.46201   1.27514    0.000
 4858.00    1.56671   1.26096    0.000
 4859.00    1.55421   1.26520    0.000
 4860.00    1.52309   1.27368    0.000
 4861.00    1.46553   1.26568    0.000
 4862.00    1.40746   1.26938    0.000
 4863.00    1.34873   1.28551    0.000
 4864.00    1.37346   1.28523    0.000
 4865.00    1.49008   1.28711    0.000
 4866.00    1.46667   1.30643    0.000
 4867.00    1.30726   1.31462    0.000
 4868.00    1.25828   1.31403    0.000
 4869.00    1.30390   1.32996    0.000
 4870.00    1.33724   1.34487    0.000
 4871.00    1.36133   1.34397    0.000
 4872.00    1.39051   1.35199    0.000
 4873.00    1.42305   1.36862    0.000
 4874.00    1.45345   1.37008    0.000
 4875.00    1.48260   1.37063    0.018
 4876.00    1.45480   1.38536    0.018
 4877.00    1.39818   1.39078    0.019
 4878.00    1.37313   1.38603    0.019
 4879.00    1.36191   1.39646    0.018
 4880.00    1.38693   1.40604    0.018
 4881.00    1.42557   1.40018    0.018
 4882.00    1.42598   1.40611    0.018
 4883.00    1.41419   1.41774    0.018
 4884.00    1.42017   1.41419    0.018
 4885.00    1.43087   1.41710    0.018
 4886.00    1.46540   1.42840    0.018
 4887.00    1.50513   1.42821    0.018
 4888.00    1.42285   1.42988    0.018
 4889.00    1.31943   1.43983    0.018
 4890.00    1.38638   1.44189    0.019
 4891.00    1.47577   1.44256    0.019
 4892.00    1.47961   1.45162    0.019
 4893.00    1.47551   1.45472    0.018
 4894.00    1.50810   1.45266    0.019
 4895.00    1.54276   1.46014    0.019
 4896.00    1.57310   1.46427    0.019
 4897.00    1.60312   1.45965    0.019
 4898.00    1.60916   1.46381    0.019
 4899.00    1.61468   1.46771    0.019
 4900.00    1.60761   1.46129    0.018
 4901.00    1.59825   1.46160    0.018
 4902.00    1.55915   1.46514    0.018
 4903.00    1.52314   1.45876    0.018
 4904.00    1.51392   1.45505    0.018
 4905.00    1.50525   1.45733    0.018
 4906.00    1.50007   1.45313    0.019
 4907.00    1.49109   1.44621    0.018
 4908.00    1.46303   1.44554    0.018
 4909.00    1.44990   1.44495    0.018
 4910.00    1.49752   1.43780    0.018
 4911.00    1.51694   1.43357    0.018
 4912.00    1.44120   1.43586    0.018
 4913.00    1.40137   1.43246    0.019
 4914.00    1.46376   1.42599    0.019
 4915.00    1.51876   1.42803    0.019
 4916.00    1.55580   1.43029    0.018
 4917.00    1.56983   1.42505    0.018
 4918.00    1.53556   1.42519    0.018
 4919.00    1.52176   1.43179    0.018
 4920.00    1.54532   1.42930    0.018
 4921.00    1.54140   1.42697    0.018
 4922.00    1.49367   1.43541    0.018
 4923.00    1.45953   1.43602    0.018
 4924.00    1.44443   1.43185    0.018
 4925.00    1.42187   1.44021    0.018
 4926.00    1.39015   1.44499    0.018
 4927.00    1.41199   1.44075    0.018
 4928.00    1.49199   1.44495    0.018
 4929.00    1.51571   1.45050    0.018
 4930.00    1.48555   1.44883    0.018
 4931.00    1.47451   1.45177    0.018
 4932.00    1.47960   1.45656    0.018
 4933.00    1.45991   1.45556    0.018
 4934.00    1.42178   1.45830    0.018
 4935.00    1.43934   1.46301    0.018
 4936.00    1.49327   1.46152    0.018
 4937.00    1.48283   1.46387    0.018
 4938.00    1.43559   1.46971    0.018
 4939.00    1.46915   1.46894    0.018
 4940.00    1.54292   1.47032    0.000
 4941.00    1.47873   1.47513    0.000
 4942.00    1.35513   1.47403    0.000
 4943.00    1.40426   1.47429    0.000
 4944.00    1.51717   1.47726    0.000
 4945.00    1.56980   1.47649    0.000
 4946.00    1.60357   1.47597    0.000
 4947.00    1.65120   1.47355    0.000
 4948.00    1.70245   1.47112    0.000
 4949.00    1.64602   1.47238    0.000
 4950.00    1.56665   1.46969    0.000
 4951.00    1.60168   1.46541    0.000
 4952.00    1.65599   1.46538    0.000
 4953.00    1.59754   1.46388    0.000
 4954.00    1.52474   1.45884    0.000
 4955.00    1.54170   1.45706    0.000
 4956.00    1.56662   1.45796    0.000
 4957.00    1.50069   1.45343    0.000
 4958.00    1.42996   1.45045    0.000
 4959.00    1.45252   1.45367    0.000
 4960.00    1.47635   1.45021    0.000
 4961.00    1.46071   1.44618    0.000
 4962.00    1.44478   1.44950    0.000
 4963.00    1.42250   1.44967    0.000
 4964.00    1.40512   1.44695    0.000
 4965.00    1.44784   1.44582    0.000
 4966.00    1.48548   1.44583    0.000
 4967.00    1.48044   1.44560    0.000
 4968.00    1.47284   1.44185    0.000
 4969.00    1.44922   1.43911    0.000
 4970.00    1.43401   1.43966    0.000
 4971.00    1.46001   1.43666    0.000
 4972.00    1.47485   1.43142    0.000
 4973.00    1.44532   1.42971    0.000
 4974.00    1.41836   1.42889    0.000
 4975.00    1.39992   1.42394    0.000
 4976.00    1.40344   1.42027    0.000
 4977.00    1.46832   1.42117    0.000
 4978.00    1.49670   1.41778    0.000
 4979.00    1.43781   1.41335    0.000
 4980.00    1.40174   1.41427    0.000
 4981.00    1.41281   1.41253    0.000
 4982.00    1.39529   1.40972    0.000
 4983.00    1.32639   1.41031    0.000
 4984.00    1.26890   1.40980    0.000
 4985.00    1.22933   1.40915    0.000
 4986.00    1.22585   1.40843    0.000
 4987.00    1.27214   1.40822    0.000
 4988.00    1.34440   1.40978    0.000
 4989.00    1.44819   1.40833    0.000
 4990.00    1.50378   1.40650    0.000
 4991.00    1.50778   1.40757    0.000
 4992.00    1.46640   1.40600    0.000
 4993.00    1.38218   1.40194    0.000
 4994.00    1.39884   1.40089    0.000
 4995.00    1.49948   1.40060    0.000
 4996.00    1.48176   1.39504    0.000
 4997.00    1.37732   1.39166    0.000
 4998.00    1.31947   1.39276    0.000
 4999.00    1.29159   1.38686    0.000
 5000.00    1.29378   1.38195    0.000
 5001.00    1.31290   1.38364    0.000
 5002.00    1.36597   1.37849    0.000
 5003.00    1.43567   1.37276    0.000
 5004.00    1.42104   1.37342    0.000
 5005.00    1.37071   1.37099    0.000
 5006.00    1.35792   1.36729    0.000
 5007.00    1.35874   1.36697    0.000
 5008.00    1.33610   1.36611    0.000
 5009.00    1.30627   1.36435    0.000
 5010.00    1.33312   1.36492    0.000
 5011.00    1.37445   1.36594    0.000
 5012.00    1.33462   1.36565    0.000
 5013.00    1.27794   1.36832    0.000
 5014.00    1.35825   1.37021    0.000
 5015.00    1.46099   1.36933    0.000
 5016.00    1.36854   1.37378    0.000
 5017.00    1.25212   1.37680    0.000
 5018.00    1.20944   1.37632    0.000
 5019.00    1.17298   1.38213    0.000
 5020.00    1.09820   1.38633    0.000
 5021.00    1.02155   1.38459    0.000
 5022.00    1.22365   1.38789    0.000
 5023.00    1.42588   1.39421    0.000
 5024.00    1.37376   1.39412    0.000
 5025.00    1.32608   1.39216    0.000
 5026.00    1.36754   1.39681    0.000
 5027.00    1.40400   1.39903    0.000
 5028.00    1.38210   1.39456    0.000
 5029.00    1.35823   1.39623    0.018
 5030.00    1.31831   1.39867    0.017
 5031.00    1.29089   1.39295    0.017
 5032.00    1.33923   1.39310    0.017
 5033.00    1.38492   1.39746    0.017
 5034.00    1.41790   1.39244    0.017
 5035.00    1.44612   1.38973    0.017
 5036.00    1.45578   1.39613    0.018
 5037.00    1.44881   1.39658    0.018
 5038.00    1.38791   1.39117    0.018
 5039.00    1.35561   1.39479    0.018
 5040.00    1.40180   1.40065    0.018
 5041.00    1.40384   1.39701    0.018
 5042.00    1.30207   1.39857    0.017
 5043.00    1.25465   1.40682    0.017
 5044.00    1.31771   1.40517    0.017
 5045.00    1.37791   1.40554    0.017
 5046.00    1.43306   1.41552    0.017
 5047.00    1.45661   1.41818    0.017
 5048.00    1.43124   1.41651    0.017
 5049.00    1.42946   1.42215    0.017
 5050.00    1.45975   1.42721    0.017
 5051.00    1.47904   1.42531    0.017
 5052.00    1.48516   1.42597    0.017
 5053.00    1.50813   1.43173    0.017
 5054.00    1.54885   1.43058    0.017
 5055.00    1.55088   1.42751    0.017
 5056.00    1.51688   1.43266    0.017
 5057.00    1.48108   1.43230    0.017
 5058.00    1.44380   1.42541    0.017
 5059.00    1.42776   1.42661    0.017
 5060.00    1.42706   1.42940    0.017
 5061.00    1.42264   1.42263    0.017
 5062.00    1.41587   1.41676    0.017
 5063.00    1.40523   1.42066    0.017
 5064.00    1.39244   1.41827    0.017
 5065.00    1.40382   1.40798    0.017
 5066.00    1.42685   1.40884    0.017
 5067.00    1.42766   1.41117    0.017
 5068.00    1.41922   1.40206    0.017
 5069.00    1.44012   1.39719    0.017
 5070.00    1.47148   1.40204    0.017
 5071.00    1.45019   1.40036    0.017
 5072.00    1.41305   1.39115    0.017
 5073.00    1.40262   1.39172    0.017
 5074.00    1.39886   1.39693    0.017
 5075.00    1.37865   1.39241    0.017
 5076.00    1.35510   1.38884    0.017
 5077.00    1.34238   1.39410    0.017
 5078.00    1.33139   1.39621    0.017
 5079.00    1.31200   1.39268    0.017
 5080.00    1.29161   1.39458    0.017
 5081.00    1.36512   1.39978    0.017
 5082.00    1.44618   1.39869    0.017
 5083.00    1.47664   1.39772    0.017
 5084.00    1.50483   1.40245    0.017
 5085.00    1.42177   1.40515    0.017
 5086.00    1.33886   1.40441    0.017
 5087.00    1.32910   1.40599    0.016
 5088.00    1.31694   1.40781    0.016
 5089.00    1.26005   1.40703    0.016
 5090.00    1.21205   1.40689    0.016
 5091.00    1.26305   1.40726    0.017
 5092.00    1.31873   1.40531    0.017
 5093.00    1.41090   1.40431    0.017
 5094.00    1.47930   1.40559    0.017
 5095.00    1.40768   1.40468    0.017
 5096.00    1.33319   1.40200    0.017
 5097.00    1.24535   1.40175    0.017
 5098.00    1.16990   1.40209    0.017
 5099.00    1.14170   1.39957    0.017
 5100.00    1.12154   1.39737    0.017
 5101.00    1.12689   1.39941    0.017
 5102.00    1.15452   1.39968    0.017
 5103.00    1.24221   1.39620    0.017
 5104.00    1.28529   1.39850    0.017
 5105.00    1.22525   1.40262    0.017
 5106.00    1.20421   1.39930    0.017
 5107.00    1.26119   1.39809    0.017
 5108.00    1.28908   1.40265    0.017
 5109.00    1.26631   1.40218    0.017
 5110.00    1.27859   1.39855    0.017
 5111.00    1.34436   1.40160    0.017
 5112.00    1.40776   1.40355    0.018
 5113.00    1.46799   1.39799    0.018
 5114.00    1.49302   1.39791    0.018
 5115.00    1.47653   1.40117    0.018
 5116.00    1.45738   1.39564    0.018
 5117.00    1.43546   1.39162    0.018
 5118.00    1.38512   1.39437    0.018
 5119.00    1.30870   1.39139    0.017
 5120.00    1.32545   1.38594    0.017
 5121.00    1.41758   1.38702    0.017
 5122.00    1.42507   1.38513    0.017
 5123.00    1.37231   1.37928    0.017
 5124.00    1.31448   1.37972    0.017
 5125.00    1.25349   1.37975    0.017
 5126.00    1.23363   1.37426    0.017
 5127.00    1.23623   1.37340    0.017
 5128.00    1.29094   1.37561    0.017
 5129.00    1.37037   1.37101    0.017
 5130.00    1.28616   1.36914    0.017
 5131.00    1.13500   1.37220    0.017
 5132.00    1.16740   1.36650    0.017
 5133.00    1.26397   1.36419    0.017
 5134.00    1.31392   1.37011    0.017
 5135.00    1.35013   1.36583    0.017
 5136.00    1.37157   1.36006    0.017
 5137.00    1.38941   1.36523    0.017
 5138.00    1.43090   1.36618    0.017
 5139.00    1.47707   1.35939    0.017
 5140.00    1.45263   1.36050    0.017
 5141.00    1.41730   1.36449    0.017
 5142.00    1.36538   1.35990    0.016
 5143.00    1.31157   1.35904    0.016
 5144.00    1.29010   1.36342    0.016
 5145.00    1.27109   1.36063    0.016
 5146.00    1.29860   1.35827    0.016
 5147.00    1.32802   1.36104    0.016
 5148.00    1.33517   1.35971    0.016
 5149.00    1.34345   1.35678    0.017
 5150.00    1.40729   1.35718    0.017
 5151.00    1.46379   1.35482    0.017
 5152.00    1.39312   1.34955    0.016
 5153.00    1.33271   1.34817    0.016
 5154.00    1.38146   1.34462    0.017
 5155.00    1.43211   1.33480    0.017
 5156.00    1.49700   1.33058    0.017
 5157.00    1.54204   1.32841    0.017
 5158.00    1.47340   1.31668    0.017
 5159.00    1.41054   1.30579    0.017
 5160.00    1.37404   1.30268    0.017
 5161.00    1.32474   1.29452    0.017
 5162.00    1.22765   1.28153    0.017
 5163.00    1.16699   1.27967    0.017
 5164.00    1.21994   1.27811    0.017
 5165.00    1.25225   1.26232    0.017
 5166.00    1.22989   1.25394    0.017
 5167.00    1.21533   1.26032    0.017
 5168.00    1.21853   1.25706    0.017
 5169.00    1.21342   1.24533    0.017
 5170.00    1.19195   1.24796    0.017
 5171.00    1.22141   1.25517    0.017
 5172.00    1.33825   1.24984    0.017
 5173.00    1.37370   1.24931    0.017
 5174.00    1.28679   1.25949    0.017
 5175.00    1.24894   1.26080    0.017
 5176.00    1.27587   1.25484    0.017
 5177.00    1.25933   1.26068    0.017
 5178.00    1.19220   1.27279    0.017
 5179.00    1.16014   1.27583    0.017
 5180.00    1.16407   1.27783    0.017
 5181.00    1.16422   1.28417    0.017
 5182.00    1.16094   1.29130    0.017
 5183.00    1.14435   1.29710    0.017
 5184.00    1.11714   1.29876    0.017
 5185.00    1.18382   1.30342    0.017
 5186.00    1.31637   1.31301    0.017
 5187.00    1.33728   1.31675    0.017
 5188.00    1.28950   1.31668    0.017
 5189.00    1.30429   1.32703    0.017
 5190.00    1.35273   1.33730    0.000
 5191.00    1.29939   1.33190    0.000
 5192.00    1.19855   1.33329    0.000
 5193.00    1.16699   1.34710    0.000
 5194.00    1.16330   1.34566    0.000
 5195.00    1.21561   1.33917    0.000
 5196.00    1.28713   1.34993    0.000
 5197.00    1.26374   1.35619    0.000
 5198.00    1.21292   1.34690    0.000
 5199.00    1.18364   1.35020    0.000
 5200.00    1.15950   1.36158    0.000
 5201.00    1.21218   1.35510    0.000
 5202.00    1.27964   1.35102    0.000
 5203.00    1.24501   1.36243    0.000
 5204.00    1.19512   1.36476    0.000
 5205.00    1.18088   1.35903    0.000
 5206.00    1.17054   1.36563    0.000
 5207.00    1.21260   1.37457    0.000
 5208.00    1.25844   1.37035    0.000
 5209.00    1.28580   1.36998    0.000
 5210.00    1.31247   1.38008    0.000
 5211.00    1.31716   1.38258    0.016
 5212.00    1.32284   1.37902    0.016
 5213.00    1.36835   1.38289    0.016
 5214.00    1.41057   1.39131    0.016
 5215.00    1.39919   1.39113    0.016
 5216.00    1.39035   1.38838    0.016
 5217.00    1.40733   1.39483    0.017
 5218.00    1.41505   1.39789    0.017
 5219.00    1.35534   1.39181    0.017
 5220.00    1.29419   1.39178    0.016
 5221.00    1.22501   1.40046    0.016
 5222.00    1.18197   1.40073    0.016
 5223.00    1.25518   1.39628    0.016
 5224.00    1.31961   1.40365    0.016
 5225.00    1.35200   1.40799    0.017
 5226.00    1.36344   1.40217    0.017
 5227.00    1.31075   1.40543    0.017
 5228.00    1.28112   1.41383    0.017
 5229.00    1.31146   1.41211    0.017
 5230.00    1.28379   1.41180    0.017
 5231.00    1.12638   1.42215    0.017
 5232.00    1.08526   1.42476    0.017
 5233.00    1.26953   1.42037    0.017
 5234.00    1.38972   1.42774    0.017
 5235.00    1.40157   1.43344    0.017
 5236.00    1.42628   1.42737    0.017
 5237.00    1.47004   1.42928    0.017
 5238.00    1.49470   1.43827    0.017
 5239.00    1.49450   1.43574    0.017
 5240.00    1.45341   1.43015    0.017
 5241.00    1.36544   1.43559    0.017
 5242.00    1.35239   1.43761    0.017
 5243.00    1.41510   1.42903    0.017
 5244.00    1.43836   1.42803    0.017
 5245.00    1.42639   1.43252    0.017
 5246.00    1.36713   1.42818    0.017
 5247.00    1.27067   1.42149    0.017
 5248.00    1.29947   1.41997    0.017
 5249.00    1.41487   1.41904    0.017
 5250.00    1.44793   1.41350    0.017
 5251.00    1.43106   1.40679    0.017
 5252.00    1.39966   1.40337    0.017
 5253.00    1.36057   1.40277    0.017
 5254.00    1.37461   1.39764    0.017
 5255.00    1.41305   1.38559    0.017
 5256.00    1.40516   1.38222    0.017
 5257.00    1.37896   1.38504    0.017
 5258.00    1.32235   1.37431    0.017
 5259.00    1.25550   1.36306    0.017
 5260.00    1.28938   1.37002    0.017
 5261.00    1.35178   1.37099    0.017
 5262.00    1.30305   1.35412    0.017
 5263.00    1.22839   1.35402    0.017
 5264.00    1.23762   1.36822    0.017
 5265.00    1.26258   1.36083    0.017
 5266.00    1.22600   1.35097    0.017
 5267.00    1.18050   1.36663    0.017
 5268.00    1.18627   1.37596    0.017
 5269.00    1.19743   1.36516    0.017
 5270.00    1.30139   1.37165    0.017
 5271.00    1.41167   1.39121    0.017
 5272.00    1.30304   1.39072    0.017
 5273.00    1.18708   1.38789    0.017
 5274.00    1.15542   1.40460    0.017
 5275.00    1.12681   1.41621    0.017
 5276.00    1.19292   1.41295    0.017
 5277.00    1.25753   1.41943    0.017
 5278.00    1.29917   1.43402    0.017
 5279.00    1.34084   1.43662    0.017
 5280.00    1.38272   1.43639    0.016
 5281.00    1.41089   1.44636    0.016
 5282.00    1.34251   1.45420    0.016
 5283.00    1.28396   1.45282    0.016
 5284.00    1.27870   1.45392    0.016
 5285.00    1.28344   1.46088    0.016
 5286.00    1.33165   1.46262    0.016
 5287.00    1.37204   1.46033    0.017
 5288.00    1.38444   1.46393    0.017
 5289.00    1.39734   1.46806    0.017
 5290.00    1.41169   1.46565    0.017
 5291.00    1.43069   1.46373    0.017
 5292.00    1.46160   1.46755    0.017
 5293.00    1.46709   1.46849    0.017
 5294.00    1.41667   1.46531    0.017
 5295.00    1.39542   1.46745    0.017
 5296.00    1.42986   1.47132    0.017
 5297.00    1.43879   1.47036    0.017
 5298.00    1.40525   1.46947    0.017
 5299.00    1.41283   1.47260    0.017
 5300.00    1.48039   1.47460    0.017
 5301.00    1.47874   1.47386    0.017
 5302.00    1.38826   1.47487    0.017
 5303.00    1.32111   1.47692    0.017
 5304.00    1.28032   1.47812    0.017
 5305.00    1.31221   1.47779    0.017
 5306.00    1.41657   1.47634    0.017
 5307.00    1.42999   1.47657    0.017
 5308.00    1.36342   1.47743    0.017
 5309.00    1.35706   1.47412    0.017
 5310.00    1.39735   1.46920    0.017
 5311.00    1.42825   1.46986    0.017
 5312.00    1.45274   1.46919    0.017
 5313.00    1.45163   1.46098    0.017
 5314.00    1.43523   1.45586    0.017
 5315.00    1.38303   1.45774    0.017
 5316.00    1.31216   1.45321    0.017
 5317.00    1.29935   1.44205    0.017
 5318.00    1.31276   1.44068    0.017
 5319.00    1.27841   1.44334    0.017
 5320.00    1.22552   1.43558    0.016
 5321.00    1.23292   1.42705    0.016
 5322.00    1.26026   1.42990    0.016
 5323.00    1.28654   1.43137    0.016
 5324.00    1.31252   1.42300    0.016
 5325.00    1.34098   1.42044    0.016
 5326.00    1.37000   1.42632    0.016
 5327.00    1.33531   1.42712    0.016
 5328.00    1.28900   1.42208    0.016
 5329.00    1.32664   1.42323    0.016
 5330.00    1.37607   1.42925    0.016
 5331.00    1.31661   1.42973    0.016
 5332.00    1.24618   1.42842    0.016
 5333.00    1.29152   1.43250    0.016
 5334.00    1.34428   1.43822    0.016
 5335.00    1.36303   1.43886    0.016
 5336.00    1.38069   1.43907    0.016
 5337.00    1.36780   1.44417    0.016
 5338.00    1.35476   1.44838    0.016
 5339.00    1.33776   1.44959    0.016
 5340.00    1.32272   1.45327    0.016
 5341.00    1.33563   1.45805    0.016
 5342.00    1.35254   1.45966    0.016
 5343.00    1.40696   1.46215    0.016
 5344.00    1.44640   1.46726    0.016
 5345.00    1.38378   1.46970    0.016
 5346.00    1.32956   1.47089    0.016
 5347.00    1.31963   1.47586    0.016
 5348.00    1.32896   1.47944    0.016
 5349.00    1.42000   1.47855    0.016
 5350.00    1.47775   1.48013    0.016
 5351.00    1.41879   1.48414    0.016
 5352.00    1.38744   1.48407    0.016
 5353.00    1.43751   1.48184    0.017
 5354.00    1.46591   1.48333    0.017
 5355.00    1.43987   1.48496    0.017
 5356.00    1.41064   1.48171    0.017
 5357.00    1.37452   1.47899    0.017
 5358.00    1.32500   1.47927    0.017
 5359.00    1.25031   1.47760    0.016
 5360.00    1.24608   1.47291    0.016
 5361.00    1.35743   1.47123    0.016
 5362.00    1.40879   1.47219    0.016
 5363.00    1.37388   1.46912    0.016
 5364.00    1.39984   1.46565    0.016
 5365.00    1.50281   1.46561    0.017
 5366.00    1.52631   1.46523    0.017
 5367.00    1.46122   1.46242    0.017
 5368.00    1.41669   1.46222   -2.000
 5369.00    1.39236   1.46469   -2.000
 5370.00    1.36783   1.46415   -2.000
 5371.00    1.34313   1.46317   -2.000
 5372.00    1.36150   1.46373   -2.000
 5373.00    1.41278   1.46488   -2.000
 5374.00    1.45471   1.46522   -2.000
 5375.00    1.49035   1.46511   -2.000
 5376.00    1.48835   1.46568   -2.000
 5377.00    1.46421   1.46662   -2.000
 5378.00    1.45878   1.46589   -2.000
 5379.00    1.46295   1.46233   -2.000
 5380.00    1.41221   1.46231   -2.000
 5381.00    1.33708   1.46382   -2.000
 5382.00    1.35980   1.45956   -2.000
 5383.00    1.41987   1.45510    0.016
 5384.00    1.34967   1.45691    0.016
 5385.00    1.23723   1.45455    0.016
 5386.00    1.28996   1.44486    0.016
 5387.00    1.38754   1.44348    0.015
 5388.00    1.46335   1.44652    0.016
 5389.00    1.53431   1.43932    0.016
 5390.00    1.47581   1.43142    0.016
 5391.00    1.39433   1.43467    0.016
 5392.00    1.36701   1.43320    0.016
 5393.00    1.34703   1.42225    0.015
 5394.00    1.27888   1.42065    0.016
 5395.00    1.20608   1.42560    0.016
 5396.00    1.29928   1.42134    0.016
 5397.00    1.40247   1.41504    0.016
 5398.00    1.38181   1.41835    0.016
 5399.00    1.35773   1.41949    0.016
 5400.00    1.30227   1.41489    0.016
 5401.00    1.25230   1.41553    0.016
 5402.00    1.34367   1.41999    0.016
 5403.00    1.42372   1.42055    0.016
 5404.00    1.35013   1.42055    0.016
 5405.00    1.28395   1.42404    0.016
 5406.00    1.28442   1.42574    0.016
 5407.00    1.29121   1.42750    0.016
 5408.00    1.33984   1.43181    0.016
 5409.00    1.38198   1.43520    0.016
 5410.00    1.39073   1.43639    0.016
 5411.00    1.38137   1.43900    0.016
 5412.00    1.29681   1.44283    0.016
 5413.00    1.24270   1.44391    0.016
 5414.00    1.29320   1.44504    0.016
 5415.00    1.36033   1.44828    0.016
 5416.00    1.47559   1.45125    0.016
 5417.00    1.52650   1.45064    0.016
 5418.00    1.41852   1.44882    0.016
 5419.00    1.36035   1.45039    0.016
 5420.00    1.40824   1.45304    0.016
 5421.00    1.39900   1.45154    0.016
 5422.00    1.28410   1.44947    0.016
 5423.00    1.23285   1.45189    0.016
 5424.00    1.28446   1.45241    0.016
 5425.00    1.33724   1.44785    0.016
 5426.00    1.39169   1.44715    0.016
 5427.00    1.43361   1.45243    0.016
 5428.00    1.45991   1.45173    0.016
 5429.00    1.45774   1.44703    0.016
 5430.00    1.42428   1.44916    0.016
 5431.00    1.35652   1.45265    0.016
 5432.00    1.25548   1.45010    0.016
 5433.00    1.26174   1.44884    0.016
 5434.00    1.35973   1.45355    0.016
 5435.00    1.44088   1.45327    0.016
 5436.00    1.50933   1.44885    0.016
 5437.00    1.50774   1.45053    0.016
 5438.00    1.45981   1.45429    0.016
 5439.00    1.44158   1.45288    0.015
 5440.00    1.44057   1.45024    0.015
 5441.00    1.43746   1.45177    0.015
 5442.00    1.43331   1.45183    0.015
 5443.00    1.39921   1.44849    0.015
 5444.00    1.35203   1.44616    0.016
 5445.00    1.30602   1.44737    0.016
 5446.00    1.26045   1.44900    0.016
 5447.00    1.27307   1.44631    0.016
 5448.00    1.30421   1.44330    0.016
 5449.00    1.28915   1.44449    0.016
 5450.00    1.26180   1.44599    0.016
 5451.00    1.27227   1.44090    0.016
 5452.00    1.29096   1.43747    0.016
 5453.00    1.36351   1.44319    0.016
 5454.00    1.44537   1.44476    0.016
 5455.00    1.48126   1.43746    0.016
 5456.00    1.51112   1.43710    0.016
 5457.00    1.41977   1.44455    0.016
 5458.00    1.31723   1.44070    0.016
 5459.00    1.32599   1.43244    0.016
 5460.00    1.34101   1.43834    0.016
 5461.00    1.28731   1.44393    0.016
 5462.00    1.23374   1.43455    0.016
 5463.00    1.35361   1.43118    0.016
 5464.00    1.46847   1.44080    0.016
 5465.00    1.46564   1.43790    0.016
 5466.00    1.46199   1.42694    0.016
 5467.00    1.44787   1.43239    0.016
 5468.00    1.43276   1.44010    0.016
 5469.00    1.40901   1.43048    0.016
 5470.00    1.39346   1.42520    0.016
 5471.00    1.43049   1.43524    0.016
 5472.00    1.44889   1.43437    0.016
 5473.00    1.37396   1.42451    0.016
 5474.00    1.31955   1.43040    0.016
 5475.00    1.34848   1.43908    0.016
 5476.00    1.35036   1.43162    0.016
 5477.00    1.26118   1.42717    0.016
 5478.00    1.20193   1.43724   -2.000
 5479.00    1.22766   1.43886   -2.000
 5480.00    1.27369   1.43272   -2.000
 5481.00    1.36899   1.43828   -2.000
 5482.00    1.44248   1.44448   -2.000
 5483.00    1.47029   1.43910   -2.000
 5484.00    1.47340   1.43800   -2.000
 5485.00    1.43155   1.44659   -2.000
 5486.00    1.41007   1.44581   -2.000
 5487.00    1.42101   1.44101   -2.000
 5488.00    1.35043   1.44642   -2.000
 5489.00    1.16598   1.44966   -2.000
 5490.00    1.16647   1.44323   -2.000
 5491.00    1.39433   1.44247   -2.000
 5492.00    1.87381   1.44911   -2.000
 5493.00    2.62595   1.44672   -2.000
 5494.00    2.71651   1.44077   -2.000
 5495.00    2.17467   1.44335   -2.000
 5496.00    1.75925   1.44639   -2.000
 5497.00    1.45036   1.44153   -2.000
 5498.00    1.36159   1.43813   -2.000
 5499.00    1.43618   1.44184   -2.000
 5500.00    1.41002   1.44288   -2.000
 5501.00    1.31818   1.43849   -2.000
 5502.00    1.24945   1.43620    0.016
 5503.00    1.19391   1.43903    0.016
 5504.00    1.22887   1.44061    0.016
 5505.00    1.30879   1.43796    0.016
 5506.00    1.31766   1.43733    0.016
 5507.00    1.29599   1.44071    0.016
 5508.00    1.34007   1.44158    0.016
 5509.00    1.40838   1.43869    0.016
 5510.00    1.40154   1.43945    0.016
 5511.00    1.37125   1.44436    0.016
 5512.00    1.35485   1.44483    0.016
 5513.00    1.34207   1.44150    0.016
 5514.00    1.39260   1.44399    0.016
 5515.00    1.45658   1.44912    0.016
 5516.00    1.39337   1.44738    0.016
 5517.00    1.30882   1.44414    0.016
 5518.00    1.32505   1.44847    0.016
 5519.00    1.35404   1.45231    0.016
 5520.00    1.41547   1.44842    0.016
 5521.00    1.47976   1.44734    0.015
 5522.00    1.40707   1.45329    0.016
 5523.00    1.32722   1.45377    0.016
 5524.00    1.29951   1.44774    0.015
 5525.00    1.27321   1.45048    0.015
 5526.00    1.28044   1.45792    0.015
 5527.00    1.28832   1.45555    0.015
 5528.00    1.31008   1.45114    0.015
 5529.00    1.32686   1.45680    0.015
 5530.00    1.28305   1.46162    0.015
 5531.00    1.24772   1.45690    0.015
 5532.00    1.28316   1.45673    0.015
 5533.00    1.32201   1.46464    0.015
 5534.00    1.38215   1.46577    0.015
 5535.00    1.41915   1.46077    0.015
 5536.00    1.34302   1.46411    0.015
 5537.00    1.28825   1.47153    0.015
 5538.00    1.31826   1.46993    0.015
 5539.00    1.34426   1.46606    0.015
 5540.00    1.35700   1.47083    0.015
 5541.00    1.36177   1.47528    0.015
 5542.00    1.34433   1.47156    0.015
 5543.00    1.33913   1.46952    0.018
 5544.00    1.36312   1.47465    0.045
 5545.00    1.36825   1.47629   -1.000
 5546.00    1.33447   1.47162   -1.000
 5547.00    1.34410   1.47061   -1.000
 5548.00    1.43157   1.47419   -1.000
 5549.00    1.48720   1.47352   -1.000
 5550.00    1.49286   1.46780   -1.000
 5551.00    1.48127   1.46717    0.075
 5552.00    1.44592   1.47027    0.022
 5553.00    1.40880   1.46790    0.016
 5554.00    1.36955   1.46170    0.016
 5555.00    1.36895   1.46169    0.016
 5556.00    1.40965   1.46465    0.016
 5557.00    1.34800   1.46015    0.016
 5558.00    1.18988   1.45396    0.016
 5559.00    1.16762   1.45567    0.016
 5560.00    1.25825   1.45795    0.016
 5561.00    1.33030   1.45091    0.016
 5562.00    1.38877   1.44692    0.016
 5563.00    1.37031   1.45156    0.016
 5564.00    1.30242   1.45091    0.016
 5565.00    1.32619   1.44291    0.015
 5566.00    1.40145   1.44280    0.015
 5567.00    1.38875   1.44784    0.015
 5568.00    1.33304   1.44298    0.015
 5569.00    1.31909   1.43704    0.015
 5570.00    1.32279   1.44064    0.015
 5571.00    1.33725   1.44194    0.015
 5572.00    1.35559   1.43492    0.015
 5573.00    1.36509   1.43322    0.015
 5574.00    1.37187   1.43615    0.015
 5575.00    1.31115   1.43311    0.015
 5576.00    1.23323   1.42840    0.015
 5577.00    1.23658   1.42899    0.015
 5578.00    1.25676   1.42847    0.015
 5579.00    1.31650   1.42292    0.015
 5580.00    1.38269   1.42160    0.015
 5581.00    1.35059   1.42412    0.015
 5582.00    1.30647   1.42060    0.015
 5583.00    1.31184   1.41431    0.015
 5584.00    1.32137   1.41574    0.016
 5585.00    1.26401   1.41809    0.015
 5586.00    1.20341   1.41386    0.015
 5587.00    1.25276   1.41148    0.015
 5588.00    1.30393   1.41538    0.016
 5589.00    1.36480   1.41674    0.016
 5590.00    1.41770   1.41163    0.016
 5591.00    1.31231   1.41270    0.016
 5592.00    1.21938   1.42025    0.016
 5593.00    1.27107   1.42064    0.016
 5594.00    1.31514   1.41566    0.016
 5595.00    1.29797   1.41911    0.016
 5596.00    1.28969   1.42629    0.017
 5597.00    1.33504   1.42606    0.017
 5598.00    1.36983   1.42528    0.017
 5599.00    1.35429   1.42953    0.017
 5600.00    1.32842   1.43255    0.017
 5601.00    1.26240   1.43220    0.017
 5602.00    1.23631   1.43543    0.017
 5603.00    1.33938   1.43935    0.016
 5604.00    1.41196   1.43833    0.016
 5605.00    1.40098   1.43836    0.016
 5606.00    1.39370   1.44205    0.016
 5607.00    1.39506   1.44255    0.016
 5608.00    1.36807   1.44080    0.015
 5609.00    1.28355   1.44355    0.015
 5610.00    1.26613   1.44538    0.015
 5611.00    1.36720   1.44097    0.015
 5612.00    1.43489   1.43997    0.015
 5613.00    1.45098   1.44552    0.015
 5614.00    1.41112   1.44697    0.015
 5615.00    1.29534   1.44215    0.015
 5616.00    1.26024   1.44131    0.015
 5617.00    1.32154   1.44536    0.015
 5618.00    1.33602   1.44646    0.014
 5619.00    1.30116   1.44406    0.014
 5620.00    1.29248   1.44377    0.014
 5621.00    1.30811   1.44588    0.014
 5622.00    1.34639   1.44613    0.014
 5623.00    1.40323   1.44526    0.015
 5624.00    1.40648   1.44672    0.015
 5625.00    1.37108   1.44889    0.015
 5626.00    1.37899   1.44830    0.015
 5627.00    1.41429   1.44753    0.015
 5628.00    1.43344   1.44869    0.015
 5629.00    1.44365   1.44975    0.015
 5630.00    1.46608   1.44919    0.015
 5631.00    1.49439   1.44899    0.015
 5632.00    1.48063   1.44921    0.015
 5633.00    1.44939   1.44875    0.016
 5634.00    1.42100   1.44853    0.016
 5635.00    1.39363   1.44925    0.016
 5636.00    1.36391   1.44877    0.016
 5637.00    1.33349   1.44780    0.015
 5638.00    1.28702   1.44803    0.015
 5639.00    1.23657   1.44702    0.015
 5640.00    1.29327   1.44576    0.015
 5641.00    1.37161   1.44726    0.016
 5642.00    1.33356   1.44669    0.015
 5643.00    1.27708   1.44236    0.015
 5644.00    1.24158   1.44252    0.015
 5645.00    1.20854   1.44623    0.015
 5646.00    1.27170   1.44291    0.015
 5647.00    1.34254   1.43700    0.015
 5648.00    1.38305   1.44066    0.015
 5649.00    1.42220   1.44483    0.015
 5650.00    1.38286   1.43716    0.015
 5651.00    1.34341   1.43211    0.014
 5652.00    1.34152   1.44047    0.014
 5653.00    1.34033   1.44292    0.014
 5654.00    1.35197   1.43186    0.014
 5655.00    1.35653   1.43040    0.014
 5656.00    1.28256   1.44119    0.014
 5657.00    1.21960   1.44161    0.014
 5658.00    1.24208   1.43269    0.014
 5659.00    1.26641   1.43443    0.014
 5660.00    1.30162   1.44287    0.014
 5661.00    1.32801   1.44215    0.014
 5662.00    1.31332   1.43814    0.014
 5663.00    1.31241   1.44109    0.014
 5664.00    1.36393   1.44592    0.014
 5665.00    1.40035   1.44533    0.015
 5666.00    1.38885   1.44466    0.015
 5667.00    1.37407   1.44661    0.015
 5668.00    1.35044   1.44946    0.015
 5669.00    1.31544   1.45096    0.015
 5670.00    1.25420   1.45030    0.015
 5671.00    1.23443   1.44928    0.016
 5672.00    1.29748   1.45156    0.016
 5673.00    1.32691   1.45481    0.016
 5674.00    1.29788   1.45246    0.016
 5675.00    1.29029   1.44934    0.016
 5676.00    1.31535   1.45203    0.016
 5677.00    1.33785   1.45551    0.015
 5678.00    1.35694   1.45158    0.016
 5679.00    1.38634   1.44761    0.016
 5680.00    1.42787   1.45100    0.015
 5681.00    1.44800   1.45386    0.015
 5682.00    1.44590   1.44923    0.015
 5683.00    1.40875   1.44568    0.015
 5684.00    1.33947   1.44936    0.015
 5685.00    1.31659   1.45073    0.015
 5686.00    1.33117   1.44529    0.015
 5687.00    1.38039   1.44328    0.015
 5688.00    1.45424   1.44772    0.015
 5689.00    1.41443   1.44689    0.015
 5690.00    1.30375   1.43977    0.014
 5691.00    1.25315   1.43961    0.014
 5692.00    1.23528   1.44421    0.014
 5693.00    1.26707   1.44060    0.014
 5694.00    1.32238   1.43375    0.014
 5695.00    1.32333   1.43592    0.014
 5696.00    1.30207   1.43902    0.014
 5697.00    1.32127   1.43310    0.014
 5698.00    1.35459   1.42898    0.015
 5699.00    1.37205   1.43307    0.015
 5700.00    1.38485   1.43407    0.015
 5701.00    1.40109   1.42837    0.014
 5702.00    1.41816   1.42818    0.014
 5703.00    1.38582   1.43281    0.014
 5704.00    1.34374   1.43160    0.014
 5705.00    1.30913   1.42881    0.014
 5706.00    1.27565   1.43296    0.014
 5707.00    1.32442   1.43656    0.014
 5708.00    1.38251   1.43460    0.014
 5709.00    1.37603   1.43636    0.015
 5710.00    1.36465   1.44242    0.015
 5711.00    1.40225   1.44463    0.015
 5712.00    1.44185   1.44369    0.015
 5713.00    1.39410   1.44766    0.015
 5714.00    1.34632   1.45324    0.015
 5715.00    1.32536   1.45413    0.015
 5716.00    1.30607   1.45443    0.015
 5717.00    1.31565   1.45955    0.015
 5718.00    1.33010   1.46351    0.014
 5719.00    1.39603   1.46222    0.015
 5720.00    1.45320   1.46349    0.015
 5721.00    1.44469   1.46907    0.015
 5722.00    1.43252   1.47104    0.015
 5723.00    1.39944   1.46792    0.015
 5724.00    1.36382   1.46925    0.015
 5725.00    1.31665   1.47430    0.015
 5726.00    1.29970   1.47515    0.014
 5727.00    1.39515   1.47204    0.014
 5728.00    1.45875   1.47274    0.014
 5729.00    1.42322   1.47599    0.014
 5730.00    1.40166   1.47600    0.014
 5731.00    1.41700   1.47408    0.014
 5732.00    1.42785   1.47454    0.014
 5733.00    1.42850   1.47606    0.014
 5734.00    1.41983   1.47529    0.014
 5735.00    1.39284   1.47384    0.014
 5736.00    1.38818   1.47395    0.014
 5737.00    1.42172   1.47495    0.014
 5738.00    1.43972   1.47443    0.014
 5739.00    1.43440   1.47269    0.014
 5740.00    1.39485   1.47141    0.000
 5741.00    1.31018   1.47242    0.000
 5742.00    1.29594   1.47297    0.000
 5743.00    1.36347   1.47108    0.000
 5744.00    1.41441   1.46878    0.000
 5745.00    1.44834   1.46933    0.000
 5746.00    1.45459   1.46993    0.000
 5747.00    1.43583   1.46870    0.000
 5748.00    1.43818   1.46744    0.000
 5749.00    1.45733   1.46744    0.000
 5750.00    1.47106   1.46694    0.000
 5751.00    1.48099   1.46594    0.000
 5752.00    1.46931   1.46642    0.000
 5753.00    1.44436   1.46690    0.000
 5754.00    1.43160   1.46560    0.000
 5755.00    1.42537   1.46406    0.000
 5756.00    1.41520   1.46560    0.000
 5757.00    1.40319   1.46637    0.000
 5758.00    1.40143   1.46425    0.000
 5759.00    1.40377   1.46284    0.000
 5760.00    1.40209   1.46472    0.000
 5761.00    1.39905   1.46473    0.000
 5762.00    1.38051   1.46224    0.000
 5763.00    1.35750   1.46170    0.000
 5764.00    1.40918   1.46267    0.000
 5765.00    1.47865   1.46104    0.000
 5766.00    1.47030   1.45830    0.000
 5767.00    1.44702   1.45840    0.000
 5768.00    1.40929   1.45853    0.000
 5769.00    1.36941   1.45545    0.000
 5770.00    1.34152   1.45274    0.000
 5771.00    1.31494   1.45362    0.000
 5772.00    1.37572   1.45299    0.000
 5773.00    1.44277   1.44856    0.000
 5774.00    1.42279   1.44679    0.000
 5775.00    1.39960   1.44905    0.000
 5776.00    1.39153   1.44805    0.000
 5777.00    1.38476   1.44354    0.000
 5778.00    1.42196   1.44327    0.000
 5779.00    1.45569   1.44650    0.000
 5780.00    1.43368   1.44610    0.000
 5781.00    1.41136   1.44329    0.000
 5782.00    1.38597   1.44410    0.000
 5783.00    1.36308   1.44760    0.000
 5784.00    1.35837   1.44851    0.000
 5785.00    1.35774   1.44754    0.000
 5786.00    1.37986   1.44905    0.000
 5787.00    1.40485   1.45314    0.000
 5788.00    1.44261   1.45499    0.000
 5789.00    1.45752   1.45426    0.000
 5790.00    1.38920   1.45626    0.000
 5791.00    1.33866   1.46133   -2.000
 5792.00    1.34245   1.46307   -2.000
 5793.00    1.35024   1.46178   -2.000
 5794.00    1.36846   1.46429   -2.000
 5795.00    1.39146   1.46951   -2.000
 5796.00    1.42515   1.47010   -2.000
 5797.00    1.46756   1.46846   -2.000
 5798.00    1.52688   1.47150   -2.000
 5799.00    1.55479   1.47588   -2.000
 5800.00    1.52974   1.47496   -2.000
 5801.00    1.48550   1.47349   -2.000
 5802.00    1.41288   1.47700   -2.000
 5803.00    1.37425   1.47990   -2.000
 5804.00    1.37977   1.47769   -2.000
 5805.00    1.40429   1.47723   -2.000
 5806.00    1.45057   1.48140   -2.000
 5807.00    1.48610   1.48234   -2.000
 5808.00    1.51079   1.47927   -2.000
 5809.00    1.51481   1.48023   -2.000
 5810.00    1.50045   1.48459   -2.000
 5811.00    1.48989   1.48404    0.000
 5812.00    1.48234   1.48132    0.000
 5813.00    1.46141   1.48362    0.000
 5814.00    1.43126   1.48707    0.000
 5815.00    1.45824   1.48546    0.000
 5816.00    1.51978   1.48376    0.000
 5817.00    1.51954   1.48688    0.000
 5818.00    1.48667   1.48897    0.000
 5819.00    1.44053   1.48679    0.000
 5820.00    1.38832   1.48624    0.000
 5821.00    1.40218   1.48946    0.000
 5822.00    1.44211   1.49012    0.000
 5823.00    1.47074   1.48755    0.000
 5824.00    1.49557   1.48803    0.000
 5825.00    1.47403   1.49078    0.000
 5826.00    1.43940   1.48975    0.000
 5827.00    1.44218   1.48702    0.000
 5828.00    1.45368   1.48833    0.000
 5829.00    1.42844   1.49018    0.000
 5830.00    1.39633   1.48752    0.000
 5831.00    1.40894   1.48499    0.000
 5832.00    1.42801   1.48642    0.000
 5833.00    1.42682   1.48689    0.000
 5834.00    1.42351   1.48321    0.000
 5835.00    1.43316   1.48105    0.000
 5836.00    1.44370   1.48186    0.000
 5837.00    1.42009   1.48050    0.000
 5838.00    1.39535   1.47636    0.000
 5839.00    1.40679   1.47470    0.000
 5840.00    1.41816   1.47465    0.000
 5841.00    1.42646   1.47135    0.000
 5842.00    1.43394   1.46723    0.000
 5843.00    1.42885   1.46681    0.000
 5844.00    1.42487   1.46605    0.000
 5845.00    1.43163   1.46070    0.000
 5846.00    1.43677   1.45688    0.000
 5847.00    1.43060   1.45816    0.000
 5848.00    1.42868   1.45760    0.000
 5849.00    1.44978   1.45164    0.000
 5850.00    1.45516   1.44801    0.000
 5851.00    1.39241   1.45007    0.000
 5852.00    1.34079   1.45060    0.000
 5853.00    1.32884   1.44649    0.000
 5854.00    1.33000   1.44311    0.000
 5855.00    1.37041   1.44467    0.000
 5856.00    1.40427   1.44637    0.000
 5857.00    1.42139   1.44427    0.000
 5858.00    1.41511   1.44130    0.000
 5859.00    1.35745   1.44224    0.000
 5860.00    1.32831   1.44424    0.000
 5861.00    1.35348   1.44281    0.000
 5862.00    1.37156   1.44036    0.000
 5863.00    1.37782   1.44088    0.000
 5864.00    1.37395   1.44151    0.000
 5865.00    1.35532   1.43890    0.000
 5866.00    1.36226   1.43610    0.000
 5867.00    1.40196   1.43570    0.000
 5868.00    1.42803   1.43418    0.000
 5869.00    1.43871   1.42924    0.000
 5870.00    1.42021   1.42482    0.000
 5871.00    1.37266   1.42313    0.000
 5872.00    1.33975   1.41912    0.000
 5873.00    1.31969   1.41106    0.000
 5874.00    1.33282   1.40470    0.000
 5875.00    1.37162   1.40223    0.000
 5876.00    1.39365   1.39641    0.000
 5877.00    1.40427   1.38523    0.000
 5878.00    1.38672   1.37732    0.000
 5879.00    1.35238   1.37545    0.000
 5880.00    1.30138   1.36926    0.000
 5881.00    1.24171   1.35717    0.000
 5882.00    1.24608   1.34984    0.000
 5883.00    1.27932   1.34842    0.000
 5884.00    1.33286   1.34270    0.000
 5885.00    1.39427   1.33581    0.000
 5886.00    1.38002   1.33400    0.000
 5887.00    1.34082   1.33142    0.000
 5888.00    1.32113   1.32590    0.000
 5889.00    1.30684   1.32663    0.000
 5890.00    1.25531   1.33081    0.000
 5891.00    1.19531   1.32936    0.000
 5892.00    1.20804   1.32752    0.000
 5893.00    1.23399   1.33377    0.000
 5894.00    1.22834   1.34047    0.000
 5895.00    1.21826   1.34115    0.000
 5896.00    1.23333   1.34397    0.000
 5897.00    1.25092   1.35273    0.000
 5898.00    1.29676   1.35888    0.000
 5899.00    1.34439   1.36152    0.000
 5900.00    1.33866   1.36786    0.000
 5901.00    1.33139   1.37597    0.014
 5902.00    1.33565   1.37948    0.013
 5903.00    1.34150   1.38324    0.013
 5904.00    1.39192   1.39089    0.013
 5905.00    1.43816   1.39648    0.014
 5906.00    1.42496   1.39712    0.013
 5907.00    1.41626   1.40100    0.013
 5908.00    1.44947   1.40831    0.013
 5909.00    1.47514   1.41119    0.013
 5910.00    1.44957   1.40978    0.013
 5911.00    1.42358   1.41332    0.013
 5912.00    1.39541   1.41947    0.013
 5913.00    1.37242   1.42002    0.013
 5914.00    1.37132   1.41767    0.013
 5915.00    1.37568   1.42110    0.013
 5916.00    1.39912   1.42616    0.013
 5917.00    1.42007   1.42507    0.013
 5918.00    1.43370   1.42215    0.013
 5919.00    1.43608   1.42561    0.013
 5920.00    1.41023   1.43029    0.013
 5921.00    1.39055   1.42817    0.014
 5922.00    1.38421   1.42480    0.014
 5923.00    1.36358   1.42835    0.014
 5924.00    1.31614   1.43259    0.014
 5925.00    1.28370   1.42968    0.013
 5926.00    1.27581   1.42673    0.014
 5927.00    1.31141   1.43061    0.014
 5928.00    1.40945   1.43350    0.014
 5929.00    1.47532   1.42961    0.014
 5930.00    1.50057   1.42808    0.014
 5931.00    1.50643   1.43246    0.014
 5932.00    1.49071   1.43317    0.014
 5933.00    1.47567   1.42852    0.013
 5934.00    1.46130   1.42921    0.014
 5935.00    1.46635   1.43399    0.014
 5936.00    1.48822   1.43195    0.013
 5937.00    1.48259   1.42663    0.013
 5938.00    1.45599   1.42992    0.013
 5939.00    1.45285   1.43506    0.013
 5940.00    1.46544   1.43060    0.013
 5941.00    1.47138   1.42519    0.013
 5942.00    1.47341   1.43057    0.013
 5943.00    1.45809   1.43557    0.013
 5944.00    1.43390   1.42984    0.013
 5945.00    1.40519   1.42519    0.013
 5946.00    1.37449   1.43156    0.013
 5947.00    1.39536   1.43600    0.013
 5948.00    1.43588   1.43041    0.013
 5949.00    1.45785   1.42705    0.013
 5950.00    1.47383   1.43329    0.013
 5951.00    1.46078   1.43703    0.013
 5952.00    1.43987   1.43242    0.013
 5953.00    1.45181   1.43029    0.013
 5954.00    1.47104   1.43560    0.013
 5955.00    1.45557   1.43861    0.013
 5956.00    1.43395   1.43519    0.013
 5957.00    1.39867   1.43394    0.013
 5958.00    1.36154   1.43804    0.013
 5959.00    1.38631   1.44010    0.014
 5960.00    1.41704   1.43746    0.014
 5961.00    1.40750   1.43662    0.014
 5962.00    1.39556   1.43959    0.014
 5963.00    1.39817   1.44057    0.013
 5964.00    1.40137   1.43813    0.013
 5965.00    1.43795   1.43748    0.013
 5966.00    1.47342   1.43972    0.013
 5967.00    1.48068   1.43949    0.013
 5968.00    1.48660   1.43671    0.013
 5969.00    1.47438   1.43651    0.013
 5970.00    1.46052   1.43859    0.013
 5971.00    1.43203   1.43717    0.013
 5972.00    1.40479   1.43397    0.013
 5973.00    1.38582   1.43465    0.013
 5974.00    1.36609   1.43689    0.012
 5975.00    1.34245   1.43444    0.013
 5976.00    1.32670   1.43119    0.013
 5977.00    1.34366   1.43304    0.013
 5978.00    1.36243   1.43544    0.013
 5979.00    1.38740   1.43232    0.013
 5980.00    1.40166   1.42950    0.013
 5981.00    1.38502   1.43235    0.013
 5982.00    1.38001   1.43452    0.013
 5983.00    1.40370   1.43099    0.013
 5984.00    1.42883   1.42892    0.013
 5985.00    1.45702   1.43242    0.013
 5986.00    1.46765   1.43394    0.013
 5987.00    1.44584   1.43011    0.013
 5988.00    1.41809   1.42861    0.013
 5989.00    1.38074   1.43212    0.013
 5990.00    1.35174   1.43301    0.013
 5991.00    1.33456   1.42912    0.013
 5992.00    1.34737   1.42760    0.013
 5993.00    1.39750   1.43055    0.013
 5994.00    1.41339   1.43125    0.013
 5995.00    1.39171   1.42757    0.013
 5996.00    1.38817   1.42543    0.013
 5997.00    1.40218   1.42759    0.013
 5998.00    1.41172   1.42888    0.013
 5999.00    1.41744   1.42563    0.013
 6000.00    1.43313   1.42240    0.013
 6001.00    1.45631   1.42400    0.013
 6002.00    1.45616   1.42659    0.013
 6003.00    1.44059   1.42387    0.013
 6004.00    1.41372   1.41954    0.012
 6005.00    1.38031   1.42110    0.012
 6006.00    1.34195   1.42523    0.012
 6007.00    1.30108   1.42295    0.012
 6008.00    1.31879   1.41806    0.013
 6009.00    1.36204   1.42015    0.013
 6010.00    1.42316   1.42547    0.013
 6011.00    1.49096   1.42347    0.013
 6012.00    1.51265   1.41889    0.013
 6013.00    1.51971   1.42194    0.013
 6014.00    1.49719   1.42767    0.013
 6015.00    1.46683   1.42583    0.013
 6016.00    1.40784   1.42248    0.013
 6017.00    1.34264   1.42654    0.013
 6018.00    1.34832   1.43178    0.014
 6019.00    1.36620   1.43014    0.014
 6020.00    1.33766   1.42853    0.014
 6021.00    1.30307   1.43316    0.013
 6022.00    1.29306   1.43727    0.013
 6023.00    1.28530   1.43599    0.013
 6024.00    1.32571   1.43599    0.013
 6025.00    1.36880   1.44044    0.013
 6026.00    1.37733   1.44320    0.013
 6027.00    1.38481   1.44243    0.013
 6028.00    1.36420   1.44340    0.013
 6029.00    1.34681   1.44690    0.013
 6030.00    1.40413   1.44852    0.013
 6031.00    1.46106   1.44833    0.013
 6032.00    1.51316   1.44945    0.013
 6033.00    1.55694   1.45153    0.013
 6034.00    1.52910   1.45245    0.013
 6035.00    1.49780   1.45281    0.013
 6036.00    1.44440   1.45340    0.013
 6037.00    1.40216   1.45397    0.013
 6038.00    1.41562   1.45463    0.013
 6039.00    1.43252   1.45541    0.013
 6040.00    1.46331   1.45512    0.013
 6041.00    1.48155   1.45434    0.013
 6042.00    1.45762   1.45505    0.013
 6043.00    1.43770   1.45612    0.013
 6044.00    1.42912   1.45491    0.013
 6045.00    1.42419   1.45307    0.013
 6046.00    1.42814   1.45395    0.013
 6047.00    1.43168   1.45533    0.013
 6048.00    1.43439   1.45343    0.013
 6049.00    1.43511   1.45078    0.013
 6050.00    1.43220   1.45183    0.013
 6051.00    1.41576   1.45371    0.013
 6052.00    1.37784   1.45156    0.013
 6053.00    1.33708   1.44831    0.013
 6054.00    1.29237   1.44941    0.013
 6055.00    1.27734   1.45205    0.013
 6056.00    1.29874   1.45016    0.013
 6057.00    1.33373   1.44641    0.013
 6058.00    1.38342   1.44731    0.013
 6059.00    1.40475   1.45076    0.013
 6060.00    1.39901   1.44953    0.013
 6061.00    1.38507   1.44532    0.013
 6062.00    1.36424   1.44561    0.013
 6063.00    1.36992   1.44967    0.013
 6064.00    1.39525   1.44928    0.013
 6065.00    1.42370   1.44458    0.013
 6066.00    1.45417   1.44381    0.012
 6067.00    1.46799   1.44809    0.013
 6068.00    1.47234   1.44854    0.013
 6069.00    1.49181   1.44333    0.013
 6070.00    1.51877   1.44128    0.013
 6071.00    1.54454   1.44548    0.013
 6072.00    1.56979   1.44669    0.013
 6073.00    1.54670   1.44105    0.013
 6074.00    1.50584   1.43782    0.013
 6075.00    1.48323   1.44190    0.013
 6076.00    1.46630   1.44381    0.013
 6077.00    1.43173   1.43795    0.013
 6078.00    1.39258   1.43387    0.013
 6079.00    1.36978   1.43791    0.013
 6080.00    1.35043   1.44057    0.013
 6081.00    1.37518   1.43481    0.013
 6082.00    1.40729   1.43010    0.013
 6083.00    1.41138   1.43405    0.013
 6084.00    1.41194   1.43758    0.013
 6085.00    1.39670   1.43236    0.013
 6086.00    1.38007   1.42701    0.013
 6087.00    1.39359   1.43050    0.013
 6088.00    1.40866   1.43504    0.013
 6089.00    1.41040   1.43089    0.013
 6090.00    1.41122   1.42481    0.013
 6091.00    1.36300   1.42727    0.013
 6092.00    1.31723   1.43279    0.013
 6093.00    1.32373   1.43025    0.013
 6094.00    1.33008   1.42361    0.012
 6095.00    1.33469   1.42453    0.012
 6096.00    1.34265   1.43064    0.012
 6097.00    1.37852   1.43001    0.012
 6098.00    1.40977   1.42339    0.012
 6099.00    1.41244   1.42267    0.012
 6100.00    1.41396   1.42854    0.012
 6101.00    1.40985   1.42955    0.013
 6102.00    1.40721   1.42373    0.013
 6103.00    1.41040   1.42176    0.013
 6104.00    1.41193   1.42646    0.013
 6105.00    1.40797   1.42820    0.013
 6106.00    1.39863   1.42369    0.013
 6107.00    1.37433   1.42130    0.013
 6108.00    1.36006   1.42422    0.013
 6109.00    1.36967   1.42550    0.013
 6110.00    1.38130   1.42236    0.013
 6111.00    1.39704   1.42045    0.013
 6112.00    1.41459   1.42153    0.013
 6113.00    1.43538   1.42144    0.013
 6114.00    1.42267   1.41956    0.013
 6115.00    1.35752   1.41881    0.013
 6116.00    1.30062   1.41826    0.013
 6117.00    1.25505   1.41647    0.013
 6118.00    1.23096   1.41589    0.013
 6119.00    1.23285   1.41667    0.013
 6120.00    1.23358   1.41463    0.013
 6121.00    1.23307   1.41122    0.012
 6122.00    1.22975   1.41222    0.012
 6123.00    1.22377   1.41473    0.012
 6124.00    1.24343   1.41126    0.012
 6125.00    1.28437   1.40636    0.012
 6126.00    1.34388   1.40910    0.012
 6127.00    1.41695   1.41353    0.012
 6128.00    1.46185   1.40901    0.012
 6129.00    1.48868   1.40267    0.012
 6130.00    1.47764   1.40674    0.012
 6131.00    1.44535   1.41312    0.013
 6132.00    1.39743   1.40838    0.013
 6133.00    1.34188   1.40080    0.013
 6134.00    1.31507   1.40505    0.013
 6135.00    1.30038   1.41292    0.013
 6136.00    1.28069   1.40892    0.013
 6137.00    1.25920   1.40041    0.013
 6138.00    1.29202   1.40341    0.013
 6139.00    1.34143   1.41166    0.014
 6140.00    1.38583   1.40887    0.013
 6141.00    1.42895   1.39975    0.013
 6142.00    1.40664   1.40038    0.013
 6143.00    1.37081   1.40784    0.013
 6144.00    1.39185   1.40602    0.013
 6145.00    1.42213   1.39632    0.013
 6146.00    1.39713   1.39433    0.013
 6147.00    1.36540   1.40053    0.012
 6148.00    1.34196   1.39913    0.012
 6149.00    1.31921   1.38872    0.012
 6150.00    1.32861   1.38482    0.012
 6151.00    1.33954   1.39027    0.012
 6152.00    1.34780   1.38905    0.012
 6153.00    1.35546   1.37802    0.012
 6154.00    1.33170   1.37347    0.012
 6155.00    1.30914   1.37932    0.012
 6156.00    1.31044   1.37855    0.012
 6157.00    1.31462   1.36747    0.013
 6158.00    1.35209   1.36355    0.013
 6159.00    1.38302   1.37065    0.013
 6160.00    1.36162   1.37088    0.013
 6161.00    1.33821   1.36074    0.013
 6162.00    1.30274   1.35817    0.013
 6163.00    1.26878   1.36639    0.013
 6164.00    1.24195   1.36792    0.013
 6165.00    1.22721   1.35971    0.013
 6166.00    1.25929   1.35840    0.013
 6167.00    1.28937   1.36657    0.013
 6168.00    1.31302   1.36925    0.013
 6169.00    1.32573   1.36364    0.013
 6170.00    1.30855   1.36280    0.013
 6171.00    1.30549   1.36925    0.013
 6172.00    1.33551   1.37265    0.013
 6173.00    1.34783   1.36993    0.013
 6174.00    1.32430   1.36861    0.013
 6175.00    1.30680   1.37186    0.013
 6176.00    1.29990   1.37558    0.013
 6177.00    1.28704   1.37584    0.013
 6178.00    1.26497   1.37349    0.012
 6179.00    1.24893   1.37287    0.012
 6180.00    1.24107   1.37664    0.013
 6181.00    1.25760   1.37989    0.013
 6182.00    1.30323   1.37674    0.012
 6183.00    1.32615   1.37250    0.012
 6184.00    1.32519   1.37607    0.012
 6185.00    1.31709   1.38202    0.012
 6186.00    1.30239   1.37890    0.012
 6187.00    1.29799   1.37212    0.013
 6188.00    1.30202   1.37506    0.013
 6189.00    1.31754   1.38284    0.013
 6190.00    1.34132   1.38065    0.013
 6191.00    1.34673   1.37273    0.013
 6192.00    1.34054   1.37455    0.013
 6193.00    1.33179   1.38276    0.013
 6194.00    1.32161   1.38177    0.013
 6195.00    1.28609   1.37401    0.013
 6196.00    1.23838   1.37444   -2.000
 6197.00    1.19147   1.38155   -2.000
 6198.00    1.14489   1.38131   -2.000
 6199.00    1.16787   1.37445   -2.000
 6200.00    1.21551   1.37367   -2.000
 6201.00    1.26538   1.37874   -2.000
 6202.00    1.31591   1.37845   -2.000
 6203.00    1.30828   1.37264   -2.000
 6204.00    1.28620   1.37117   -2.000
 6205.00    1.29221   1.37417   -2.000
 6206.00    1.30388   1.37328   -2.000
 6207.00    1.32886   1.36833   -2.000
 6208.00    1.35595   1.36674    0.013
 6209.00    1.36644   1.36830    0.013
 6210.00    1.37499   1.36684    0.012
 6211.00    1.37935   1.36256    0.012
 6212.00    1.38338   1.36123    0.012
 6213.00    1.39362   1.36210    0.012
 6214.00    1.40413   1.36042    0.012
 6215.00    1.38239   1.35684    0.012
 6216.00    1.35995   1.35597    0.012
 6217.00    1.32111   1.35657    0.012
 6218.00    1.28359   1.35491    0.012
 6219.00    1.26998   1.35212    0.013
 6220.00    1.25828   1.35185    0.013
 6221.00    1.26760   1.35231    0.013
 6222.00    1.27888   1.35060    0.013
 6223.00    1.30538   1.34853    0.013
 6224.00    1.33221   1.34893    0.013
 6225.00    1.36102   1.34931    0.013
 6226.00    1.37666   1.34736    0.013
 6227.00    1.33122   1.34566    0.013
 6228.00    1.29772   1.34661    0.013
 6229.00    1.30949   1.34705    0.013
 6230.00    1.32212   1.34482    0.013
 6231.00    1.33743   1.34301    0.013
 6232.00    1.34777   1.34408    0.013
 6233.00    1.34478   1.34476    0.013
 6234.00    1.34654   1.34259    0.013
 6235.00    1.35924   1.34036    0.013
 6236.00    1.35208   1.34091    0.012
 6237.00    1.30533   1.34188    0.012
 6238.00    1.25849   1.34039    0.012
 6239.00    1.21149   1.33790    0.012
 6240.00    1.18870   1.33739    0.012
 6241.00    1.20270   1.33845    0.012
 6242.00    1.22806   1.33832    0.012
 6243.00    1.26860   1.33625    0.012
 6244.00    1.30450   1.33455    0.012
 6245.00    1.33496   1.33532    0.012
 6246.00    1.34320   1.33693    0.013
 6247.00    1.32840   1.33627    0.013
 6248.00    1.29969   1.33379    0.013
 6249.00    1.25825   1.33386    0.013
 6250.00    1.24594   1.33710    0.013
 6251.00    1.25712   1.33861    0.013
 6252.00    1.27536   1.33610    0.013
 6253.00    1.29860   1.33526    0.013
 6254.00    1.32076   1.33949    0.013
 6255.00    1.34225   1.34324    0.013
 6256.00    1.36024   1.34147    0.013
 6257.00    1.37632   1.33979    0.013
 6258.00    1.37676   1.34406    0.013
 6259.00    1.36981   1.34933    0.014
 6260.00    1.34496   1.34867    0.014
 6261.00    1.31281   1.34650    0.015
 6262.00    1.31548   1.35002    0.015
 6263.00    1.33026   1.35561    0.015
 6264.00    1.37310   1.35589    0.015
 6265.00    1.42416   1.35377    0.015
 6266.00    1.45151   1.35626    0.014
 6267.00    1.47309   1.36101    0.014
 6268.00    1.46794   1.36160    0.013
 6269.00    1.45753   1.36004    0.013
 6270.00    1.45174   1.36184    0.013
 6271.00    1.44666   1.36513    0.012
 6272.00    1.40946   1.36531    0.012
 6273.00    1.36862   1.36449    0.012
 6274.00    1.35172   1.36624    0.013
 6275.00    1.33661   1.36814    0.013
 6276.00    1.30697   1.36728    0.013
 6277.00    1.27675   1.36692    0.013
 6278.00    1.28574   1.36922    0.013
 6279.00    1.29543   1.37031    0.013
 6280.00    1.32188   1.36808    0.000
 6281.00    1.34788   1.36756    0.000
 6282.00    1.36646   1.37065    0.000
 6283.00    1.38172   1.37171    0.000
 6284.00    1.36210   1.36823    0.000
 6285.00    1.34876   1.36685    0.000
 6286.00    1.38225   1.37056    0.000
 6287.00    1.41506   1.37245    0.000
 6288.00    1.44397   1.36825    0.000
 6289.00    1.46811   1.36531    0.000
 6290.00    1.47064   1.36910    0.000
 6291.00    1.46988   1.37261    0.000
 6292.00    1.45686   1.36874    0.000
 6293.00    1.44360   1.36387    0.000
 6294.00    1.42958   1.36683    0.000
 6295.00    1.41792   1.37242    0.000
 6296.00    1.41253   1.37007    0.000
 6297.00    1.40622   1.36337    0.000
 6298.00    1.39786   1.36463    0.000
 6299.00    1.39418   1.37198    0.000
 6300.00    1.39968   1.37206    0.000
 6301.00    1.41049   1.36440    0.000
 6302.00    1.43036   1.36332    0.000
 6303.00    1.44184   1.37137    0.000
 6304.00    1.44075   1.37422    0.000
 6305.00    1.43628   1.36677    0.000
 6306.00    1.42737   1.36321    0.000
 6307.00    1.43135   1.37081    0.000
 6308.00    1.45027   1.37626    0.000
 6309.00    1.47100   1.37006    0.000
 6310.00    1.49358   1.36433    0.000
 6311.00    1.49393   1.37050    0.000
 6312.00    1.47423   1.37814    0.000
 6313.00    1.43263   1.37398    0.000
 6314.00    1.37364   1.36653    0.000
 6315.00    1.34779   1.37055    0.000
 6316.00    1.34510   1.37973    0.000
 6317.00    1.36970   1.37805    0.000
 6318.00    1.41102   1.36948    0.000
 6319.00    1.43780   1.37102    0.000
 6320.00    1.45681   1.38085    0.000
 6321.00    1.46685   1.38158    0.012
 6322.00    1.47273   1.37264    0.012
 6323.00    1.44726   1.37164    0.012
 6324.00    1.40924   1.38116    0.012
 6325.00    1.39581   1.38399    0.012
 6326.00    1.39077   1.37548    0.012
 6327.00    1.42024   1.37220    0.012
 6328.00    1.45963   1.38048    0.012
 6329.00    1.42902   1.38480    0.013
 6330.00    1.38180   1.37764    0.013
 6331.00    1.36095   1.37297    0.013
 6332.00    1.34514   1.37915    0.012
 6333.00    1.36395   1.38399    0.013
 6334.00    1.38788   1.37884    0.013
 6335.00    1.38002   1.37392    0.013
 6336.00    1.36871   1.37775    0.012
 6337.00    1.40131   1.38191    0.013
 6338.00    1.43704   1.37847    0.013
 6339.00    1.43119   1.37455    0.013
 6340.00    1.42384   1.37669    0.013
 6341.00    1.41030   1.37907    0.012
 6342.00    1.39640   1.37655    0.012
 6343.00    1.37104   1.37435    0.012
 6344.00    1.34745   1.37568    0.012
 6345.00    1.35213   1.37598    0.012
 6346.00    1.35620   1.37348    0.012
 6347.00    1.35407   1.37298    0.012
 6348.00    1.35519   1.37462    0.012
 6349.00    1.37967   1.37350    0.012
 6350.00    1.40277   1.37033    0.012
 6351.00    1.41818   1.37103    0.012
 6352.00    1.42929   1.37382    0.013
 6353.00    1.42143   1.37232    0.013
 6354.00    1.40833   1.36833    0.012
 6355.00    1.37620   1.36953    0.012
 6356.00    1.35807   1.37392    0.012
 6357.00    1.38258   1.37312    0.013
 6358.00    1.41081   1.36865    0.013
 6359.00    1.44864   1.36974    0.013
 6360.00    1.47324   1.37533    0.013
 6361.00    1.46838   1.37574    0.013
 6362.00    1.45597   1.37133    0.013
 6363.00    1.42897   1.37175    0.013
 6364.00    1.40770   1.37753    0.013
 6365.00    1.39606   1.37929    0.013
 6366.00    1.38269   1.37561    0.013
 6367.00    1.36673   1.37493    0.013
 6368.00    1.35122   1.37965    0.013
 6369.00    1.33629   1.38229    0.013
 6370.00    1.35753   1.37992    0.013
 6371.00    1.42011   1.37813    0.012
 6372.00    1.47677   1.38073    0.013
 6373.00    1.52746   1.38354    0.013
 6374.00    1.54625   1.38284    0.013
 6375.00    1.53666   1.38035    0.013
 6376.00    1.49179   1.38038    0.012
 6377.00    1.41928   1.38268    0.012
 6378.00    1.37860   1.38346    0.012
 6379.00    1.35983   1.38095    0.012
 6380.00    1.38488   1.37927    0.012
 6381.00    1.43638   1.38079    0.012
 6382.00    1.47652   1.38197    0.013
 6383.00    1.51066   1.37975    0.013
 6384.00    1.50295   1.37818    0.013
 6385.00    1.47608   1.37929    0.013
 6386.00    1.44455   1.37959    0.013
 6387.00    1.41117   1.37756    0.013
 6388.00    1.44220   1.37735    0.013
 6389.00    1.49482   1.37866    0.013
 6390.00    1.51214   1.37775    0.013
 6391.00    1.51952   1.37577    0.012
 6392.00    1.48431   1.37718    0.013
 6393.00    1.43922   1.37939    0.013
 6394.00    1.41200   1.37721    0.013
 6395.00    1.38810   1.37437    0.013
 6396.00    1.37660   1.37704    0.013
 6397.00    1.36688   1.38103    0.013
 6398.00    1.38590   1.37860    0.013
 6399.00    1.40793   1.37434    0.013
 6400.00    1.43243   1.37658    0.013
 6401.00    1.45711   1.38240    0.013
 6402.00    1.49815   1.38153    0.013
 6403.00    1.53973   1.37573    0.013
 6404.00    1.50667   1.37574    0.013
 6405.00    1.47353   1.38313    0.013
 6406.00    1.43851   1.38519    0.012
 6407.00    1.40651   1.37833    0.012
 6408.00    1.41979   1.37514    0.013
 6409.00    1.43269   1.38231    0.013
 6410.00    1.44188   1.38729    0.013
 6411.00    1.45131   1.38206    0.013
 6412.00    1.46239   1.37714    0.013
 6413.00    1.46869   1.38140    0.013
 6414.00    1.44934   1.38717    0.013
 6415.00    1.42730   1.38529    0.013
 6416.00    1.39370   1.38034    0.013
 6417.00    1.35569   1.38069    0.013
 6418.00    1.30200   1.38539    0.013
 6419.00    1.26429   1.38741    0.013
 6420.00    1.27432   1.38444    0.013
 6421.00    1.29444   1.38124    0.012
 6422.00    1.34021   1.38334    0.012
 6423.00    1.38098   1.38827    0.012
 6424.00    1.41079   1.38832    0.012
 6425.00    1.42429   1.38288    0.012
 6426.00    1.40680   1.38150    0.012
 6427.00    1.39620   1.38720    0.013
 6428.00    1.39702   1.39015    0.013
 6429.00    1.40621   1.38538    0.013
 6430.00    1.42756   1.38215    0.013
 6431.00    1.43748   1.38596    0.013
 6432.00    1.43278   1.38955    0.013
 6433.00    1.42960   1.38701    0.013
 6434.00    1.42813   1.38384    0.013
 6435.00    1.41167   1.38543    0.013
 6436.00    1.38033   1.38766    0.013
 6437.00    1.36342   1.38604    0.013
 6438.00    1.35917   1.38428    0.013
 6439.00    1.38997   1.38528    0.013
 6440.00    1.44782   1.38651    0.013
 6441.00    1.46975   1.38483    0.013
 6442.00    1.46728   1.38344    0.013
 6443.00    1.44147   1.38486    0.013
 6444.00    1.40177   1.38585    0.013
 6445.00    1.41293   1.38284    0.013
 6446.00    1.45047   1.38126    0.012
 6447.00    1.47691   1.38469    0.012
 6448.00    1.49834   1.38619    0.012
 6449.00    1.47754   1.38055    0.012
 6450.00    1.44040   1.37797    0.013
 6451.00    1.43984   1.38384    0.013
 6452.00    1.45132   1.38670    0.013
 6453.00    1.41422   1.38024    0.013
 6454.00    1.36372   1.37609    0.012
 6455.00    1.28191   1.38179    0.012
 6456.00    1.19300   1.38637    0.012
 6457.00    1.18594   1.38159    0.012
 6458.00    1.19372   1.37571    0.012
 6459.00    1.22322   1.37917    0.013
 6460.00    1.25575   1.38519    0.013
 6461.00    1.30103   1.38308    0.013
 6462.00    1.34759   1.37641    0.013
 6463.00    1.34637   1.37720    0.013
 6464.00    1.34214   1.38328    0.013
 6465.00    1.33801   1.38274    0.013
 6466.00    1.33386   1.37635    0.013
 6467.00    1.32308   1.37564    0.013
 6468.00    1.31368   1.38021    0.013
 6469.00    1.34252   1.37956    0.013
 6470.00    1.37064   1.37453    0.013
 6471.00    1.38861   1.37340    0.013
 6472.00    1.40445   1.37543    0.013
 6473.00    1.40065   1.37375    0.013
 6474.00    1.39676   1.37020    0.013
 6475.00    1.39227   1.36931    0.013
 6476.00    1.38933   1.36928    0.013
 6477.00    1.39458   1.36619    0.012
 6478.00    1.40195   1.36261    0.012
 6479.00    1.41831   1.36242    0.012
 6480.00    1.43379   1.36226    0.012
 6481.00    1.44620   1.35771    0.012
 6482.00    1.44627   1.35284    0.012
 6483.00    1.41010   1.35364    0.013
 6484.00    1.38382   1.35521    0.013
 6485.00    1.38227   1.35078    0.013
 6486.00    1.40125   1.34442    0.013
 6487.00    1.46448   1.34544    0.013
 6488.00    1.50513   1.34934    0.013
 6489.00    1.50356   1.34718    0.013
 6490.00    1.48037   1.34088    0.013
 6491.00    1.42185   1.34119    0.013
 6492.00    1.38442   1.34640    0.013
 6493.00    1.37720   1.34713    0.013
 6494.00    1.38512   1.34271    0.013
 6495.00    1.41213   1.34214    0.013
 6496.00    1.42543   1.34727    0.013
 6497.00    1.42347   1.35033    0.012
 6498.00    1.42940   1.34836    0.012
 6499.00    1.44304   1.34742    0.012
 6500.00    1.45426   1.35145    0.012
 6501.00    1.46338   1.35534    0.012
 6502.00    1.46995   1.35574    0.012
 6503.00    1.47457   1.35524    0.012
 6504.00    1.47507   1.35786    0.012
 6505.00    1.47280   1.36081    0.013
 6506.00    1.46377   1.36201    0.013
 6507.00    1.45079   1.36259    0.013
 6508.00    1.43363   1.36440    0.013
 6509.00    1.41434   1.36567    0.013
 6510.00    1.44137   1.36613    0.013
 6511.00    1.48890   1.36747    0.013
 6512.00    1.50273   1.36925    0.013
 6513.00    1.50375   1.36950    0.013
 6514.00    1.48036   1.36871    0.013
 6515.00    1.44909   1.36953    0.013
 6516.00    1.45708   1.37154    0.013
 6517.00    1.47569   1.37197    0.013
 6518.00    1.48348   1.37034    0.013
 6519.00    1.48889   1.36974    0.013
 6520.00    1.46984   1.37114    0.013
 6521.00    1.44648   1.37244    0.013
 6522.00    1.44558   1.37121    0.013
 6523.00    1.44771   1.36917    0.012
 6524.00    1.41469   1.36875    0.012
 6525.00    1.37830   1.36996    0.012
 6526.00    1.36641   1.36996    0.012
 6527.00    1.35597   1.36764    0.012
 6528.00    1.42166   1.36477    0.000
 6529.00    1.48905   1.36406    0.000
 6530.00    1.52481   1.36478    0.000
 6531.00    1.55828   1.36332    0.000
 6532.00    1.53393   1.35820    0.000
 6533.00    1.50924   1.35398    0.000
 6534.00    1.47993   1.35461    0.000
 6535.00    1.45207   1.35460    0.000
 6536.00    1.43709   1.34746    0.000
 6537.00    1.43324   1.33888    0.000
 6538.00    1.50241   1.33847    0.000
 6539.00    1.55962   1.33998    0.000
 6540.00    1.55578   1.33210    0.000
 6541.00    1.54706   1.31998    0.000
 6542.00    1.51821   1.31703    0.000
 6543.00    1.49589   1.31956    0.000
 6544.00    1.49588   1.31281    0.000
 6545.00    1.50041   1.29781    0.000
 6546.00    1.51800   1.29127    0.000
 6547.00    1.53713   1.29578    0.000
 6548.00    1.56006   1.29271    0.000
 6549.00    1.56320   1.27485    0.000
 6550.00    1.52441   1.26410    0.000
 6551.00    1.48378   1.27252    0.000
 6552.00    1.43978   1.27596    0.000
 6553.00    1.41860   1.25682    0.000
 6554.00    1.43417   1.24161    0.000
 6555.00    1.43982   1.25202    0.000
 6556.00    1.43145   1.26373    0.000
 6557.00    1.43529   1.25264    0.000
 6558.00    1.45428   1.23746    0.000
 6559.00    1.49415   1.24257    0.000
 6560.00    1.55687   1.25740    0.000
 6561.00    1.60270   1.25762    0.000
 6562.00    1.63222   1.24559    0.000
 6563.00    1.60971   1.24578    0.000
 6564.00    1.54288   1.26168    0.000
 6565.00    1.50405   1.27061    0.000
 6566.00    1.48623   1.26259    0.000
 6567.00    1.46663   1.25964    0.000
 6568.00    1.44586   1.27365    0.000
 6569.00    1.43010   1.28718    0.000
 6570.00    1.41724   1.28618    0.000
 6571.00    1.41869   1.28310    0.000
 6572.00    1.42733   1.29021    0.000
 6573.00    1.41267   1.30181    0.000
 6574.00    1.38788   1.30662    0.000
 6575.00    1.37145   1.30554    0.000
 6576.00    1.35813   1.30748    0.000
 6577.00    1.40994   1.31495    0.000
 6578.00    1.48236   1.32155    0.000
 6579.00    1.56074   1.32183    0.000
 6580.00    1.64070   1.32088    0.000
 6581.00    1.67412   1.32555    0.000
 6582.00    1.69748   1.33238    0.000
 6583.00    1.63585   1.33295    0.000
 6584.00    1.55964   1.32950    0.000
 6585.00    1.50862   1.33113    0.000
 6586.00    1.46088   1.33763    0.000
 6587.00    1.43250   1.33999    0.000
 6588.00    1.40588   1.33718    0.000
 6589.00    1.35759   1.33599    0.000
 6590.00    1.30810   1.33967    0.000
 6591.00    1.32407   1.34312    0.000
 6592.00    1.34132   1.34206    0.000
 6593.00    1.34748   1.34018    0.000
 6594.00    1.35335   1.34228    0.000
 6595.00    1.35254   1.34522    0.000
 6596.00    1.35057   1.34459    0.000
 6597.00    1.33390   1.34319    0.000
 6598.00    1.31797   1.34486    0.000
 6599.00    1.30822   1.34702    0.000
 6600.00    1.29944   1.34638    0.000
 6601.00    1.29681   1.34621    0.000
 6602.00    1.30441   1.34813    0.000
 6603.00    1.36296   1.34918    0.000
 6604.00    1.41550   1.34827    0.000
 6605.00    1.44383   1.34811    0.000
 6606.00    1.46870   1.35036    0.000
 6607.00    1.48197   1.35150    0.000
 6608.00    1.48986   1.35017    0.000
 6609.00    1.48255   1.34900    0.014
 6610.00    1.46567   1.35088    0.014
 6611.00    1.42563   1.35236    0.014
 6612.00    1.40591   1.35111    0.014
 6613.00    1.42859   1.34943    0.014
 6614.00    1.44067   1.35042    0.014
 6615.00    1.43350   1.35169    0.013
 6616.00    1.42906   1.35035    0.013
 6617.00    1.42893   1.34875    0.013
 6618.00    1.41992   1.34903    0.013
 6619.00    1.39856   1.35021    0.013
 6620.00    1.36793   1.34880    0.013
 6621.00    1.32595   1.34647    0.013
 6622.00    1.34190   1.34640    0.013
 6623.00    1.42041   1.34811    0.013
 6624.00    1.47504   1.34683    0.013
 6625.00    1.50692   1.34330    0.013
 6626.00    1.48815   1.34286    0.013
 6627.00    1.42686   1.34525    0.013
 6628.00    1.38756   1.34550    0.013
 6629.00    1.36455   1.34183    0.013
 6630.00    1.34652   1.33937    0.014
 6631.00    1.33175   1.34117    0.014
 6632.00    1.32997   1.34409    0.014
 6633.00    1.33559   1.34227    0.014
 6634.00    1.36849   1.33720    0.014
 6635.00    1.41487   1.33709    0.014
 6636.00    1.44254   1.34157    0.014
 6637.00    1.46219   1.34220    0.014
 6638.00    1.45103   1.33709    0.014
 6639.00    1.42858   1.33501    0.014
 6640.00    1.39125   1.33835    0.013
 6641.00    1.34930   1.34084    0.013
 6642.00    1.38891   1.33808    0.013
 6643.00    1.44962   1.33444    0.013
 6644.00    1.48563   1.33525    0.013
 6645.00    1.51642   1.33803    0.013
 6646.00    1.51351   1.33770    0.013
 6647.00    1.50499   1.33400    0.013
 6648.00    1.48099   1.33332    0.013
 6649.00    1.45504   1.33528    0.013
 6650.00    1.48193   1.33523    0.014
 6651.00    1.51342   1.33294    0.014
 6652.00    1.47138   1.33251    0.014
 6653.00    1.42557   1.33340    0.014
 6654.00    1.41699   1.33213    0.014
 6655.00    1.40973   1.33036    0.014
 6656.00    1.44912   1.33052    0.014
 6657.00    1.48380   1.33186    0.014
 6658.00    1.41939   1.33078    0.014
 6659.00    1.35698   1.32801    0.014
 6660.00    1.31857   1.32717    0.014
 6661.00    1.28241   1.32973    0.014
 6662.00    1.26483   1.33071    0.014
 6663.00    1.24869   1.32724    0.013
 6664.00    1.24149   1.32455    0.013
 6665.00    1.23906   1.32663    0.013
 6666.00    1.25977   1.32982    0.013
 6667.00    1.29118   1.32797    0.013
 6668.00    1.36485   1.32342    0.013
 6669.00    1.42342   1.32269    0.013
 6670.00    1.43241   1.32702    0.013
 6671.00    1.44007   1.32909    0.013
 6672.00    1.44407   1.32481    0.013
 6673.00    1.44128   1.32106    0.014
 6674.00    1.42236   1.32378    0.014
 6675.00    1.40267   1.32814    0.014
 6676.00    1.38140   1.32660    0.014
 6677.00    1.36053   1.32200    0.014
 6678.00    1.34037   1.32132    0.014
 6679.00    1.33633   1.32531    0.014
 6680.00    1.35750   1.32725    0.014
 6681.00    1.37670   1.32364    0.014
 6682.00    1.39320   1.32027    0.014
 6683.00    1.38554   1.32245    0.014
 6684.00    1.34871   1.32609    0.014
 6685.00    1.36674   1.32471    0.014
 6686.00    1.44317   1.32111    0.014
 6687.00    1.47411   1.32065    0.014
 6688.00    1.46233   1.32331    0.014
 6689.00    1.40850   1.32392    0.014
 6690.00    1.31985   1.32133    0.013
 6691.00    1.30834   1.31941    0.013
 6692.00    1.35306   1.32040    0.013
 6693.00    1.36418   1.32191    0.013
 6694.00    1.35380   1.32037    0.013
 6695.00    1.33892   1.31743    0.014
 6696.00    1.32152   1.31734    0.000
 6697.00    1.31519   1.31916    0.000
 6698.00    1.31426   1.31836    0.000
 6699.00    1.34441   1.31479    0.000
 6700.00    1.38763   1.31336    0.000
 6701.00    1.36934   1.31518    0.000
 6702.00    1.32890   1.31569    0.000
 6703.00    1.28866   1.31254    0.000
 6704.00    1.24849   1.30957    0.000
 6705.00    1.26614   1.31082    0.000
 6706.00    1.29842   1.31286    0.000
 6707.00    1.38492   1.31064    0.000
 6708.00    1.48257   1.30565    0.000
 6709.00    1.43413   1.30564    0.000
 6710.00    1.36203   1.30948    0.000
 6711.00    1.33832   1.30942    0.000
 6712.00    1.32047   1.30446    0.000
 6713.00    1.36297   1.30226    0.000
 6714.00    1.41048   1.30589    0.000
 6715.00    1.46591   1.30819    0.000
 6716.00    1.52172   1.30508    0.000
 6717.00    1.53700   1.30093    0.000
 6718.00    1.55026   1.30309    0.000
 6719.00    1.48168   1.30722    0.000
 6720.00    1.41517   1.30600    0.000
 6721.00    1.38924   1.30127    0.000
 6722.00    1.36915   1.30129    0.000
 6723.00    1.41622   1.30594    0.000
 6724.00    1.45705   1.30663    0.000
 6725.00    1.44814   1.30301    0.000
 6726.00    1.43615   1.30133    0.000
 6727.00    1.40565   1.30458    0.000
 6728.00    1.38472   1.30640    0.000
 6729.00    1.40912   1.30406    0.000
 6730.00    1.41725   1.30142    0.000
 6731.00    1.36249   1.30289    0.000
 6732.00    1.33634   1.30531    0.000
 6733.00    1.40228   1.30422    0.000
 6734.00    1.43507   1.30170    0.000
 6735.00    1.37744   1.30144    0.000
 6736.00    1.32103   1.30379    0.000
 6737.00    1.26744   1.30393    0.000
 6738.00    1.23148   1.30200    0.000
 6739.00    1.23113   1.30085    0.000
 6740.00    1.23856   1.30205    0.000
 6741.00    1.25968   1.30305    0.000
 6742.00    1.26633   1.30272    0.000
 6743.00    1.25068   1.30155    0.000
 6744.00    1.23066   1.30079    0.000
 6745.00    1.20474   1.30209    0.000
 6746.00    1.19734   1.30337    0.000
 6747.00    1.21200   1.30321    0.000
 6748.00    1.22192   1.30172    0.000
 6749.00    1.22685   1.30172    0.000
 6750.00    1.24975   1.30326    0.000
 6751.00    1.28929   1.30504    0.000
 6752.00    1.30975   1.30442    0.000
 6753.00    1.31462   1.30216    0.016
 6754.00    1.31797   1.30273    0.016
 6755.00    1.32022   1.30575    0.016
 6756.00    1.28749   1.30690    0.017
 6757.00    1.23271   1.30406    0.017
 6758.00    1.18459   1.30301    0.017
 6759.00    1.14016   1.30526    0.017
 6760.00    1.31543   1.30790    0.017
 6761.00    1.59600   1.30681    0.018
 6762.00    1.66474   1.30383    0.018
 6763.00    1.64587   1.30429    0.018
 6764.00    1.62751   1.30741    0.018
 6765.00    1.60934   1.30822    0.018
 6766.00    1.64676   1.30503    0.018
 6767.00    1.70077   1.30401    0.018
 6768.00    1.66738   1.30599    0.018
 6769.00    1.61234   1.30787    0.018
 6770.00    1.61911   1.30648    0.018
 6771.00    1.63829   1.30413    0.018
 6772.00    1.56489   1.30444    0.017
 6773.00    1.47694   1.30647    0.017
 6774.00    1.44483   1.30655    0.017
 6775.00    1.41922   1.30413    0.017
 6776.00    1.44267   1.30363    0.017
 6777.00    1.46998   1.30472    0.017
 6778.00    1.46582   1.30531    0.017
 6779.00    1.46030   1.30409    0.017
 6780.00    1.45854   1.30301    0.017
 6781.00    1.45626   1.30319    0.017
 6782.00    1.42717   1.30391    0.017
 6783.00    1.40008   1.30377    0.016
 6784.00    1.40931   1.30251    0.016
 6785.00    1.41129   1.30226    0.016
 6786.00    1.33401   1.30283    0.016
 6787.00    1.27624   1.30286    0.016
 6788.00    1.36845   1.30194    0.017
 6789.00    1.44586   1.30160    0.017
 6790.00    1.43691   1.30210    0.017
 6791.00    1.44204   1.30238    0.017
 6792.00    1.51231   1.30196    0.017
 6793.00    1.55581   1.30138    0.017
 6794.00    1.49814   1.30180    0.017
 6795.00    1.45760   1.30245    0.017
 6796.00    1.47116   1.30189    0.017
 6797.00    1.45863   1.30094    0.017
 6798.00    1.37622   1.30137    0.017
 6799.00    1.33022   1.30271    0.017
 6800.00    1.36788   1.30247    0.017
 6801.00    1.38307   1.30083    0.016
 6802.00    1.35359   1.30056    0.017
 6803.00    1.33805   1.30261    0.017
 6804.00    1.34666   1.30357    0.017
 6805.00    1.38098   1.30133    0.017
 6806.00    1.45429   1.29981    0.017
 6807.00    1.47417   1.30159    0.017
 6808.00    1.42285   1.30405    0.017
 6809.00    1.39201   1.30290    0.017
 6810.00    1.38523   1.29966    0.016
 6811.00    1.38095   1.29973    0.017
 6812.00    1.37927   1.30328    0.017
 6813.00    1.44733   1.30437    0.018
 6814.00    1.57905   1.30057    0.018
 6815.00    1.62333   1.29837    0.018
 6816.00    1.59723   1.30104    0.018
 6817.00    1.50362   1.30416    0.018
 6818.00    1.36223   1.30215    0.018
 6819.00    1.33049   1.29796    0.018
 6820.00    1.36687   1.29824    0.017
 6821.00    1.40808   1.30202    0.017
 6822.00    1.45193   1.30267    0.018
 6823.00    1.40377   1.29819    0.017
 6824.00    1.31223   1.29574    0.017
 6825.00    1.30481   1.29830    0.017
 6826.00    1.33160   1.30102    0.017
 6827.00    1.38612   1.29850    0.017
 6828.00    1.45029   1.29430    0.017
 6829.00    1.51982   1.29455    0.017
 6830.00    1.59092   1.29771    0.018
 6831.00    1.53987   1.29772    0.017
 6832.00    1.45924   1.29348    0.017
 6833.00    1.41817   1.29136    0.017
 6834.00    1.38485   1.29338    0.017
 6835.00    1.39033   1.29530    0.018
 6836.00    1.40172   1.29291    0.018
 6837.00    1.41372   1.28954    0.018
 6838.00    1.42578   1.28970    0.019
 6839.00    1.44814   1.29210    0.019
 6840.00    1.47128   1.29195    0.019
 6841.00    1.38067   1.28881    0.019
 6842.00    1.28555   1.28733    0.019
 6843.00    1.24716   1.28853    0.018
 6844.00    1.21477   1.28968    0.017
 6845.00    1.40560   1.28821    0.017
 6846.00    1.58068   1.28627    0.018
 6847.00    1.48971   1.28605    0.017
 6848.00    1.40987   1.28725    0.017
 6849.00    1.44657   1.28723    0.017
 6850.00    1.47042   1.28587    0.017
 6851.00    1.39880   1.28523    0.017
 6852.00    1.34149   1.28523    0.017
 6853.00    1.36528   1.28548    0.017
 6854.00    1.38833   1.28518    0.017
 6855.00    1.40796   1.28511    0.017
 6856.00    1.40372   1.28478    0.017
 6857.00    1.31109   1.28461    0.017
 6858.00    1.24421   1.28449    0.017
 6859.00    1.25710   1.28477    0.018
 6860.00    1.27775   1.28547    0.018
 6861.00    1.31883   1.28510    0.018
 6862.00    1.34695   1.28471    0.018
 6863.00    1.34580   1.28459    0.018
 6864.00    1.35054   1.28585    0.018
 6865.00    1.36679   1.28668    0.018
 6866.00    1.34296   1.28646    0.018
 6867.00    1.25072   1.28571    0.018
 6868.00    1.23237   1.28599    0.017
 6869.00    1.32447   1.28789    0.017
 6870.00    1.34328   1.28884    0.017
 6871.00    1.26581   1.28866    0.017
 6872.00    1.27058   1.28752    0.017
 6873.00    1.37049   1.28852    0.017
 6874.00    1.40672   1.29088    0.017
 6875.00    1.37798   1.29213    0.017
 6876.00    1.33152   1.29096    0.017
 6877.00    1.26912   1.28991    0.017
 6878.00    1.33505   1.29184    0.017
 6879.00    1.50277   1.29444    0.018
 6880.00    1.56063   1.29521    0.018
 6881.00    1.54182   1.29328    0.018
 6882.00    1.44267   1.29299    0.018
 6883.00    1.29436   1.29559    0.018
 6884.00    1.24157   1.29826    0.018
 6885.00    1.23980   1.29762    0.018
 6886.00    1.26336   1.29558    0.018
 6887.00    1.29866   1.29614    0.017
 6888.00    1.30513   1.29903    0.017
 6889.00    1.30008   1.30097    0.018
 6890.00    1.33975   1.29930    0.017
 6891.00    1.39466   1.29737    0.017
 6892.00    1.39983   1.29857    0.017
 6893.00    1.39074   1.30187    0.017
 6894.00    1.37062   1.30246    0.017
 6895.00    1.34790   1.30006    0.017
 6896.00    1.39161   1.29846    0.018
 6897.00    1.44799   1.30037    0.018
 6898.00    1.49585   1.30341    0.018
 6899.00    1.54245   1.30263    0.019
 6900.00    1.46846   1.29923    0.019
 6901.00    1.38147   1.29852    0.019
 6902.00    1.32433   1.30167    0.019
 6903.00    1.26929   1.30330    0.018
 6904.00    1.32317   1.30141    0.018
 6905.00    1.38095   1.29842    0.018
 6906.00    1.37576   1.29886    0.018
 6907.00    1.36880   1.30212    0.018
 6908.00    1.30783   1.30251    0.018
 6909.00    1.25348   1.29936    0.018
 6910.00    1.30386   1.29738    0.018
 6911.00    1.35057   1.29936    0.018
 6912.00    1.36049   1.30148    0.018
 6913.00    1.37048   1.30120    0.018
 6914.00    1.38105   1.29869    0.017
 6915.00    1.38403   1.29777    0.017
 6916.00    1.34523   1.30020    0.017
 6917.00    1.30580   1.30167    0.017
 6918.00    1.26361   1.30038    0.017
 6919.00    1.25263   1.29820    0.017
 6920.00    1.35480   1.29885    0.017
 6921.00    1.44928   1.30094    0.017
 6922.00    1.52035   1.30177    0.018
 6923.00    1.54448   1.30064    0.018
 6924.00    1.44727   1.29945    0.018
 6925.00    1.39604   1.30091    0.018
 6926.00    1.44699   1.30233    0.018
 6927.00    1.46910   1.30222    0.018
 6928.00    1.43562   1.30099    0.018
 6929.00    1.40491   1.30140    0.018
 6930.00    1.37889   1.30273    0.018
 6931.00    1.36088   1.30265    0.018
 6932.00    1.35470   1.30248    0.018
 6933.00    1.35646   1.30261    0.018
 6934.00    1.36851   1.30384    0.018
 6935.00    1.35803   1.30409    0.018
 6936.00    1.32184   1.30341    0.018
 6937.00    1.33111   1.30334    0.018
 6938.00    1.38611   1.30468    0.018
 6939.00    1.38323   1.30550    0.018
 6940.00    1.32900   1.30405    0.017
 6941.00    1.30649   1.30378    0.017
 6942.00    1.30880   1.30523    0.017
 6943.00    1.24894   1.30695    0.018
 6944.00    1.14634   1.30667    0.018
 6945.00    1.18086   1.30521    0.018
 6946.00    1.29804   1.30529    0.018
 6947.00    1.36656   1.30712    0.018
 6948.00    1.40948   1.30821    0.019
 6949.00    1.45472   1.30703    0.019
 6950.00    1.50103   1.30622    0.019
 6951.00    1.47132   1.30710    0.019
 6952.00    1.41176   1.30865    0.019
 6953.00    1.40356   1.30897    0.019
 6954.00    1.41253   1.30808    0.018
 6955.00    1.43668   1.30730    0.018
 6956.00    1.46508   1.30779    0.018
 6957.00    1.39433   1.30875    0.018
 6958.00    1.30063   1.30901    0.018
 6959.00    1.32022   1.30826    0.017
 6960.00    1.36085   1.30738    0.017
 6961.00    1.38868   1.30744    0.018
 6962.00    1.41469   1.30824    0.018
 6963.00    1.34592   1.30879    0.018
 6964.00    1.26734   1.30718    0.017
 6965.00    1.28414   1.30567    0.017
 6966.00    1.30731   1.30612    0.018
 6967.00    1.36892   1.30762    0.018
 6968.00    1.43172   1.30775    0.018
 6969.00    1.28722   1.30603    0.018
 6970.00    1.15072   1.30476    0.018
 6971.00    1.25957   1.30548    0.019
 6972.00    1.36284   1.30720    0.019
 6973.00    1.38328   1.30618    0.019
 6974.00    1.39382   1.30424    0.018
 6975.00    1.30944   1.30407    0.018
 6976.00    1.23953   1.30566    0.018
 6977.00    1.27037   1.30705    0.018
 6978.00    1.29770   1.30648    0.018
 6979.00    1.30620   1.30503    0.018
 6980.00    1.33664   1.30447    0.018
 6981.00    1.46156   1.30596    0.018
 6982.00    1.52849   1.30706    0.018
 6983.00    1.38954   1.30668    0.018
 6984.00    1.28107   1.30524    0.017
 6985.00    1.26353   1.30467    0.017
 6986.00    1.27236   1.30613    0.018
 6987.00    1.34819   1.30759    0.018
 6988.00    1.41040   1.30698    0.018
 6989.00    1.44288   1.30480    0.018
 6990.00    1.44672   1.30439    0.018
 6991.00    1.39625   1.30605    0.018
 6992.00    1.37492   1.30714    0.019
 6993.00    1.40182   1.30554    0.019
 6994.00    1.39073   1.30350    0.019
 6995.00    1.32449   1.30382    0.019
 6996.00    1.30684   1.30534    0.019
 6997.00    1.35121   1.30507    0.019
 6998.00    1.37632   1.30325    0.019
 6999.00    1.37979   1.30276    0.019
 7000.00    1.34144   1.30380    0.018
 7001.00    1.26160   1.30381    0.018
 7002.00    1.23850   1.30201    0.018
 7003.00    1.26503   1.30161    0.018
 7004.00    1.24597   1.30327    0.018
 7005.00    1.19177   1.30362    0.017
 7006.00    1.19891   1.30174    0.017
 7007.00    1.24763   1.30085    0.018
 7008.00    1.30617   1.30309    0.018
 7009.00    1.37055   1.30480    0.018
 7010.00    1.33420   1.30295    0.018
 7011.00    1.24566   1.30034    0.018
 7012.00    1.25195   1.30209    0.019
 7013.00    1.30080   1.30613    0.019
 7014.00    1.27992   1.30626    0.019
 7015.00    1.23213   1.30367    0.019
 7016.00    1.26510   1.30373    0.019
 7017.00    1.32459   1.30751    0.019
 7018.00    1.36024   1.30966    0.019
 7019.00    1.38934   1.30747    0.019
 7020.00    1.32029   1.30580    0.019
 7021.00    1.22904   1.30910    0.018
 7022.00    1.28241   1.31358    0.018
 7023.00    1.36189   1.31378    0.019
 7024.00    1.36617   1.31102    0.018
 7025.00    1.36004   1.31134    0.018
 7026.00    1.26494   1.31590    0.018
 7027.00    1.16102   1.31883    0.018
 7028.00    1.16940   1.31739    0.018
 7029.00    1.18482   1.31542    0.018
 7030.00    1.17903   1.31760    0.018
 7031.00    1.17269   1.32185    0.019
 7032.00    1.17794   1.32306    0.019
 7033.00    1.18482   1.32028    0.019
 7034.00    1.23649   1.31882    0.019
 7035.00    1.28378   1.32169    0.019
 7036.00    1.26945   1.32443    0.019
 7037.00    1.24652   1.32464    0.019
 7038.00    1.14429   1.32239    0.019
 7039.00    1.07247   1.32077    0.020
 7040.00    1.20552   1.32155    0.020
 7041.00    1.33220   1.32278    0.020
 7042.00    1.42561   1.32229    0.020
 7043.00    1.51709   1.32006    0.020
 7044.00    1.60046   1.31814    0.020
 7045.00    1.63992   1.31765    0.019
 7046.00    1.52665   1.31851    0.019
 7047.00    1.44275   1.31734    0.019
 7048.00    1.44480   1.31389    0.019
 7049.00    1.42146   1.31120    0.019
 7050.00    1.33472   1.31045   -2.000
 7051.00    1.27855   1.31113   -2.000
 7052.00    1.28812   1.31014   -2.000
 7053.00    1.30983   1.30668   -2.000
 7054.00    1.35423   1.30357   -2.000
 7055.00    1.36465   1.30313   -2.000
 7056.00    1.31964   1.30332   -2.000
 7057.00    1.34335   1.30167   -2.000
 7058.00    1.46532   1.29846   -2.000
 7059.00    1.54154   1.29669   -2.000
 7060.00    1.56018   1.29698   -2.000
 7061.00    1.56964   1.29658   -2.000
 7062.00    1.56892   1.29444   -2.000
 7063.00    1.55718   1.29159   -2.000
 7064.00    1.53465   1.29041   -2.000
 7065.00    1.52090   1.29027   -2.000
 7066.00    1.51473   1.28951   -2.000
 7067.00    1.44513   1.28782   -2.000
 7068.00    1.32734   1.28610   -2.000
 7069.00    1.28341   1.28484   -2.000
 7070.00    1.28879   1.28313   -2.000
 7071.00    1.44410   1.28170   -2.000
 7072.00    1.68709   1.28049   -2.000
 7073.00    1.67484   1.27920   -2.000
 7074.00    1.53248   1.27670   -2.000
 7075.00    1.48790   1.27457   -2.000
 7076.00    1.48648   1.27405   -2.000
 7077.00    1.61749   1.27329   -2.000
 7078.00    1.79870   1.27078   -2.000
 7079.00    1.78689   1.26663   -2.000
 7080.00    1.71291   1.26559   -2.000
 7081.00    1.61797   1.26640   -2.000
 7082.00    1.51738   1.26553   -2.000
 7083.00    1.58267   1.26173   -2.000
 7084.00    1.68457   1.25862   -2.000
 7085.00    1.56391   1.25938   -2.000
 7086.00    1.40413   1.26030   -2.000
 7087.00    1.33807   1.25864   -2.000
 7088.00    1.28457   1.25435   -2.000
 7089.00    1.27913   1.25422   -2.000
 7090.00    1.27826   1.25697   -2.000
 7091.00    1.40293   1.25738   -2.000
 7092.00    1.53497   1.25410   -2.000
 7093.00    1.42701   1.25097   -2.000
 7094.00    1.31532   1.25429   -2.000
 7095.00    1.50167   1.25757   -2.000
 7096.00    1.67480   1.25670   -2.000
 7097.00    1.51909   1.25275   -2.000
 7098.00    1.36257   1.25236   -2.000
 7099.00    1.19537   1.25691   -2.000
 7100.00    1.06747   1.25945   -2.000
 7101.00    1.28793   1.25704   -2.000
 7102.00    1.48139   1.25334   -2.000
 7103.00    1.49841   1.25536   -2.000
 7104.00    1.48747   1.26019   -2.000
 7105.00    1.33409   1.26108   -2.000
 7106.00    0.97086   1.25712   -2.000
 7107.00   -0.25614   1.25437   -2.000
 7108.00   -0.93301   1.25780   -2.000
 7109.00    0.26534   1.26184   -2.000
 7110.00    1.19072   1.26093   -2.000
 7111.00    1.33178   1.25643   -2.000
 7112.00    1.40117   1.25469   -2.000
 7113.00    1.29471   1.25853   -2.000
 7114.00    1.22561   1.26138   -2.000
 7115.00    1.23556   1.25884   -2.000
 7116.00    1.26047   1.25429   -2.000
 7117.00    1.31287   1.25383   -2.000
 7118.00    1.31405   1.25798   -2.000
 7119.00    1.23294   1.25940   -2.000
 7120.00    1.19703   1.25533   -2.000
 7121.00    1.22483   1.25150   -2.000
 7122.00    1.25573   1.25329   -2.000
 7123.00    1.29049   1.25677   -2.000
 7124.00    1.33656   1.25609   -2.000
 7125.00    1.39498   1.25193   -2.000
 7126.00    1.42576   1.25011   -2.000
 7127.00    1.42988   1.25361   -2.000
 7128.00    1.47814   1.25554   -2.000
 7129.00    1.56394   1.25298   -2.000
 7130.00    1.59645   1.25031   -2.000
 7131.00    1.58907   1.25135   -2.000
 7132.00    1.53843   1.25458   -2.000
 7133.00    1.45934   1.25470   -2.000
 7134.00    1.33585   1.25190   -2.000
 7135.00    1.18680   1.25116   -2.000
 7136.00    1.20106   1.25399   -2.000
 7137.00    1.29726   1.25567   -2.000
 7138.00    1.31449   1.25459   -2.000
 7139.00    1.29742   1.25333   -2.000
 7140.00    1.31194   1.25411   -2.000
 7141.00    1.33822   1.25636   -2.000
 7142.00    1.34882   1.25696   -2.000
 7143.00    1.35447   1.25615   -2.000
 7144.00    1.26431   1.25617   -2.000
 7145.00    1.14889   1.25693   -2.000
 7146.00    1.19255   1.25742   -2.000
 7147.00    1.27049   1.25861   -2.000
 7148.00    1.28542   1.25965   -2.000
 7149.00    1.28957   1.25927   -2.000
 7150.00    1.25773   1.25803   -2.000
 7151.00    1.22123   1.25800   -2.000
 7152.00    1.25442   1.26063   -2.000
 7153.00    1.29394   1.26239   -2.000
 7154.00    1.27880   1.26069   -2.000
 7155.00    1.26067   1.25774   -2.000
 7156.00    1.26967   1.25843   -2.000
 7157.00    1.27819   1.26223   -2.000
 7158.00    1.19093   1.26335   -2.000
 7159.00    1.11564   1.26024   -2.000
 7160.00    1.31203   1.25689   -2.000
 7161.00    1.49882   1.25859   -2.000
 7162.00    1.56480   1.26264   -2.000
 7163.00    1.62201   1.26268   -2.000
 7164.00    1.60437   1.25891   -2.000
 7165.00    1.55678   1.25639   -2.000
 7166.00    1.31938   1.25823   -2.000
 7167.00    1.14075   1.26129   -2.000
 7168.00    1.25389   1.26070   -2.000
 7169.00    1.36639   1.25712   -2.000
 7170.00    1.47629   1.25535   -2.000
 7171.00    1.54549   1.25710   -2.000
 7172.00    1.47866   1.25888   -2.000
 7173.00    1.41024   1.25769   -2.000
 7174.00    1.33730   1.25501   -2.000
 7175.00    1.28878   1.25445   -2.000
 7176.00    1.29917   1.25633   -2.000
 7177.00    1.31961   1.25613   -2.000
 7178.00    1.36102   1.25374   -2.000
 7179.00    1.38665   1.25272   -2.000
 7180.00    1.38373   1.25429   -2.000
 7181.00    1.35386   1.25623   -2.000
 7182.00    1.28135   1.25371   -2.000
 7183.00    1.23361   1.24995   -2.000
 7184.00    1.22029   1.25079   -2.000
 7185.00    1.20837   1.25472   -2.000
 7186.00    1.19817   1.25573   -2.000
 7187.00    1.21443   1.25112   -2.000
 7188.00    1.25920   1.24797   -2.000
 7189.00    1.28570   1.25139   -2.000
 7190.00    1.29483   1.25649   -2.000
 7191.00    1.29430   1.25490   -2.000
 7192.00    1.28568   1.24843   -2.000
 7193.00    1.24630   1.24777   -2.000
 7194.00    1.18422   1.25406   -2.000
 7195.00    1.15014   1.25876   -2.000
 7196.00    1.13421   1.25486   -2.000
 7197.00    1.10201   1.24803   -2.000
 7198.00    1.06059   1.24975   -2.000
 7199.00    1.14268   1.25717   -2.000
 7200.00    1.28576   1.26037   -2.000
 7201.00    1.39673   1.25611   -2.000
 7202.00    1.49398   1.25157   -2.000
 7203.00    1.43652   1.25495   -2.000
 7204.00    1.32245   1.26100   -2.000
 7205.00    1.21937   1.26214   -2.000
 7206.00    1.11970   1.25880   -2.000
 7207.00    1.10782   1.25789   -2.000
 7208.00    1.11861   1.26207   -2.000
 7209.00    1.13326   1.26578   -2.000
 7210.00    1.14873   1.26582   -2.000
 7211.00    1.15413   1.26388   -2.000
 7212.00    1.15785   1.26523   -2.000
 7213.00    1.23939   1.26900   -2.000
 7214.00    1.33064   1.27095   -2.000
 7215.00    1.34080   1.27105   -2.000
 7216.00    1.34392   1.27077   -2.000
 7217.00    1.24970   1.27294   -2.000
 7218.00    1.15053   1.27512   -2.000
