###################################################################
## OUTPUT of StarlightChains_v04.for    [Cid@UFSC - 01/Apr/2007] ##
###################################################################

## Some input info
KUG0210-078._43_51.txt                   [arq_obs]
Base.CB07.vall.4m                        [arq_base]
Masks.EmLines.NEW.gm                     [arq_masks]
StCv04.C11.config                        [arq_config]
   66                                    [N_base]
    0                                    [N_YAV_components = # of components with extra extinction!]
    0                                    [i_FitPowerLaw (1/0 = Yes/No)]
-9.99                                    [alpha_PowerLaw]
CCM                                      [red_law_option]
 1.458241                                [q_norm = A(l_norm)/A(V)]

## (Re)Sampling Parameters
 3741.00                                 [l_ini (A)]
 7218.00                                 [l_fin (A)]
    1.00                                 [dl    (A)]     (OBS: dl_cushion =    50.00 A)

## Normalization info
 4020.00                                 [l_norm (A) - for base]
 4010.00                                 [llow_norm (A) - window for f_obs]
 4060.00                                 [lupp_norm (A) - window for f_obs]
7.729942E-18                             [fobs_norm (in input units)]

## S/N
 3691.00                                 [llow_SN (A) - window for S/N]
 7268.00                                 [lupp_SN (A) - window for S/N]
   2.610                                 [S/N in S/N window]
   3.568                                 [S/N in norm. window]
   0.006                                 [S/N_err in S/N window]
   0.008                                 [S/N_err in norm. window]
  1.0000                                 [fscale_chi2]

## etc...
    -2007823                             [idum_orig]
  2367                                   [NOl_eff]
  2334                                   [Nl_eff]
    33    NSIGMA                         [Ntot_cliped & clip_method]
  5717460                                [Nglobal_steps]
   7                                     [N_chains]
  32                                     [NEX0s_base = N_base in EX0s-fits]
 0   0   1       33   2.0   1.891E+03    [Clip-Bug, RC-Crash & Burn-In warning-flags, n_censored_weights, wei_nsig_threshold & wei_limit]
    54     54.017     53.426      0.591  [idt_all, wdt_TotTime, wdt_UsrTime & wdt_SysTime (sec)]

## Synthesis Results - Best model ##

 8.81848E-06                             [chi2/Nl_eff]
    30.92669                             [adev (%)]

   114.42276                             [sum-of-x (%)]
 3.21414E-18                             [Flux_tot (units of input spectrum!)]
 4.96889E-14                             [Mini_tot (???)]
 2.64885E-14                             [Mcor_tot (???)]

-410.00                                  [v0_min  (km/s)]
   0.00                                  [vd_min  (km/s)]
-0.7537                                  [AV_min  (mag)]
 0.0000                                  [YAV_min (mag)]

# j     x_j(%)      Mini_j(%)     Mcor_j(%)     age_j(yr)     Z_j      (L/M)_j    YAV?  Mstars   component_j        a/Fe...       SSP_chi2r SSP_adev(%)   SSP_AV   SSP_x(%)
  1      0.0000     0.0000E+00    0.0000E+00    1.000000E+06  0.00400  1.094E-02    0   1.0000   age020_m42            0.0000     1.1361E-05    35.2441   2.2519    91.4376
  2      0.0000     0.0000E+00    0.0000E+00    3.160000E+06  0.00400  4.007E-02    0   0.9999   age045_m42            0.0000     1.0113E-05    33.1250   1.5027    97.9128
  3      0.0000     0.0000E+00    0.0000E+00    5.010000E+06  0.00400  2.539E-02    0   0.9488   age055_m42            0.0000     1.0768E-05    34.0286   1.8417    95.1317
  4      0.0000     0.0000E+00    0.0000E+00    6.610000E+06  0.00400  2.620E-02    0   0.9220   age061_m42            0.0000     1.0168E-05    32.8792   1.4397    97.7603
  5      0.0000     0.0000E+00    0.0000E+00    1.000000E+07  0.00400  1.322E-02    0   0.8862   age070_m42            0.0000     1.0439E-05    33.2760   1.2305    98.0012
  6      0.0000     0.0000E+00    0.0000E+00    1.445000E+07  0.00400  7.883E-03    0   0.8571   age078_m42            0.0000     1.0803E-05    33.8542   1.5557    95.6894
  7      0.0000     0.0000E+00    0.0000E+00    2.512000E+07  0.00400  5.251E-03    0   0.8174   age090_m42            0.0000     1.0422E-05    33.2225   1.1108    98.2547
  8      0.0000     0.0000E+00    0.0000E+00    4.000000E+07  0.00400  3.649E-03    0   0.7851   age104_m42            0.0000     1.0197E-05    32.8218   0.8709    99.3415
  9      0.0000     0.0000E+00    0.0000E+00    5.500000E+07  0.00400  3.098E-03    0   0.7629   age110_m42            0.0000     9.9291E-06    32.1742   0.9880   100.2153
 10      1.8015     4.5710E-02    6.1798E-02    1.015200E+08  0.00400  2.228E-03    0   0.7207   age116_m42            0.0000     9.6975E-06    31.6150   0.9875   100.8861
 11      7.5078     3.8831E-01    4.8426E-01    2.861200E+08  0.00400  1.093E-03    0   0.6648   age125_m42            0.0000     9.3273E-06    30.9857   0.4321   103.2604
 12      0.0000     0.0000E+00    0.0000E+00    5.088000E+08  0.00400  6.597E-04    0   0.6365   age130_m42            0.0000     9.0106E-06    30.2743   0.3796   105.1762
 13      0.0000     0.0000E+00    0.0000E+00    1.434000E+09  0.00400  2.132E-04    0   0.5798   age139_m42            0.0000     8.6176E-06    29.9409  -0.6305   108.0641
 14      0.0000     0.0000E+00    0.0000E+00    4.250000E+09  0.00400  5.895E-05    0   0.5377   age158_m42            0.0000     9.1434E-06    30.9724  -1.0000   103.0866
 15      0.0000     0.0000E+00    0.0000E+00    7.500000E+09  0.00400  3.510E-05    0   0.5212   age171_m42            0.0000     9.5137E-06    31.9856  -1.0000    99.0730
 16      0.0000     0.0000E+00    0.0000E+00    1.300000E+10  0.00400  2.005E-05    0   0.5034   age193_m42            0.0000     1.0064E-05    33.9329  -1.0000    95.2939
 17      6.1458     2.2782E+01    2.1227E+01    1.800000E+10  0.00400  1.525E-05    0   0.4967   age213_m42            0.0000     1.0138E-05    34.3739  -1.0000    94.4159
 18      0.0064     2.9085E-05    5.4560E-05    1.000000E+06  0.00800  1.238E-02    0   1.0000   age020_m52            0.0000     1.1374E-05    35.2702   2.2491    91.5989
 19      0.0000     0.0000E+00    0.0000E+00    3.160000E+06  0.00800  3.074E-02    0   0.9966   age045_m52            0.0000     1.1320E-05    35.1122   2.1692    92.4322
 20      0.0000     0.0000E+00    0.0000E+00    5.010000E+06  0.00800  2.668E-02    0   0.9443   age055_m52            0.0000     1.0988E-05    34.3354   1.9298    94.2134
 21      0.0000     0.0000E+00    0.0000E+00    6.610000E+06  0.00800  2.136E-02    0   0.9177   age061_m52            0.0000     1.0443E-05    33.6256   0.7130    99.5620
 22      0.0000     0.0000E+00    0.0000E+00    1.000000E+07  0.00800  1.215E-02    0   0.8827   age070_m52            0.0000     1.0715E-05    33.8244   1.4279    97.4054
 23      0.0000     0.0000E+00    0.0000E+00    1.445000E+07  0.00800  8.717E-03    0   0.8552   age078_m52            0.0000     1.0694E-05    33.6701   1.5196    97.0346
 24      0.3493     3.5316E-03    5.4072E-03    2.512000E+07  0.00800  5.592E-03    0   0.8162   age090_m52            0.0000     1.0387E-05    33.1491   1.1766    99.3892
 25      0.0000     0.0000E+00    0.0000E+00    4.000000E+07  0.00800  3.896E-03    0   0.7841   age104_m52            0.0000     1.0132E-05    32.5867   1.0688   100.5923
 26      0.0979     2.5767E-03    3.4927E-03    1.015200E+08  0.00800  2.148E-03    0   0.7226   age116_m52            0.0000     9.7728E-06    31.7922   0.9697   101.3220
 27      0.0000     0.0000E+00    0.0000E+00    2.861200E+08  0.00800  9.925E-04    0   0.6683   age125_m52            0.0000     9.0699E-06    30.2709   0.4449   106.1977
 28      0.0000     0.0000E+00    0.0000E+00    9.047900E+08  0.00800  3.141E-04    0   0.6138   age135_m52            0.0000     8.5987E-06    29.6673  -0.4408   112.6733
 29      0.0000     0.0000E+00    0.0000E+00    1.434000E+09  0.00800  1.719E-04    0   0.5853   age139_m52            0.0000     8.8807E-06    30.4387  -1.0000   109.7570
 30      0.0000     0.0000E+00    0.0000E+00    2.500000E+09  0.00800  7.872E-05    0   0.5600   age150_m52            0.0000     9.4017E-06    31.4612  -1.0000   102.3573
 31      0.0000     0.0000E+00    0.0000E+00    4.250000E+09  0.00800  4.336E-05    0   0.5426   age158_m52            0.0000     9.5600E-06    31.7245  -1.0000   101.1034
 32      0.0000     0.0000E+00    0.0000E+00    6.250000E+09  0.00800  3.159E-05    0   0.5319   age166_m52            0.0000     1.0186E-05    33.8406  -1.0000    97.0464
 33      0.0000     0.0000E+00    0.0000E+00    1.300000E+10  0.00800  1.361E-05    0   0.5073   age193_m52            0.0000     1.2637E-05    41.1329  -1.0000    85.8201
 34      0.0000     0.0000E+00    0.0000E+00    1.800000E+10  0.00800  9.886E-06    0   0.4990   age213_m52            0.0000     1.3573E-05    42.4170  -1.0000    82.7400
 35      0.0000     0.0000E+00    0.0000E+00    1.000000E+06  0.02000  1.544E-02    0   1.0000   age020_m62            0.0000     1.1403E-05    35.3266   2.2469    91.7860
 36      0.0000     0.0000E+00    0.0000E+00    3.160000E+06  0.02000  3.762E-02    0   0.9858   age045_m62            0.0000     1.1449E-05    35.2957   2.1833    92.5837
 37      0.0000     0.0000E+00    0.0000E+00    5.010000E+06  0.02000  3.296E-02    0   0.9342   age055_m62            0.0000     1.0573E-05    33.6183   1.7887    96.5769
 38      0.0000     0.0000E+00    0.0000E+00    8.710000E+06  0.02000  1.154E-02    0   0.8861   age067_m62            0.0000     1.1593E-05    36.5368   0.9993    97.1300
 39      0.0000     0.0000E+00    0.0000E+00    1.445000E+07  0.02000  7.663E-03    0   0.8472   age078_m62            0.0000     1.0846E-05    34.4522   1.1066    98.7406
 40      0.0000     0.0000E+00    0.0000E+00    2.512000E+07  0.02000  4.532E-03    0   0.8099   age090_m62            0.0000     1.0859E-05    34.3361   1.1058    98.1917
 41      0.0000     0.0000E+00    0.0000E+00    5.500000E+07  0.02000  2.733E-03    0   0.7595   age110_m62            0.0000     1.0263E-05    32.7328   1.0555    99.7382
 42      0.0000     0.0000E+00    0.0000E+00    1.609000E+08  0.02000  1.369E-03    0   0.6985   age120_m62            0.0000     9.5037E-06    30.9904   0.8413   103.6952
 43      0.0000     0.0000E+00    0.0000E+00    2.861200E+08  0.02000  9.013E-04    0   0.6714   age125_m62            0.0000     9.0199E-06    29.9239   0.5518   107.6103
 44     29.2794     3.2920E+00    3.9825E+00    5.088000E+08  0.02000  5.028E-04    0   0.6449   age130_m62            0.0000     8.5344E-06    29.4224   0.0940   112.5494
 45      0.0000     0.0000E+00    0.0000E+00    9.047900E+08  0.02000  2.428E-04    0   0.6179   age135_m62            0.0000     8.7368E-06    30.2644  -0.5326   112.7492
 46      0.0000     0.0000E+00    0.0000E+00    1.434000E+09  0.02000  1.263E-04    0   0.5908   age139_m62            0.0000     9.0967E-06    31.0291  -0.9931   111.3315
 47     11.4765     1.0840E+01    1.1536E+01    2.500000E+09  0.02000  5.985E-05    0   0.5673   age150_m62            0.0000     9.7675E-06    31.5068  -1.0000   103.3057
 48      0.0000     0.0000E+00    0.0000E+00    4.250000E+09  0.02000  3.271E-05    0   0.5468   age158_m62            0.0000     1.0872E-05    34.7870  -1.0000    95.9621
 49     12.0565     5.0116E+01    4.8575E+01    1.000000E+10  0.02000  1.360E-05    0   0.5167   age181_m62            0.0000     1.3090E-05    39.6946  -1.0000    87.2678
 50      0.0000     0.0000E+00    0.0000E+00    1.800000E+10  0.02000  7.124E-06    0   0.5013   age213_m62            0.0000     1.4952E-05    42.5173  -1.0000    81.2723
 51      0.5103     1.1129E-03    2.0872E-03    1.000000E+06  0.05000  2.592E-02    0   0.9998   age020_m72            0.0000     1.1506E-05    35.5244   2.2423    91.7324
 52      0.0000     0.0000E+00    0.0000E+00    3.160000E+06  0.05000  4.845E-02    0   0.9577   age045_m72            0.0000     1.1176E-05    34.6888   2.0568    93.9077
 53      0.0000     0.0000E+00    0.0000E+00    5.010000E+06  0.05000  3.072E-02    0   0.9147   age055_m72            0.0000     1.1136E-05    34.6744   1.6512    96.0300
 54      0.0000     0.0000E+00    0.0000E+00    6.610000E+06  0.05000  1.455E-02    0   0.8877   age061_m72            0.0000     1.2076E-05    38.3340   1.0761    96.8907
 55      0.0000     0.0000E+00    0.0000E+00    1.000000E+07  0.05000  9.074E-03    0   0.8524   age070_m72            0.0000     1.1192E-05    35.1454   1.8293    95.6860
 56      0.0000     0.0000E+00    0.0000E+00    2.512000E+07  0.05000  4.250E-03    0   0.7902   age090_m72            0.0000     1.0721E-05    33.8427   1.5329    97.3874
 57      0.0000     0.0000E+00    0.0000E+00    4.000000E+07  0.05000  3.087E-03    0   0.7618   age104_m72            0.0000     1.0499E-05    33.3968   1.3096    98.8040
 58      0.0000     0.0000E+00    0.0000E+00    1.015200E+08  0.05000  1.700E-03    0   0.7096   age116_m72            0.0000     9.6895E-06    31.3832   1.0058   102.7086
 59     29.0886     2.2270E+00    2.7710E+00    2.861200E+08  0.05000  7.384E-04    0   0.6633   age125_m72            0.0000     8.7849E-06    29.5601   0.3777   110.1601
 60      0.0000     0.0000E+00    0.0000E+00    5.088000E+08  0.05000  3.819E-04    0   0.6372   age130_m72            0.0000     8.6700E-06    29.9877  -0.1855   113.7547
 61      0.0000     0.0000E+00    0.0000E+00    9.047900E+08  0.05000  1.676E-04    0   0.6110   age135_m72            0.0000     9.2142E-06    31.6066  -0.9558   113.4129
 62     16.1029     1.0301E+01    1.1351E+01    1.434000E+09  0.05000  8.837E-05    0   0.5874   age139_m72            0.0000     9.9067E-06    31.4477  -1.0000   104.7840
 63      0.0000     0.0000E+00    0.0000E+00    2.500000E+09  0.05000  4.233E-05    0   0.5598   age150_m72            0.0000     1.1057E-05    34.6574  -1.0000    96.8258
 64      0.0000     0.0000E+00    0.0000E+00    6.250000E+09  0.05000  1.435E-05    0   0.5249   age166_m72            0.0000     1.3887E-05    41.2397  -1.0000    84.5451
 65      0.0000     0.0000E+00    0.0000E+00    1.300000E+10  0.05000  6.513E-06    0   0.5036   age193_m72            0.0000     1.6558E-05    44.8310  -1.0000    77.9790
 66      0.0000     0.0000E+00    0.0000E+00    1.800000E+10  0.05000  4.527E-06    0   0.4945   age213_m72            0.0000     1.8340E-05    46.7509  -1.0000    73.5093


## Synthesis Results - Average & Chains ##

# j      x_j: min, <> & last-chain-values for 1 ...  7 chains
  1      0.0000     93.8837     86.2182     86.9523     83.4588     92.4094     88.9033     81.1318     81.0334
  2      0.0000      0.1301      0.3212      0.0000      0.9452      0.4253      0.9128      0.1301      0.0000
  3      0.0000      0.1455      0.1628      0.0000      0.2320      0.1467      0.2217      0.8869      0.2177
  4      0.0000      0.1313      0.1384      0.0000      0.0000      0.2493      0.1000      0.5127      0.1685
  5      0.0000      0.1297      0.0000      0.6797      0.0000      0.0000      0.0000      0.0164      0.0000
  6      0.0000      0.1334      0.5075      0.0759      0.6966      0.0499      0.0000      0.9817      0.1069
  7      0.0000      0.1175      0.0000      0.0425      0.0000      0.0000      0.2709      1.0242      0.2628
  8      0.0000      0.1648      0.7937      0.1787      0.6785      0.0000      0.0173      0.1347      0.0571
  9      0.0000      0.1397      0.0000      0.0000      0.0000      0.1049      0.1405      1.1513      0.2587
 10      1.8015      0.1770      0.2516      0.7740      1.6643      0.1159      0.4190      0.4126      0.0000
 11      7.5078      0.1540      0.7711      0.1971      0.4874      0.0601      0.0000      0.4926      0.3767
 12      0.0000      0.1341      0.6426      0.0000      0.0000      0.0000      0.5499      0.0000      0.0000
 13      0.0000      0.2136      0.4577      0.8324      0.1940      0.4182      0.3978      0.2555      0.6839
 14      0.0000      0.1517      0.0375      0.3951      0.0841      0.0000      0.3031      0.6582      0.7531
 15      0.0000      0.1483      0.0786      0.0000      0.0000      0.0650      0.0000      0.0000      0.3661
 16      0.0000      0.1923      0.0000      0.0595      0.1493      0.1714      0.4576      1.0411      0.0812
 17      6.1458      0.1552      0.1249      0.4334      0.2829      0.0359      0.0124      0.0000      0.2901
 18      0.0064     24.6940     24.3585     23.1685     24.6493     24.3791     24.5135     24.7187     24.6466
 19      0.0000      0.3332      0.5911      0.0730      0.4473      0.4035      0.0608      1.1722      0.0000
 20      0.0000      0.1438      0.2536      0.2556      0.2271      0.1372      0.2907      0.3590      1.1086
 21      0.0000      0.1272      0.0000      0.0000      0.1505      0.0000      0.1392      0.1544      0.2862
 22      0.0000      0.1826      1.6431      0.0000      0.8076      0.0000      0.2739      0.6242      0.4402
 23      0.0000      0.1803      0.0000      0.8046      1.1944      0.0000      0.1573      0.0000      0.3818
 24      0.3493      0.1353      0.0860      0.0000      0.8170      0.2405      0.3385      0.0000      1.2068
 25      0.0000      0.1346      0.2890      0.0000      0.4010      0.1930      0.2713      0.0925      0.1390
 26      0.0979      0.1761      0.0513      1.6175      0.7203      0.2977      0.7712      0.8333      0.0000
 27      0.0000      0.1497      0.7313      0.0000      0.0000      0.1294      0.4110      0.1258      1.5231
 28      0.0000      0.2462      0.0475      0.8704      0.2377      0.5284      1.3837      0.0000      2.1452
 29      0.0000      0.1175      0.0000      0.6779      0.0804      0.1929      0.0000      0.5396      0.0341
 30      0.0000      0.1722      0.2490      0.0000      0.0000      0.0656      0.0000      0.1204      0.3290
 31      0.0000      0.1860      0.2057      0.2534      0.2616      0.0000      0.2899      0.2759      1.1239
 32      0.0000      0.1469      0.0000      0.3862      0.0000      0.1619      0.2370      0.7186      0.1269
 33      0.0000      0.1837      0.3446      0.0096      0.0000      0.6427      0.3447      0.0000      0.1417
 34      0.0000      0.2246      0.0402      0.2347      0.0000      0.2974      0.4656      0.1775      0.8870
 35      0.0000      1.2952      0.8538      1.6899      0.7963      1.2728      1.1880      1.5617      1.4816
 36      0.0000      0.1541      0.2306      0.4833      0.6346      0.2328      0.3702      0.6254      0.1868
 37      0.0000      0.1537      0.3304      0.0000      0.0000      0.1069      0.5992      0.0000      0.5075
 38      0.0000      0.0972      0.4724      0.0000      0.2352      0.0609      0.3683      0.7010      0.0000
 39      0.0000      0.1495      0.0000      0.1260      0.4061      0.4460      0.0062      0.5927      0.0000
 40      0.0000      0.2136      0.2072      0.6115      0.9665      0.1411      0.0000      0.2970      1.2107
 41      0.0000      0.1388      0.6842      0.0000      0.0000      0.7939      0.2152      0.9340      0.0000
 42      0.0000      0.2113      0.2672      0.8958      0.1273      0.0000      0.0000      0.0396      0.6742
 43      0.0000      0.2118      0.0406      0.4736      0.0000      0.1409      0.1793      0.6328      0.2359
 44     29.2794      0.1533      0.3479      0.0440      1.1068      0.3048      0.1157      0.0000      0.9064
 45      0.0000      0.1553      0.5926      0.0142      0.2292      0.8650      0.1435      0.7793      0.1535
 46      0.0000      0.1532      0.7236      0.0000      0.0000      0.3402      0.4244      0.0000      0.4010
 47     11.4765      0.1498      0.6612      0.3913      0.5015      0.1660      0.5998      0.0000      0.3213
 48      0.0000      0.1007      0.3791      0.0000      0.1672      0.0000      0.0000      0.4302      0.4012
 49     12.0565      0.1386      0.0000      0.0000      0.5479      0.0000      0.1360      0.0333      0.1468
 50      0.0000      0.1984      0.0000      0.1279      0.4344      0.6150      0.1735      0.0000      0.0880
 51      0.5103      0.1159      0.3834      0.2676      0.3204      0.4272      0.1763      0.0000      0.2748
 52      0.0000      0.1663      0.1282      0.4816      0.7640      0.0430      0.0000      0.1885      0.0000
 53      0.0000      0.2098      0.6199      0.6849      0.0000      0.6174      0.1000      0.5166      0.4153
 54      0.0000      0.1230      0.5094      0.1314      0.1383      0.0000      0.3160      0.0231      0.3616
 55      0.0000      0.1335      0.5052      0.0973      0.0000      0.0266      0.5921      0.3155      0.2123
 56      0.0000      0.1559      0.5802      1.3806      0.0000      0.0939      0.3466      0.0000      0.7730
 57      0.0000      0.1226      0.2169      1.2688      0.1136      0.0872      0.0000      0.5616      0.1927
 58      0.0000      0.1390      0.0000      0.0000      0.0000      0.2556      0.0000      0.7991      0.3209
 59     29.0886      0.1712      0.2183      0.4060      0.3073      0.2275      0.0000      0.4300      0.7300
 60      0.0000      0.1241      0.0952      0.0000      0.0208      0.0000      0.0000      0.4316      0.0000
 61      0.0000      0.1584      0.1467      0.3136      0.3257      0.1831      0.0000      0.0000      0.3868
 62     16.1029      0.1176      0.3046      0.1618      0.4075      0.2320      0.6922      0.4285      0.2795
 63      0.0000      0.1606      0.1430      0.2981      0.7422      0.2417      0.2431      0.0541      0.0896
 64      0.0000      0.1649      0.4747      0.0000      0.5074      0.0000      0.1556      0.0000      0.0723
 65      0.0000      0.1771      0.0955      0.3898      0.3262      0.0000      0.1046      0.0985      0.0000
 66      0.0000      0.1792      0.0000      0.2889      0.5829      0.1110      0.0000      0.6500      0.0000

# j      m_j: min, <> & last-chain-values for 1 ...  7 chains
  1  0.0000E+00  7.2868E+00  9.1215E+00  5.6371E+00  3.5905E+00  6.5126E+00  6.6820E+00  4.4594E+00  5.1574E+00
  2  0.0000E+00  2.7572E-03  9.2769E-03  0.0000E+00  1.1101E-02  8.1832E-03  1.8730E-02  1.9514E-03  0.0000E+00
  3  0.0000E+00  4.6182E-03  7.0424E-03  0.0000E+00  4.0811E-03  4.2260E-03  6.8114E-03  1.9929E-02  5.6652E-03
  4  0.0000E+00  3.9232E-03  5.6367E-03  0.0000E+00  0.0000E+00  6.7637E-03  2.8936E-03  1.0849E-02  4.1293E-03
  5  0.0000E+00  7.3842E-03  0.0000E+00  3.2317E-02  0.0000E+00  0.0000E+00  0.0000E+00  6.5918E-04  0.0000E+00
  6  0.0000E+00  1.2314E-02  6.3860E-02  5.8551E-03  3.5645E-02  4.1864E-03  0.0000E+00  6.4184E-02  8.0894E-03
  7  0.0000E+00  1.5534E-02  0.0000E+00  4.6934E-03  0.0000E+00  0.0000E+00  3.4673E-02  9.5874E-02  2.8482E-02
  8  0.0000E+00  3.0106E-02  1.9766E-01  2.7266E-02  6.8707E-02  0.0000E+00  3.0542E-03  1.7421E-02  8.5590E-03
  9  0.0000E+00  2.9220E-02  0.0000E+00  0.0000E+00  0.0000E+00  1.9910E-02  2.8444E-02  1.7048E-01  4.4358E-02
 10  6.1798E-02  4.8623E-02  9.4191E-02  1.7757E-01  2.5338E-01  2.8909E-02  1.1144E-01  8.0246E-02  0.0000E+00
 11  4.8426E-01  7.9523E-02  5.4285E-01  8.5006E-02  1.3954E-01  2.8190E-02  0.0000E+00  1.8016E-01  1.5955E-01
 12  0.0000E+00  1.0986E-01  7.1758E-01  0.0000E+00  0.0000E+00  0.0000E+00  4.3626E-01  0.0000E+00  0.0000E+00
 13  0.0000E+00  4.9324E-01  1.4405E+00  1.6055E+00  2.4831E-01  8.7692E-01  8.8961E-01  4.1781E-01  1.2949E+00
 14  0.0000E+00  1.1750E+00  3.9581E-01  2.5561E+00  3.6112E-01  0.0000E+00  2.2732E+00  3.6101E+00  4.7826E+00
 15  0.0000E+00  1.8697E+00  1.3504E+00  0.0000E+00  0.0000E+00  7.4457E-01  0.0000E+00  0.0000E+00  3.7855E+00
 16  0.0000E+00  4.0997E+00  0.0000E+00  1.0599E+00  1.7642E+00  3.3189E+00  9.4462E+00  1.5718E+01  1.4187E+00
 17  2.1227E+01  4.2911E+00  4.7075E+00  1.0011E+01  4.3365E+00  9.0260E-01  3.3108E-01  0.0000E+00  6.5788E+00
 18  5.4560E-05  1.6937E+00  2.2773E+00  1.3273E+00  9.3711E-01  1.5183E+00  1.6281E+00  1.2006E+00  1.3862E+00
 19  0.0000E+00  9.1734E-03  2.2182E-02  1.6791E-03  6.8258E-03  1.0086E-02  1.6219E-03  2.2853E-02  0.0000E+00
 20  0.0000E+00  4.3207E-03  1.0389E-02  6.4154E-03  3.7824E-03  3.7435E-03  8.4591E-03  7.6416E-03  2.7321E-02
 21  0.0000E+00  4.6391E-03  0.0000E+00  0.0000E+00  3.0424E-03  0.0000E+00  4.9185E-03  3.9886E-03  8.5619E-03
 22  0.0000E+00  1.1263E-02  1.3816E-01  0.0000E+00  2.7616E-02  0.0000E+00  1.6361E-02  2.7268E-02  2.2268E-02
 23  0.0000E+00  1.5016E-02  0.0000E+00  5.5989E-02  5.5149E-02  0.0000E+00  1.2692E-02  0.0000E+00  2.6082E-02
 24  5.4072E-03  1.6772E-02  1.4533E-02  0.0000E+00  5.6126E-02  2.7069E-02  4.0631E-02  0.0000E+00  1.2265E-01
 25  0.0000E+00  2.3000E-02  6.7329E-02  0.0000E+00  3.7982E-02  2.9949E-02  4.4897E-02  1.1197E-02  1.9475E-02
 26  3.4927E-03  5.0292E-02  1.9958E-02  3.8591E-01  1.1405E-01  7.7202E-02  2.1332E-01  1.6856E-01  0.0000E+00
 27  0.0000E+00  8.5617E-02  5.6990E-01  0.0000E+00  0.0000E+00  6.7157E-02  2.2757E-01  5.0920E-02  7.1408E-01
 28  0.0000E+00  4.0855E-01  1.0749E-01  1.2063E+00  2.1862E-01  7.9615E-01  2.2234E+00  0.0000E+00  2.9188E+00
 29  0.0000E+00  3.3977E-01  0.0000E+00  1.6370E+00  1.2884E-01  5.0637E-01  0.0000E+00  1.1049E+00  8.0773E-02
 30  0.0000E+00  1.0402E+00  2.0502E+00  0.0000E+00  0.0000E+00  3.5956E-01  0.0000E+00  5.1489E-01  1.6295E+00
 31  0.0000E+00  1.9768E+00  2.9797E+00  2.2487E+00  1.5410E+00  0.0000E+00  2.9835E+00  2.0762E+00  9.7930E+00
 32  0.0000E+00  2.0997E+00  0.0000E+00  4.6114E+00  0.0000E+00  2.1022E+00  3.2817E+00  7.2755E+00  1.4878E+00
 33  0.0000E+00  5.8139E+00  1.4865E+01  2.5486E-01  0.0000E+00  1.8471E+01  1.0564E+01  0.0000E+00  3.6778E+00
 34  0.0000E+00  9.6259E+00  2.3463E+00  8.4028E+00  0.0000E+00  1.1573E+01  1.9324E+01  5.3873E+00  3.1174E+01
 35  0.0000E+00  7.1231E-02  6.3999E-02  7.7628E-02  2.4273E-02  6.3558E-02  6.3265E-02  6.0822E-02  6.6816E-02
 36  0.0000E+00  3.4297E-03  6.9951E-03  8.9821E-03  7.8260E-03  4.7037E-03  7.9759E-03  9.8552E-03  3.4076E-03
 37  0.0000E+00  3.6998E-03  1.0837E-02  0.0000E+00  0.0000E+00  2.3371E-03  1.3965E-02  0.0000E+00  1.0015E-02
 38  0.0000E+00  6.3385E-03  4.1980E-02  0.0000E+00  8.5005E-03  3.6025E-03  2.3254E-02  3.2368E-02  0.0000E+00
 39  0.0000E+00  1.4036E-02  0.0000E+00  9.8816E-03  2.1129E-02  3.8013E-02  5.6274E-04  3.9400E-02  0.0000E+00
 40  0.0000E+00  3.2406E-02  4.2854E-02  7.7506E-02  8.1289E-02  1.9443E-02  0.0000E+00  3.1913E-02  1.5064E-01
 41  0.0000E+00  3.2755E-02  2.2005E-01  0.0000E+00  0.0000E+00  1.7010E-01  4.9164E-02  1.5607E-01  0.0000E+00
 42  0.0000E+00  9.1546E-02  1.5781E-01  3.2417E-01  3.0562E-02  0.0000E+00  0.0000E+00  1.2135E-02  2.3953E-01
 43  0.0000E+00  1.3394E-01  3.5039E-02  2.5020E-01  0.0000E+00  8.0942E-02  1.0983E-01  2.8347E-01  1.2235E-01
 44  3.9825E+00  1.6695E-01  5.1649E-01  4.0040E-02  6.6812E-01  3.0138E-01  1.2207E-01  0.0000E+00  8.0947E-01
 45  0.0000E+00  3.3565E-01  1.7456E+00  2.5569E-02  2.7457E-01  1.6972E+00  3.0027E-01  1.1925E+00  2.7194E-01
 46  0.0000E+00  6.0865E-01  3.9174E+00  0.0000E+00  0.0000E+00  1.2271E+00  1.6324E+00  0.0000E+00  1.3061E+00
 47  1.1536E+01  1.2058E+00  7.2538E+00  2.6305E+00  2.2374E+00  1.2129E+00  4.6750E+00  0.0000E+00  2.1203E+00
 48  0.0000E+00  1.4288E+00  7.3353E+00  0.0000E+00  1.3153E+00  0.0000E+00  0.0000E+00  4.3246E+00  4.6701E+00
 49  4.8575E+01  4.4699E+00  0.0000E+00  0.0000E+00  9.7975E+00  0.0000E+00  4.2493E+00  7.6120E-01  3.8829E+00
 50  0.0000E+00  1.1857E+01  0.0000E+00  6.3854E+00  1.4389E+01  3.3365E+01  1.0039E+01  0.0000E+00  4.3096E+00
 51  2.0872E-03  3.7945E-03  1.7115E-02  7.3221E-03  5.8161E-03  1.2703E-02  5.5912E-03  0.0000E+00  7.3803E-03
 52  0.0000E+00  2.7909E-03  2.9326E-03  6.7524E-03  7.1078E-03  6.5532E-04  0.0000E+00  2.2402E-03  0.0000E+00
 53  0.0000E+00  5.3042E-03  2.1364E-02  1.4463E-02  0.0000E+00  1.4174E-02  2.4484E-03  9.2498E-03  8.6103E-03
 54  0.0000E+00  6.3710E-03  3.5970E-02  5.6849E-03  3.9715E-03  0.0000E+00  1.5851E-02  8.4567E-04  1.5360E-02
 55  0.0000E+00  1.0649E-02  5.4929E-02  6.4824E-03  0.0000E+00  1.9235E-03  4.5737E-02  1.7822E-02  1.3888E-02
 56  0.0000E+00  2.4612E-02  1.2485E-01  1.8206E-01  0.0000E+00  1.3459E-02  5.2982E-02  0.0000E+00  1.0008E-01
 57  0.0000E+00  2.5687E-02  6.1938E-02  2.2208E-01  1.3189E-02  1.6599E-02  0.0000E+00  8.3342E-02  3.3119E-02
 58  0.0000E+00  4.9266E-02  0.0000E+00  0.0000E+00  0.0000E+00  8.2245E-02  0.0000E+00  2.0057E-01  9.3269E-02
 59  2.7710E+00  1.3060E-01  2.2701E-01  2.5867E-01  1.2992E-01  1.5753E-01  0.0000E+00  2.3226E-01  4.5657E-01
 60  0.0000E+00  1.7576E-01  1.8375E-01  0.0000E+00  1.6341E-02  0.0000E+00  0.0000E+00  4.3302E-01  0.0000E+00
 61  0.0000E+00  4.9024E-01  6.1888E-01  8.1096E-01  5.5887E-01  5.1460E-01  0.0000E+00  0.0000E+00  9.8185E-01
 62  1.1351E+01  6.6358E-01  2.3436E+00  7.6295E-01  1.2749E+00  1.1889E+00  3.7831E+00  1.7128E+00  1.2937E+00
 63  0.0000E+00  1.8039E+00  2.1883E+00  2.7961E+00  4.6198E+00  2.4646E+00  2.6431E+00  4.3018E-01  8.2516E-01
 64  0.0000E+00  5.1215E+00  2.0099E+01  0.0000E+00  8.7349E+00  0.0000E+00  4.6788E+00  0.0000E+00  1.8424E+00
 65  0.0000E+00  1.1628E+01  8.5506E+00  2.1376E+01  1.1870E+01  0.0000E+00  6.6475E+00  4.5814E+00  0.0000E+00
 66  0.0000E+00  1.6618E+01  0.0000E+00  2.2379E+01  2.9967E+01  9.3490E+00  0.0000E+00  4.2693E+01  0.0000E+00

# AV, chi2 & Mass for <> & i_chain = 1 ...  7 solutions
AV      -0.7537      1.2211      1.1266      1.0992      0.9650      1.1206      1.0234      1.0663      1.1265
chi2 8.8185E-06  1.8535E-05  1.8022E-05  1.8118E-05  1.7748E-05  1.8320E-05  1.8083E-05  1.7967E-05  1.8076E-05
Mass 2.6488E-14  4.6932E-14  3.0326E-14  4.7700E-14  6.0025E-14  4.5162E-14  3.7164E-14  5.3834E-14  5.0408E-14
-410.00                                  [v0_min (km/s) before EX0s...]
   0.00                                  [vd_min (km/s) before EX0s...]


## Synthetic spectrum (Best Model) ##l_obs f_obs f_syn wei
 3478    [Nl_obs]
 3741.00    1.42513   0.51775    0.000
 3742.00    0.59611   0.47948    0.000
 3743.00   -0.67528   0.41408    0.000
 3744.00   -0.86801   0.35753    0.000
 3745.00   -0.43225   0.37500    0.000
 3746.00   -0.11484   0.45679    0.000
 3747.00    0.14248   0.54263    0.022
 3748.00   -0.10167   0.61185    0.000
 3749.00   -0.56632   0.68077    0.000
 3750.00   -0.13193   0.73120    0.000
 3751.00    0.64188   0.72653    0.022
 3752.00    0.46108   0.66138    0.021
 3753.00   -0.02566   0.60403    0.000
 3754.00   -0.45492   0.61372    0.000
 3755.00   -0.86876   0.65404    0.000
 3756.00   -0.85450   0.67937    0.000
 3757.00   -0.74627   0.68822    0.000
 3758.00   -0.88028   0.68025    0.000
 3759.00   -1.05658   0.67045    0.000
 3760.00   -0.92681   0.66249    0.000
 3761.00   -0.75637   0.61841    0.000
 3762.00   -0.38787   0.56507    0.000
 3763.00   -0.00076   0.54267    0.000
 3764.00    0.03171   0.51744    0.018
 3765.00    0.04372   0.47987    0.018
 3766.00   -0.49774   0.49255    0.000
 3767.00   -1.04928   0.56125    0.000
 3768.00   -1.23242   0.62296    0.000
 3769.00   -1.39200   0.65257    0.000
 3770.00   -0.97942   0.67408    0.000
 3771.00   -0.59961   0.70847    0.000
 3772.00   -0.64920   0.74890    0.000
 3773.00   -0.69324   0.78267    0.000
 3774.00   -0.68864   0.82355    0.000
 3775.00   -0.61116   0.86329    0.000
 3776.00   -0.06124   0.87651    0.000
 3777.00    0.40548   0.87685    0.018
 3778.00    0.45110   0.88898    0.018
 3779.00    0.39370   0.89946    0.018
 3780.00   -0.08542   0.86240    0.000
 3781.00   -0.39521   0.78940    0.000
 3782.00   -0.13066   0.74505    0.000
 3783.00    0.08678   0.72662    0.019
 3784.00    0.16945   0.71071    0.019
 3785.00    0.21506   0.70631    0.019
 3786.00    0.17012   0.71023    0.019
 3787.00   -0.08549   0.68948    0.000
 3788.00   -0.78514   0.63509    0.000
 3789.00   -1.02721   0.57364    0.000
 3790.00   -0.43113   0.52658    0.000
 3791.00    0.05513   0.48273    0.018
 3792.00    0.36562   0.42735    0.018
 3793.00    0.47440   0.40169    0.018
 3794.00    0.29987   0.44659    0.018
 3795.00    0.02962   0.53512    0.018
 3796.00   -0.35892   0.61487    0.000
 3797.00   -0.32390   0.68001    0.000
 3798.00    0.17258   0.73996    0.019
 3799.00    0.42636   0.77388    0.019
 3800.00    0.44691   0.77655    0.019
 3801.00    0.35137   0.76373    0.018
 3802.00    0.15746   0.76935    0.018
 3803.00   -0.02646   0.81573    0.000
 3804.00   -0.20292   0.87483    0.000
 3805.00   -0.18711   0.91095    0.000
 3806.00   -0.04524   0.91080    0.000
 3807.00    0.13553   0.87077    0.017
 3808.00    0.33862   0.81203    0.017
 3809.00    0.07306   0.77340    0.017
 3810.00   -0.42674   0.76563    0.000
 3811.00   -0.39704   0.79143    0.000
 3812.00   -0.13837   0.83798    0.000
 3813.00    0.29920   0.84894    0.017
 3814.00    0.80313   0.80107    0.018
 3815.00    0.96086   0.75008    0.018
 3816.00    1.00977   0.75835    0.018
 3817.00    0.67658   0.79624    0.018
 3818.00    0.24316   0.78409    0.018
 3819.00    0.25411   0.71791    0.018
 3820.00    0.36027   0.66513    0.018
 3821.00    0.24368   0.64577    0.018
 3822.00    0.08928   0.63426    0.018
 3823.00    0.04802   0.61882    0.017
 3824.00    0.02128   0.60437    0.017
 3825.00    0.07829   0.58675    0.017
 3826.00    0.14282   0.54126    0.017
 3827.00    0.14098   0.47025    0.017
 3828.00    0.13557   0.41211    0.017
 3829.00    0.21749   0.37969    0.017
 3830.00    0.29929   0.37500    0.017
 3831.00    0.22354   0.39983    0.017
 3832.00    0.15241   0.43081    0.018
 3833.00    0.18391   0.45767    0.017
 3834.00    0.21377   0.49197    0.017
 3835.00    0.22335   0.53693    0.017
 3836.00    0.20733   0.60208    0.017
 3837.00   -0.02510   0.67836    0.000
 3838.00   -0.22101   0.73266    0.000
 3839.00   -0.18719   0.76086    0.000
 3840.00   -0.11376   0.77631    0.000
 3841.00    0.15513   0.79691    0.017
 3842.00    0.30330   0.82857    0.017
 3843.00   -0.03173   0.84132    0.000
 3844.00   -0.30756   0.82337    0.000
 3845.00   -0.38659   0.82314    0.000
 3846.00   -0.35503   0.86314    0.000
 3847.00   -0.01290   0.89593    0.000
 3848.00    0.23357   0.89505    0.000
 3849.00    0.25026   0.87849    0.000
 3850.00    0.37872   0.85777    0.000
 3851.00    0.73895   0.84920    0.000
 3852.00    0.86587   0.85777    0.000
 3853.00    0.57197   0.84331    0.000
 3854.00    0.35013   0.81411    0.000
 3855.00    0.24193   0.82759    0.000
 3856.00    0.00021   0.88139    0.000
 3857.00   -0.42636   0.92378    0.000
 3858.00   -0.54957   0.93487    0.000
 3859.00   -0.30316   0.92715    0.000
 3860.00   -0.05431   0.91150    0.000
 3861.00    0.19716   0.90417    0.000
 3862.00    0.09035   0.91207    0.000
 3863.00   -0.35592   0.92024    0.000
 3864.00   -0.31244   0.91106    0.000
 3865.00    0.14018   0.87793    0.000
 3866.00    0.26453   0.83072    0.000
 3867.00    0.14744   0.79596    0.000
 3868.00    0.31566   0.80589    0.000
 3869.00    0.66817   0.84937    0.000
 3870.00    0.59597   0.87576    0.000
 3871.00    0.28377   0.85214    0.000
 3872.00    0.11854   0.78610    0.000
 3873.00    0.02561   0.73022    0.000
 3874.00   -0.02770   0.73383    0.000
 3875.00   -0.06416   0.75198    0.000
 3876.00    0.13576   0.72469    0.000
 3877.00    0.42178   0.68390    0.000
 3878.00    0.66456   0.67078    0.000
 3879.00    0.89400   0.64964    0.000
 3880.00    0.48270   0.58176    0.000
 3881.00   -0.09309   0.50578    0.000
 3882.00   -0.20588   0.45792    0.000
 3883.00   -0.22187   0.42812    0.000
 3884.00   -0.19584   0.43181    0.000
 3885.00   -0.16289   0.49075    0.000
 3886.00   -0.01553   0.57300    0.000
 3887.00    0.14600   0.63597    0.017
 3888.00    0.58156   0.66830    0.017
 3889.00    1.04057   0.68288    0.017
 3890.00    0.79761   0.70103    0.016
 3891.00    0.51967   0.73898    0.016
 3892.00    0.12113   0.77431    0.016
 3893.00   -0.27644   0.78008    0.000
 3894.00   -0.48319   0.78226    0.000
 3895.00   -0.65800   0.81395    0.000
 3896.00   -0.17935   0.85682    0.000
 3897.00    0.26933   0.86582    0.016
 3898.00    0.36343   0.85552    0.015
 3899.00    0.41717   0.85050    0.015
 3900.00    0.14212   0.83614    0.015
 3901.00   -0.10243   0.84335    0.000
 3902.00   -0.16067   0.89676    0.000
 3903.00   -0.18503   0.95525    0.000
 3904.00   -0.04632   0.98680    0.000
 3905.00    0.08816   1.00033    0.013
 3906.00    0.20604   1.00892    0.013
 3907.00    0.26828   1.00235    0.013
 3908.00    0.14919   0.97877    0.014
 3909.00    0.06034   0.96674    0.014
 3910.00    0.05488   0.96707    0.014
 3911.00    0.16388   0.95820    0.015
 3912.00    0.54319   0.94826    0.015
 3913.00    0.78778   0.93593    0.016
 3914.00    0.75739   0.91326    0.016
 3915.00    0.60856   0.89420    0.016
 3916.00    0.24933   0.89509    0.016
 3917.00    0.28395   0.91090    0.016
 3918.00    0.93054   0.92633    0.017
 3919.00    1.24643   0.92869    0.017
 3920.00    1.11111   0.90483    0.017
 3921.00    1.08057   0.86394    0.017
 3922.00    1.17589   0.81770    0.017
 3923.00    1.13614   0.76575    0.017
 3924.00    0.95334   0.71301    0.017
 3925.00    0.63489   0.65808    0.017
 3926.00    0.18972   0.58893    0.017
 3927.00    0.07358   0.50110    0.017
 3928.00    0.22841   0.43410    0.017
 3929.00    0.45804   0.44684    0.017
 3930.00    0.74188   0.53424    0.017
 3931.00    0.96400   0.63528    0.017
 3932.00    1.14685   0.71143    0.017
 3933.00    1.13712   0.76936    0.017
 3934.00    1.02021   0.81975    0.017
 3935.00    1.02555   0.85231    0.017
 3936.00    1.09006   0.86049    0.017
 3937.00    0.88446   0.85162    0.017
 3938.00    0.56592   0.83603    0.016
 3939.00    0.49200   0.84494    0.016
 3940.00    0.50558   0.89252    0.016
 3941.00    0.45262   0.92944    0.016
 3942.00    0.37956   0.91991    0.016
 3943.00    0.44133   0.90157    0.016
 3944.00    0.53697   0.91192    0.016
 3945.00    0.80992   0.93114    0.016
 3946.00    1.11903   0.92309    0.016
 3947.00    0.91778   0.90228    0.016
 3948.00    0.63481   0.91154    0.016
 3949.00    0.37892   0.92940    0.016
 3950.00    0.12628   0.90190    0.016
 3951.00    0.44910   0.85243    0.016
 3952.00    0.81879   0.83732    0.016
 3953.00    1.02819   0.85004    0.016
 3954.00    1.23022   0.83937    0.016
 3955.00    1.22795   0.77597    0.017
 3956.00    1.22389   0.69254    0.017
 3957.00    1.26217   0.63856    0.017
 3958.00    1.29274   0.60687    0.018
 3959.00    1.17711   0.56285    0.017
 3960.00    1.04738   0.49405    0.000
 3961.00    0.75869   0.40802    0.000
 3962.00    0.49473   0.32361    0.000
 3963.00    0.42521   0.26575    0.000
 3964.00    0.43866   0.25506    0.000
 3965.00    0.94446   0.29399    0.000
 3966.00    1.32990   0.36417    0.000
 3967.00    1.15030   0.43961    0.000
 3968.00    0.97565   0.50946    0.000
 3969.00    0.81993   0.57898    0.000
 3970.00    0.74696   0.64365    0.000
 3971.00    0.93849   0.69522    0.000
 3972.00    1.01933   0.74510    0.000
 3973.00    0.80037   0.80151    0.000
 3974.00    0.67638   0.85292    0.000
 3975.00    0.77294   0.87921    0.000
 3976.00    0.91723   0.87589    0.000
 3977.00    1.15742   0.87090    0.000
 3978.00    1.25096   0.88658    0.000
 3979.00    1.08799   0.91548    0.000
 3980.00    0.91602   0.94011    0.000
 3981.00    0.73028   0.95668    0.017
 3982.00    0.70556   0.98013    0.017
 3983.00    0.89741   0.99969    0.017
 3984.00    1.01769   0.99674    0.017
 3985.00    1.05323   0.99680    0.017
 3986.00    1.05177   1.01887    0.017
 3987.00    1.01166   1.04485    0.017
 3988.00    1.02536   1.05302    0.016
 3989.00    1.08862   1.04030    0.016
 3990.00    1.06257   1.01694    0.016
 3991.00    0.96401   0.98984    0.016
 3992.00    0.86715   0.97727    0.016
 3993.00    0.77150   1.00488    0.016
 3994.00    0.90535   1.05617    0.016
 3995.00    1.18310   1.08382    0.016
 3996.00    1.16185   1.08509    0.016
 3997.00    0.97675   1.08658    0.016
 3998.00    1.09366   1.07034    0.016
 3999.00    1.35442   1.01129    0.016
 4000.00    1.48946   0.96150    0.016
 4001.00    1.57283   0.98306    0.016
 4002.00    1.48502   1.04443    0.016
 4003.00    1.33710   1.08335    0.016
 4004.00    1.26587   1.09211    0.016
 4005.00    1.21737   1.09231    0.016
 4006.00    0.76750   1.08869    0.016
 4007.00    0.21902   1.08365    0.016
 4008.00    0.24784   1.08603    0.016
 4009.00    0.39144   1.09750    0.016
 4010.00    0.75362   1.10825    0.016
 4011.00    1.14976   1.10035    0.016
 4012.00    1.02170   1.09024    0.016
 4013.00    0.83336   1.11027    0.016
 4014.00    1.04380   1.13703    0.017
 4015.00    1.28506   1.13314    0.017
 4016.00    1.28414   1.11225    0.017
 4017.00    1.27302   1.09655    0.017
 4018.00    1.23511   1.07723    0.017
 4019.00    1.20375   1.06002    0.017
 4020.00    1.46998   1.07648    0.017
 4021.00    1.71904   1.11720    0.017
 4022.00    1.66539   1.14150    0.017
 4023.00    1.64962   1.12831    0.017
 4024.00    2.04146   1.07172    0.017
 4025.00    2.30625   1.00273    0.018
 4026.00    1.60659   0.96958    0.017
 4027.00    1.02545   0.96981    0.017
 4028.00    1.12795   0.98506    0.017
 4029.00    1.22702   1.01643    0.017
 4030.00    1.31036   1.06393    0.017
 4031.00    1.31075   1.11766    0.017
 4032.00    1.00000   1.15453    0.017
 4033.00    0.73988   1.15706    0.016
 4034.00    0.63850   1.13207    0.016
 4035.00    0.62875   1.10778    0.016
 4036.00    0.86278   1.10995    0.016
 4037.00    1.05483   1.11603    0.016
 4038.00    1.15103   1.07092    0.016
 4039.00    1.07454   0.97562    0.016
 4040.00    0.65666   0.91511    0.016
 4041.00    0.50334   0.95825    0.016
 4042.00    0.80579   1.04901    0.016
 4043.00    1.00099   1.09738    0.016
 4044.00    1.03438   1.11020    0.016
 4045.00    0.98977   1.11721    0.016
 4046.00    0.84175   1.10651    0.016
 4047.00    0.82056   1.07844    0.016
 4048.00    0.94742   1.04964    0.016
 4049.00    0.97006   1.03231    0.016
 4050.00    0.88537   1.03243    0.016
 4051.00    0.83393   1.02903    0.016
 4052.00    0.81267   1.01398    0.016
 4053.00    0.83382   1.02216    0.016
 4054.00    0.88891   1.06152    0.016
 4055.00    0.93650   1.08699    0.016
 4056.00    0.97882   1.05493    0.016
 4057.00    0.96116   0.97589    0.016
 4058.00    0.90644   0.92824    0.016
 4059.00    0.90533   0.96219    0.016
 4060.00    0.93314   1.00996    0.016
 4061.00    0.90587   1.01182    0.016
 4062.00    0.85279   1.01722    0.016
 4063.00    0.78913   1.05879    0.016
 4064.00    0.72119   1.07356    0.016
 4065.00    0.76676   1.02020    0.016
 4066.00    0.85148   0.96764    0.016
 4067.00    0.80609   0.98819    0.016
 4068.00    0.72291   1.03758    0.016
 4069.00    1.15024   1.03825    0.016
 4070.00    1.70019   0.98050    0.016
 4071.00    1.54158   0.90665    0.016
 4072.00    1.24567   0.87765    0.016
 4073.00    1.23851   0.91742    0.016
 4074.00    1.27485   0.98846    0.016
 4075.00    1.13966   1.04575    0.016
 4076.00    0.98549   1.06027    0.016
 4077.00    0.87525   1.03117    0.016
 4078.00    0.76823   0.99139    0.016
 4079.00    0.45325   0.96687    0.016
 4080.00    0.13030   0.96554    0.016
 4081.00    0.41787   0.98924    0.016
 4082.00    0.70628   1.02066    0.016
 4083.00    0.89868   1.03038    0.016
 4084.00    1.08436   1.01220    0.016
 4085.00    1.15922   0.98273    0.016
 4086.00    1.23213   0.95238    0.016
 4087.00    1.28484   0.93254    0.016
 4088.00    1.35094   0.92055    0.016
 4089.00    1.51533   0.88374    0.016
 4090.00    1.51827   0.82306    0.016
 4091.00    0.61556   0.77429    0.016
 4092.00    0.02349   0.74312    0.000
 4093.00    0.82155   0.70816    0.000
 4094.00    1.47764   0.64603    0.000
 4095.00    1.61238   0.55960    0.000
 4096.00    1.62578   0.50952    0.000
 4097.00    1.26599   0.54178    0.000
 4098.00    0.95323   0.61996    0.000
 4099.00    0.76342   0.69730    0.000
 4100.00    0.51960   0.76173    0.000
 4101.00    0.15453   0.80536    0.000
 4102.00    0.15372   0.82765    0.000
 4103.00    0.86173   0.83637    0.000
 4104.00    1.26730   0.83918    0.000
 4105.00    1.15967   0.84864    0.000
 4106.00    1.28079   0.87257    0.000
 4107.00    1.74195   0.90860    0.000
 4108.00    1.74383   0.94508    0.000
 4109.00    1.14561   0.97379    0.000
 4110.00    0.86449   0.99715    0.000
 4111.00    0.94835   1.00448    0.000
 4112.00    0.97664   0.97929    0.000
 4113.00    0.94850   0.94813    0.016
 4114.00    1.07155   0.95374    0.016
 4115.00    1.32998   0.97776    0.015
 4116.00    1.46650   0.98143    0.015
 4117.00    1.50683   0.97680    0.015
 4118.00    1.37329   0.99369    0.015
 4119.00    1.11909   1.02208    0.015
 4120.00    1.11719   1.02802    0.022
 4121.00    1.26882   1.00444    0.086
 4122.00    1.25912   0.97404   -1.000
 4123.00    1.16372   0.96389   -1.000
 4124.00    1.02621   0.96798   -1.000
 4125.00    0.86930   0.95757   -1.000
 4126.00    1.04678   0.92978   -1.000
 4127.00    1.35704   0.91977   -1.000
 4128.00    1.34778   0.94186    0.040
 4129.00    1.23038   0.98587    0.017
 4130.00    1.23871   1.03226    0.015
 4131.00    1.28282   1.05061    0.015
 4132.00    1.07228   1.05647    0.015
 4133.00    0.80195   1.07317    0.015
 4134.00    0.84457   1.08644    0.015
 4135.00    0.94626   1.07610    0.015
 4136.00    1.04117   1.02383    0.015
 4137.00    1.13509   0.94424    0.015
 4138.00    1.20941   0.90821    0.015
 4139.00    1.28164   0.94922    0.015
 4140.00    1.25819   1.00873    0.015
 4141.00    1.22811   1.03789    0.015
 4142.00    1.28710   1.03907    0.015
 4143.00    1.34916   1.02056    0.016
 4144.00    1.58044   1.00114    0.016
 4145.00    1.80429   1.00143    0.016
 4146.00    1.77172   1.00877    0.016
 4147.00    1.72513   1.00434    0.016
 4148.00    1.46181   0.98549    0.015
 4149.00    1.24187   0.97188    0.015
 4150.00    1.44951   0.97058    0.015
 4151.00    1.62089   0.97671    0.016
 4152.00    1.53481   0.99993    0.016
 4153.00    1.46021   1.03046    0.015
 4154.00    1.44824   1.04328    0.016
 4155.00    1.32242   1.03806    0.016
 4156.00    0.69897   1.04438    0.015
 4157.00    0.23000   1.06131    0.015
 4158.00    0.31668   1.06289    0.015
 4159.00    0.41492   1.05633    0.015
 4160.00    0.54807   1.04490    0.015
 4161.00    0.71076   1.02197    0.015
 4162.00    0.94932   1.01379    0.015
 4163.00    1.18473   1.03487    0.015
 4164.00    1.41317   1.04538    0.015
 4165.00    1.48682   1.00864    0.015
 4166.00    1.26395   0.93814    0.015
 4167.00    1.15565   0.89067    0.015
 4168.00    1.23881   0.90140    0.015
 4169.00    1.22406   0.94382    0.015
 4170.00    1.06588   0.97109    0.015
 4171.00    0.99305   0.96200    0.015
 4172.00    1.03016   0.93983    0.015
 4173.00    1.06656   0.94784    0.016
 4174.00    1.10214   0.98352    0.015
 4175.00    1.03345   0.99906    0.015
 4176.00    0.86042   0.98525    0.016
 4177.00    0.79399   0.98068    0.016
 4178.00    0.82168   0.99782    0.016
 4179.00    0.87896   1.02497    0.016
 4180.00    0.95925   1.02441    0.015
 4181.00    1.12042   0.97926    0.015
 4182.00    1.33692   0.95608    0.015
 4183.00    1.11696   0.98933    0.015
 4184.00    0.63539   1.02162    0.015
 4185.00    0.56678   1.01751    0.015
 4186.00    0.71414   1.02083    0.015
 4187.00    0.95846   1.05643    0.015
 4188.00    1.24675   1.07105    0.015
 4189.00    1.48524   1.03403    0.015
 4190.00    1.70429   0.98673    0.015
 4191.00    1.37275   0.95911    0.015
 4192.00    0.85835   0.93195    0.015
 4193.00    0.67874   0.92155    0.015
 4194.00    0.59245   0.94592    0.015
 4195.00    0.54134   0.95598    0.015
 4196.00    0.49831   0.94119    0.015
 4197.00    0.76102   0.94791    0.015
 4198.00    1.07993   0.96961    0.015
 4199.00    1.33740   0.98287    0.015
 4200.00    1.58618   1.00228    0.015
 4201.00    1.52375   1.02765    0.015
 4202.00    1.42959   1.04264    0.014
 4203.00    0.85808   1.03557    0.014
 4204.00    0.25547   1.01907    0.014
 4205.00    0.65113   1.02452    0.014
 4206.00    1.07646   1.04790    0.014
 4207.00    0.86035   1.05500    0.014
 4208.00    0.65490   1.02512    0.014
 4209.00    0.76217   0.96420    0.014
 4210.00    0.89224   0.93487    0.014
 4211.00    1.35426   0.98089    0.014
 4212.00    1.75142   1.04243    0.014
 4213.00    1.53527   1.06706    0.014
 4214.00    1.35767   1.07258    0.014
 4215.00    1.44501   1.07842    0.014
 4216.00    1.52645   1.06181    0.014
 4217.00    1.57654   1.01944    0.014
 4218.00    1.54498   0.96480    0.014
 4219.00    1.16468   0.89182    0.014
 4220.00    0.90421   0.80734    0.014
 4221.00    1.06595   0.77515    0.014
 4222.00    1.15882   0.85211    0.014
 4223.00    1.04775   0.96860    0.014
 4224.00    0.93085   1.03906    0.014
 4225.00    0.79926   1.06349    0.014
 4226.00    0.73505   1.03799    0.014
 4227.00    0.81727   0.98029    0.014
 4228.00    0.84891   0.96038    0.014
 4229.00    0.78519   0.96835    0.013
 4230.00    0.77715   0.95953    0.013
 4231.00    0.86076   0.96323    0.013
 4232.00    0.83063   0.97752    0.013
 4233.00    0.63628   0.97823    0.013
 4234.00    0.69179   0.98946    0.013
 4235.00    1.06454   1.02055    0.013
 4236.00    1.28430   1.03468    0.013
 4237.00    1.33290   1.03722    0.013
 4238.00    1.28914   1.06343    0.013
 4239.00    1.15423   1.07820    0.013
 4240.00    1.05723   1.04324    0.013
 4241.00    0.99324   0.99289    0.013
 4242.00    0.85076   0.97420    0.013
 4243.00    0.64812   0.96948    0.013
 4244.00    0.71016   0.94196    0.014
 4245.00    0.95058   0.93666    0.014
 4246.00    1.13637   0.97781    0.014
 4247.00    1.28990   0.99636    0.014
 4248.00    1.07571   0.96753    0.014
 4249.00    0.67218   0.95389    0.014
 4250.00    0.47660   0.99271    0.014
 4251.00    0.37379   1.03526    0.014
 4252.00    0.58051   1.02127    0.014
 4253.00    0.90591   0.96773    0.014
 4254.00    0.95407   0.91643    0.014
 4255.00    0.91187   0.90649    0.014
 4256.00    0.84777   0.96063    0.014
 4257.00    0.77770   1.03137    0.014
 4258.00    1.03764   1.06872    0.014
 4259.00    1.37155   1.08330    0.014
 4260.00    1.31073   1.08825    0.014
 4261.00    1.17931   1.06513    0.014
 4262.00    1.07912   1.02626    0.014
 4263.00    0.98319   0.99498    0.014
 4264.00    1.09034   0.95020    0.015
 4265.00    1.21733   0.87747    0.015
 4266.00    1.28339   0.84069    0.015
 4267.00    1.34572   0.87100    0.015
 4268.00    0.91282   0.89429    0.014
 4269.00    0.46825   0.90330    0.014
 4270.00    0.35375   0.95007    0.014
 4271.00    0.25688   1.01151    0.014
 4272.00    0.62621   1.04365    0.014
 4273.00    0.98566   1.03394    0.014
 4274.00    1.20927   0.99738    0.014
 4275.00    1.38502   0.97720    0.014
 4276.00    1.12604   0.97542    0.015
 4277.00    0.93554   0.97855    0.015
 4278.00    1.20123   0.98478    0.015
 4279.00    1.41394   0.97332    0.015
 4280.00    1.35238   0.95895    0.015
 4281.00    1.26861   0.95760    0.015
 4282.00    1.09214   0.93789   -2.000
 4283.00    0.88589   0.87610   -2.000
 4284.00    0.57688   0.82681   -2.000
 4285.00    0.41571   0.85545   -2.000
 4286.00    0.68432   0.92969   -2.000
 4287.00    0.88593   0.97040   -2.000
 4288.00    0.92134   0.95124   -2.000
 4289.00    1.12449   0.93079   -2.000
 4290.00    1.68623   0.92936   -2.000
 4291.00    1.94930   0.91684   -2.000
 4292.00    1.65783   0.87859   -2.000
 4293.00    1.32990   0.80774   -2.000
 4294.00    0.94285   0.76111   -2.000
 4295.00    0.73623   0.77514   -2.000
 4296.00    0.78631   0.79057   -2.000
 4297.00    1.01441   0.79690   -2.000
 4298.00    1.46531   0.82439   -1.000
 4299.00    1.74801   0.83965   -1.000
 4300.00    1.84517   0.82716   -1.000
 4301.00    2.03287   0.79347   -1.000
 4302.00    2.30864   0.75264   -1.000
 4303.00    2.52969   0.75311   -1.000
 4304.00    2.70378   0.79861   -1.000
 4305.00    2.99086   0.84886   -1.000
 4306.00    3.36333   0.87543   -1.000
 4307.00    2.77893   0.87777   -1.000
 4308.00    1.55909   0.87290   -1.000
 4309.00    0.93304   0.90585    0.043
 4310.00    0.65229   0.99185    0.017
 4311.00    0.54979   1.05330    0.014
 4312.00    0.53762   1.05499    0.014
 4313.00    0.81915   1.03347    0.013
 4314.00    1.22955   1.00362    0.013
 4315.00    1.30295   0.97342    0.013
 4316.00    1.24940   0.96305    0.013
 4317.00    1.08473   0.92986    0.013
 4318.00    0.88455   0.84885    0.013
 4319.00    0.88155   0.76065    0.013
 4320.00    0.93127   0.73856    0.013
 4321.00    0.97052   0.81683    0.013
 4322.00    1.00749   0.91769    0.013
 4323.00    1.18302   0.95433    0.013
 4324.00    1.38264   0.92410    0.013
 4325.00    1.39493   0.89255    0.013
 4326.00    1.38243   0.89207    0.013
 4327.00    1.26365   0.89079    0.013
 4328.00    1.13494   0.88439    0.013
 4329.00    0.82529   0.87948    0.013
 4330.00    0.50530   0.83463    0.000
 4331.00    0.55577   0.72876    0.000
 4332.00    0.61636   0.62756    0.000
 4333.00    0.84980   0.56009    0.000
 4334.00    1.06695   0.50321    0.000
 4335.00    0.89268   0.51338    0.000
 4336.00    0.73251   0.60718    0.000
 4337.00    0.75586   0.68665    0.000
 4338.00    0.79651   0.72441    0.000
 4339.00    0.98826   0.77432    0.000
 4340.00    1.14850   0.81995    0.000
 4341.00    1.10521   0.84081    0.000
 4342.00    1.05560   0.87694    0.000
 4343.00    0.97412   0.92299    0.000
 4344.00    0.90792   0.90887    0.000
 4345.00    0.90411   0.82208    0.000
 4346.00    0.88377   0.76888    0.000
 4347.00    0.80751   0.81508    0.000
 4348.00    0.69878   0.88391    0.000
 4349.00    0.49739   0.91977    0.000
 4350.00    0.37772   0.95373    0.000
 4351.00    0.45727   0.98006    0.013
 4352.00    0.53547   0.96216    0.013
 4353.00    0.61082   0.92860    0.014
 4354.00    0.69850   0.94192    0.017
 4355.00    0.80869   0.99104    0.044
 4356.00    1.00926   1.01847   -1.000
 4357.00    1.35420   1.02057   -1.000
 4358.00    1.52700   1.03946   -1.000
 4359.00    1.45842   1.06522   -1.000
 4360.00    1.39688   1.04887   -1.000
 4361.00    1.34403   0.99333   -1.000
 4362.00    1.24283   0.95665   -1.000
 4363.00    1.08905   0.96318   -1.000
 4364.00    0.99666   0.97750    0.052
 4365.00    0.96317   0.99101    0.018
 4366.00    0.88299   1.00335    0.014
 4367.00    0.76331   0.97959    0.013
 4368.00    0.61251   0.91483    0.013
 4369.00    0.43854   0.87770    0.013
 4370.00    0.52483   0.91748    0.014
 4371.00    0.78142   0.99457    0.014
 4372.00    0.89111   1.03836    0.014
 4373.00    0.91666   1.03226    0.014
 4374.00    1.09224   1.00978    0.014
 4375.00    1.34265   0.99079    0.014
 4376.00    1.23429   0.92761    0.014
 4377.00    0.97111   0.80426    0.014
 4378.00    0.88952   0.73038    0.014
 4379.00    0.87513   0.78120    0.014
 4380.00    0.90419   0.88751    0.013
 4381.00    0.94687   0.94613    0.013
 4382.00    0.73296   0.95193    0.013
 4383.00    0.45192   0.94656    0.014
 4384.00    0.71976   0.93459    0.014
 4385.00    1.10485   0.93634    0.014
 4386.00    0.85421   0.96732    0.013
 4387.00    0.49606   0.98206    0.013
 4388.00    0.65171   0.94923    0.013
 4389.00    0.87300   0.92239    0.013
 4390.00    0.87644   0.96503    0.013
 4391.00    0.86044   1.03066    0.014
 4392.00    0.99010   1.03792    0.014
 4393.00    1.12751   0.99232    0.014
 4394.00    1.29142   0.93586    0.014
 4395.00    1.45245   0.93226    0.013
 4396.00    1.33700   0.98560    0.014
 4397.00    1.22800   0.98578    0.014
 4398.00    1.26070   0.90152    0.014
 4399.00    1.27997   0.86012    0.014
 4400.00    1.13336   0.91003    0.014
 4401.00    1.02572   0.94299    0.014
 4402.00    1.24590   0.92793    0.014
 4403.00    1.41402   0.94458    0.014
 4404.00    1.25595   0.99876    0.014
 4405.00    1.12512   1.03561    0.013
 4406.00    1.12835   1.05401    0.014
 4407.00    1.12149   1.04703    0.014
 4408.00    1.07437   0.97861    0.013
 4409.00    1.07394   0.90015    0.013
 4410.00    1.22837   0.89510    0.013
 4411.00    1.32035   0.93135    0.013
 4412.00    1.23738   0.97250    0.013
 4413.00    1.16664   1.02588    0.013
 4414.00    1.12523   1.05501    0.013
 4415.00    1.09245   1.02799    0.013
 4416.00    1.07752   0.97561    0.013
 4417.00    1.04341   0.95944    0.013
 4418.00    0.97478   0.98584    0.013
 4419.00    0.94756   1.00179    0.013
 4420.00    0.98554   0.99454    0.014
 4421.00    0.96788   0.98922    0.014
 4422.00    0.87333   1.00189    0.013
 4423.00    0.96624   1.00328    0.013
 4424.00    1.28718   0.97302    0.013
 4425.00    1.31274   0.97103    0.013
 4426.00    1.02159   0.99653    0.013
 4427.00    0.88660   0.98314    0.013
 4428.00    0.89932   0.93216    0.013
 4429.00    0.99926   0.89722    0.013
 4430.00    1.17194   0.92328    0.014
 4431.00    1.21475   0.99258    0.014
 4432.00    1.16221   1.04833    0.013
 4433.00    1.21266   1.06873    0.013
 4434.00    1.32952   1.04498    0.014
 4435.00    1.33765   0.98667    0.014
 4436.00    1.28446   0.92758    0.014
 4437.00    1.43506   0.90093    0.014
 4438.00    1.68571   0.93222    0.014
 4439.00    1.53160   1.00288    0.014
 4440.00    1.20575   1.04147    0.014
 4441.00    1.07139   1.03060    0.013
 4442.00    1.00662   1.02800    0.013
 4443.00    1.08342   1.02779    0.013
 4444.00    1.20376   1.00335    0.014
 4445.00    1.34237   0.99694    0.014
 4446.00    1.48566   1.01101    0.013
 4447.00    1.47352   0.99481    0.014
 4448.00    1.42898   0.93823    0.014
 4449.00    1.38374   0.88964    0.014
 4450.00    1.33838   0.89850    0.013
 4451.00    1.25670   0.92730    0.013
 4452.00    1.17055   0.92825    0.013
 4453.00    1.12273   0.91817    0.013
 4454.00    1.07817   0.91472    0.013
 4455.00    0.99906   0.89917    0.013
 4456.00    0.91826   0.89952    0.013
 4457.00    0.90371   0.94771    0.013
 4458.00    0.89715   0.98269    0.013
 4459.00    1.32603   0.97787    0.013
 4460.00    1.72691   0.96987    0.013
 4461.00    1.56074   0.96439    0.000
 4462.00    1.40584   0.94768    0.000
 4463.00    1.38354   0.92816    0.000
 4464.00    1.35454   0.93652    0.000
 4465.00    1.27115   0.96645    0.000
 4466.00    1.15737   0.99866    0.000
 4467.00    0.85859   1.02883    0.000
 4468.00    0.62744   1.04440    0.000
 4469.00    0.72071   1.03807    0.000
 4470.00    0.75146   1.04078    0.000
 4471.00    0.53808   1.06504    0.000
 4472.00    0.42949   1.06749    0.000
 4473.00    0.66163   1.01734    0.000
 4474.00    0.89459   0.93533    0.000
 4475.00    1.12977   0.87642    0.000
 4476.00    1.20746   0.88916    0.000
 4477.00    0.91405   0.95965    0.000
 4478.00    0.63477   1.02441    0.000
 4479.00    0.38426   1.05689    0.000
 4480.00    0.35444   1.06525    0.000
 4481.00    0.71583   1.04288    0.000
 4482.00    0.89677   0.99030    0.013
 4483.00    0.79787   0.94433    0.013
 4484.00    0.85314   0.94054    0.013
 4485.00    1.11841   0.97423    0.013
 4486.00    1.17302   1.00954    0.013
 4487.00    0.97504   1.00682    0.013
 4488.00    0.80981   0.96721    0.013
 4489.00    0.67919   0.94511    0.013
 4490.00    0.73649   0.95926    0.013
 4491.00    0.96902   0.99101    0.013
 4492.00    0.98577   1.02588    0.013
 4493.00    0.82512   1.04061    0.013
 4494.00    0.65090   1.02060    0.013
 4495.00    0.46686   0.98946    0.012
 4496.00    0.90653   1.00696    0.013
 4497.00    1.74237   1.06706    0.013
 4498.00    1.66322   1.10217    0.013
 4499.00    1.07582   1.09649    0.013
 4500.00    1.03747   1.07253    0.013
 4501.00    1.26437   1.04465    0.013
 4502.00    1.26094   1.03011    0.013
 4503.00    1.16142   1.04263    0.013
 4504.00    1.14579   1.06565    0.013
 4505.00    1.16009   1.06810    0.013
 4506.00    1.17002   1.04531    0.013
 4507.00    1.17865   1.01849    0.013
 4508.00    1.18044   0.99658    0.013
 4509.00    1.18053   0.99050    0.013
 4510.00    0.98376   1.00316    0.012
 4511.00    0.74696   1.00582    0.012
 4512.00    0.56616   0.99900    0.012
 4513.00    0.39428   1.00812    0.012
 4514.00    0.55578   1.02541    0.012
 4515.00    0.75689   1.02962    0.013
 4516.00    0.70144   1.00244    0.013
 4517.00    0.62522   0.97644    0.012
 4518.00    0.69269   0.97678    0.012
 4519.00    0.76669   0.96532    0.012
 4520.00    0.76764   0.93614    0.012
 4521.00    0.76951   0.90718    0.012
 4522.00    0.86451   0.88619    0.013
 4523.00    0.94536   0.88557    0.013
 4524.00    0.76060   0.90651    0.013
 4525.00    0.60803   0.93241    0.013
 4526.00    0.81602   0.94833    0.012
 4527.00    0.98318   0.92633    0.012
 4528.00    0.83087   0.88828    0.012
 4529.00    0.67193   0.89004    0.013
 4530.00    0.47376   0.94760    0.014
 4531.00    0.35856   1.02045    0.016
 4532.00    0.63175   1.04226    0.016
 4533.00    0.77661   1.01418    0.016
 4534.00    0.43104   0.97845    0.016
 4535.00    0.16128   0.96637    0.016
 4536.00    0.13322   0.98750    0.016
 4537.00    0.19877   1.00547    0.015
 4538.00    0.51733   0.98864    0.013
 4539.00    0.79726   0.96801    0.012
 4540.00    0.98770   0.97347    0.012
 4541.00    1.06027   0.97784    0.012
 4542.00    0.89652   0.94954    0.012
 4543.00    0.72926   0.90763    0.012
 4544.00    0.55586   0.91493    0.012
 4545.00    0.63620   0.95956    0.012
 4546.00    1.10427   0.97007    0.012
 4547.00    1.33067   0.94612    0.013
 4548.00    1.23264   0.91769    0.013
 4549.00    1.04877   0.91023    0.013
 4550.00    0.76344   0.94324    0.000
 4551.00    0.67803   0.99109    0.000
 4552.00    0.80102   1.01220    0.000
 4553.00    1.01159   1.01596    0.000
 4554.00    1.30269   1.02311    0.000
 4555.00    1.41247   1.03059    0.000
 4556.00    1.37530   1.02023    0.000
 4557.00    1.18436   0.97884    0.000
 4558.00    0.88375   0.93967    0.000
 4559.00    0.78652   0.93901    0.000
 4560.00    0.81658   0.97514    0.000
 4561.00    0.63725   1.02038    0.000
 4562.00    0.34339   1.03984    0.000
 4563.00    0.40470   1.03179    0.000
 4564.00    0.63485   1.00163    0.000
 4565.00    0.71228   0.95724    0.000
 4566.00    0.72708   0.95476    0.000
 4567.00    0.66878   1.00127    0.000
 4568.00    0.58487   1.02441    0.000
 4569.00    0.71614   1.01382    0.000
 4570.00    0.91101   1.00742    0.000
 4571.00    1.00047   1.00697    0.000
 4572.00    1.06411   0.99217    0.000
 4573.00    1.00122   0.95787    0.000
 4574.00    0.91325   0.92977    0.000
 4575.00    0.71048   0.92825    0.000
 4576.00    0.48995   0.93678    0.000
 4577.00    0.47939   0.93310    0.000
 4578.00    0.49285   0.93064    0.000
 4579.00    0.64816   0.94009    0.000
 4580.00    0.81436   0.95233    0.000
 4581.00    0.80309   0.97045    0.000
 4582.00    0.78444   0.99090    0.000
 4583.00    0.81656   1.00064    0.000
 4584.00    0.85072   0.99001    0.000
 4585.00    0.95385   0.96386    0.000
 4586.00    1.04860   0.94653    0.000
 4587.00    0.99667   0.95023    0.000
 4588.00    0.96768   0.95525    0.000
 4589.00    1.18395   0.95076    0.000
 4590.00    1.34865   0.95146    0.000
 4591.00    1.12353   0.95945    0.000
 4592.00    0.92899   0.96881    0.000
 4593.00    0.91025   0.97028    0.000
 4594.00    0.93407   0.95561    0.000
 4595.00    1.15235   0.95105    0.000
 4596.00    1.28627   0.96342    0.000
 4597.00    1.10462   0.96908    0.000
 4598.00    0.95961   0.96433    0.000
 4599.00    0.92920   0.95859    0.000
 4600.00    0.94857   0.97027    0.000
 4601.00    1.10008   1.00058    0.000
 4602.00    1.17785   1.03260    0.000
 4603.00    1.08756   1.04521    0.000
 4604.00    1.04092   1.02958    0.000
 4605.00    1.08038   1.00529    0.000
 4606.00    1.09683   0.99120    0.000
 4607.00    1.07372   0.98768    0.000
 4608.00    0.94985   0.99698    0.000
 4609.00    0.67425   1.00492    0.000
 4610.00    0.56191   1.00030    0.000
 4611.00    0.66561   0.99858    0.000
 4612.00    0.74763   0.98845    0.000
 4613.00    0.80438   0.97317    0.000
 4614.00    0.91520   0.98483    0.000
 4615.00    1.08160   1.00793    0.000
 4616.00    1.10675   1.01320    0.000
 4617.00    1.00386   1.01219    0.000
 4618.00    0.96458   1.00871    0.000
 4619.00    0.97612   0.99617    0.000
 4620.00    0.90146   0.99105    0.000
 4621.00    0.76622   0.99462    0.000
 4622.00    0.71917   0.98452    0.000
 4623.00    0.72651   0.97034    0.000
 4624.00    0.79136   0.98431    0.000
 4625.00    0.88719   1.00811    0.000
 4626.00    0.86901   0.99869    0.000
 4627.00    0.79751   0.96844    0.000
 4628.00    0.88431   0.95580    0.000
 4629.00    1.03493   0.96176    0.000
 4630.00    0.86537   0.96279    0.000
 4631.00    0.58566   0.95100    0.000
 4632.00    0.62622   0.94072    0.000
 4633.00    0.75953   0.93873    0.000
 4634.00    1.04229   0.94690    0.000
 4635.00    1.36085   0.96838    0.000
 4636.00    1.21283   0.98003    0.000
 4637.00    0.97471   0.96941    0.000
 4638.00    0.84910   0.95078    0.000
 4639.00    0.74039   0.92329    0.000
 4640.00    0.86402   0.88957    0.000
 4641.00    1.01321   0.87743    0.000
 4642.00    1.27199   0.89499    0.000
 4643.00    1.53874   0.92650    0.000
 4644.00    1.35989   0.95454    0.000
 4645.00    1.16420   0.96960    0.000
 4646.00    0.94539   0.97589    0.000
 4647.00    0.73954   0.96767    0.000
 4648.00    1.01800   0.94040    0.000
 4649.00    1.27057   0.91816    0.000
 4650.00    1.09987   0.91893    0.000
 4651.00    0.93792   0.94629    0.000
 4652.00    0.86555   0.99177    0.000
 4653.00    0.81095   1.02403    0.000
 4654.00    0.88617   1.02277    0.000
 4655.00    0.95544   0.99480    0.000
 4656.00    0.99141   0.96057    0.000
 4657.00    1.01717   0.94022    0.000
 4658.00    0.99737   0.93608    0.000
 4659.00    0.99538   0.91724    0.000
 4660.00    1.05864   0.86615    0.000
 4661.00    1.07752   0.82638    0.000
 4662.00    0.96023   0.83911    0.000
 4663.00    0.90199   0.88409    0.000
 4664.00    0.99776   0.92644    0.000
 4665.00    1.12769   0.95019    0.000
 4666.00    1.33417   0.95041    0.000
 4667.00    1.36793   0.94169    0.000
 4668.00    1.06624   0.94490    0.000
 4669.00    0.83134   0.96329    0.000
 4670.00    0.70955   0.97904    0.000
 4671.00    0.75662   0.96932    0.000
 4672.00    1.05426   0.94135    0.000
 4673.00    1.17121   0.92053    0.000
 4674.00    1.05250   0.91202    0.000
 4675.00    0.98224   0.91223    0.000
 4676.00    0.96763   0.92642    0.000
 4677.00    0.86610   0.94739    0.000
 4678.00    0.67648   0.95696    0.000
 4679.00    0.68276   0.95548    0.000
 4680.00    0.86412   0.95065    0.000
 4681.00    1.11308   0.94299    0.000
 4682.00    1.41530   0.93962    0.000
 4683.00    1.32443   0.94037    0.000
 4684.00    0.96129   0.93441    0.000
 4685.00    0.61184   0.92733    0.000
 4686.00    0.27070   0.93171    0.000
 4687.00    0.39413   0.94303    0.000
 4688.00    0.76388   0.95677    0.000
 4689.00    0.98955   0.97111    0.000
 4690.00    1.14892   0.97066    0.000
 4691.00    1.05158   0.94321    0.000
 4692.00    0.85253   0.90896    0.000
 4693.00    0.95109   0.89943    0.000
 4694.00    1.15014   0.90685    0.000
 4695.00    1.04172   0.90173    0.000
 4696.00    0.84604   0.88486    0.000
 4697.00    0.86436   0.88456    0.000
 4698.00    0.93276   0.90858    0.000
 4699.00    0.96733   0.92593    0.000
 4700.00    0.99554   0.91580    0.000
 4701.00    0.98454   0.89407    0.000
 4702.00    0.96784   0.88352    0.000
 4703.00    0.97430   0.89313    0.000
 4704.00    0.98321   0.92126    0.000
 4705.00    0.92525   0.94595    0.000
 4706.00    0.86271   0.94315    0.000
 4707.00    0.94485   0.91861    0.000
 4708.00    1.03192   0.90082    0.000
 4709.00    0.86509   0.91498    0.000
 4710.00    0.70815   0.94714    0.000
 4711.00    0.88571   0.96620    0.000
 4712.00    1.04486   0.97448    0.000
 4713.00    0.92149   0.98390    0.000
 4714.00    0.80321   0.98633    0.000
 4715.00    0.73488   0.97585    0.000
 4716.00    0.68673   0.96519    0.000
 4717.00    0.78131   0.97073    0.000
 4718.00    0.86068   0.98634    0.000
 4719.00    0.85726   0.98563    0.000
 4720.00    0.84803   0.95219    0.000
 4721.00    0.81347   0.90454    0.000
 4722.00    0.73732   0.87890    0.000
 4723.00    0.51198   0.87890    0.000
 4724.00    0.41353   0.88526    0.000
 4725.00    0.69710   0.89761    0.000
 4726.00    0.91660   0.91769    0.000
 4727.00    0.97193   0.93364    0.000
 4728.00    0.99920   0.94174    0.000
 4729.00    0.96464   0.93476    0.000
 4730.00    0.93372   0.91618    0.000
 4731.00    0.90978   0.92084    0.000
 4732.00    0.90706   0.94665    0.000
 4733.00    0.93973   0.95307    0.000
 4734.00    0.93860   0.93974    0.000
 4735.00    0.88805   0.93558    0.000
 4736.00    0.85868   0.94688    0.000
 4737.00    0.85652   0.95492    0.000
 4738.00    0.82036   0.95022    0.000
 4739.00    0.74568   0.94988    0.000
 4740.00    0.74415   0.96057    0.000
 4741.00    0.81571   0.96420    0.000
 4742.00    0.86382   0.95975    0.000
 4743.00    0.89127   0.96100    0.000
 4744.00    0.94746   0.96242    0.000
 4745.00    1.02596   0.95202    0.000
 4746.00    1.03062   0.93600    0.000
 4747.00    0.98487   0.92382    0.000
 4748.00    0.98185   0.91622    0.000
 4749.00    1.00439   0.91339    0.000
 4750.00    1.00272   0.91607    0.000
 4751.00    0.98841   0.92477    0.000
 4752.00    0.93467   0.93706    0.000
 4753.00    0.86309   0.94640    0.000
 4754.00    0.83629   0.93875    0.000
 4755.00    0.82693   0.90987    0.000
 4756.00    0.97062   0.88347    0.000
 4757.00    1.16504   0.87320    0.000
 4758.00    1.14347   0.86559    0.000
 4759.00    1.06186   0.85849    0.000
 4760.00    0.92416   0.86611    0.000
 4761.00    0.77364   0.88934    0.011
 4762.00    0.74783   0.91687    0.011
 4763.00    0.74488   0.93535    0.011
 4764.00    0.89467   0.92994    0.011
 4765.00    1.06597   0.91073    0.011
 4766.00    1.13865   0.90897    0.011
 4767.00    1.20132   0.93112    0.011
 4768.00    0.99275   0.95114    0.011
 4769.00    0.76664   0.95205    0.011
 4770.00    0.83913   0.95084    0.011
 4771.00    0.92038   0.95568    0.011
 4772.00    0.86268   0.95022    0.011
 4773.00    0.80651   0.93728    0.011
 4774.00    0.79455   0.93316    0.011
 4775.00    0.80248   0.92919    0.011
 4776.00    1.09780   0.91242    0.011
 4777.00    1.35869   0.90256    0.011
 4778.00    1.29562   0.90953    0.011
 4779.00    1.21824   0.90547    0.011
 4780.00    1.04294   0.89361    0.010
 4781.00    0.89297   0.89741    0.010
 4782.00    0.87724   0.90127    0.010
 4783.00    0.86730   0.89829    0.010
 4784.00    0.88198   0.90370    0.010
 4785.00    0.89473   0.91526    0.010
 4786.00    0.90070   0.93216    0.010
 4787.00    0.90709   0.95729    0.010
 4788.00    0.91477   0.97571    0.010
 4789.00    0.88122   0.97344    0.011
 4790.00    0.74384   0.95590    0.010
 4791.00    0.68471   0.93214    0.010
 4792.00    0.79530   0.90843    0.010
 4793.00    0.87151   0.89746    0.010
 4794.00    0.88303   0.90937    0.010
 4795.00    0.88687   0.93552    0.010
 4796.00    0.87807   0.95205    0.010
 4797.00    0.85423   0.94321    0.010
 4798.00    0.80872   0.91830    0.010
 4799.00    0.79855   0.90383    0.010
 4800.00    0.83316   0.90201    0.010
 4801.00    0.87734   0.89891    0.010
 4802.00    0.93220   0.90073    0.010
 4803.00    0.99784   0.91084    0.010
 4804.00    1.07410   0.91728    0.010
 4805.00    1.09976   0.91654    0.010
 4806.00    1.08145   0.91572    0.010
 4807.00    0.98870   0.91886    0.010
 4808.00    0.83896   0.92443    0.010
 4809.00    0.83253   0.93183    0.010
 4810.00    0.92251   0.93995    0.010
 4811.00    0.85132   0.94652    0.010
 4812.00    0.68515   0.95218    0.010
 4813.00    0.67827   0.95336    0.010
 4814.00    0.75323   0.94706    0.010
 4815.00    0.87342   0.92918    0.010
 4816.00    1.01375   0.89098    0.011
 4817.00    0.98868   0.85818    0.011
 4818.00    0.90032   0.86784    0.011
 4819.00    0.89957   0.90048    0.011
 4820.00    0.92730   0.91584    0.010
 4821.00    0.93913   0.90808    0.011
 4822.00    0.94664   0.89655    0.011
 4823.00    1.07943   0.89562    0.011
 4824.00    1.24022   0.89203    0.011
 4825.00    1.03922   0.87695    0.011
 4826.00    0.77373   0.87345    0.010
 4827.00    0.72145   0.88882    0.010
 4828.00    0.69822   0.89961    0.011
 4829.00    0.77435   0.89619    0.011
 4830.00    0.86014   0.89271    0.011
 4831.00    0.78829   0.88853    0.011
 4832.00    0.70688   0.87116    0.010
 4833.00    0.80990   0.85196    0.010
 4834.00    0.91666   0.85077    0.010
 4835.00    0.81421   0.85740    0.010
 4836.00    0.71500   0.85209    0.010
 4837.00    0.70041   0.84882    0.011
 4838.00    0.68482   0.86295    0.011
 4839.00    0.65563   0.87524    0.010
 4840.00    0.63655   0.86370    0.010
 4841.00    0.70875   0.83170    0.010
 4842.00    0.79173   0.80913    0.010
 4843.00    0.94627   0.81639    0.010
 4844.00    1.07439   0.82880    0.010
 4845.00    1.06618   0.82404    0.010
 4846.00    1.05494   0.81076    0.010
 4847.00    1.03108   0.78252    0.010
 4848.00    0.93417   0.73456    0.000
 4849.00    0.58576   0.70358    0.000
 4850.00    0.37215   0.70843    0.000
 4851.00    0.54950   0.70921    0.000
 4852.00    0.65379   0.66974    0.000
 4853.00    0.57731   0.59140    0.000
 4854.00    0.59752   0.51233    0.000
 4855.00    0.82402   0.50072    0.000
 4856.00    0.94248   0.56366    0.000
 4857.00    0.86072   0.62985    0.000
 4858.00    0.83408   0.67206    0.000
 4859.00    0.89670   0.70825    0.000
 4860.00    0.94763   0.73700    0.000
 4861.00    0.98198   0.75404    0.000
 4862.00    0.96192   0.76681    0.000
 4863.00    0.87389   0.76116    0.000
 4864.00    0.75020   0.72597    0.000
 4865.00    0.58726   0.70543    0.000
 4866.00    0.52889   0.73369    0.000
 4867.00    0.57208   0.77492    0.000
 4868.00    0.66941   0.79289    0.000
 4869.00    0.81309   0.79926    0.000
 4870.00    0.90609   0.81015    0.000
 4871.00    0.96084   0.82479    0.000
 4872.00    0.89520   0.85080    0.000
 4873.00    0.74974   0.87131    0.000
 4874.00    0.75056   0.85838    0.000
 4875.00    0.83629   0.83754    0.011
 4876.00    0.85285   0.83749    0.011
 4877.00    0.83441   0.83741    0.011
 4878.00    0.73570   0.82015    0.011
 4879.00    0.60184   0.80389    0.011
 4880.00    0.69264   0.80722    0.011
 4881.00    0.86788   0.82208    0.011
 4882.00    0.78807   0.82700    0.011
 4883.00    0.62691   0.80570    0.011
 4884.00    0.71421   0.77208    0.011
 4885.00    0.86773   0.78238    0.011
 4886.00    0.72413   0.84015    0.011
 4887.00    0.51570   0.89345    0.011
 4888.00    0.59438   0.92374    0.011
 4889.00    0.72283   0.93399    0.010
 4890.00    0.83242   0.93183    0.011
 4891.00    0.93951   0.92477    0.011
 4892.00    0.95466   0.90454    0.011
 4893.00    0.96126   0.87984    0.010
 4894.00    0.86074   0.87797    0.010
 4895.00    0.75414   0.88477    0.011
 4896.00    0.68026   0.87461    0.011
 4897.00    0.60833   0.86740    0.011
 4898.00    0.66910   0.88731    0.011
 4899.00    0.73356   0.91649    0.011
 4900.00    0.88577   0.92209    0.011
 4901.00    1.00590   0.90129    0.011
 4902.00    0.71143   0.86877    0.011
 4903.00    0.45372   0.83673    0.010
 4904.00    0.51572   0.82670    0.010
 4905.00    0.59507   0.84610    0.010
 4906.00    0.78608   0.87134    0.011
 4907.00    0.90060   0.88942    0.011
 4908.00    0.63048   0.90729    0.010
 4909.00    0.41795   0.91628    0.010
 4910.00    0.43981   0.89687    0.011
 4911.00    0.50392   0.84439    0.011
 4912.00    0.71065   0.78153    0.011
 4913.00    0.87405   0.74260    0.010
 4914.00    0.91410   0.74969    0.011
 4915.00    0.93478   0.79201    0.011
 4916.00    0.90831   0.81981    0.010
 4917.00    0.85076   0.81515    0.010
 4918.00    0.72796   0.81969    0.010
 4919.00    0.60166   0.85474    0.010
 4920.00    0.46896   0.88655    0.010
 4921.00    0.42865   0.90177    0.010
 4922.00    0.53566   0.91609    0.010
 4923.00    0.62482   0.92309    0.010
 4924.00    0.68900   0.91978    0.010
 4925.00    0.76815   0.90429    0.010
 4926.00    0.86572   0.86342    0.010
 4927.00    0.90731   0.83170    0.010
 4928.00    0.88810   0.84750    0.010
 4929.00    0.87969   0.87028    0.010
 4930.00    0.88162   0.85397    0.010
 4931.00    0.95843   0.81235    0.010
 4932.00    1.09847   0.79060    0.010
 4933.00    1.13124   0.81773    0.010
 4934.00    1.08425   0.86771    0.010
 4935.00    0.85877   0.89554    0.010
 4936.00    0.51673   0.90631    0.010
 4937.00    0.48941   0.91344    0.010
 4938.00    0.64200   0.90341    0.010
 4939.00    0.72475   0.88710    0.010
 4940.00    0.77272   0.89039    0.000
 4941.00    0.80165   0.90474    0.000
 4942.00    0.82238   0.91094    0.000
 4943.00    0.78820   0.91310    0.000
 4944.00    0.73376   0.91767    0.000
 4945.00    0.69915   0.91263    0.000
 4946.00    0.67074   0.89769    0.000
 4947.00    0.86004   0.88970    0.000
 4948.00    1.10615   0.88643    0.000
 4949.00    0.90582   0.85518    0.000
 4950.00    0.61044   0.78366    0.000
 4951.00    0.60607   0.75232    0.000
 4952.00    0.65073   0.80911    0.000
 4953.00    0.66856   0.87686    0.000
 4954.00    0.68298   0.89799    0.000
 4955.00    0.71732   0.89342    0.000
 4956.00    0.75344   0.89378    0.000
 4957.00    0.79743   0.88903    0.000
 4958.00    0.84183   0.86289    0.000
 4959.00    0.81944   0.83888    0.000
 4960.00    0.79430   0.83575    0.000
 4961.00    0.65371   0.83922    0.000
 4962.00    0.52185   0.84325    0.000
 4963.00    0.58018   0.84861    0.000
 4964.00    0.63931   0.85875    0.000
 4965.00    0.70825   0.87450    0.000
 4966.00    0.76881   0.88519    0.000
 4967.00    0.75911   0.89286    0.000
 4968.00    0.75488   0.89488    0.000
 4969.00    0.78479   0.88762    0.000
 4970.00    0.80725   0.87596    0.000
 4971.00    0.79319   0.85638    0.000
 4972.00    0.77397   0.83965    0.000
 4973.00    0.73422   0.83408    0.000
 4974.00    0.71417   0.81656    0.000
 4975.00    0.75927   0.77397    0.000
 4976.00    0.76583   0.74100    0.000
 4977.00    0.66469   0.74683    0.000
 4978.00    0.63438   0.77324    0.000
 4979.00    0.77346   0.80519    0.000
 4980.00    0.85490   0.84181    0.000
 4981.00    0.81729   0.86207    0.000
 4982.00    0.74822   0.85739    0.000
 4983.00    0.62265   0.84143    0.000
 4984.00    0.61296   0.82867    0.000
 4985.00    0.78536   0.83450    0.000
 4986.00    0.85549   0.83969    0.000
 4987.00    0.78456   0.83500    0.000
 4988.00    0.75220   0.84550    0.000
 4989.00    0.76667   0.85901    0.000
 4990.00    0.70828   0.86020    0.000
 4991.00    0.57190   0.85132    0.000
 4992.00    0.52399   0.82684    0.000
 4993.00    0.55960   0.79921    0.000
 4994.00    0.68306   0.78580    0.000
 4995.00    0.87967   0.78701    0.000
 4996.00    0.91198   0.79819    0.000
 4997.00    0.82390   0.79993    0.000
 4998.00    0.82594   0.77463    0.000
 4999.00    0.88599   0.74503    0.000
 5000.00    0.91478   0.75566    0.000
 5001.00    0.92596   0.80194    0.000
 5002.00    0.80162   0.83373    0.000
 5003.00    0.61088   0.83333    0.000
 5004.00    0.66607   0.81496    0.000
 5005.00    0.82540   0.78265    0.000
 5006.00    0.81187   0.75179    0.000
 5007.00    0.73566   0.73876    0.000
 5008.00    0.77770   0.75310    0.000
 5009.00    0.85601   0.77717    0.000
 5010.00    0.79338   0.77213    0.000
 5011.00    0.69477   0.74913    0.000
 5012.00    0.65231   0.75348    0.000
 5013.00    0.62153   0.78014    0.000
 5014.00    0.63063   0.79028    0.000
 5015.00    0.64626   0.78016    0.000
 5016.00    0.60120   0.78493    0.000
 5017.00    0.54869   0.80914    0.000
 5018.00    0.59518   0.82410    0.000
 5019.00    0.65005   0.82027    0.000
 5020.00    0.72335   0.79752    0.000
 5021.00    0.79754   0.78765    0.000
 5022.00    0.76315   0.80917    0.000
 5023.00    0.72634   0.82631    0.000
 5024.00    0.64427   0.83242    0.000
 5025.00    0.57263   0.84920    0.000
 5026.00    0.70999   0.86970    0.000
 5027.00    0.84489   0.86612    0.000
 5028.00    0.95104   0.82556    0.000
 5029.00    1.01897   0.78770    0.010
 5030.00    0.77829   0.79303    0.010
 5031.00    0.57534   0.80273    0.010
 5032.00    0.60111   0.77829    0.010
 5033.00    0.67327   0.73013    0.010
 5034.00    0.96731   0.69147    0.010
 5035.00    1.15783   0.71619    0.010
 5036.00    0.94519   0.78442    0.010
 5037.00    0.76705   0.83104    0.010
 5038.00    0.70081   0.85705    0.010
 5039.00    0.65107   0.87381    0.010
 5040.00    0.64661   0.86159    0.010
 5041.00    0.61791   0.81961    0.010
 5042.00    0.53219   0.78482    0.010
 5043.00    0.47515   0.77818    0.010
 5044.00    0.47645   0.78087    0.010
 5045.00    0.52182   0.78484    0.010
 5046.00    0.64517   0.80421    0.010
 5047.00    0.72685   0.82928    0.010
 5048.00    0.74403   0.84051    0.010
 5049.00    0.67843   0.83809    0.010
 5050.00    0.50031   0.83900    0.010
 5051.00    0.44190   0.84872    0.010
 5052.00    0.52678   0.85400    0.010
 5053.00    0.66848   0.85771    0.010
 5054.00    0.87013   0.86769    0.010
 5055.00    0.89396   0.87307    0.010
 5056.00    0.75227   0.85658    0.010
 5057.00    0.74533   0.81157    0.010
 5058.00    0.84898   0.77634    0.010
 5059.00    0.83426   0.78632    0.010
 5060.00    0.73405   0.80104    0.010
 5061.00    0.68522   0.79431    0.010
 5062.00    0.66896   0.79713    0.010
 5063.00    0.63661   0.81753    0.010
 5064.00    0.59535   0.81657    0.010
 5065.00    0.53175   0.79218    0.010
 5066.00    0.45738   0.79145    0.009
 5067.00    0.51465   0.80707    0.010
 5068.00    0.62674   0.80470    0.010
 5069.00    0.67684   0.80121    0.010
 5070.00    0.70488   0.81299    0.010
 5071.00    0.73793   0.80333    0.010
 5072.00    0.77249   0.75107    0.010
 5073.00    0.78539   0.71559    0.010
 5074.00    0.79288   0.73309    0.010
 5075.00    0.71557   0.76184    0.010
 5076.00    0.62108   0.76866    0.010
 5077.00    0.59837   0.77613    0.010
 5078.00    0.58707   0.79778    0.010
 5079.00    0.60608   0.81085    0.010
 5080.00    0.62867   0.80695    0.010
 5081.00    0.54518   0.80615    0.009
 5082.00    0.45315   0.81499    0.009
 5083.00    0.56509   0.81869    0.009
 5084.00    0.68622   0.81856    0.009
 5085.00    0.52956   0.82842    0.009
 5086.00    0.37640   0.84331    0.009
 5087.00    0.56143   0.84518    0.009
 5088.00    0.74054   0.83063    0.009
 5089.00    0.80964   0.80776    0.009
 5090.00    0.86279   0.78111    0.009
 5091.00    0.73834   0.75044    0.009
 5092.00    0.63240   0.73000    0.009
 5093.00    0.67070   0.74824    0.009
 5094.00    0.68888   0.78886    0.009
 5095.00    0.58845   0.81253    0.009
 5096.00    0.51362   0.81018    0.009
 5097.00    0.55825   0.79990    0.009
 5098.00    0.62533   0.79506    0.009
 5099.00    0.77798   0.78831    0.009
 5100.00    0.87872   0.77001    0.009
 5101.00    0.81439   0.76144    0.009
 5102.00    0.75680   0.76423    0.009
 5103.00    0.71742   0.76037    0.009
 5104.00    0.67906   0.77321    0.009
 5105.00    0.64305   0.79713    0.009
 5106.00    0.60860   0.80608    0.009
 5107.00    0.57725   0.81018    0.009
 5108.00    0.56370   0.81345    0.009
 5109.00    0.58117   0.81824    0.009
 5110.00    0.59764   0.83205    0.009
 5111.00    0.61258   0.83933    0.009
 5112.00    0.67339   0.83142    0.010
 5113.00    0.79567   0.81511    0.010
 5114.00    0.84354   0.79736    0.010
 5115.00    0.80360   0.77892    0.010
 5116.00    0.76627   0.75181    0.010
 5117.00    0.73166   0.73297    0.010
 5118.00    0.62528   0.73934    0.010
 5119.00    0.45302   0.75191    0.010
 5120.00    0.43114   0.75394    0.010
 5121.00    0.53090   0.74907    0.010
 5122.00    0.53631   0.74493    0.010
 5123.00    0.47457   0.75214    0.009
 5124.00    0.49984   0.77056    0.009
 5125.00    0.57946   0.78032    0.009
 5126.00    0.56216   0.77881    0.009
 5127.00    0.49196   0.78525    0.009
 5128.00    0.46570   0.80426    0.010
 5129.00    0.46027   0.79938    0.010
 5130.00    0.45574   0.77185    0.010
 5131.00    0.45156   0.74982    0.010
 5132.00    0.56074   0.73488    0.010
 5133.00    0.70954   0.75057    0.010
 5134.00    0.78109   0.77055    0.010
 5135.00    0.82985   0.74795    0.010
 5136.00    0.82225   0.73642    0.010
 5137.00    0.80087   0.76114    0.010
 5138.00    0.84587   0.76718    0.010
 5139.00    0.90398   0.74993    0.010
 5140.00    0.72536   0.73887    0.010
 5141.00    0.51023   0.74341    0.009
 5142.00    0.48095   0.75982    0.009
 5143.00    0.47283   0.76304    0.009
 5144.00    0.54356   0.74945    0.009
 5145.00    0.62030   0.74012    0.009
 5146.00    0.63965   0.73478    0.009
 5147.00    0.65664   0.73410    0.009
 5148.00    0.61541   0.75105    0.009
 5149.00    0.57415   0.77663    0.009
 5150.00    0.55208   0.79801    0.009
 5151.00    0.52899   0.80699    0.009
 5152.00    0.48812   0.80339    0.009
 5153.00    0.46214   0.80277    0.009
 5154.00    0.59466   0.79671    0.009
 5155.00    0.71281   0.77642    0.009
 5156.00    0.72286   0.76704    0.009
 5157.00    0.73507   0.75946    0.009
 5158.00    0.75971   0.71967    0.009
 5159.00    0.79052   0.65128    0.009
 5160.00    0.84943   0.58665    0.009
 5161.00    0.88983   0.57257    0.009
 5162.00    0.86122   0.62051    0.009
 5163.00    0.80537   0.67400    0.009
 5164.00    0.66454   0.65558    0.009
 5165.00    0.56287   0.58611    0.009
 5166.00    0.56492   0.57858    0.009
 5167.00    0.54185   0.65939    0.009
 5168.00    0.46167   0.73700    0.009
 5169.00    0.40376   0.76056    0.009
 5170.00    0.38969   0.76429    0.009
 5171.00    0.43483   0.77115    0.009
 5172.00    0.58159   0.76946    0.009
 5173.00    0.68561   0.75658    0.009
 5174.00    0.72540   0.72974    0.009
 5175.00    0.67615   0.66712    0.009
 5176.00    0.50930   0.58420    0.009
 5177.00    0.43787   0.56961    0.009
 5178.00    0.47744   0.64795    0.009
 5179.00    0.52436   0.72885    0.009
 5180.00    0.57882   0.75888    0.009
 5181.00    0.63367   0.75418    0.009
 5182.00    0.68887   0.76015    0.009
 5183.00    0.66391   0.77249    0.009
 5184.00    0.57503   0.73764    0.009
 5185.00    0.53978   0.69043    0.009
 5186.00    0.54215   0.69844    0.009
 5187.00    0.42293   0.72722    0.009
 5188.00    0.22890   0.72833    0.009
 5189.00    0.33877   0.72883    0.009
 5190.00    0.61198   0.74351    0.000
 5191.00    0.70335   0.75900    0.000
 5192.00    0.70985   0.77500    0.000
 5193.00    0.63145   0.78365    0.000
 5194.00    0.51891   0.77922    0.000
 5195.00    0.46993   0.76933    0.000
 5196.00    0.44276   0.75682    0.000
 5197.00    0.49342   0.72533    0.000
 5198.00    0.56657   0.68491    0.000
 5199.00    0.58915   0.67495    0.000
 5200.00    0.59965   0.68356    0.000
 5201.00    0.56877   0.67584    0.000
 5202.00    0.52992   0.68025    0.000
 5203.00    0.56101   0.71092    0.000
 5204.00    0.60256   0.74481    0.000
 5205.00    0.58639   0.77692    0.000
 5206.00    0.56391   0.79432    0.000
 5207.00    0.43108   0.78336    0.000
 5208.00    0.29029   0.75134    0.000
 5209.00    0.40073   0.73103    0.000
 5210.00    0.52055   0.74124    0.000
 5211.00    0.53076   0.76924    0.009
 5212.00    0.54141   0.79309    0.009
 5213.00    0.58637   0.80299    0.009
 5214.00    0.63060   0.80595    0.009
 5215.00    0.66294   0.80022    0.009
 5216.00    0.68795   0.77914    0.009
 5217.00    0.63823   0.74536    0.009
 5218.00    0.60516   0.70114    0.009
 5219.00    0.69321   0.65428    0.009
 5220.00    0.78371   0.64468    0.009
 5221.00    0.88785   0.69827    0.009
 5222.00    0.93983   0.75783    0.009
 5223.00    0.75977   0.78115    0.009
 5224.00    0.62218   0.78288    0.009
 5225.00    0.63979   0.75845    0.009
 5226.00    0.66553   0.72554    0.009
 5227.00    0.71613   0.72086    0.009
 5228.00    0.75934   0.74007    0.009
 5229.00    0.78331   0.76895    0.009
 5230.00    0.77318   0.79143    0.009
 5231.00    0.68682   0.79787    0.009
 5232.00    0.63812   0.79528    0.009
 5233.00    0.66239   0.79395    0.009
 5234.00    0.71907   0.79644    0.009
 5235.00    0.83053   0.79301    0.009
 5236.00    0.86543   0.79106    0.009
 5237.00    0.78693   0.80394    0.009
 5238.00    0.74160   0.80780    0.009
 5239.00    0.73944   0.77757    0.009
 5240.00    0.70121   0.74433    0.009
 5241.00    0.62161   0.74445    0.009
 5242.00    0.61362   0.74947    0.009
 5243.00    0.67809   0.73600    0.009
 5244.00    0.66198   0.73688    0.009
 5245.00    0.57400   0.75778    0.009
 5246.00    0.58849   0.76701    0.009
 5247.00    0.68355   0.75385    0.009
 5248.00    0.83452   0.74313    0.009
 5249.00    1.02415   0.76536    0.009
 5250.00    0.97124   0.80141    0.009
 5251.00    0.77130   0.81904    0.009
 5252.00    0.70998   0.81456    0.009
 5253.00    0.72203   0.79253    0.009
 5254.00    0.80154   0.75743    0.009
 5255.00    0.91205   0.71594    0.009
 5256.00    0.76457   0.67990    0.009
 5257.00    0.51510   0.65391    0.009
 5258.00    0.53170   0.63906    0.009
 5259.00    0.63792   0.64815    0.009
 5260.00    0.76783   0.68234    0.010
 5261.00    0.90444   0.68265    0.010
 5262.00    0.84906   0.62959    0.010
 5263.00    0.74886   0.61298    0.010
 5264.00    0.73897   0.67087    0.010
 5265.00    0.74600   0.72547    0.010
 5266.00    0.73148   0.73465    0.010
 5267.00    0.71384   0.72274    0.010
 5268.00    0.78619   0.70950    0.010
 5269.00    0.86802   0.72525    0.010
 5270.00    0.80759   0.77232    0.010
 5271.00    0.73746   0.80150    0.010
 5272.00    0.60102   0.79436    0.010
 5273.00    0.46236   0.77110    0.010
 5274.00    0.62807   0.75042    0.010
 5275.00    0.78790   0.73491    0.010
 5276.00    0.74902   0.72116    0.010
 5277.00    0.71156   0.72803    0.010
 5278.00    0.69573   0.77051    0.010
 5279.00    0.67702   0.81254    0.009
 5280.00    0.63025   0.82119    0.009
 5281.00    0.59464   0.81191    0.009
 5282.00    0.63767   0.81115    0.009
 5283.00    0.67902   0.81983    0.009
 5284.00    0.71122   0.82175    0.009
 5285.00    0.72754   0.81149    0.009
 5286.00    0.67493   0.80056    0.009
 5287.00    0.66961   0.79741    0.009
 5288.00    0.83350   0.78676    0.009
 5289.00    0.96043   0.75255    0.009
 5290.00    0.97640   0.71100    0.009
 5291.00    0.96813   0.70137    0.009
 5292.00    0.89792   0.73199    0.009
 5293.00    0.81149   0.75799    0.009
 5294.00    0.68939   0.75668    0.009
 5295.00    0.57632   0.75790    0.009
 5296.00    0.48051   0.78009    0.009
 5297.00    0.44189   0.80637    0.009
 5298.00    0.49848   0.81488    0.009
 5299.00    0.58151   0.80404    0.009
 5300.00    0.70311   0.79104    0.009
 5301.00    0.77581   0.79404    0.009
 5302.00    0.78575   0.80865    0.009
 5303.00    0.72326   0.81644    0.009
 5304.00    0.57886   0.81265    0.009
 5305.00    0.50544   0.80359    0.009
 5306.00    0.50279   0.79445    0.009
 5307.00    0.63583   0.78873    0.009
 5308.00    0.88823   0.77733    0.009
 5309.00    1.01428   0.75872    0.009
 5310.00    1.04241   0.75694    0.009
 5311.00    0.99910   0.77324    0.009
 5312.00    0.90712   0.78347    0.009
 5313.00    0.75051   0.78429    0.009
 5314.00    0.55531   0.78229    0.009
 5315.00    0.59570   0.77258    0.009
 5316.00    0.75881   0.74951    0.009
 5317.00    0.70601   0.72904    0.009
 5318.00    0.55568   0.73188    0.009
 5319.00    0.61926   0.72626    0.009
 5320.00    0.76595   0.67557    0.009
 5321.00    0.85010   0.62688    0.009
 5322.00    0.91359   0.65100    0.009
 5323.00    0.81446   0.72009    0.009
 5324.00    0.67025   0.76237    0.009
 5325.00    0.62804   0.76414    0.009
 5326.00    0.60909   0.76188    0.009
 5327.00    0.54537   0.77575    0.009
 5328.00    0.47348   0.78600    0.009
 5329.00    0.65507   0.78001    0.009
 5330.00    0.87220   0.77092    0.009
 5331.00    0.83362   0.76296    0.009
 5332.00    0.76924   0.73943    0.009
 5333.00    0.68023   0.71196    0.009
 5334.00    0.58963   0.71873    0.009
 5335.00    0.59349   0.75324    0.009
 5336.00    0.60048   0.77541    0.009
 5337.00    0.73855   0.77444    0.009
 5338.00    0.87311   0.76099    0.009
 5339.00    0.90729   0.75329    0.009
 5340.00    0.93634   0.75451    0.009
 5341.00    0.89197   0.74637    0.009
 5342.00    0.84475   0.73914    0.009
 5343.00    0.77091   0.75476    0.009
 5344.00    0.70861   0.78047    0.008
 5345.00    0.72501   0.79172    0.008
 5346.00    0.72144   0.79349    0.008
 5347.00    0.61243   0.80412    0.009
 5348.00    0.51753   0.81729    0.009
 5349.00    0.48260   0.82075    0.009
 5350.00    0.47874   0.81951    0.009
 5351.00    0.58381   0.81879    0.009
 5352.00    0.67660   0.81653    0.009
 5353.00    0.73316   0.80673    0.009
 5354.00    0.77936   0.78729    0.009
 5355.00    0.79956   0.76958    0.009
 5356.00    0.79432   0.76287    0.009
 5357.00    0.73401   0.75757    0.009
 5358.00    0.69068   0.75151    0.009
 5359.00    0.67925   0.75231    0.009
 5360.00    0.70884   0.75336    0.009
 5361.00    0.80570   0.74562    0.009
 5362.00    0.78992   0.72083    0.009
 5363.00    0.61216   0.68675    0.009
 5364.00    0.61451   0.67806    0.009
 5365.00    0.84472   0.71231    0.009
 5366.00    0.89897   0.76061    0.009
 5367.00    0.75707   0.78877    0.009
 5368.00    0.70950   0.79560   -2.000
 5369.00    0.75470   0.78935   -2.000
 5370.00    0.82902   0.78294   -2.000
 5371.00    0.92859   0.78449   -2.000
 5372.00    0.98314   0.78255   -2.000
 5373.00    1.00329   0.77225   -2.000
 5374.00    0.94702   0.76350   -2.000
 5375.00    0.83945   0.75742   -2.000
 5376.00    0.76000   0.75517   -2.000
 5377.00    0.69708   0.76623   -2.000
 5378.00    0.69576   0.78008   -2.000
 5379.00    0.72602   0.78154   -2.000
 5380.00    0.76304   0.77563   -2.000
 5381.00    0.80305   0.76578   -2.000
 5382.00    0.74326   0.75122   -2.000
 5383.00    0.64536   0.73948    0.009
 5384.00    0.61868   0.73546    0.009
 5385.00    0.61509   0.73429    0.009
 5386.00    0.69018   0.73421    0.009
 5387.00    0.78664   0.73520    0.009
 5388.00    0.78839   0.72614    0.009
 5389.00    0.76904   0.70017    0.008
 5390.00    0.77669   0.68800    0.008
 5391.00    0.78912   0.71184    0.008
 5392.00    0.70077   0.73786    0.008
 5393.00    0.59875   0.74317    0.009
 5394.00    0.64092   0.74602    0.008
 5395.00    0.69702   0.74567    0.008
 5396.00    0.75593   0.72070    0.008
 5397.00    0.81501   0.68024    0.008
 5398.00    0.75574   0.65813    0.008
 5399.00    0.69395   0.67184    0.008
 5400.00    0.72415   0.70271    0.008
 5401.00    0.74983   0.71405    0.008
 5402.00    0.65857   0.70061    0.008
 5403.00    0.57434   0.69745    0.008
 5404.00    0.58551   0.72284    0.008
 5405.00    0.60295   0.75018    0.008
 5406.00    0.67672   0.75504    0.008
 5407.00    0.74904   0.74727    0.008
 5408.00    0.81181   0.75072    0.008
 5409.00    0.84737   0.76781    0.008
 5410.00    0.74303   0.77789    0.008
 5411.00    0.66735   0.77171    0.008
 5412.00    0.71065   0.75809    0.008
 5413.00    0.73957   0.74927    0.008
 5414.00    0.71911   0.75296    0.008
 5415.00    0.71895   0.75511    0.008
 5416.00    0.77755   0.73831    0.008
 5417.00    0.78525   0.72510    0.008
 5418.00    0.66723   0.74228    0.008
 5419.00    0.60305   0.77127    0.008
 5420.00    0.65350   0.77534    0.008
 5421.00    0.69561   0.74014    0.008
 5422.00    0.72234   0.70061    0.008
 5423.00    0.70113   0.70457    0.008
 5424.00    0.60250   0.72974    0.008
 5425.00    0.58438   0.72852    0.008
 5426.00    0.68037   0.70854    0.009
 5427.00    0.75032   0.69641    0.009
 5428.00    0.78776   0.70132    0.009
 5429.00    0.81400   0.72046    0.008
 5430.00    0.82792   0.74702    0.009
 5431.00    0.84270   0.77230    0.008
 5432.00    0.85832   0.78663    0.008
 5433.00    0.83982   0.79007    0.008
 5434.00    0.79214   0.78916    0.008
 5435.00    0.77574   0.78786    0.008
 5436.00    0.78288   0.78005    0.008
 5437.00    0.76752   0.75529    0.008
 5438.00    0.73728   0.71518    0.008
 5439.00    0.68040   0.68285    0.008
 5440.00    0.60809   0.68941    0.008
 5441.00    0.63297   0.72729    0.008
 5442.00    0.70690   0.75748    0.008
 5443.00    0.74718   0.76576    0.008
 5444.00    0.77274   0.76240    0.008
 5445.00    0.79581   0.75443    0.008
 5446.00    0.81795   0.73647    0.008
 5447.00    0.76136   0.70398    0.008
 5448.00    0.67971   0.68125    0.008
 5449.00    0.60424   0.69855    0.008
 5450.00    0.53042   0.73884    0.008
 5451.00    0.54578   0.76402    0.008
 5452.00    0.58053   0.76480    0.008
 5453.00    0.58316   0.75227    0.008
 5454.00    0.58023   0.73366    0.008
 5455.00    0.63195   0.71304    0.008
 5456.00    0.69083   0.70805    0.008
 5457.00    0.73592   0.72523    0.008
 5458.00    0.77974   0.73966    0.008
 5459.00    0.71638   0.74123    0.008
 5460.00    0.64700   0.74474    0.008
 5461.00    0.62176   0.74891    0.008
 5462.00    0.59775   0.74338    0.008
 5463.00    0.59818   0.73574    0.008
 5464.00    0.60547   0.73382    0.008
 5465.00    0.77370   0.72779    0.008
 5466.00    0.92648   0.71827    0.008
 5467.00    0.88082   0.71244    0.008
 5468.00    0.83630   0.69356    0.008
 5469.00    0.80161   0.66669    0.008
 5470.00    0.76770   0.67265    0.008
 5471.00    0.73885   0.70891    0.008
 5472.00    0.70989   0.72763    0.008
 5473.00    0.68038   0.71330    0.008
 5474.00    0.65066   0.69796    0.008
 5475.00    0.62005   0.70567    0.008
 5476.00    0.59655   0.72763    0.008
 5477.00    0.59699   0.74851    0.008
 5478.00    0.61446   0.75388   -2.000
 5479.00    0.68034   0.73689   -2.000
 5480.00    0.70660   0.71771   -2.000
 5481.00    0.63670   0.71889   -2.000
 5482.00    0.66573   0.72989   -2.000
 5483.00    0.90204   0.73602   -2.000
 5484.00    1.08574   0.73939   -2.000
 5485.00    1.17367   0.73601   -2.000
 5486.00    1.28909   0.72898   -2.000
 5487.00    1.44830   0.73189   -2.000
 5488.00    1.45000   0.73596   -2.000
 5489.00    1.23168   0.72604   -2.000
 5490.00    1.26355   0.71880   -2.000
 5491.00    1.60299   0.73302   -2.000
 5492.00    1.51068   0.74615   -2.000
 5493.00    0.95047   0.73402   -2.000
 5494.00    0.65050   0.71307   -2.000
 5495.00    0.59930   0.70782   -2.000
 5496.00    0.61679   0.71630   -2.000
 5497.00    0.69219   0.72001   -2.000
 5498.00    0.77769   0.70829   -2.000
 5499.00    0.87068   0.69828   -2.000
 5500.00    0.90288   0.70912   -2.000
 5501.00    0.89544   0.72449   -2.000
 5502.00    0.84183   0.72592    0.008
 5503.00    0.76187   0.71712    0.008
 5504.00    0.71721   0.70259    0.008
 5505.00    0.69008   0.69090    0.008
 5506.00    0.70336   0.69217    0.008
 5507.00    0.73402   0.70273    0.008
 5508.00    0.69026   0.71364    0.008
 5509.00    0.61910   0.72311    0.008
 5510.00    0.60516   0.73621    0.008
 5511.00    0.60908   0.74912    0.008
 5512.00    0.63346   0.75168    0.008
 5513.00    0.66317   0.74670    0.008
 5514.00    0.69364   0.74317    0.008
 5515.00    0.72427   0.74301    0.008
 5516.00    0.66978   0.74219    0.008
 5517.00    0.60100   0.73570    0.008
 5518.00    0.60828   0.72294    0.008
 5519.00    0.62519   0.70397    0.008
 5520.00    0.66523   0.68333    0.008
 5521.00    0.70731   0.68098    0.008
 5522.00    0.72925   0.70412    0.008
 5523.00    0.75013   0.72811    0.008
 5524.00    0.68879   0.73435    0.008
 5525.00    0.62549   0.72914    0.008
 5526.00    0.52985   0.71975    0.008
 5527.00    0.44060   0.70963    0.008
 5528.00    0.48879   0.71001    0.008
 5529.00    0.53831   0.72019    0.008
 5530.00    0.60409   0.72605    0.008
 5531.00    0.65328   0.72971    0.008
 5532.00    0.56423   0.73885    0.008
 5533.00    0.50814   0.74750    0.008
 5534.00    0.65710   0.74513    0.008
 5535.00    0.79302   0.73204    0.008
 5536.00    0.86522   0.72215    0.008
 5537.00    0.90331   0.72206    0.008
 5538.00    0.80605   0.72335    0.007
 5539.00    0.73174   0.72642    0.007
 5540.00    0.73317   0.73760    0.007
 5541.00    0.74959   0.74910    0.007
 5542.00    0.80782   0.75325    0.008
 5543.00    0.84979   0.75285    0.008
 5544.00    0.85298   0.74870    0.007
 5545.00    0.84633   0.73903    0.007
 5546.00    0.81943   0.72731    0.007
 5547.00    0.80725   0.72285    0.007
 5548.00    0.82147   0.72768    0.007
 5549.00    0.82180   0.73097    0.007
 5550.00    0.80035   0.72902    0.007
 5551.00    0.75872   0.72909    0.007
 5552.00    0.68930   0.73063    0.007
 5553.00    0.64026   0.72837    0.007
 5554.00    0.61591   0.72062    0.008
 5555.00    0.62901   0.71171    0.008
 5556.00    0.68213   0.71019    0.008
 5557.00    0.68683   0.71087    0.008
 5558.00    0.64590   0.70582    0.008
 5559.00    0.62689   0.70291    0.008
 5560.00    0.62609   0.70464    0.008
 5561.00    0.60542   0.70216    0.008
 5562.00    0.57022   0.70163    0.008
 5563.00    0.62069   0.71098    0.008
 5564.00    0.72620   0.70970    0.008
 5565.00    0.75251   0.69669    0.008
 5566.00    0.73430   0.70142    0.008
 5567.00    0.76394   0.71658    0.008
 5568.00    0.81696   0.71916    0.008
 5569.00    0.80098   0.71886    0.008
 5570.00    0.75582   0.72218    0.008
 5571.00    0.66335   0.72342    0.008
 5572.00    0.55374   0.72610    0.008
 5573.00    0.52620   0.72628    0.008
 5574.00    0.52376   0.72007    0.008
 5575.00    0.52224   0.71758    0.008
 5576.00    0.52095   0.71828    0.008
 5577.00    0.56978   0.71003    0.008
 5578.00    0.62898   0.68779    0.007
 5579.00    0.62121   0.66017    0.007
 5580.00    0.60251   0.64405    0.008
 5581.00    0.70369   0.64512    0.007
 5582.00    0.81953   0.65929    0.007
 5583.00    0.87216   0.67825    0.007
 5584.00    0.91948   0.68975    0.007
 5585.00    0.73180   0.68939    0.007
 5586.00    0.53275   0.68309    0.007
 5587.00    0.54961   0.68860    0.007
 5588.00    0.56969   0.71107    0.007
 5589.00    0.58882   0.72098    0.007
 5590.00    0.60919   0.70392    0.007
 5591.00    0.65412   0.68679    0.007
 5592.00    0.70261   0.68284    0.007
 5593.00    0.79258   0.67662    0.008
 5594.00    0.86299   0.66597    0.008
 5595.00    0.77622   0.66551    0.008
 5596.00    0.70428   0.68578    0.008
 5597.00    0.72191   0.71490    0.008
 5598.00    0.73561   0.73447    0.008
 5599.00    0.73053   0.74098    0.008
 5600.00    0.72036   0.73934    0.008
 5601.00    0.69034   0.73584    0.008
 5602.00    0.66745   0.73395    0.008
 5603.00    0.66760   0.73604    0.008
 5604.00    0.65618   0.74104    0.008
 5605.00    0.61304   0.74017    0.008
 5606.00    0.58890   0.71635    0.008
 5607.00    0.60934   0.67212    0.008
 5608.00    0.60760   0.65019    0.008
 5609.00    0.56088   0.67030    0.008
 5610.00    0.57205   0.69564    0.008
 5611.00    0.68544   0.70028    0.008
 5612.00    0.77726   0.69775    0.008
 5613.00    0.83577   0.70406    0.008
 5614.00    0.84216   0.71433    0.008
 5615.00    0.77781   0.71008    0.007
 5616.00    0.73256   0.68520    0.007
 5617.00    0.71010   0.66580    0.007
 5618.00    0.68923   0.67338    0.007
 5619.00    0.67004   0.69138    0.007
 5620.00    0.68515   0.70292    0.007
 5621.00    0.73214   0.71365    0.007
 5622.00    0.71760   0.72407    0.007
 5623.00    0.65266   0.72851    0.007
 5624.00    0.64280   0.72687    0.007
 5625.00    0.67264   0.72092    0.007
 5626.00    0.69474   0.71288    0.007
 5627.00    0.71193   0.70617    0.007
 5628.00    0.75546   0.69849    0.007
 5629.00    0.81356   0.68878    0.007
 5630.00    0.84871   0.68584    0.007
 5631.00    0.87282   0.69310    0.007
 5632.00    0.79424   0.69650    0.007
 5633.00    0.67299   0.68838    0.007
 5634.00    0.62569   0.68409    0.007
 5635.00    0.60466   0.68950    0.007
 5636.00    0.60082   0.69498    0.007
 5637.00    0.60214   0.69869    0.007
 5638.00    0.63119   0.70264    0.007
 5639.00    0.66716   0.70723    0.007
 5640.00    0.71193   0.70880    0.007
 5641.00    0.75847   0.70417    0.007
 5642.00    0.80548   0.69941    0.007
 5643.00    0.85257   0.70374    0.007
 5644.00    0.69954   0.71355    0.007
 5645.00    0.52295   0.71586    0.007
 5646.00    0.48915   0.70387    0.007
 5647.00    0.46675   0.69099    0.007
 5648.00    0.51832   0.69257    0.007
 5649.00    0.57317   0.68642    0.007
 5650.00    0.57498   0.65602    0.007
 5651.00    0.57551   0.64105    0.007
 5652.00    0.54305   0.66298    0.007
 5653.00    0.51059   0.68172    0.007
 5654.00    0.47819   0.67500    0.007
 5655.00    0.45329   0.66926    0.007
 5656.00    0.51155   0.68288    0.007
 5657.00    0.56437   0.70063    0.007
 5658.00    0.57502   0.70408    0.007
 5659.00    0.59784   0.69388    0.007
 5660.00    0.69217   0.68536    0.007
 5661.00    0.75549   0.68614    0.007
 5662.00    0.67459   0.69114    0.007
 5663.00    0.62459   0.69647    0.007
 5664.00    0.69208   0.70653    0.007
 5665.00    0.75989   0.71948    0.007
 5666.00    0.82867   0.72347    0.007
 5667.00    0.86886   0.71647    0.007
 5668.00    0.83209   0.71414    0.007
 5669.00    0.76804   0.71959    0.007
 5670.00    0.64102   0.71864    0.007
 5671.00    0.54256   0.71136    0.007
 5672.00    0.50111   0.70845    0.007
 5673.00    0.52491   0.70498    0.007
 5674.00    0.66220   0.69022    0.007
 5675.00    0.74514   0.67800    0.007
 5676.00    0.74533   0.68248    0.007
 5677.00    0.75489   0.69229    0.007
 5678.00    0.77700   0.69094    0.007
 5679.00    0.79368   0.68000    0.007
 5680.00    0.80397   0.67341    0.007
 5681.00    0.78106   0.67933    0.007
 5682.00    0.72364   0.69297    0.007
 5683.00    0.69399   0.70383    0.007
 5684.00    0.68977   0.71220    0.007
 5685.00    0.67524   0.71625    0.007
 5686.00    0.65239   0.71269    0.007
 5687.00    0.63415   0.70861    0.007
 5688.00    0.61918   0.71005    0.007
 5689.00    0.57887   0.70901    0.007
 5690.00    0.52275   0.69774    0.007
 5691.00    0.51493   0.68877    0.007
 5692.00    0.53342   0.68458    0.007
 5693.00    0.61896   0.67481    0.007
 5694.00    0.73625   0.66824    0.007
 5695.00    0.73823   0.67571    0.007
 5696.00    0.69312   0.68816    0.007
 5697.00    0.66752   0.68827    0.007
 5698.00    0.64872   0.67479    0.007
 5699.00    0.67076   0.66185    0.007
 5700.00    0.70481   0.65095    0.007
 5701.00    0.71757   0.64082    0.007
 5702.00    0.72514   0.64264    0.007
 5703.00    0.75368   0.64777    0.007
 5704.00    0.78635   0.65154    0.007
 5705.00    0.70146   0.66901    0.007
 5706.00    0.59852   0.68881    0.007
 5707.00    0.57580   0.69676    0.007
 5708.00    0.56217   0.70096    0.007
 5709.00    0.66244   0.70233    0.007
 5710.00    0.77135   0.70088    0.007
 5711.00    0.78674   0.70445    0.007
 5712.00    0.79831   0.70948    0.007
 5713.00    0.74004   0.71345    0.007
 5714.00    0.68203   0.71923    0.007
 5715.00    0.65770   0.72300    0.007
 5716.00    0.63696   0.72187    0.007
 5717.00    0.67789   0.71827    0.007
 5718.00    0.71221   0.70853    0.007
 5719.00    0.67667   0.69477    0.007
 5720.00    0.64042   0.69437    0.007
 5721.00    0.59894   0.70636    0.007
 5722.00    0.57293   0.70895    0.007
 5723.00    0.63528   0.69624    0.007
 5724.00    0.68713   0.68880    0.007
 5725.00    0.69131   0.69864    0.007
 5726.00    0.68161   0.71136    0.007
 5727.00    0.62029   0.71597    0.007
 5728.00    0.56769   0.71299    0.007
 5729.00    0.54223   0.70765    0.007
 5730.00    0.53944   0.70483    0.007
 5731.00    0.59652   0.70431    0.007
 5732.00    0.65223   0.70465    0.007
 5733.00    0.70483   0.70441    0.007
 5734.00    0.73811   0.70094    0.007
 5735.00    0.73342   0.69743    0.007
 5736.00    0.71678   0.70206    0.007
 5737.00    0.67970   0.71237    0.007
 5738.00    0.66861   0.71599    0.007
 5739.00    0.69651   0.70360    0.007
 5740.00    0.70369   0.68734    0.000
 5741.00    0.68356   0.68932    0.000
 5742.00    0.67276   0.70451    0.000
 5743.00    0.67280   0.70964    0.000
 5744.00    0.71552   0.69542    0.000
 5745.00    0.80194   0.67226    0.000
 5746.00    0.84380   0.66013    0.000
 5747.00    0.84541   0.67223    0.000
 5748.00    0.80873   0.69594    0.000
 5749.00    0.74156   0.71065    0.000
 5750.00    0.72653   0.71398    0.000
 5751.00    0.74801   0.70773    0.000
 5752.00    0.80272   0.69473    0.000
 5753.00    0.87785   0.67929    0.000
 5754.00    0.86937   0.66491    0.000
 5755.00    0.81604   0.66306    0.000
 5756.00    0.75936   0.68324    0.000
 5757.00    0.70111   0.70544    0.000
 5758.00    0.61833   0.71283    0.000
 5759.00    0.52572   0.71350    0.000
 5760.00    0.50529   0.71286    0.000
 5761.00    0.50957   0.70961    0.000
 5762.00    0.54431   0.70651    0.000
 5763.00    0.58782   0.70277    0.000
 5764.00    0.61323   0.69649    0.000
 5765.00    0.63433   0.69421    0.000
 5766.00    0.65149   0.69307    0.000
 5767.00    0.66790   0.69174    0.000
 5768.00    0.71972   0.69661    0.000
 5769.00    0.77680   0.70280    0.000
 5770.00    0.79131   0.70318    0.000
 5771.00    0.80118   0.69471    0.000
 5772.00    0.81761   0.67320    0.000
 5773.00    0.83451   0.64766    0.000
 5774.00    0.78601   0.64056    0.000
 5775.00    0.73511   0.64927    0.000
 5776.00    0.71447   0.65056    0.000
 5777.00    0.69472   0.64267    0.000
 5778.00    0.70241   0.64856    0.000
 5779.00    0.71282   0.66885    0.000
 5780.00    0.76693   0.68311    0.000
 5781.00    0.81280   0.68928    0.000
 5782.00    0.77536   0.68373    0.000
 5783.00    0.73278   0.67303    0.000
 5784.00    0.65305   0.67631    0.000
 5785.00    0.58510   0.68720    0.000
 5786.00    0.58266   0.69599    0.000
 5787.00    0.58065   0.70354    0.000
 5788.00    0.58055   0.70140    0.000
 5789.00    0.62259   0.68553    0.000
 5790.00    0.81817   0.67515    0.000
 5791.00    1.00438   0.68694   -2.000
 5792.00    1.16195   0.70571   -2.000
 5793.00    1.25622   0.71449   -2.000
 5794.00    1.18611   0.71649   -2.000
 5795.00    1.16395   0.70975   -2.000
 5796.00    1.24876   0.69347   -2.000
 5797.00    1.54038   0.68270   -2.000
 5798.00    2.23204   0.68270   -2.000
 5799.00    2.41936   0.68792   -2.000
 5800.00    1.75579   0.69244   -2.000
 5801.00    1.25926   0.69424   -2.000
 5802.00    1.00967   0.69748   -2.000
 5803.00    0.84860   0.70207   -2.000
 5804.00    0.80257   0.70254   -2.000
 5805.00    0.74209   0.70013   -2.000
 5806.00    0.66505   0.69483   -2.000
 5807.00    0.63129   0.68376   -2.000
 5808.00    0.64123   0.67319   -2.000
 5809.00    0.64703   0.67770   -2.000
 5810.00    0.64915   0.69508   -2.000
 5811.00    0.62289   0.70719    0.000
 5812.00    0.57435   0.70987    0.000
 5813.00    0.56279   0.70903    0.000
 5814.00    0.57677   0.70470    0.000
 5815.00    0.62540   0.69994    0.000
 5816.00    0.69499   0.69902    0.000
 5817.00    0.71915   0.70229    0.000
 5818.00    0.71933   0.70325    0.000
 5819.00    0.69361   0.70187    0.000
 5820.00    0.65603   0.70240    0.000
 5821.00    0.67035   0.70516    0.000
 5822.00    0.70514   0.70613    0.000
 5823.00    0.75226   0.70297    0.000
 5824.00    0.80352   0.70173    0.000
 5825.00    0.78712   0.70052    0.000
 5826.00    0.75162   0.69401    0.000
 5827.00    0.68220   0.68925    0.000
 5828.00    0.60488   0.69465    0.000
 5829.00    0.61038   0.69788    0.000
 5830.00    0.63135   0.69195    0.000
 5831.00    0.66889   0.69094    0.000
 5832.00    0.70882   0.69931    0.000
 5833.00    0.68303   0.70665    0.000
 5834.00    0.65036   0.70859    0.000
 5835.00    0.72642   0.70791    0.000
 5836.00    0.80983   0.70398    0.000
 5837.00    0.76265   0.69753    0.000
 5838.00    0.71115   0.68951    0.000
 5839.00    0.67293   0.68200    0.000
 5840.00    0.63575   0.68029    0.000
 5841.00    0.63097   0.68476    0.000
 5842.00    0.62871   0.68813    0.000
 5843.00    0.66463   0.68558    0.000
 5844.00    0.69346   0.67384    0.000
 5845.00    0.65357   0.65894    0.000
 5846.00    0.62024   0.65824    0.000
 5847.00    0.63297   0.66797    0.000
 5848.00    0.64835   0.66374    0.000
 5849.00    0.67814   0.64335    0.000
 5850.00    0.70894   0.63387    0.000
 5851.00    0.74415   0.64705    0.000
 5852.00    0.76693   0.66468    0.000
 5853.00    0.74529   0.67412    0.000
 5854.00    0.71645   0.67047    0.000
 5855.00    0.66599   0.66775    0.000
 5856.00    0.61721   0.67498    0.000
 5857.00    0.57270   0.67891    0.000
 5858.00    0.53700   0.67070    0.000
 5859.00    0.52062   0.66475    0.000
 5860.00    0.53250   0.67297    0.000
 5861.00    0.59819   0.68467    0.000
 5862.00    0.66103   0.69025    0.000
 5863.00    0.71912   0.68925    0.000
 5864.00    0.75225   0.68394    0.000
 5865.00    0.74900   0.67906    0.000
 5866.00    0.73448   0.68113    0.000
 5867.00    0.70550   0.68490    0.000
 5868.00    0.71481   0.68168    0.000
 5869.00    0.76733   0.67637    0.000
 5870.00    0.79982   0.67281    0.000
 5871.00    0.81237   0.66636    0.000
 5872.00    0.82044   0.65785    0.000
 5873.00    0.82459   0.65860    0.000
 5874.00    0.81413   0.66550    0.000
 5875.00    0.79236   0.66352    0.000
 5876.00    0.76855   0.65638    0.000
 5877.00    0.74336   0.65731    0.000
 5878.00    0.72270   0.66072    0.000
 5879.00    0.70474   0.64954    0.000
 5880.00    0.67195   0.60553    0.000
 5881.00    0.63145   0.52625    0.000
 5882.00    0.61816   0.47411    0.000
 5883.00    0.61713   0.50732    0.000
 5884.00    0.58868   0.57014    0.000
 5885.00    0.54960   0.60056    0.000
 5886.00    0.50755   0.59406    0.000
 5887.00    0.46453   0.54619    0.000
 5888.00    0.46598   0.50864    0.000
 5889.00    0.47973   0.54285    0.000
 5890.00    0.52655   0.60017    0.000
 5891.00    0.58089   0.62627    0.000
 5892.00    0.63424   0.63872    0.000
 5893.00    0.68741   0.65095    0.000
 5894.00    0.68974   0.65644    0.000
 5895.00    0.68496   0.65881    0.000
 5896.00    0.67061   0.65999    0.000
 5897.00    0.65530   0.65656    0.000
 5898.00    0.66770   0.65409    0.000
 5899.00    0.68187   0.65908    0.000
 5900.00    0.73729   0.66503    0.000
 5901.00    0.79371   0.66542    0.007
 5902.00    0.77931   0.66510    0.007
 5903.00    0.76337   0.66928    0.007
 5904.00    0.70412   0.66933    0.007
 5905.00    0.65275   0.65630    0.007
 5906.00    0.71373   0.63975    0.007
 5907.00    0.76876   0.63600    0.007
 5908.00    0.76844   0.64159    0.007
 5909.00    0.75757   0.65099    0.007
 5910.00    0.67503   0.65892    0.007
 5911.00    0.60528   0.66236    0.007
 5912.00    0.60288   0.66563    0.007
 5913.00    0.59747   0.66412    0.007
 5914.00    0.57933   0.65865    0.007
 5915.00    0.56226   0.65852    0.007
 5916.00    0.54896   0.66311    0.007
 5917.00    0.54714   0.66708    0.007
 5918.00    0.57911   0.67010    0.006
 5919.00    0.59449   0.66764    0.006
 5920.00    0.56828   0.65926    0.006
 5921.00    0.55851   0.64814    0.006
 5922.00    0.58424   0.64234    0.007
 5923.00    0.62970   0.65193    0.007
 5924.00    0.71215   0.66527    0.006
 5925.00    0.76055   0.66420    0.006
 5926.00    0.75322   0.65224    0.006
 5927.00    0.75416   0.64812    0.006
 5928.00    0.76699   0.65784    0.006
 5929.00    0.75288   0.66631    0.007
 5930.00    0.70477   0.66953    0.007
 5931.00    0.66754   0.67088    0.007
 5932.00    0.64243   0.66380    0.007
 5933.00    0.62587   0.65126    0.007
 5934.00    0.61772   0.64789    0.007
 5935.00    0.61848   0.65358    0.007
 5936.00    0.62697   0.66098    0.007
 5937.00    0.66387   0.66743    0.007
 5938.00    0.72245   0.66961    0.007
 5939.00    0.73971   0.66280    0.007
 5940.00    0.72926   0.64895    0.007
 5941.00    0.68242   0.64183    0.007
 5942.00    0.61420   0.65062    0.007
 5943.00    0.60162   0.65844    0.007
 5944.00    0.61753   0.65053    0.007
 5945.00    0.61471   0.64268    0.007
 5946.00    0.60359   0.65055    0.007
 5947.00    0.61220   0.65795    0.007
 5948.00    0.62833   0.65127    0.006
 5949.00    0.62366   0.64335    0.006
 5950.00    0.61226   0.64523    0.006
 5951.00    0.62041   0.65358    0.006
 5952.00    0.63386   0.66272    0.007
 5953.00    0.64323   0.66885    0.006
 5954.00    0.65170   0.67105    0.006
 5955.00    0.65157   0.66996    0.006
 5956.00    0.64991   0.66683    0.006
 5957.00    0.67158   0.66057    0.006
 5958.00    0.69641   0.65670    0.006
 5959.00    0.64095   0.66126    0.006
 5960.00    0.57777   0.66664    0.006
 5961.00    0.53755   0.66913    0.007
 5962.00    0.49870   0.67190    0.007
 5963.00    0.51451   0.67373    0.007
 5964.00    0.53192   0.67339    0.007
 5965.00    0.58204   0.67187    0.007
 5966.00    0.63024   0.66666    0.007
 5967.00    0.62955   0.65566    0.007
 5968.00    0.62777   0.64418    0.007
 5969.00    0.61125   0.63918    0.007
 5970.00    0.59617   0.64174    0.007
 5971.00    0.59396   0.65025    0.007
 5972.00    0.58666   0.66064    0.007
 5973.00    0.54576   0.66403    0.007
 5974.00    0.51181   0.65669    0.007
 5975.00    0.51349   0.64050    0.007
 5976.00    0.51479   0.62660    0.007
 5977.00    0.51448   0.62949    0.007
 5978.00    0.52170   0.64167    0.007
 5979.00    0.55470   0.64788    0.006
 5980.00    0.59444   0.65129    0.006
 5981.00    0.65359   0.65650    0.006
 5982.00    0.70390   0.65627    0.006
 5983.00    0.73243   0.64937    0.006
 5984.00    0.74061   0.64936    0.006
 5985.00    0.70556   0.66016    0.006
 5986.00    0.68068   0.66769    0.006
 5987.00    0.67456   0.66477    0.006
 5988.00    0.67908   0.65500    0.006
 5989.00    0.70076   0.64363    0.006
 5990.00    0.71247   0.63963    0.006
 5991.00    0.71009   0.64496    0.006
 5992.00    0.70131   0.65196    0.006
 5993.00    0.68454   0.65330    0.006
 5994.00    0.70386   0.64611    0.006
 5995.00    0.76279   0.64080    0.006
 5996.00    0.79220   0.64605    0.007
 5997.00    0.79304   0.64913    0.007
 5998.00    0.76723   0.64172    0.007
 5999.00    0.71866   0.62827    0.007
 6000.00    0.70313   0.62012    0.007
 6001.00    0.71244   0.63115    0.007
 6002.00    0.70869   0.65041    0.007
 6003.00    0.69631   0.65524    0.007
 6004.00    0.66944   0.64408    0.007
 6005.00    0.63418   0.63325    0.007
 6006.00    0.60082   0.63520    0.007
 6007.00    0.56841   0.64034    0.006
 6008.00    0.59091   0.63698    0.006
 6009.00    0.63736   0.63466    0.006
 6010.00    0.65731   0.63829    0.006
 6011.00    0.66733   0.63536    0.006
 6012.00    0.66167   0.62716    0.006
 6013.00    0.65103   0.62606    0.006
 6014.00    0.63328   0.63131    0.006
 6015.00    0.61365   0.63497    0.006
 6016.00    0.59623   0.63723    0.006
 6017.00    0.57930   0.64376    0.006
 6018.00    0.57141   0.64770    0.006
 6019.00    0.56508   0.64659    0.006
 6020.00    0.58033   0.65080    0.006
 6021.00    0.59840   0.65683    0.006
 6022.00    0.62246   0.65748    0.006
 6023.00    0.64706   0.65687    0.006
 6024.00    0.67804   0.65995    0.006
 6025.00    0.70937   0.66306    0.007
 6026.00    0.76663   0.66252    0.007
 6027.00    0.82362   0.66105    0.007
 6028.00    0.79866   0.66121    0.007
 6029.00    0.77257   0.66189    0.007
 6030.00    0.72034   0.66106    0.007
 6031.00    0.67230   0.65701    0.007
 6032.00    0.67778   0.65297    0.007
 6033.00    0.68257   0.65125    0.007
 6034.00    0.68140   0.65187    0.007
 6035.00    0.67732   0.65750    0.007
 6036.00    0.65472   0.66269    0.007
 6037.00    0.64057   0.66291    0.006
 6038.00    0.66870   0.66261    0.006
 6039.00    0.68904   0.66355    0.006
 6040.00    0.67787   0.66315    0.006
 6041.00    0.66872   0.66220    0.006
 6042.00    0.66633   0.66347    0.006
 6043.00    0.66747   0.66319    0.006
 6044.00    0.67863   0.65770    0.006
 6045.00    0.68149   0.65078    0.006
 6046.00    0.66424   0.64703    0.006
 6047.00    0.65928   0.64388    0.006
 6048.00    0.68002   0.64047    0.006
 6049.00    0.69714   0.64233    0.006
 6050.00    0.70770   0.64915    0.006
 6051.00    0.68818   0.65564    0.006
 6052.00    0.62088   0.65816    0.006
 6053.00    0.55864   0.65651    0.006
 6054.00    0.50346   0.65095    0.006
 6055.00    0.49393   0.64288    0.006
 6056.00    0.54042   0.63155    0.007
 6057.00    0.58071   0.62209    0.007
 6058.00    0.61428   0.63025    0.007
 6059.00    0.62553   0.65047    0.007
 6060.00    0.61548   0.66272    0.007
 6061.00    0.61226   0.66477    0.007
 6062.00    0.61480   0.66394    0.007
 6063.00    0.60996   0.66427    0.007
 6064.00    0.59965   0.66554    0.007
 6065.00    0.60982   0.66631    0.007
 6066.00    0.63332   0.66567    0.007
 6067.00    0.65422   0.66323    0.007
 6068.00    0.67363   0.65767    0.006
 6069.00    0.68792   0.64795    0.006
 6070.00    0.69967   0.63694    0.006
 6071.00    0.71475   0.63468    0.006
 6072.00    0.73127   0.63937    0.006
 6073.00    0.73289   0.63696    0.006
 6074.00    0.72904   0.63102    0.006
 6075.00    0.71042   0.63272    0.006
 6076.00    0.68722   0.63578    0.006
 6077.00    0.69418   0.63439    0.006
 6078.00    0.70897   0.63502    0.006
 6079.00    0.72486   0.64037    0.006
 6080.00    0.74098   0.64325    0.006
 6081.00    0.72687   0.63697    0.006
 6082.00    0.70770   0.62877    0.006
 6083.00    0.71001   0.62777    0.006
 6084.00    0.71504   0.63006    0.006
 6085.00    0.73983   0.63313    0.006
 6086.00    0.76635   0.64079    0.006
 6087.00    0.75438   0.64810    0.006
 6088.00    0.74041   0.64686    0.006
 6089.00    0.74602   0.64228    0.007
 6090.00    0.75153   0.64373    0.007
 6091.00    0.72328   0.64923    0.007
 6092.00    0.69537   0.64730    0.007
 6093.00    0.67462   0.62637    0.007
 6094.00    0.65254   0.59583    0.006
 6095.00    0.61446   0.59045    0.006
 6096.00    0.57440   0.61612    0.006
 6097.00    0.51797   0.63843    0.006
 6098.00    0.46715   0.64237    0.006
 6099.00    0.45102   0.63772    0.006
 6100.00    0.44238   0.63705    0.006
 6101.00    0.47028   0.64349    0.006
 6102.00    0.50675   0.64494    0.006
 6103.00    0.57713   0.63898    0.006
 6104.00    0.63546   0.63831    0.006
 6105.00    0.65407   0.64534    0.006
 6106.00    0.65245   0.64994    0.006
 6107.00    0.59449   0.64546    0.006
 6108.00    0.55317   0.63798    0.006
 6109.00    0.55144   0.63870    0.006
 6110.00    0.55757   0.64149    0.006
 6111.00    0.57983   0.63466    0.006
 6112.00    0.59741   0.61971    0.006
 6113.00    0.60658   0.60199    0.006
 6114.00    0.62121   0.59470    0.006
 6115.00    0.64440   0.61020    0.006
 6116.00    0.65925   0.63013    0.006
 6117.00    0.66263   0.63432    0.006
 6118.00    0.65289   0.62994    0.006
 6119.00    0.62728   0.62524    0.006
 6120.00    0.59843   0.62274    0.007
 6121.00    0.56613   0.62698    0.007
 6122.00    0.55276   0.63571    0.007
 6123.00    0.55720   0.64127    0.007
 6124.00    0.57238   0.64299    0.007
 6125.00    0.59647   0.64148    0.006
 6126.00    0.61350   0.63000    0.006
 6127.00    0.62538   0.60329    0.006
 6128.00    0.61755   0.56975    0.006
 6129.00    0.59709   0.55734    0.006
 6130.00    0.59004   0.58362    0.006
 6131.00    0.59053   0.61970    0.006
 6132.00    0.61275   0.62780    0.006
 6133.00    0.64559   0.61396    0.006
 6134.00    0.66710   0.61152    0.006
 6135.00    0.68382   0.62809    0.006
 6136.00    0.69377   0.64217    0.006
 6137.00    0.70128   0.64354    0.006
 6138.00    0.73340   0.63836    0.006
 6139.00    0.77304   0.62999    0.006
 6140.00    0.75297   0.62043    0.006
 6141.00    0.71774   0.61515    0.006
 6142.00    0.69342   0.61702    0.006
 6143.00    0.67134   0.62404    0.007
 6144.00    0.67362   0.63070    0.006
 6145.00    0.67985   0.62999    0.006
 6146.00    0.68127   0.62129    0.006
 6147.00    0.68210   0.61588    0.006
 6148.00    0.64681   0.61782    0.006
 6149.00    0.60851   0.61956    0.006
 6150.00    0.60910   0.61946    0.006
 6151.00    0.61155   0.61331    0.006
 6152.00    0.64882   0.58905    0.006
 6153.00    0.68627   0.55479    0.006
 6154.00    0.70507   0.53927    0.006
 6155.00    0.72114   0.55283    0.006
 6156.00    0.68323   0.57727    0.006
 6157.00    0.64814   0.59402    0.006
 6158.00    0.64559   0.60263    0.006
 6159.00    0.64955   0.60490    0.006
 6160.00    0.70556   0.59085    0.006
 6161.00    0.75498   0.56915    0.006
 6162.00    0.76475   0.56970    0.006
 6163.00    0.76557   0.59227    0.006
 6164.00    0.72390   0.60749    0.006
 6165.00    0.67956   0.60833    0.006
 6166.00    0.62489   0.60799    0.006
 6167.00    0.57961   0.60790    0.006
 6168.00    0.56467   0.60581    0.006
 6169.00    0.55970   0.60795    0.006
 6170.00    0.58200   0.61416    0.006
 6171.00    0.61146   0.61555    0.006
 6172.00    0.65769   0.61484    0.006
 6173.00    0.67643   0.61933    0.006
 6174.00    0.63951   0.62360    0.006
 6175.00    0.59856   0.62337    0.006
 6176.00    0.55051   0.62151    0.006
 6177.00    0.54141   0.61612    0.006
 6178.00    0.59236   0.60667    0.006
 6179.00    0.62826   0.60016    0.006
 6180.00    0.64376   0.59938    0.006
 6181.00    0.63000   0.59645    0.006
 6182.00    0.58136   0.58160    0.006
 6183.00    0.56666   0.56742    0.006
 6184.00    0.58767   0.57718    0.006
 6185.00    0.61178   0.60014    0.006
 6186.00    0.63877   0.61250    0.006
 6187.00    0.64147   0.61631    0.006
 6188.00    0.62432   0.62023    0.006
 6189.00    0.60229   0.62038    0.006
 6190.00    0.57675   0.60973    0.006
 6191.00    0.57847   0.59493    0.006
 6192.00    0.59742   0.59267    0.006
 6193.00    0.66313   0.60480    0.006
 6194.00    0.75467   0.61683    0.006
 6195.00    0.96285   0.62026    0.007
 6196.00    1.22703   0.61887   -2.000
 6197.00    1.59301   0.61866   -2.000
 6198.00    2.00118   0.62015   -2.000
 6199.00    1.98058   0.62047   -2.000
 6200.00    1.80800   0.61939   -2.000
 6201.00    1.33593   0.61687   -2.000
 6202.00    0.77423   0.61293   -2.000
 6203.00    0.39160   0.60772   -2.000
 6204.00    0.05344   0.59631   -2.000
 6205.00    0.14350   0.57961   -2.000
 6206.00    0.31979   0.56870   -2.000
 6207.00    0.43595   0.56922   -2.000
 6208.00    0.54263   0.57941    0.007
 6209.00    0.56568   0.59035    0.007
 6210.00    0.57895   0.58926    0.006
 6211.00    0.56245   0.57947    0.006
 6212.00    0.54360   0.57627    0.006
 6213.00    0.55437   0.58343    0.006
 6214.00    0.56645   0.59224    0.006
 6215.00    0.63156   0.59422    0.006
 6216.00    0.69640   0.59282    0.006
 6217.00    0.72014   0.59481    0.006
 6218.00    0.74102   0.59773    0.006
 6219.00    0.70982   0.59786    0.006
 6220.00    0.68182   0.59103    0.006
 6221.00    0.68912   0.57266    0.006
 6222.00    0.69768   0.55463    0.006
 6223.00    0.71599   0.55425    0.006
 6224.00    0.73162   0.56721    0.006
 6225.00    0.73151   0.58407    0.006
 6226.00    0.73216   0.60109    0.006
 6227.00    0.73629   0.60892    0.006
 6228.00    0.73526   0.60358    0.006
 6229.00    0.71465   0.59225    0.006
 6230.00    0.69268   0.58152    0.006
 6231.00    0.66636   0.57369    0.006
 6232.00    0.64563   0.57374    0.006
 6233.00    0.63989   0.57786    0.006
 6234.00    0.63061   0.57298    0.006
 6235.00    0.61320   0.56499    0.006
 6236.00    0.59035   0.56441    0.006
 6237.00    0.55666   0.56513    0.006
 6238.00    0.55579   0.56793    0.006
 6239.00    0.61192   0.57954    0.006
 6240.00    0.66029   0.59244    0.006
 6241.00    0.69686   0.59745    0.006
 6242.00    0.69646   0.59277    0.006
 6243.00    0.64671   0.57803    0.006
 6244.00    0.60959   0.56263    0.006
 6245.00    0.58733   0.55791    0.006
 6246.00    0.58286   0.56116    0.006
 6247.00    0.59682   0.56231    0.006
 6248.00    0.61913   0.55700    0.006
 6249.00    0.64907   0.54922    0.006
 6250.00    0.63774   0.54878    0.006
 6251.00    0.59313   0.56090    0.006
 6252.00    0.55142   0.57471    0.006
 6253.00    0.51177   0.58421    0.006
 6254.00    0.53158   0.59445    0.006
 6255.00    0.58841   0.59838    0.006
 6256.00    0.65044   0.58937    0.006
 6257.00    0.71530   0.58207    0.006
 6258.00    0.78193   0.58734    0.006
 6259.00    0.84939   0.59348    0.007
 6260.00    0.93780   0.59130    0.007
 6261.00    1.03474   0.58686    0.008
 6262.00    1.02502   0.58672    0.008
 6263.00    0.97817   0.59103    0.008
 6264.00    0.84277   0.59622    0.008
 6265.00    0.68139   0.59790    0.008
 6266.00    0.58089   0.59705    0.007
 6267.00    0.49518   0.59732    0.007
 6268.00    0.51268   0.59725    0.007
 6269.00    0.55045   0.59517    0.006
 6270.00    0.59238   0.59048    0.006
 6271.00    0.63494   0.58193    0.006
 6272.00    0.63726   0.57611    0.006
 6273.00    0.63504   0.57886    0.006
 6274.00    0.64735   0.58674    0.006
 6275.00    0.66075   0.59467    0.006
 6276.00    0.65811   0.59741    0.006
 6277.00    0.65482   0.59737    0.006
 6278.00    0.62729   0.60104    0.006
 6279.00    0.60060   0.60704    0.006
 6280.00    0.61560   0.61026    0.000
 6281.00    0.62911   0.60638    0.000
 6282.00    0.61719   0.59781    0.000
 6283.00    0.60424   0.59153    0.000
 6284.00    0.58040   0.58980    0.000
 6285.00    0.56048   0.59261    0.000
 6286.00    0.56983   0.59547    0.000
 6287.00    0.57645   0.58958    0.000
 6288.00    0.56758   0.57834    0.000
 6289.00    0.56393   0.57377    0.000
 6290.00    0.58394   0.57818    0.000
 6291.00    0.60827   0.58185    0.000
 6292.00    0.64862   0.57597    0.000
 6293.00    0.67498   0.56715    0.000
 6294.00    0.65793   0.56907    0.000
 6295.00    0.64534   0.57980    0.000
 6296.00    0.64454   0.58648    0.000
 6297.00    0.63203   0.58840    0.000
 6298.00    0.59304   0.59477    0.000
 6299.00    0.55447   0.60316    0.000
 6300.00    0.51675   0.60460    0.000
 6301.00    0.49906   0.59804    0.000
 6302.00    0.51563   0.58953    0.000
 6303.00    0.53015   0.58570    0.000
 6304.00    0.54161   0.58756    0.000
 6305.00    0.53501   0.58509    0.000
 6306.00    0.50464   0.57497    0.000
 6307.00    0.49768   0.57062    0.000
 6308.00    0.51784   0.57125    0.000
 6309.00    0.53305   0.56409    0.000
 6310.00    0.54319   0.55957    0.000
 6311.00    0.55522   0.56936    0.000
 6312.00    0.56895   0.58157    0.000
 6313.00    0.57401   0.58494    0.000
 6314.00    0.57216   0.58564    0.000
 6315.00    0.57047   0.59150    0.000
 6316.00    0.56889   0.59814    0.000
 6317.00    0.58751   0.59996    0.000
 6318.00    0.61851   0.59727    0.000
 6319.00    0.63356   0.59625    0.000
 6320.00    0.64007   0.59831    0.000
 6321.00    0.65276   0.59610    0.006
 6322.00    0.66832   0.59234    0.006
 6323.00    0.65446   0.59535    0.006
 6324.00    0.62882   0.60167    0.006
 6325.00    0.60518   0.59898    0.006
 6326.00    0.58222   0.58167    0.006
 6327.00    0.58892   0.56372    0.006
 6328.00    0.60415   0.56223    0.006
 6329.00    0.59597   0.57235    0.006
 6330.00    0.58223   0.57991    0.006
 6331.00    0.57582   0.58637    0.006
 6332.00    0.57081   0.59393    0.006
 6333.00    0.58217   0.59401    0.006
 6334.00    0.59596   0.58365    0.006
 6335.00    0.59983   0.57198    0.006
 6336.00    0.60262   0.57041    0.006
 6337.00    0.60846   0.57515    0.006
 6338.00    0.61452   0.57767    0.006
 6339.00    0.64518   0.58220    0.006
 6340.00    0.67674   0.59010    0.006
 6341.00    0.66705   0.59470    0.006
 6342.00    0.65661   0.59623    0.006
 6343.00    0.62535   0.59718    0.006
 6344.00    0.59681   0.59462    0.006
 6345.00    0.61163   0.58558    0.006
 6346.00    0.62755   0.57598    0.006
 6347.00    0.65450   0.57578    0.006
 6348.00    0.67967   0.57862    0.006
 6349.00    0.69198   0.57162    0.006
 6350.00    0.69862   0.56071    0.006
 6351.00    0.67381   0.55735    0.006
 6352.00    0.64631   0.55608    0.006
 6353.00    0.60686   0.55072    0.006
 6354.00    0.57090   0.54868    0.006
 6355.00    0.54758   0.55535    0.006
 6356.00    0.54223   0.56539    0.006
 6357.00    0.59164   0.57333    0.006
 6358.00    0.64475   0.58043    0.006
 6359.00    0.70745   0.58754    0.006
 6360.00    0.75087   0.58943    0.006
 6361.00    0.75136   0.58399    0.006
 6362.00    0.75908   0.58007    0.006
 6363.00    0.78077   0.58590    0.006
 6364.00    0.78234   0.59575    0.006
 6365.00    0.75003   0.59951    0.006
 6366.00    0.71511   0.59793    0.006
 6367.00    0.67633   0.59733    0.006
 6368.00    0.65926   0.59657    0.006
 6369.00    0.67036   0.59091    0.006
 6370.00    0.68307   0.58426    0.006
 6371.00    0.69760   0.58137    0.006
 6372.00    0.70162   0.58152    0.006
 6373.00    0.69506   0.58528    0.006
 6374.00    0.67674   0.58853    0.006
 6375.00    0.64797   0.58607    0.006
 6376.00    0.63440   0.58373    0.006
 6377.00    0.63274   0.58741    0.006
 6378.00    0.64806   0.59283    0.006
 6379.00    0.67507   0.59424    0.006
 6380.00    0.67303   0.59375    0.006
 6381.00    0.65343   0.59419    0.006
 6382.00    0.62210   0.59254    0.006
 6383.00    0.58458   0.58180    0.006
 6384.00    0.57241   0.56310    0.006
 6385.00    0.57183   0.55552    0.006
 6386.00    0.55556   0.56859    0.006
 6387.00    0.53311   0.58617    0.006
 6388.00    0.54646   0.59586    0.006
 6389.00    0.57181   0.59450    0.006
 6390.00    0.57566   0.57629    0.006
 6391.00    0.57346   0.55270    0.006
 6392.00    0.58017   0.55447    0.006
 6393.00    0.58894   0.57831    0.006
 6394.00    0.63051   0.59518    0.006
 6395.00    0.67818   0.59938    0.006
 6396.00    0.69504   0.59754    0.006
 6397.00    0.70747   0.59102    0.006
 6398.00    0.70136   0.57895    0.006
 6399.00    0.69331   0.56896    0.006
 6400.00    0.68666   0.57408    0.006
 6401.00    0.68010   0.58290    0.006
 6402.00    0.69575   0.57691    0.006
 6403.00    0.71213   0.56943    0.006
 6404.00    0.67403   0.57367    0.006
 6405.00    0.63526   0.57889    0.006
 6406.00    0.57601   0.58039    0.006
 6407.00    0.52125   0.58261    0.006
 6408.00    0.53404   0.58429    0.006
 6409.00    0.55039   0.58319    0.006
 6410.00    0.60114   0.57669    0.006
 6411.00    0.64277   0.56382    0.007
 6412.00    0.62074   0.55579    0.014
 6413.00    0.60538   0.56522   -1.000
 6414.00    0.62589   0.58479   -1.000
 6415.00    0.64409   0.59459   -1.000
 6416.00    0.65228   0.59294   -1.000
 6417.00    0.64661   0.59248   -1.000
 6418.00    0.59161   0.59673   -1.000
 6419.00    0.54923   0.59930   -1.000
 6420.00    0.54456   0.59274   -1.000
 6421.00    0.54230   0.57448    0.041
 6422.00    0.54616   0.55758    0.009
 6423.00    0.55550   0.55891    0.006
 6424.00    0.57687   0.57233    0.006
 6425.00    0.60542   0.58414    0.006
 6426.00    0.64760   0.59101    0.006
 6427.00    0.66827   0.59353    0.006
 6428.00    0.65326   0.58914    0.006
 6429.00    0.61950   0.57247    0.006
 6430.00    0.55847   0.55614    0.006
 6431.00    0.53151   0.56284    0.006
 6432.00    0.54812   0.58397    0.006
 6433.00    0.56255   0.59648    0.006
 6434.00    0.57455   0.59870    0.006
 6435.00    0.58916   0.59782    0.006
 6436.00    0.60635   0.59828    0.006
 6437.00    0.62901   0.60067    0.006
 6438.00    0.65647   0.60048    0.006
 6439.00    0.64736   0.58856    0.006
 6440.00    0.61000   0.55937    0.006
 6441.00    0.59134   0.53513    0.006
 6442.00    0.58537   0.54246    0.006
 6443.00    0.58464   0.56673    0.006
 6444.00    0.58703   0.58384    0.006
 6445.00    0.56196   0.58642    0.006
 6446.00    0.52264   0.57410    0.006
 6447.00    0.52096   0.56037    0.006
 6448.00    0.53621   0.56436    0.006
 6449.00    0.55504   0.58158    0.006
 6450.00    0.57527   0.59487    0.006
 6451.00    0.59551   0.59855    0.006
 6452.00    0.61576   0.58775    0.006
 6453.00    0.61198   0.56116    0.006
 6454.00    0.60157   0.54467    0.006
 6455.00    0.57529   0.55686    0.006
 6456.00    0.54542   0.57576    0.006
 6457.00    0.52595   0.58595    0.006
 6458.00    0.50838   0.59075    0.006
 6459.00    0.50612   0.59093    0.006
 6460.00    0.50599   0.58534    0.006
 6461.00    0.51982   0.57887    0.006
 6462.00    0.53503   0.57262    0.006
 6463.00    0.56192   0.57113    0.006
 6464.00    0.58954   0.57857    0.006
 6465.00    0.64087   0.58202    0.007
 6466.00    0.69279   0.57648    0.007
 6467.00    0.71597   0.57485    0.007
 6468.00    0.73816   0.58110    0.007
 6469.00    0.73251   0.58460    0.006
 6470.00    0.72517   0.58435    0.006
 6471.00    0.69393   0.58197    0.006
 6472.00    0.66357   0.57065    0.006
 6473.00    0.64152   0.55486    0.006
 6474.00    0.62544   0.55114    0.006
 6475.00    0.64978   0.56097    0.006
 6476.00    0.67258   0.57146    0.006
 6477.00    0.68735   0.57650    0.006
 6478.00    0.69849   0.57878    0.006
 6479.00    0.69435   0.58017    0.006
 6480.00    0.68447   0.57779    0.006
 6481.00    0.65460   0.57059    0.006
 6482.00    0.62956   0.56319    0.006
 6483.00    0.61870   0.55687    0.006
 6484.00    0.61713   0.54057    0.006
 6485.00    0.63883   0.51035    0.006
 6486.00    0.65134   0.48937    0.006
 6487.00    0.64407   0.49043    0.006
 6488.00    0.63150   0.50419    0.006
 6489.00    0.60901   0.52136    0.006
 6490.00    0.58535   0.53110    0.006
 6491.00    0.55980   0.53952    0.006
 6492.00    0.54729   0.55162    0.006
 6493.00    0.55345   0.56055    0.006
 6494.00    0.57214   0.56539    0.006
 6495.00    0.60663   0.56832    0.006
 6496.00    0.62233   0.57152    0.006
 6497.00    0.61715   0.57481    0.006
 6498.00    0.59290   0.57450    0.006
 6499.00    0.54997   0.56903    0.006
 6500.00    0.50732   0.56535    0.006
 6501.00    0.46491   0.56843    0.006
 6502.00    0.46089   0.57280    0.006
 6503.00    0.48608   0.57330    0.006
 6504.00    0.52700   0.57294    0.006
 6505.00    0.57844   0.57091    0.006
 6506.00    0.60646   0.56319    0.006
 6507.00    0.62076   0.55450    0.006
 6508.00    0.61626   0.55114    0.006
 6509.00    0.60215   0.54902    0.006
 6510.00    0.59028   0.54967    0.006
 6511.00    0.57940   0.55920    0.006
 6512.00    0.61171   0.56918    0.006
 6513.00    0.66042   0.57200    0.006
 6514.00    0.68348   0.57058    0.006
 6515.00    0.69826   0.57136    0.006
 6516.00    0.69009   0.57180    0.006
 6517.00    0.67573   0.56459    0.006
 6518.00    0.66084   0.55567    0.006
 6519.00    0.64584   0.55620    0.006
 6520.00    0.62633   0.56346    0.006
 6521.00    0.60604   0.56843    0.006
 6522.00    0.61601   0.56567    0.006
 6523.00    0.63006   0.55764    0.006
 6524.00    0.64130   0.55208    0.006
 6525.00    0.65228   0.55457    0.006
 6526.00    0.66968   0.56277    0.006
 6527.00    0.68746   0.56693    0.006
 6528.00    0.65919   0.56343    0.000
 6529.00    0.62980   0.56114    0.000
 6530.00    0.60460   0.56547    0.000
 6531.00    0.58155   0.56988    0.000
 6532.00    0.61222   0.56734    0.000
 6533.00    0.64097   0.56000    0.000
 6534.00    0.64406   0.55382    0.000
 6535.00    0.64704   0.54992    0.000
 6536.00    0.64908   0.54134    0.000
 6537.00    0.65334   0.52815    0.000
 6538.00    0.67214   0.52679    0.000
 6539.00    0.68968   0.53683    0.000
 6540.00    0.70082   0.54400    0.000
 6541.00    0.71371   0.54268    0.000
 6542.00    0.73379   0.53609    0.000
 6543.00    0.75424   0.53045    0.000
 6544.00    0.77595   0.52536    0.000
 6545.00    0.78195   0.51621    0.000
 6546.00    0.74269   0.50531    0.000
 6547.00    0.70183   0.50042    0.000
 6548.00    0.65704   0.50290    0.000
 6549.00    0.61854   0.50355    0.000
 6550.00    0.59340   0.49647    0.000
 6551.00    0.58636   0.48167    0.000
 6552.00    0.61266   0.44232    0.000
 6553.00    0.64653   0.36850    0.000
 6554.00    0.69261   0.32620    0.000
 6555.00    0.76853   0.37308    0.000
 6556.00    0.88659   0.44745    0.000
 6557.00    1.03209   0.48843    0.000
 6558.00    1.21167   0.50585    0.000
 6559.00    1.34156   0.51073    0.000
 6560.00    1.41703   0.50658    0.000
 6561.00    1.35417   0.50742    0.000
 6562.00    1.15769   0.51452    0.000
 6563.00    0.96890   0.51527    0.000
 6564.00    0.78664   0.50951    0.000
 6565.00    0.68966   0.50532    0.000
 6566.00    0.65665   0.50837    0.000
 6567.00    0.63954   0.52270    0.000
 6568.00    0.63291   0.53867    0.000
 6569.00    0.60888   0.54644    0.000
 6570.00    0.57483   0.54628    0.000
 6571.00    0.53692   0.53957    0.000
 6572.00    0.49708   0.53280    0.000
 6573.00    0.50835   0.53592    0.000
 6574.00    0.54186   0.54312    0.000
 6575.00    0.57967   0.54651    0.000
 6576.00    0.61910   0.54513    0.000
 6577.00    0.69690   0.54150    0.000
 6578.00    0.78686   0.54328    0.000
 6579.00    0.86237   0.55051    0.000
 6580.00    0.93406   0.55537    0.000
 6581.00    0.88742   0.55620    0.000
 6582.00    0.81520   0.54924    0.000
 6583.00    0.71873   0.52853    0.000
 6584.00    0.61811   0.50734    0.000
 6585.00    0.62031   0.51064    0.000
 6586.00    0.63588   0.53157    0.000
 6587.00    0.64969   0.54442    0.000
 6588.00    0.66334   0.54406    0.000
 6589.00    0.62758   0.53917    0.000
 6590.00    0.58910   0.53956    0.000
 6591.00    0.57995   0.54811    0.000
 6592.00    0.57161   0.55705    0.000
 6593.00    0.58007   0.55873    0.000
 6594.00    0.58884   0.55438    0.000
 6595.00    0.60471   0.54764    0.000
 6596.00    0.62044   0.54191    0.000
 6597.00    0.63425   0.54018    0.000
 6598.00    0.64330   0.53847    0.000
 6599.00    0.61147   0.53247    0.000
 6600.00    0.58053   0.52629    0.000
 6601.00    0.55531   0.53303    0.000
 6602.00    0.54059   0.54815    0.000
 6603.00    0.57814   0.55408    0.000
 6604.00    0.60744   0.54901    0.000
 6605.00    0.60347   0.54644    0.000
 6606.00    0.59495   0.55270    0.000
 6607.00    0.57121   0.55687    0.000
 6608.00    0.56074   0.55449    0.000
 6609.00    0.58777   0.55256    0.006
 6610.00    0.61302   0.55479    0.006
 6611.00    0.63401   0.55813    0.006
 6612.00    0.65148   0.55922    0.006
 6613.00    0.66162   0.55674    0.006
 6614.00    0.67902   0.54982    0.006
 6615.00    0.70957   0.53937    0.006
 6616.00    0.72164   0.53450    0.006
 6617.00    0.70437   0.54008    0.006
 6618.00    0.68713   0.54605    0.006
 6619.00    0.66992   0.54734    0.006
 6620.00    0.65394   0.54628    0.006
 6621.00    0.63946   0.54397    0.006
 6622.00    0.61928   0.54113    0.006
 6623.00    0.59293   0.53495    0.006
 6624.00    0.59888   0.52424    0.006
 6625.00    0.63560   0.51896    0.006
 6626.00    0.65131   0.52716    0.006
 6627.00    0.64937   0.53975    0.006
 6628.00    0.62610   0.54693    0.006
 6629.00    0.58706   0.54712    0.006
 6630.00    0.56715   0.54256    0.006
 6631.00    0.55967   0.54044    0.006
 6632.00    0.55864   0.54500    0.006
 6633.00    0.56129   0.54404    0.006
 6634.00    0.58215   0.53244    0.006
 6635.00    0.61202   0.52771    0.006
 6636.00    0.63164   0.53566    0.006
 6637.00    0.64688   0.54230    0.006
 6638.00    0.59805   0.54178    0.006
 6639.00    0.52572   0.54088    0.006
 6640.00    0.49641   0.54358    0.006
 6641.00    0.48045   0.54484    0.006
 6642.00    0.49294   0.54259    0.006
 6643.00    0.51280   0.54063    0.006
 6644.00    0.59842   0.54034    0.006
 6645.00    0.69792   0.54081    0.006
 6646.00    0.83014   0.54175    0.006
 6647.00    0.96781   0.54116    0.006
 6648.00    0.92786   0.54032    0.006
 6649.00    0.86562   0.54143    0.006
 6650.00    0.77177   0.54106    0.006
 6651.00    0.67516   0.53810    0.006
 6652.00    0.61461   0.53414    0.006
 6653.00    0.55592   0.52704    0.006
 6654.00    0.55014   0.51749    0.006
 6655.00    0.54558   0.51741    0.006
 6656.00    0.56134   0.52521    0.006
 6657.00    0.57607   0.52831    0.006
 6658.00    0.56906   0.52772    0.006
 6659.00    0.56202   0.52900    0.006
 6660.00    0.55473   0.53476    0.006
 6661.00    0.54661   0.54095    0.006
 6662.00    0.53171   0.54310    0.006
 6663.00    0.51231   0.54235    0.006
 6664.00    0.46515   0.54214    0.006
 6665.00    0.42972   0.54269    0.006
 6666.00    0.45123   0.54248    0.006
 6667.00    0.47047   0.53551    0.006
 6668.00    0.48074   0.51756    0.006
 6669.00    0.49858   0.50320    0.006
 6670.00    0.54125   0.51056    0.006
 6671.00    0.57177   0.52637    0.006
 6672.00    0.56854   0.53243    0.006
 6673.00    0.55394   0.53387    0.006
 6674.00    0.51235   0.53631    0.006
 6675.00    0.48493   0.53870    0.006
 6676.00    0.48661   0.53928    0.006
 6677.00    0.49406   0.53840    0.006
 6678.00    0.51183   0.53692    0.006
 6679.00    0.52108   0.53578    0.006
 6680.00    0.51703   0.53673    0.006
 6681.00    0.51635   0.53815    0.006
 6682.00    0.52032   0.53855    0.006
 6683.00    0.50831   0.53795    0.006
 6684.00    0.47701   0.53776    0.006
 6685.00    0.46190   0.53568    0.006
 6686.00    0.46405   0.52871    0.006
 6687.00    0.48659   0.52016    0.006
 6688.00    0.52829   0.51841    0.006
 6689.00    0.54961   0.52288    0.006
 6690.00    0.55405   0.52884    0.006
 6691.00    0.55437   0.53504    0.006
 6692.00    0.55169   0.53719    0.006
 6693.00    0.55162   0.53417    0.006
 6694.00    0.55321   0.52771    0.006
 6695.00    0.56011   0.52277    0.006
 6696.00    0.56999   0.52411    0.000
 6697.00    0.57272   0.52926    0.000
 6698.00    0.57197   0.53184    0.000
 6699.00    0.57989   0.53159    0.000
 6700.00    0.59147   0.53008    0.000
 6701.00    0.58471   0.52731    0.000
 6702.00    0.57136   0.52666    0.000
 6703.00    0.53882   0.52651    0.000
 6704.00    0.50043   0.52292    0.000
 6705.00    0.48968   0.51829    0.000
 6706.00    0.48594   0.51303    0.000
 6707.00    0.49466   0.50528    0.000
 6708.00    0.50596   0.49833    0.000
 6709.00    0.59205   0.50162    0.000
 6710.00    0.69025   0.51486    0.000
 6711.00    0.75411   0.52358    0.000
 6712.00    0.81380   0.52298    0.000
 6713.00    0.79254   0.52212    0.000
 6714.00    0.76456   0.52623    0.000
 6715.00    0.69742   0.52887    0.000
 6716.00    0.62841   0.52499    0.000
 6717.00    0.61416   0.52007    0.000
 6718.00    0.60104   0.52070    0.000
 6719.00    0.60818   0.52440    0.000
 6720.00    0.61453   0.52759    0.000
 6721.00    0.60562   0.53011    0.000
 6722.00    0.59835   0.53051    0.000
 6723.00    0.60989   0.52803    0.000
 6724.00    0.62769   0.52502    0.000
 6725.00    0.69543   0.52431    0.000
 6726.00    0.75534   0.52612    0.000
 6727.00    0.76826   0.52742    0.000
 6728.00    0.76789   0.52401    0.000
 6729.00    0.70449   0.51743    0.000
 6730.00    0.64378   0.51455    0.000
 6731.00    0.59349   0.51771    0.000
 6732.00    0.54233   0.52089    0.000
 6733.00    0.48835   0.51807    0.000
 6734.00    0.45612   0.51434    0.000
 6735.00    0.48318   0.51607    0.000
 6736.00    0.52502   0.51897    0.000
 6737.00    0.60141   0.51836    0.000
 6738.00    0.65613   0.51623    0.000
 6739.00    0.66707   0.51370    0.000
 6740.00    0.66341   0.51091    0.000
 6741.00    0.63406   0.51010    0.000
 6742.00    0.60098   0.51259    0.000
 6743.00    0.56217   0.51301    0.000
 6744.00    0.53582   0.51182    0.000
 6745.00    0.52632   0.51539    0.000
 6746.00    0.50903   0.51935    0.000
 6747.00    0.48247   0.52107    0.000
 6748.00    0.48236   0.52377    0.000
 6749.00    0.50999   0.52739    0.000
 6750.00    0.53024   0.53007    0.000
 6751.00    0.54365   0.53078    0.000
 6752.00    0.59152   0.52898    0.000
 6753.00    0.66752   0.52663    0.006
 6754.00    0.69751   0.52681    0.007
 6755.00    0.69446   0.52714    0.007
 6756.00    0.64921   0.52395    0.007
 6757.00    0.57734   0.51691    0.007
 6758.00    0.54066   0.51044    0.007
 6759.00    0.52337   0.51068    0.007
 6760.00    0.55780   0.51553    0.007
 6761.00    0.61702   0.51632    0.007
 6762.00    0.65168   0.51348    0.007
 6763.00    0.67620   0.51487    0.007
 6764.00    0.70491   0.52103    0.007
 6765.00    0.73512   0.52712    0.007
 6766.00    0.73728   0.53018    0.007
 6767.00    0.73108   0.53033    0.007
 6768.00    0.67053   0.52899    0.007
 6769.00    0.59653   0.52950    0.007
 6770.00    0.56458   0.53186    0.007
 6771.00    0.54108   0.53066    0.007
 6772.00    0.56586   0.52542    0.007
 6773.00    0.59823   0.51752    0.007
 6774.00    0.59543   0.50852    0.006
 6775.00    0.58853   0.50306    0.006
 6776.00    0.60508   0.50393    0.006
 6777.00    0.62348   0.50805    0.006
 6778.00    0.70516   0.51416    0.006
 6779.00    0.78959   0.51960    0.006
 6780.00    0.77802   0.52054    0.006
 6781.00    0.76452   0.51989    0.007
 6782.00    0.70845   0.52038    0.007
 6783.00    0.65489   0.51859    0.007
 6784.00    0.64690   0.51374    0.007
 6785.00    0.63345   0.51141    0.006
 6786.00    0.56018   0.51241    0.007
 6787.00    0.49481   0.51368    0.007
 6788.00    0.49022   0.51510    0.007
 6789.00    0.49083   0.51615    0.007
 6790.00    0.52169   0.51722    0.007
 6791.00    0.54898   0.51907    0.007
 6792.00    0.55977   0.52098    0.007
 6793.00    0.57016   0.52106    0.007
 6794.00    0.57909   0.51822    0.007
 6795.00    0.59209   0.51613    0.006
 6796.00    0.61796   0.51695    0.006
 6797.00    0.64043   0.51656    0.006
 6798.00    0.65381   0.51553    0.006
 6799.00    0.66730   0.51633    0.006
 6800.00    0.68105   0.51508    0.006
 6801.00    0.69829   0.51318    0.006
 6802.00    0.72243   0.51506    0.006
 6803.00    0.71032   0.51739    0.007
 6804.00    0.63539   0.51579    0.007
 6805.00    0.56371   0.51111    0.006
 6806.00    0.49694   0.50985    0.006
 6807.00    0.48163   0.51532    0.006
 6808.00    0.53489   0.52072    0.006
 6809.00    0.58048   0.51999    0.006
 6810.00    0.61707   0.51520    0.006
 6811.00    0.64043   0.51223    0.007
 6812.00    0.65010   0.51517    0.007
 6813.00    0.66000   0.52101    0.007
 6814.00    0.67011   0.52420    0.007
 6815.00    0.66156   0.52422    0.007
 6816.00    0.63800   0.52309    0.007
 6817.00    0.60467   0.52039    0.006
 6818.00    0.56441   0.51416    0.006
 6819.00    0.58901   0.50862    0.006
 6820.00    0.65389   0.50998    0.006
 6821.00    0.63206   0.51606    0.006
 6822.00    0.56316   0.51945    0.006
 6823.00    0.53525   0.51826    0.006
 6824.00    0.52667   0.51732    0.006
 6825.00    0.55717   0.51974    0.006
 6826.00    0.60357   0.52154    0.006
 6827.00    0.62575   0.51928    0.006
 6828.00    0.63953   0.51448    0.007
 6829.00    0.59776   0.50840    0.007
 6830.00    0.53974   0.50164    0.007
 6831.00    0.54487   0.49509    0.007
 6832.00    0.56530   0.48998    0.007
 6833.00    0.56446   0.49037    0.006
 6834.00    0.55947   0.49783    0.006
 6835.00    0.57415   0.50774    0.006
 6836.00    0.59183   0.51420    0.006
 6837.00    0.65193   0.51580    0.007
 6838.00    0.71679   0.51565    0.007
 6839.00    0.67559   0.51545    0.007
 6840.00    0.62647   0.51490    0.007
 6841.00    0.57302   0.51450    0.006
 6842.00    0.51940   0.51455    0.006
 6843.00    0.50222   0.51519    0.006
 6844.00    0.48843   0.51282    0.006
 6845.00    0.59926   0.50404    0.006
 6846.00    0.69464   0.49623    0.006
 6847.00    0.52882   0.49699    0.006
 6848.00    0.38283   0.50139    0.006
 6849.00    0.44430   0.50441    0.006
 6850.00    0.50200   0.50528    0.006
 6851.00    0.53179   0.50109    0.006
 6852.00    0.55509   0.49549    0.006
 6853.00    0.54160   0.49797    0.006
 6854.00    0.53446   0.50800    0.006
 6855.00    0.55600   0.51547    0.006
 6856.00    0.56856   0.51462    0.006
 6857.00    0.54791   0.50768    0.006
 6858.00    0.51933   0.49919    0.006
 6859.00    0.46621   0.49623    0.006
 6860.00    0.42979   0.50166    0.006
 6861.00    0.43731   0.50684    0.006
 6862.00    0.45037   0.50467    0.006
 6863.00    0.47597   0.50084    0.006
 6864.00    0.52196   0.50160    0.006
 6865.00    0.60788   0.50327    0.006
 6866.00    0.63719   0.50339    0.006
 6867.00    0.56991   0.50568    0.006
 6868.00    0.52936   0.51044    0.006
 6869.00    0.52875   0.51326    0.007
 6870.00    0.53723   0.51214    0.007
 6871.00    0.55763   0.50811    0.007
 6872.00    0.58813   0.50157    0.006
 6873.00    0.63029   0.49638    0.006
 6874.00    0.63748   0.49819    0.006
 6875.00    0.60897   0.50446    0.006
 6876.00    0.60227   0.50700    0.006
 6877.00    0.61521   0.50655    0.006
 6878.00    0.58346   0.50978    0.006
 6879.00    0.51627   0.51440    0.006
 6880.00    0.49454   0.51649    0.006
 6881.00    0.50454   0.51842    0.006
 6882.00    0.51259   0.51921    0.006
 6883.00    0.51944   0.51684    0.006
 6884.00    0.50982   0.51466    0.006
 6885.00    0.49140   0.51294    0.006
 6886.00    0.49533   0.51001    0.006
 6887.00    0.50963   0.50945    0.006
 6888.00    0.49873   0.51281    0.006
 6889.00    0.47774   0.51513    0.006
 6890.00    0.45088   0.51272    0.006
 6891.00    0.42201   0.51039    0.006
 6892.00    0.46556   0.51287    0.006
 6893.00    0.52986   0.51628    0.006
 6894.00    0.55344   0.51579    0.006
 6895.00    0.56738   0.51322    0.006
 6896.00    0.57779   0.51292    0.006
 6897.00    0.58753   0.51581    0.006
 6898.00    0.60630   0.51857    0.006
 6899.00    0.62642   0.51907    0.006
 6900.00    0.62581   0.51848    0.006
 6901.00    0.62297   0.51675    0.006
 6902.00    0.63449   0.51369    0.006
 6903.00    0.64703   0.50948    0.006
 6904.00    0.58232   0.50392    0.006
 6905.00    0.51484   0.50051    0.006
 6906.00    0.50555   0.50212    0.006
 6907.00    0.49516   0.50429    0.006
 6908.00    0.44067   0.50540    0.006
 6909.00    0.39115   0.50822    0.006
 6910.00    0.42036   0.51196    0.006
 6911.00    0.44790   0.51497    0.006
 6912.00    0.45868   0.51655    0.006
 6913.00    0.46760   0.51467    0.006
 6914.00    0.46311   0.50739    0.006
 6915.00    0.46260   0.49845    0.006
 6916.00    0.48399   0.49484    0.006
 6917.00    0.50362   0.49891    0.006
 6918.00    0.51547   0.50611    0.006
 6919.00    0.52374   0.51018    0.006
 6920.00    0.51906   0.51076    0.006
 6921.00    0.52285   0.51029    0.006
 6922.00    0.55235   0.50818    0.006
 6923.00    0.59695   0.50380    0.006
 6924.00    0.68061   0.50165    0.006
 6925.00    0.71944   0.50540    0.006
 6926.00    0.65861   0.50973    0.006
 6927.00    0.61219   0.50980    0.006
 6928.00    0.59350   0.50840    0.006
 6929.00    0.57623   0.50924    0.006
 6930.00    0.56136   0.51236    0.006
 6931.00    0.55156   0.51475    0.006
 6932.00    0.54921   0.51366    0.006
 6933.00    0.53390   0.50890    0.006
 6934.00    0.50181   0.50170    0.007
 6935.00    0.50011   0.49413    0.007
 6936.00    0.53311   0.49241    0.007
 6937.00    0.55734   0.49900    0.007
 6938.00    0.57276   0.50673    0.006
 6939.00    0.58902   0.51086    0.006
 6940.00    0.60602   0.51074    0.006
 6941.00    0.58359   0.50558    0.006
 6942.00    0.53031   0.49975    0.006
 6943.00    0.52068   0.49790    0.006
 6944.00    0.54106   0.49827    0.006
 6945.00    0.56182   0.49946    0.006
 6946.00    0.58281   0.50289    0.006
 6947.00    0.58032   0.50716    0.006
 6948.00    0.56547   0.50896    0.006
 6949.00    0.57581   0.50883    0.006
 6950.00    0.59766   0.50877    0.006
 6951.00    0.55605   0.50932    0.006
 6952.00    0.48952   0.51023    0.006
 6953.00    0.46477   0.51103    0.006
 6954.00    0.45399   0.51174    0.006
 6955.00    0.48728   0.51038    0.006
 6956.00    0.53295   0.50679    0.006
 6957.00    0.46721   0.50671    0.006
 6958.00    0.37568   0.51182    0.006
 6959.00    0.40354   0.51559    0.006
 6960.00    0.45356   0.51407    0.006
 6961.00    0.51388   0.50927    0.006
 6962.00    0.57568   0.50712    0.006
 6963.00    0.59309   0.51051    0.006
 6964.00    0.60590   0.51256    0.006
 6965.00    0.56693   0.50795    0.006
 6966.00    0.52451   0.50038    0.006
 6967.00    0.48866   0.49162    0.006
 6968.00    0.45305   0.47929    0.006
 6969.00    0.50634   0.46971    0.006
 6970.00    0.55712   0.47468    0.007
 6971.00    0.53104   0.49039    0.006
 6972.00    0.50077   0.50336    0.006
 6973.00    0.40807   0.51013    0.006
 6974.00    0.33273   0.51337    0.007
 6975.00    0.42399   0.51390    0.007
 6976.00    0.50941   0.51288    0.007
 6977.00    0.55423   0.51171    0.007
 6978.00    0.58560   0.50938    0.007
 6979.00    0.54478   0.50477    0.006
 6980.00    0.51147   0.50184    0.006
 6981.00    0.51052   0.50467    0.006
 6982.00    0.50867   0.51008    0.006
 6983.00    0.50366   0.51242    0.006
 6984.00    0.50069   0.51036    0.006
 6985.00    0.50377   0.50771    0.006
 6986.00    0.51064   0.50802    0.006
 6987.00    0.52708   0.50995    0.006
 6988.00    0.55596   0.50902    0.006
 6989.00    0.61205   0.50231    0.006
 6990.00    0.63577   0.49418    0.006
 6991.00    0.59807   0.49319    0.006
 6992.00    0.58030   0.49961    0.006
 6993.00    0.59553   0.50377    0.007
 6994.00    0.60686   0.49999    0.007
 6995.00    0.61253   0.49409    0.007
 6996.00    0.57461   0.49229    0.007
 6997.00    0.48104   0.49435    0.007
 6998.00    0.44550   0.49858    0.006
 6999.00    0.47522   0.50336    0.006
 7000.00    0.51608   0.50538    0.006
 7001.00    0.56797   0.50321    0.006
 7002.00    0.58330   0.50090    0.006
 7003.00    0.56663   0.50205    0.006
 7004.00    0.55036   0.50291    0.006
 7005.00    0.53442   0.49596    0.006
 7006.00    0.56206   0.48135    0.006
 7007.00    0.61923   0.47346    0.006
 7008.00    0.61195   0.48283    0.006
 7009.00    0.56639   0.49866    0.007
 7010.00    0.53428   0.50810    0.007
 7011.00    0.50912   0.51070    0.007
 7012.00    0.51687   0.50737    0.007
 7013.00    0.53939   0.49768    0.007
 7014.00    0.54425   0.48755    0.007
 7015.00    0.54228   0.48569    0.007
 7016.00    0.52105   0.49171    0.007
 7017.00    0.49350   0.49768    0.007
 7018.00    0.47311   0.50029    0.007
 7019.00    0.45469   0.50177    0.007
 7020.00    0.48405   0.50380    0.007
 7021.00    0.52422   0.50526    0.007
 7022.00    0.56710   0.50443    0.006
 7023.00    0.61047   0.50243    0.006
 7024.00    0.60913   0.50110    0.006
 7025.00    0.60159   0.50141    0.006
 7026.00    0.58761   0.50413    0.007
 7027.00    0.57299   0.50318    0.007
 7028.00    0.60649   0.49321    0.007
 7029.00    0.64301   0.48659    0.007
 7030.00    0.58705   0.49582    0.007
 7031.00    0.52872   0.51182    0.007
 7032.00    0.53911   0.52184    0.007
 7033.00    0.54854   0.52370    0.007
 7034.00    0.53182   0.51865    0.007
 7035.00    0.51619   0.51064    0.007
 7036.00    0.51570   0.50783    0.007
 7037.00    0.51286   0.51261    0.007
 7038.00    0.48828   0.51945    0.007
 7039.00    0.46601   0.52235    0.007
 7040.00    0.45932   0.52065    0.007
 7041.00    0.46758   0.51627    0.007
 7042.00    0.55397   0.50672    0.007
 7043.00    0.62756   0.49258    0.007
 7044.00    0.64723   0.48244    0.007
 7045.00    0.65210   0.48064    0.007
 7046.00    0.60551   0.48492    0.007
 7047.00    0.57044   0.49131    0.007
 7048.00    0.56910   0.49404    0.007
 7049.00    0.56311   0.48914    0.007
 7050.00    0.54550   0.48042   -2.000
 7051.00    0.56991   0.47658   -2.000
 7052.00    0.68471   0.47953   -2.000
 7053.00    0.72596   0.48391   -2.000
 7054.00    0.62987   0.48825   -2.000
 7055.00    0.58602   0.49076   -2.000
 7056.00    0.62739   0.48734   -2.000
 7057.00    0.63763   0.47879   -2.000
 7058.00    0.60335   0.46943   -2.000
 7059.00    0.61736   0.46674   -2.000
 7060.00    0.69214   0.47480   -2.000
 7061.00    0.68403   0.48569   -2.000
 7062.00    0.58401   0.49072   -2.000
 7063.00    0.54582   0.49120   -2.000
 7064.00    0.56813   0.49134   -2.000
 7065.00    0.60812   0.49100   -2.000
 7066.00    0.66339   0.48941   -2.000
 7067.00    0.66527   0.48888   -2.000
 7068.00    0.62659   0.49046   -2.000
 7069.00    0.58605   0.49203   -2.000
 7070.00    0.54427   0.49364   -2.000
 7071.00    0.60951   0.49520   -2.000
 7072.00    0.73734   0.49264   -2.000
 7073.00    0.72462   0.48320   -2.000
 7074.00    0.64024   0.46902   -2.000
 7075.00    0.59800   0.45958   -2.000
 7076.00    0.57435   0.46094   -2.000
 7077.00    0.56058   0.46466   -2.000
 7078.00    0.55056   0.46410   -2.000
 7079.00    0.57724   0.46161   -2.000
 7080.00    0.61575   0.45849   -2.000
 7081.00    0.64799   0.45701   -2.000
 7082.00    0.67854   0.45844   -2.000
 7083.00    0.64021   0.45910   -2.000
 7084.00    0.58666   0.45936   -2.000
 7085.00    0.65423   0.45993   -2.000
 7086.00    0.74309   0.46015   -2.000
 7087.00    0.69832   0.46073   -2.000
 7088.00    0.63566   0.46279   -2.000
 7089.00    0.62156   0.46872   -2.000
 7090.00    0.61208   0.47306   -2.000
 7091.00    0.55977   0.47275   -2.000
 7092.00    0.50496   0.46925   -2.000
 7093.00    0.56271   0.46693   -2.000
 7094.00    0.62333   0.46944   -2.000
 7095.00    0.69584   0.47441   -2.000
 7096.00    0.76030   0.47480   -2.000
 7097.00    0.62429   0.47035   -2.000
 7098.00    0.50026   0.46771   -2.000
 7099.00    0.53536   0.46853   -2.000
 7100.00    0.55906   0.46691   -2.000
 7101.00    0.48168   0.46106   -2.000
 7102.00    0.42193   0.45774   -2.000
 7103.00    0.47739   0.46086   -2.000
 7104.00    0.52820   0.46618   -2.000
 7105.00    0.55526   0.46910   -2.000
 7106.00    0.57227   0.47060   -2.000
 7107.00    0.54797   0.47132   -2.000
 7108.00    0.52730   0.47055   -2.000
 7109.00    0.51904   0.46916   -2.000
 7110.00    0.53238   0.46825   -2.000
 7111.00    0.60782   0.46662   -2.000
 7112.00    0.63014   0.46310   -2.000
 7113.00    0.52213   0.46338   -2.000
 7114.00    0.46879   0.46767   -2.000
 7115.00    0.53113   0.46746   -2.000
 7116.00    0.58197   0.46212   -2.000
 7117.00    0.61167   0.45867   -2.000
 7118.00    0.59011   0.45990   -2.000
 7119.00    0.48619   0.45951   -2.000
 7120.00    0.47323   0.45242   -2.000
 7121.00    0.58848   0.44546   -2.000
 7122.00    0.63794   0.44766   -2.000
 7123.00    0.60578   0.45560   -2.000
 7124.00    0.63872   0.46298   -2.000
 7125.00    0.74282   0.46702   -2.000
 7126.00    0.71623   0.46808   -2.000
 7127.00    0.56361   0.47027   -2.000
 7128.00    0.49671   0.47034   -2.000
 7129.00    0.50273   0.46553   -2.000
 7130.00    0.57245   0.46285   -2.000
 7131.00    0.68989   0.46637   -2.000
 7132.00    0.75330   0.46928   -2.000
 7133.00    0.78115   0.46870   -2.000
 7134.00    0.68164   0.46774   -2.000
 7135.00    0.50876   0.46675   -2.000
 7136.00    0.50471   0.46620   -2.000
 7137.00    0.58537   0.46132   -2.000
 7138.00    0.59994   0.45068   -2.000
 7139.00    0.58582   0.44732   -2.000
 7140.00    0.63239   0.45396   -2.000
 7141.00    0.70158   0.46102   -2.000
 7142.00    0.75766   0.46729   -2.000
 7143.00    0.80958   0.47329   -2.000
 7144.00    0.78002   0.47425   -2.000
 7145.00    0.72897   0.46976   -2.000
 7146.00    0.70967   0.46796   -2.000
 7147.00    0.69721   0.47341   -2.000
 7148.00    0.67774   0.47642   -2.000
 7149.00    0.65706   0.47218   -2.000
 7150.00    0.65692   0.46689   -2.000
 7151.00    0.65944   0.46659   -2.000
 7152.00    0.66784   0.47011   -2.000
 7153.00    0.67677   0.46753   -2.000
 7154.00    0.67115   0.45467   -2.000
 7155.00    0.66474   0.44289   -2.000
 7156.00    0.59108   0.44575   -2.000
 7157.00    0.51736   0.45907   -2.000
 7158.00    0.56586   0.46985   -2.000
 7159.00    0.61382   0.47252   -2.000
 7160.00    0.64924   0.47096   -2.000
 7161.00    0.68935   0.47109   -2.000
 7162.00    0.78837   0.47482   -2.000
 7163.00    0.86034   0.47794   -2.000
 7164.00    0.70154   0.47723   -2.000
 7165.00    0.57604   0.47210   -2.000
 7166.00    0.66160   0.46448   -2.000
 7167.00    0.69636   0.46372   -2.000
 7168.00    0.47888   0.47040   -2.000
 7169.00    0.35844   0.47161   -2.000
 7170.00    0.62856   0.46136   -2.000
 7171.00    0.81291   0.44973   -2.000
 7172.00    0.71066   0.44984   -2.000
 7173.00    0.60692   0.46188   -2.000
 7174.00    0.49897   0.47138   -2.000
 7175.00    0.45632   0.47172   -2.000
 7176.00    0.57119   0.46556   -2.000
 7177.00    0.65059   0.45340   -2.000
 7178.00    0.65615   0.44462   -2.000
 7179.00    0.69938   0.44520   -2.000
 7180.00    0.81080   0.45131   -2.000
 7181.00    0.83339   0.45846   -2.000
 7182.00    0.71537   0.45976   -2.000
 7183.00    0.61132   0.45623   -2.000
 7184.00    0.52668   0.45583   -2.000
 7185.00    0.50826   0.46179   -2.000
 7186.00    0.57081   0.46431   -2.000
 7187.00    0.60733   0.45965   -2.000
 7188.00    0.61579   0.45886   -2.000
 7189.00    0.63917   0.46400   -2.000
 7190.00    0.67674   0.46663   -2.000
 7191.00    0.66493   0.46340   -2.000
 7192.00    0.61174   0.45908   -2.000
 7193.00    0.66399   0.46128   -2.000
 7194.00    0.79407   0.46909   -2.000
 7195.00    0.72344   0.47280   -2.000
 7196.00    0.52270   0.46329   -2.000
 7197.00    0.50007   0.44579   -2.000
 7198.00    0.57847   0.43887   -2.000
 7199.00    0.72279   0.44563   -2.000
 7200.00    0.89967   0.45738   -2.000
 7201.00    0.88895   0.46814   -2.000
 7202.00    0.79811   0.47034   -2.000
 7203.00    0.56935   0.46501   -2.000
 7204.00    0.29013   0.45957   -2.000
 7205.00    0.27284   0.45755   -2.000
 7206.00    0.33668   0.45889   -2.000
 7207.00    0.31289   0.46461   -2.000
 7208.00    0.26648   0.47087   -2.000
 7209.00    0.37495   0.47130   -2.000
 7210.00    0.51600   0.46793   -2.000
 7211.00    0.59965   0.46451   -2.000
 7212.00    0.67377   0.46187   -2.000
 7213.00    0.64174   0.45982   -2.000
 7214.00    0.59645   0.46129   -2.000
 7215.00    0.60559   0.46788   -2.000
 7216.00    0.61946   0.47365   -2.000
 7217.00    0.54991   0.47624   -2.000
 7218.00    0.47613   0.47328   -2.000
