###################################################################
## OUTPUT of StarlightChains_v04.for    [Cid@UFSC - 01/Apr/2007] ##
###################################################################

## Some input info
KUG0210-078._48_46.txt                   [arq_obs]
Base.CB07.vall.4m                        [arq_base]
Masks.EmLines.NEW.gm                     [arq_masks]
StCv04.C11.config                        [arq_config]
   66                                    [N_base]
    0                                    [N_YAV_components = # of components with extra extinction!]
    0                                    [i_FitPowerLaw (1/0 = Yes/No)]
-9.99                                    [alpha_PowerLaw]
CCM                                      [red_law_option]
 1.458241                                [q_norm = A(l_norm)/A(V)]

## (Re)Sampling Parameters
 3741.00                                 [l_ini (A)]
 7218.00                                 [l_fin (A)]
    1.00                                 [dl    (A)]     (OBS: dl_cushion =    50.00 A)

## Normalization info
 4020.00                                 [l_norm (A) - for base]
 4010.00                                 [llow_norm (A) - window for f_obs]
 4060.00                                 [lupp_norm (A) - window for f_obs]
6.890151E-18                             [fobs_norm (in input units)]

## S/N
 3691.00                                 [llow_SN (A) - window for S/N]
 7268.00                                 [lupp_SN (A) - window for S/N]
   3.475                                 [S/N in S/N window]
   4.698                                 [S/N in norm. window]
   0.006                                 [S/N_err in S/N window]
   0.008                                 [S/N_err in norm. window]
  1.0000                                 [fscale_chi2]

## etc...
    -2007934                             [idum_orig]
  2393                                   [NOl_eff]
  2373                                   [Nl_eff]
    20    NSIGMA                         [Ntot_cliped & clip_method]
   845250                                [Nglobal_steps]
   7                                     [N_chains]
  42                                     [NEX0s_base = N_base in EX0s-fits]
 0   0   1       20   2.0   1.292E+03    [Clip-Bug, RC-Crash & Burn-In warning-flags, n_censored_weights, wei_nsig_threshold & wei_limit]
    25     24.618     24.117      0.501  [idt_all, wdt_TotTime, wdt_UsrTime & wdt_SysTime (sec)]

## Synthesis Results - Best model ##

 5.84633E-06                             [chi2/Nl_eff]
    39.31820                             [adev (%)]

    86.04637                             [sum-of-x (%)]
 9.63978E-18                             [Flux_tot (units of input spectrum!)]
 8.77715E-14                             [Mini_tot (???)]
 4.76621E-14                             [Mcor_tot (???)]

   0.00                                  [v0_min  (km/s)]
   0.00                                  [vd_min  (km/s)]
 0.3619                                  [AV_min  (mag)]
 0.0000                                  [YAV_min (mag)]

# j     x_j(%)      Mini_j(%)     Mcor_j(%)     age_j(yr)     Z_j      (L/M)_j    YAV?  Mstars   component_j        a/Fe...       SSP_chi2r SSP_adev(%)   SSP_AV   SSP_x(%)
  1      0.5915     6.9007E-03    1.2708E-02    1.000000E+06  0.00400  1.094E-02    0   1.0000   age020_m42            0.0000     6.2180E-06    40.7819   2.9024    72.6825
  2      1.6703     5.3206E-03    9.7972E-03    3.160000E+06  0.00400  4.007E-02    0   0.9999   age045_m42            0.0000     5.9692E-06    39.8480   2.1464    78.4152
  3      0.9296     4.6733E-03    8.1655E-03    5.010000E+06  0.00400  2.539E-02    0   0.9488   age055_m42            0.0000     6.1073E-06    40.3122   2.4848    76.0321
  4      0.0000     0.0000E+00    0.0000E+00    6.610000E+06  0.00400  2.620E-02    0   0.9220   age061_m42            0.0000     6.0185E-06    39.9563   2.0828    78.3343
  5      0.0143     1.3781E-04    2.2490E-04    1.000000E+07  0.00400  1.322E-02    0   0.8862   age070_m42            0.0000     6.0581E-06    40.9447   1.8522    78.8697
  6      0.0000     2.5750E-07    4.0643E-07    1.445000E+07  0.00400  7.883E-03    0   0.8571   age078_m42            0.0000     6.1349E-06    41.0543   2.1811    76.8041
  7      0.0000     0.0000E+00    0.0000E+00    2.512000E+07  0.00400  5.251E-03    0   0.8174   age090_m42            0.0000     6.0561E-06    40.9641   1.7325    79.1081
  8      0.0000     0.0000E+00    0.0000E+00    4.000000E+07  0.00400  3.649E-03    0   0.7851   age104_m42            0.0000     6.0051E-06    40.6189   1.4922    80.0751
  9      0.3338     1.3754E-02    1.9323E-02    5.500000E+07  0.00400  3.098E-03    0   0.7629   age110_m42            0.0000     5.9763E-06    39.8970   1.6215    80.6396
 10      0.0000     0.0000E+00    0.0000E+00    1.015200E+08  0.00400  2.228E-03    0   0.7207   age116_m42            0.0000     5.9879E-06    39.5437   1.6233    81.1839
 11      0.0000     0.0000E+00    0.0000E+00    2.861200E+08  0.00400  1.093E-03    0   0.6648   age125_m42            0.0000     5.9761E-06    39.8843   1.0609    83.3770
 12      7.3769     1.4273E+00    1.6730E+00    5.088000E+08  0.00400  6.597E-04    0   0.6365   age130_m42            0.0000     5.9712E-06    38.9139   1.0231    84.7610
 13     13.0987     7.8419E+00    8.3730E+00    1.434000E+09  0.00400  2.132E-04    0   0.5798   age139_m42            0.0000     5.8825E-06    37.9608   0.0293    87.0171
 14      0.0000     0.0000E+00    0.0000E+00    4.250000E+09  0.00400  5.895E-05    0   0.5377   age158_m42            0.0000     5.9287E-06    38.0862  -0.4384    84.1962
 15      0.0000     0.0000E+00    0.0000E+00    7.500000E+09  0.00400  3.510E-05    0   0.5212   age171_m42            0.0000     6.0105E-06    37.8827  -0.6412    83.9076
 16      2.4694     1.5720E+01    1.4573E+01    1.300000E+10  0.00400  2.005E-05    0   0.5034   age193_m42            0.0000     6.0951E-06    37.7952  -0.8189    83.6529
 17      0.0000     0.0000E+00    0.0000E+00    1.800000E+10  0.00400  1.525E-05    0   0.4967   age213_m42            0.0000     6.0735E-06    37.8962  -0.8378    83.2180
 18      1.4748     1.5206E-02    2.8002E-02    1.000000E+06  0.00800  1.238E-02    0   1.0000   age020_m52            0.0000     6.2280E-06    40.8066   2.8996    72.8150
 19      0.0000     0.0000E+00    0.0000E+00    3.160000E+06  0.00800  3.074E-02    0   0.9966   age045_m52            0.0000     6.2390E-06    40.7449   2.8197    73.5337
 20      0.0000     0.0000E+00    0.0000E+00    5.010000E+06  0.00800  2.668E-02    0   0.9443   age055_m52            0.0000     6.1732E-06    40.4950   2.5757    75.1819
 21      0.0000     0.0000E+00    0.0000E+00    6.610000E+06  0.00800  2.136E-02    0   0.9177   age061_m52            0.0000     6.0031E-06    40.7612   1.3460    79.9544
 22      0.0000     0.0000E+00    0.0000E+00    1.000000E+07  0.00800  1.215E-02    0   0.8827   age070_m52            0.0000     6.1388E-06    41.5262   2.0473    78.3240
 23      0.0000     0.0000E+00    0.0000E+00    1.445000E+07  0.00800  8.717E-03    0   0.8552   age078_m52            0.0000     6.1199E-06    40.9883   2.1464    77.8946
 24      0.0000     0.0000E+00    0.0000E+00    2.512000E+07  0.00800  5.592E-03    0   0.8162   age090_m52            0.0000     6.0662E-06    41.0359   1.7946    80.0722
 25      5.1242     1.6787E-01    2.4240E-01    4.000000E+07  0.00800  3.896E-03    0   0.7841   age104_m52            0.0000     6.0210E-06    40.5840   1.6918    81.0304
 26      0.0000     0.0000E+00    0.0000E+00    1.015200E+08  0.00800  2.148E-03    0   0.7226   age116_m52            0.0000     6.0035E-06    39.9899   1.6037    81.4890
 27      0.0000     0.0000E+00    0.0000E+00    2.861200E+08  0.00800  9.925E-04    0   0.6683   age125_m52            0.0000     5.9811E-06    38.9271   1.0899    85.4969
 28      2.3263     9.4532E-01    1.0685E+00    9.047900E+08  0.00800  3.141E-04    0   0.6138   age135_m52            0.0000     5.9226E-06    37.4515   0.2351    90.4524
 29      0.0850     6.3091E-02    6.8003E-02    1.434000E+09  0.00800  1.719E-04    0   0.5853   age139_m52            0.0000     5.9802E-06    37.9885  -0.3397    88.2995
 30      0.0000     0.0000E+00    0.0000E+00    2.500000E+09  0.00800  7.872E-05    0   0.5600   age150_m52            0.0000     6.0657E-06    37.4090  -0.6412    86.6852
 31      0.3270     9.6253E-01    9.6177E-01    4.250000E+09  0.00800  4.336E-05    0   0.5426   age158_m52            0.0000     6.0831E-06    37.4970  -0.6560    85.8489
 32     15.3860     6.2167E+01    6.0893E+01    6.250000E+09  0.00800  3.159E-05    0   0.5319   age166_m52            0.0000     6.1989E-06    37.0664  -0.8835    86.3556
 33      0.0000     0.0000E+00    0.0000E+00    1.300000E+10  0.00800  1.361E-05    0   0.5073   age193_m52            0.0000     6.6785E-06    35.3201  -1.0000    78.8862
 34      0.0023     2.9277E-02    2.6903E-02    1.800000E+10  0.00800  9.886E-06    0   0.4990   age213_m52            0.0000     7.0471E-06    34.9284  -1.0000    76.2139
 35      0.3339     2.7603E-03    5.0832E-03    1.000000E+06  0.02000  1.544E-02    0   1.0000   age020_m62            0.0000     6.2500E-06    40.9045   2.8959    72.9784
 36      0.0000     0.0000E+00    0.0000E+00    3.160000E+06  0.02000  3.762E-02    0   0.9858   age045_m62            0.0000     6.2867E-06    40.8372   2.8329    73.6612
 37      0.0000     0.0000E+00    0.0000E+00    5.010000E+06  0.02000  3.296E-02    0   0.9342   age055_m62            0.0000     6.1003E-06    40.1515   2.4346    77.2165
 38      0.0000     0.0000E+00    0.0000E+00    8.710000E+06  0.02000  1.154E-02    0   0.8861   age067_m62            0.0000     6.4775E-06    44.6439   1.5922    78.3716
 39      0.0000     0.0000E+00    0.0000E+00    1.445000E+07  0.02000  7.663E-03    0   0.8472   age078_m62            0.0000     6.1784E-06    42.2906   1.7184    79.5285
 40      0.0000     0.0000E+00    0.0000E+00    2.512000E+07  0.02000  4.532E-03    0   0.8099   age090_m62            0.0000     6.2145E-06    42.4325   1.7156    79.1413
 41      0.0000     0.0000E+00    0.0000E+00    5.500000E+07  0.02000  2.733E-03    0   0.7595   age110_m62            0.0000     6.0703E-06    40.8301   1.6800    80.2723
 42      2.6947     2.5124E-01    3.2318E-01    1.609000E+08  0.02000  1.369E-03    0   0.6985   age120_m62            0.0000     6.0378E-06    39.6874   1.4781    83.4608
 43      0.1715     2.4286E-02    3.0027E-02    2.861200E+08  0.02000  9.013E-04    0   0.6714   age125_m62            0.0000     6.0289E-06    38.5632   1.2009    86.5776
 44     15.2777     3.8783E+00    4.6059E+00    5.088000E+08  0.02000  5.028E-04    0   0.6449   age130_m62            0.0000     5.9736E-06    37.0594   0.7655    90.3631
 45      0.0000     0.0000E+00    0.0000E+00    9.047900E+08  0.02000  2.428E-04    0   0.6179   age135_m62            0.0000     5.9778E-06    37.2779   0.1587    90.2119
 46      6.2076     6.2734E+00    6.8253E+00    1.434000E+09  0.02000  1.263E-04    0   0.5908   age139_m62            0.0000     6.0690E-06    37.4601  -0.2866    88.7840
 47      0.0000     0.0000E+00    0.0000E+00    2.500000E+09  0.02000  5.985E-05    0   0.5673   age150_m62            0.0000     6.2089E-06    37.1454  -0.6843    88.2027
 48      0.0000     0.0000E+00    0.0000E+00    4.250000E+09  0.02000  3.271E-05    0   0.5468   age158_m62            0.0000     6.4495E-06    36.1840  -1.0000    87.6812
 49      0.0000     0.0000E+00    0.0000E+00    1.000000E+10  0.02000  1.360E-05    0   0.5167   age181_m62            0.0000     7.0994E-06    33.7491  -1.0000    80.2355
 50      0.0000     0.0000E+00    0.0000E+00    1.800000E+10  0.02000  7.124E-06    0   0.5013   age213_m62            0.0000     7.8246E-06    33.5177  -1.0000    74.9716
 51      8.5625     4.2164E-02    7.7632E-02    1.000000E+06  0.05000  2.592E-02    0   0.9998   age020_m72            0.0000     6.2968E-06    41.1277   2.8914    72.9107
 52      0.0000     0.0000E+00    0.0000E+00    3.160000E+06  0.05000  4.845E-02    0   0.9577   age045_m72            0.0000     6.2358E-06    40.5306   2.7073    74.8126
 53      0.0000     0.0000E+00    0.0000E+00    5.010000E+06  0.05000  3.072E-02    0   0.9147   age055_m72            0.0000     6.2716E-06    42.0646   2.2779    76.9444
 54      0.4107     3.6028E-03    5.8896E-03    6.610000E+06  0.05000  1.455E-02    0   0.8877   age061_m72            0.0000     6.7912E-06    46.9833   1.6548    78.3187
 55      0.5284     7.4328E-03    1.1668E-02    1.000000E+07  0.05000  9.074E-03    0   0.8524   age070_m72            0.0000     6.3448E-06    42.5913   2.4501    76.7414
 56      0.2578     7.7413E-03    1.1265E-02    2.512000E+07  0.05000  4.250E-03    0   0.7902   age090_m72            0.0000     6.2163E-06    41.8807   2.1523    78.2907
 57      0.0000     0.0000E+00    0.0000E+00    4.000000E+07  0.05000  3.087E-03    0   0.7618   age104_m72            0.0000     6.1934E-06    42.0003   1.9276    79.5482
 58      0.3185     2.3917E-02    3.1254E-02    1.015200E+08  0.05000  1.700E-03    0   0.7096   age116_m72            0.0000     6.0724E-06    40.3129   1.6357    82.7072
 59      0.0511     8.8410E-03    1.0799E-02    2.861200E+08  0.05000  7.384E-04    0   0.6633   age125_m72            0.0000     6.0359E-06    37.7395   1.0391    88.4977
 60      0.0000     0.0000E+00    0.0000E+00    5.088000E+08  0.05000  3.819E-04    0   0.6372   age130_m72            0.0000     6.0167E-06    37.1145   0.5031    91.0143
 61      0.0000     0.0000E+00    0.0000E+00    9.047900E+08  0.05000  1.676E-04    0   0.6110   age135_m72            0.0000     6.1878E-06    37.1521  -0.2337    90.1707
 62      0.0000     0.0000E+00    0.0000E+00    1.434000E+09  0.05000  8.837E-05    0   0.5874   age139_m72            0.0000     6.3161E-06    37.1379  -0.6982    89.7408
 63      0.0202     6.0906E-02    6.2787E-02    2.500000E+09  0.05000  4.233E-05    0   0.5598   age150_m72            0.0000     6.5315E-06    35.7887  -1.0000    88.4607
 64      0.0000     0.0000E+00    0.0000E+00    6.250000E+09  0.05000  1.435E-05    0   0.5249   age166_m72            0.0000     7.3656E-06    33.7300  -1.0000    77.7964
 65      0.0000     0.0000E+00    0.0000E+00    1.300000E+10  0.05000  6.513E-06    0   0.5036   age193_m72            0.0000     8.4427E-06    34.2174  -1.0000    72.0914
 66      0.0016     4.5626E-02    4.1549E-02    1.800000E+10  0.05000  4.527E-06    0   0.4945   age213_m72            0.0000     9.1853E-06    34.8089  -1.0000    68.1626


## Synthesis Results - Average & Chains ##

# j      x_j: min, <> & last-chain-values for 1 ...  7 chains
  1      0.5915      0.3640      0.3199      0.7951      0.0000      0.4346      0.4515      0.4853      1.3390
  2      1.6703      0.3541      1.4275      0.0000      0.5920      1.5354      0.4698      0.0000      1.5405
  3      0.9296      0.5320      1.4528      1.1526      0.3561      0.7057      0.1252      0.4814      1.0086
  4      0.0000      0.5323      0.0000      1.2018      0.6192      0.7962      0.0000      0.3156      1.4286
  5      0.0143      0.3491      0.3320      0.0000      0.7059      0.3250      0.8480      0.7013      0.6873
  6      0.0000      0.4480      0.3908      0.5854      0.4758      2.9032      0.4859      2.5365      0.4249
  7      0.0000      0.4763      0.5932      0.2141      0.2986      0.0000      0.5977      0.6879      0.0426
  8      0.0000      0.4352      0.0234      1.5619      1.5435      0.6226      0.8062      1.1780      0.0000
  9      0.3338      0.4482      0.6450      0.8959      0.0000      0.0000      0.1514      0.7617      0.7609
 10      0.0000      0.3767      0.1419      0.0000      0.0984      0.7156      0.1278      0.5512      1.0190
 11      0.0000      0.3692      0.0000      0.0000      0.7228      0.0654      0.7085      0.3168      0.2035
 12      7.3769      0.3381      1.1537      0.6219      0.7409      0.2436      0.0000      0.3757      0.7055
 13     13.0987      0.2584      0.3537      0.0000      0.0000      0.1288      0.7323      0.7536      0.6766
 14      0.0000      0.3538      0.0000      0.0000      0.1569      0.6598      0.9640      0.4156      0.0000
 15      0.0000      0.3356      0.1678      0.9082      0.4306      1.3506      0.2910      0.2830      0.2917
 16      2.4694      0.3606      0.8275      0.0000      0.1109      0.0000      0.1571      0.4852      0.7771
 17      0.0000      0.2999      0.0000      0.0000      0.0000      0.7528      0.8480      0.0000      0.5733
 18      1.4748      0.4614      0.8723      0.4569      0.3757      0.4407      0.5976      0.3738      0.5513
 19      0.0000      0.3809      0.2899      0.6698      0.0000      0.9522      0.3352      0.2648      1.1448
 20      0.0000      0.2401      0.0000      0.2473      0.0649      0.0000      1.4099      0.4054      0.5145
 21      0.0000      0.2766      0.1063      0.4426      0.0000      0.0000      0.0000      0.1531      0.3887
 22      0.0000      0.3716      0.7966      0.1014      0.0000      2.7630      0.5871      0.5751      0.0133
 23      0.0000      0.4222      0.0000      1.2118      0.2007      0.5214      1.4146      0.8307      2.3128
 24      0.0000      0.3563      0.2657      0.4070      0.2403      0.0000      0.3756      0.6183      0.0000
 25      5.1242      0.4768      1.1593      0.6328      0.5828      1.9408      0.8421      1.0317      0.8917
 26      0.0000      0.3721      0.3201      0.1721      0.2888      0.0000      0.0000      0.1882      0.0728
 27      0.0000      0.4648      0.0000      0.7323      0.6110      1.2039      0.0000      0.1748      0.0000
 28      2.3263      0.4889      0.5478      1.3027      1.4669      0.0000      0.0000      0.7130      0.5009
 29      0.0850      0.5244      2.1802      0.1774      0.6383      1.4249      1.1696      0.6902      0.1224
 30      0.0000      0.3693      0.0000      0.2088      0.0000      1.0128      0.0427      0.3273      0.3897
 31      0.3270      0.3181      0.9185      0.2225      0.3619      0.9985      0.0000      0.3777      0.1376
 32     15.3860      0.2904      0.4966      0.8010      0.4145      0.0000      0.4187      0.1157      0.0000
 33      0.0000      0.3480      0.0000      0.0000      0.6803      0.9684      0.0000      0.2423      0.0000
 34      0.0023      0.3584      0.9249      0.4716      0.3196      0.1836      0.7504      0.1674      0.0498
 35      0.3339      0.3515      2.3083      0.0000      1.0244      2.9981      0.2832      0.3995      0.0000
 36      0.0000      0.3512      0.4205      0.6550      1.2819      1.1495      1.2017      0.0000      0.4706
 37      0.0000      0.3088      0.0000      1.7281      0.0000      0.7890      0.2474      0.2205      0.6874
 38      0.0000      0.5977      0.6581      1.4295      0.0000      0.1502      0.0000      2.0021      1.2081
 39      0.0000      0.2251      0.2249      0.3812      0.3213      0.0000      0.8836      0.5518      0.2712
 40      0.0000      0.3753      0.7434      0.9784      0.2365      1.2114      1.3059      0.0000      0.0000
 41      0.0000      0.3754      0.2466      0.3161      0.2299      0.8221      0.1177      0.0000      1.0958
 42      2.6947      0.3938      2.4186      0.3523      0.3208      0.0000      0.0227      0.2961      0.1455
 43      0.1715      0.4022      1.3628      0.4356      0.8727      0.3227      0.0628      0.8609      0.3765
 44     15.2777      0.3275      1.8819      0.5452      0.4069      2.2525      0.4386      0.9463      0.3407
 45      0.0000      0.3166      0.7037      0.1020      0.1102      0.4951      0.5638      0.0000      0.2998
 46      6.2076      0.4092      0.5189      0.3679      0.4280      1.1980      0.0000      0.7527      0.3334
 47      0.0000      0.4566      0.6468      0.0000      0.0000      0.0000      0.5995      0.4449      0.0000
 48      0.0000      0.3341      0.0000      0.3121      0.1798      0.0000      0.0000      0.2904      0.6666
 49      0.0000      0.3511      0.0000      0.1824      0.7491      0.4115      0.0000      0.1795      0.2857
 50      0.0000      0.4491      0.0000      0.0050      0.0000      0.5021      0.0000      0.6599      0.7996
 51      8.5625      0.4303      0.4980      0.3974      0.1749      0.8807      0.4220      0.0859      0.7071
 52      0.0000      0.3681      0.3436      1.3143      0.1424      1.0386      0.2563      0.4035      0.0000
 53      0.0000      0.5085      0.2084      0.9063      0.2192      0.5042      1.5877      0.0604      0.7942
 54      0.4107     58.1580     42.2410     47.2796     57.2817     41.6974     53.0466     54.1745     52.8688
 55      0.5284     10.4837      9.2400     10.6247     10.8314      8.3139     10.9295     10.1260      8.2852
 56      0.2578      0.5635      0.3757      0.0000      0.5236      0.5134      0.5890      0.9732      0.5978
 57      0.0000      0.4226      0.3200      1.6882      0.2662      0.2532      0.6754      0.3867      0.6418
 58      0.3185      0.3039      1.6516      0.5375      0.4983      0.0000      0.1980      0.6285      0.4387
 59      0.0511      0.4437      1.5218      1.1411      0.9054      2.1961      1.0814      0.7925      0.4357
 60      0.0000      0.4259      2.8172      1.5292      0.7716      0.4568      0.2955      0.5053      0.0000
 61      0.0000      0.4186      0.1297      0.7013      1.9728      0.5691      0.0000      0.1644      0.4178
 62      0.0000      0.3769      0.0000      0.2270      0.0000      0.3668      0.2885      0.2162      0.9147
 63      0.0202      0.4532      0.5257      0.0000      0.3485      0.1863      0.3745      0.0000      0.0000
 64      0.0000      0.4117      2.0339      0.3796      0.0000      0.0000      1.0085      0.0554      0.0000
 65      0.0000      0.3996      0.3265      0.3253      0.2582      0.2103      1.1105      0.1554      1.4015
 66      0.0016      0.3697      0.5031      2.1927      0.3071      0.0874      0.0000      0.1136      0.4285

# j      m_j: min, <> & last-chain-values for 1 ...  7 chains
  1  1.2708E-02  1.4096E-02  1.0108E-02  1.9775E-02  0.0000E+00  1.7719E-02  1.7105E-02  2.8120E-02  4.0199E-02
  2  9.7972E-03  3.7432E-03  1.2315E-02  0.0000E+00  8.2672E-03  1.7087E-02  4.8588E-03  0.0000E+00  1.2626E-02
  3  8.1655E-03  8.4223E-03  1.8769E-02  1.1720E-02  7.4465E-03  1.1761E-02  1.9399E-03  1.1405E-02  1.2379E-02
  4  0.0000E+00  7.9367E-03  0.0000E+00  1.1508E-02  1.2193E-02  1.2495E-02  0.0000E+00  7.0410E-03  1.6512E-02
  5  2.2490E-04  9.9139E-03  7.6952E-03  0.0000E+00  2.6480E-02  9.7176E-03  2.3561E-02  2.9804E-02  1.5133E-02
  6  4.0643E-07  2.0638E-02  1.4689E-02  1.7318E-02  2.8947E-02  1.4078E-01  2.1896E-02  1.7483E-01  1.5173E-02
  7  0.0000E+00  3.1412E-02  3.1923E-02  9.0677E-03  2.6011E-02  0.0000E+00  3.8563E-02  6.7882E-02  2.1763E-03
  8  0.0000E+00  3.9672E-02  1.7425E-03  9.1435E-02  1.8583E-01  5.9743E-02  7.1891E-02  1.6068E-01  0.0000E+00
  9  1.9323E-02  4.6759E-02  5.4910E-02  6.0028E-02  0.0000E+00  0.0000E+00  1.5449E-02  1.1890E-01  6.1538E-02
 10  0.0000E+00  5.1628E-02  1.5867E-02  0.0000E+00  1.7814E-02  1.0323E-01  1.7128E-02  1.1303E-01  1.0825E-01
 11  0.0000E+00  9.5149E-02  0.0000E+00  0.0000E+00  2.4602E-01  1.7733E-02  1.7859E-01  1.2216E-01  4.0649E-02
 12  1.6730E+00  1.3822E-01  3.8485E-01  1.6328E-01  4.0003E-01  1.0484E-01  0.0000E+00  2.2981E-01  2.2355E-01
 13  8.3730E+00  2.9778E-01  3.3254E-01  0.0000E+00  0.0000E+00  1.5621E-01  8.2543E-01  1.2993E+00  6.0435E-01
 14  0.0000E+00  1.3672E+00  0.0000E+00  0.0000E+00  8.0094E-01  2.6841E+00  3.6443E+00  2.4032E+00  0.0000E+00
 15  0.0000E+00  2.1112E+00  8.6156E-01  3.6696E+00  3.5778E+00  8.9442E+00  1.7906E+00  2.6635E+00  1.4225E+00
 16  1.4573E+01  3.8357E+00  7.1828E+00  0.0000E+00  1.5576E+00  0.0000E+00  1.6348E+00  7.7223E+00  6.4080E+00
 17  0.0000E+00  4.1388E+00  0.0000E+00  0.0000E+00  0.0000E+00  1.0935E+01  1.1447E+01  0.0000E+00  6.1329E+00
 18  2.8002E-02  1.5789E-02  2.4359E-02  1.0041E-02  1.6982E-02  1.5878E-02  2.0007E-02  1.9142E-02  1.4625E-02
 19  0.0000E+00  5.2317E-03  3.2492E-03  5.9083E-03  0.0000E+00  1.3768E-02  4.5046E-03  5.4430E-03  1.2190E-02
 20  0.0000E+00  3.6003E-03  0.0000E+00  2.3815E-03  1.2859E-03  0.0000E+00  2.0683E-02  9.0960E-03  5.9803E-03
 21  0.0000E+00  5.0349E-03  1.5793E-03  5.1744E-03  0.0000E+00  0.0000E+00  0.0000E+00  4.1700E-03  5.4843E-03
 22  0.0000E+00  1.1438E-02  2.0008E-02  2.0039E-03  0.0000E+00  8.9525E-02  1.7678E-02  2.6485E-02  3.1718E-04
 23  0.0000E+00  1.7549E-02  0.0000E+00  3.2349E-02  1.1016E-02  2.2812E-02  5.7522E-02  5.1668E-02  7.4522E-02
 24  0.0000E+00  2.2032E-02  1.3409E-02  1.6165E-02  1.9631E-02  0.0000E+00  2.2721E-02  5.7209E-02  0.0000E+00
 25  2.4240E-01  4.0654E-02  8.0662E-02  3.4654E-02  6.5635E-02  1.7420E-01  7.0245E-02  1.3163E-01  5.8938E-02
 26  0.0000E+00  5.3033E-02  3.7225E-02  1.5751E-02  5.4366E-02  0.0000E+00  0.0000E+00  4.0132E-02  8.0422E-03
 27  0.0000E+00  1.3259E-01  0.0000E+00  1.3416E-01  2.3025E-01  3.6152E-01  0.0000E+00  7.4622E-02  0.0000E+00
 28  1.0685E+00  4.0480E-01  3.7008E-01  6.9269E-01  1.6041E+00  0.0000E+00  0.0000E+00  8.8334E-01  3.2148E-01
 29  6.8003E-02  7.5653E-01  2.5665E+00  1.6435E-01  1.2161E+00  2.1638E+00  1.6505E+00  1.4899E+00  1.3692E-01
 30  0.0000E+00  1.1130E+00  0.0000E+00  4.0407E-01  0.0000E+00  3.2134E+00  1.2593E-01  1.4760E+00  9.1039E-01
 31  9.6177E-01  1.6866E+00  3.9739E+00  7.5763E-01  2.5342E+00  5.5728E+00  0.0000E+00  2.9959E+00  5.6540E-01
 32  6.0893E+01  2.0715E+00  2.8911E+00  3.6695E+00  3.9054E+00  0.0000E+00  2.9220E+00  1.2351E+00  0.0000E+00
 33  0.0000E+00  5.4957E+00  0.0000E+00  0.0000E+00  1.4190E+01  1.6099E+01  0.0000E+00  5.7262E+00  0.0000E+00
 34  2.6903E-02  7.6642E+00  1.6140E+01  6.4774E+00  9.0262E+00  4.1335E+00  1.5698E+01  5.3564E+00  8.2491E-01
 35  5.0832E-03  9.6460E-03  5.1687E-02  0.0000E+00  3.7127E-02  8.6600E-02  7.6028E-03  1.6404E-02  0.0000E+00
 36  0.0000E+00  3.8990E-03  3.8092E-03  4.6699E-03  1.8798E-02  1.3434E-02  1.3051E-02  0.0000E+00  4.0499E-03
 37  0.0000E+00  3.7079E-03  0.0000E+00  1.3327E-02  0.0000E+00  9.9732E-03  2.9063E-03  3.9615E-03  6.3992E-03
 38  0.0000E+00  1.9443E-02  1.7472E-02  2.9866E-02  0.0000E+00  5.1425E-03  0.0000E+00  9.7457E-02  3.0467E-02
 39  0.0000E+00  1.0542E-02  8.5973E-03  1.1467E-02  1.9877E-02  0.0000E+00  4.0489E-02  3.8677E-02  9.8476E-03
 40  0.0000E+00  2.8419E-02  4.5929E-02  4.7573E-02  2.3650E-02  9.6549E-02  9.6722E-02  0.0000E+00  0.0000E+00
 41  0.0000E+00  4.4200E-02  2.3688E-02  2.3900E-02  3.5756E-02  1.0188E-01  1.3555E-02  0.0000E+00  1.0001E-01
 42  3.2318E-01  8.5127E-02  4.2663E-01  4.8908E-02  9.1586E-02  0.0000E+00  4.8083E-03  9.5788E-02  2.4376E-02
 43  3.0027E-02  1.2693E-01  3.5097E-01  8.8298E-02  3.6379E-01  1.0721E-01  1.9385E-02  4.0653E-01  9.2110E-02
 44  4.6059E+00  1.7795E-01  8.3451E-01  1.9026E-01  2.9205E-01  1.2885E+00  2.3314E-01  7.6940E-01  1.4352E-01
 45  0.0000E+00  3.4132E-01  6.1914E-01  7.0657E-02  1.5690E-01  5.6192E-01  5.9464E-01  0.0000E+00  2.5057E-01
 46  6.8253E+00  8.1097E-01  8.3920E-01  4.6825E-01  1.1205E+00  2.4993E+00  0.0000E+00  2.2319E+00  5.1214E-01
 47  0.0000E+00  1.8335E+00  2.1197E+00  0.0000E+00  0.0000E+00  0.0000E+00  2.3551E+00  2.6735E+00  0.0000E+00
 48  0.0000E+00  2.3662E+00  0.0000E+00  1.4198E+00  1.6815E+00  0.0000E+00  0.0000E+00  3.0774E+00  3.6597E+00
 49  0.0000E+00  5.6518E+00  0.0000E+00  1.8860E+00  1.5926E+01  6.9723E+00  0.0000E+00  4.3239E+00  3.5655E+00
 50  0.0000E+00  1.3390E+01  0.0000E+00  9.6625E-02  0.0000E+00  1.5757E+01  0.0000E+00  2.9439E+01  1.8479E+01
 51  7.7632E-02  7.0318E-03  6.6410E-03  4.1711E-03  3.7760E-03  1.5151E-02  6.7470E-03  2.1014E-03  8.9581E-03
 52  0.0000E+00  3.0825E-03  2.3479E-03  7.0688E-03  1.5751E-03  9.1563E-03  2.0999E-03  5.0558E-03  0.0000E+00
 53  0.0000E+00  6.4147E-03  2.1450E-03  7.3428E-03  3.6527E-03  6.6948E-03  1.9594E-02  1.1395E-03  7.7671E-03
 54  5.8896E-03  1.5033E+00  8.9098E-01  7.8487E-01  1.9557E+00  1.1346E+00  1.3414E+00  2.0953E+00  1.0594E+00
 55  1.1668E-02  4.1724E-01  3.0009E-01  2.7157E-01  5.6938E-01  3.4831E-01  4.2553E-01  6.0302E-01  2.5562E-01
 56  1.1265E-02  4.4389E-02  2.4152E-02  0.0000E+00  5.4474E-02  4.2575E-02  4.5385E-02  1.1471E-01  3.6505E-02
 57  0.0000E+00  4.4185E-02  2.7301E-02  1.1336E-01  3.6755E-02  2.7867E-02  6.9074E-02  6.0501E-02  5.2015E-02
 58  3.1254E-02  5.3735E-02  2.3835E-01  6.1044E-02  1.1639E-01  0.0000E+00  3.4246E-02  1.6630E-01  6.0143E-02
 59  1.0799E-02  1.6885E-01  4.7262E-01  2.7890E-01  4.5513E-01  8.7981E-01  4.0261E-01  4.5130E-01  1.2856E-01
 60  0.0000E+00  3.0110E-01  1.6251E+00  6.9425E-01  7.2045E-01  3.3989E-01  2.0434E-01  5.3443E-01  0.0000E+00
 61  0.0000E+00  6.4650E-01  1.6342E-01  6.9568E-01  4.0247E+00  9.2533E-01  0.0000E+00  3.7992E-01  5.0027E-01
 62  0.0000E+00  1.0613E+00  0.0000E+00  4.1064E-01  0.0000E+00  1.0874E+00  7.9489E-01  9.1112E-01  1.9969E+00
 63  6.2787E-02  2.5392E+00  2.4037E+00  0.0000E+00  2.5792E+00  1.0991E+00  2.0526E+00  0.0000E+00  0.0000E+00
 64  0.0000E+00  6.3804E+00  2.5721E+01  3.7780E+00  0.0000E+00  0.0000E+00  1.5289E+01  1.2855E+00  0.0000E+00
 65  0.0000E+00  1.3091E+01  8.7273E+00  6.8433E+00  1.1170E+01  7.2510E+00  3.5587E+01  7.6158E+00  3.5590E+01
 66  4.1549E-02  1.7111E+01  1.9001E+01  6.5172E+01  1.8771E+01  4.2588E+00  0.0000E+00  7.8652E+00  1.5371E+01

# AV, chi2 & Mass for <> & i_chain = 1 ...  7 solutions
AV       0.3619      1.1127      1.0080      1.0068      1.0305      1.0116      1.0120      1.0721      1.0126
chi2 5.8463E-06  7.2393E-06  6.6856E-06  6.9903E-06  7.1171E-06  6.9060E-06  7.1237E-06  7.1738E-06  7.1146E-06
Mass 4.7662E-14  7.2478E-14  7.7174E-14  9.7903E-14  4.9141E-14  6.0115E-14  6.4724E-14  4.5869E-14  8.1736E-14
   0.00                                  [v0_min (km/s) before EX0s...]
   0.00                                  [vd_min (km/s) before EX0s...]


## Synthetic spectrum (Best Model) ##l_obs f_obs f_syn wei
 3478    [Nl_obs]
 3741.00    0.45776   0.60305    0.000
 3742.00   -0.03474   0.58709    0.000
 3743.00   -0.69317   0.56037    0.000
 3744.00   -0.64773   0.54115    0.000
 3745.00   -0.19217   0.51517    0.000
 3746.00    0.19669   0.48537    0.018
 3747.00    0.55167   0.46295    0.018
 3748.00    0.53698   0.41594    0.018
 3749.00    0.35973   0.36234    0.018
 3750.00    0.48757   0.35895    0.018
 3751.00    0.73057   0.41243    0.018
 3752.00    0.49695   0.47513    0.018
 3753.00    0.11057   0.52028    0.017
 3754.00    0.21884   0.56328    0.017
 3755.00    0.45968   0.60141    0.017
 3756.00    0.90764   0.61033    0.017
 3757.00    1.40106   0.57793    0.017
 3758.00    1.15079   0.54142    0.017
 3759.00    0.77069   0.54092    0.017
 3760.00    0.29662   0.56445    0.020
 3761.00   -0.18993   0.58648    0.000
 3762.00   -0.45577   0.59867    0.000
 3763.00   -0.70086   0.59425    0.000
 3764.00   -0.38201   0.58355    0.000
 3765.00   -0.03063   0.57875    0.000
 3766.00    0.24220   0.55153    0.016
 3767.00    0.51066   0.51122    0.016
 3768.00    0.47667   0.48824    0.016
 3769.00    0.44072   0.46158    0.017
 3770.00    0.35710   0.42207    0.016
 3771.00    0.28890   0.42011    0.016
 3772.00    0.42275   0.46967    0.016
 3773.00    0.51721   0.52276    0.016
 3774.00    0.26595   0.55392    0.016
 3775.00    0.01753   0.57525    0.016
 3776.00   -0.21252   0.59927    0.000
 3777.00   -0.33503   0.62560    0.000
 3778.00    0.08670   0.64464    0.016
 3779.00    0.48007   0.66599    0.016
 3780.00    0.75735   0.69043    0.016
 3781.00    0.90129   0.70108    0.016
 3782.00    0.59296   0.70125    0.016
 3783.00    0.49765   0.70760    0.016
 3784.00    1.01158   0.71836    0.016
 3785.00    1.27081   0.70207    0.017
 3786.00    0.90775   0.66110    0.016
 3787.00    0.60724   0.63464    0.016
 3788.00    0.43857   0.62396    0.016
 3789.00    0.45763   0.61285    0.016
 3790.00    0.82057   0.60327    0.016
 3791.00    1.04571   0.60121    0.016
 3792.00    1.05028   0.59220    0.016
 3793.00    0.91910   0.56107    0.015
 3794.00    0.59724   0.51627    0.015
 3795.00    0.43183   0.47801    0.015
 3796.00    0.45978   0.44212    0.015
 3797.00    0.53653   0.39397    0.015
 3798.00    0.66645   0.36439    0.016
 3799.00    0.69564   0.39230    0.016
 3800.00    0.62803   0.46053    0.016
 3801.00    0.49034   0.52182    0.016
 3802.00    0.29328   0.56604    0.016
 3803.00    0.17459   0.60848    0.016
 3804.00    0.11440   0.63634    0.016
 3805.00    0.05985   0.64353    0.016
 3806.00    0.00900   0.63821    0.016
 3807.00   -0.40053   0.63941    0.000
 3808.00   -1.01588   0.66310    0.000
 3809.00   -0.99598   0.69691    0.000
 3810.00   -0.65856   0.72106    0.000
 3811.00   -0.10857   0.72544    0.000
 3812.00    0.53335   0.70650    0.016
 3813.00    0.74475   0.67488    0.016
 3814.00    0.79648   0.65373    0.016
 3815.00    0.63012   0.64631    0.016
 3816.00    0.39520   0.65318    0.016
 3817.00    0.19566   0.67805    0.015
 3818.00    0.00540   0.68655    0.015
 3819.00   -0.21313   0.65044    0.000
 3820.00   -0.43772   0.60971    0.000
 3821.00   -0.05244   0.61803    0.000
 3822.00    0.43635   0.65404    0.015
 3823.00    0.74287   0.66078    0.015
 3824.00    1.02599   0.62469    0.015
 3825.00    0.62009   0.58774    0.015
 3826.00    0.15233   0.57373    0.015
 3827.00    0.07809   0.56646    0.015
 3828.00    0.02499   0.55350    0.015
 3829.00    0.74587   0.53975    0.015
 3830.00    1.46944   0.52988    0.016
 3831.00    1.11180   0.50365    0.016
 3832.00    0.75820   0.45152    0.016
 3833.00    0.49444   0.40181    0.015
 3834.00    0.29895   0.36281    0.015
 3835.00    0.95244   0.34126    0.016
 3836.00    1.51955   0.35838    0.016
 3837.00    1.35653   0.39349    0.017
 3838.00    1.13167   0.42323    0.018
 3839.00    0.51772   0.45512    0.016
 3840.00    0.07319   0.48560    0.015
 3841.00    0.46466   0.52281    0.015
 3842.00    0.70296   0.57373    0.016
 3843.00    0.32817   0.61525    0.016
 3844.00    0.02156   0.63862    0.016
 3845.00   -0.05838   0.64898    0.000
 3846.00    0.12986   0.65835    0.016
 3847.00    1.07113   0.67782    0.000
 3848.00    1.62648   0.69247    0.000
 3849.00    1.25485   0.68361    0.000
 3850.00    0.90041   0.67487    0.000
 3851.00    0.58161   0.69496    0.000
 3852.00    0.42098   0.71844    0.000
 3853.00    0.54563   0.72396    0.000
 3854.00    0.61272   0.71618    0.000
 3855.00    0.58903   0.70195    0.000
 3856.00    0.45544   0.69026    0.000
 3857.00    0.16969   0.69547    0.000
 3858.00    0.08366   0.69264    0.000
 3859.00    0.24096   0.66965    0.000
 3860.00    0.45274   0.66435    0.000
 3861.00    0.72303   0.69551    0.000
 3862.00    1.05298   0.72934    0.000
 3863.00    1.43946   0.74322    0.000
 3864.00    1.35245   0.74186    0.000
 3865.00    0.86990   0.73072    0.000
 3866.00    0.65836   0.72271    0.000
 3867.00    0.64615   0.72433    0.000
 3868.00    0.54183   0.72919    0.000
 3869.00    0.37802   0.72830    0.000
 3870.00    0.42568   0.71190    0.000
 3871.00    0.59285   0.68249    0.000
 3872.00    0.60882   0.65523    0.000
 3873.00    0.55041   0.65403    0.000
 3874.00    0.41266   0.67918    0.000
 3875.00    0.24119   0.70098    0.000
 3876.00    0.19540   0.69675    0.000
 3877.00    0.19539   0.66225    0.000
 3878.00    0.34342   0.61905    0.000
 3879.00    0.53708   0.61346    0.000
 3880.00    0.34450   0.63210    0.000
 3881.00    0.05276   0.62294    0.014
 3882.00    0.14732   0.58988    0.014
 3883.00    0.32265   0.57273    0.014
 3884.00   -0.12947   0.56683    0.000
 3885.00   -0.68506   0.52921    0.000
 3886.00   -0.51752   0.46840    0.000
 3887.00   -0.26043   0.42064    0.000
 3888.00   -0.18027   0.38172    0.000
 3889.00   -0.11524   0.36192    0.000
 3890.00   -0.49489   0.39789    0.000
 3891.00   -0.89670   0.46709    0.000
 3892.00   -0.14996   0.52515    0.000
 3893.00    0.60084   0.55845    0.015
 3894.00    0.39934   0.57631    0.015
 3895.00    0.21342   0.58717    0.014
 3896.00    0.34596   0.60874    0.014
 3897.00    0.49068   0.64012    0.014
 3898.00    0.77936   0.65054    0.014
 3899.00    1.01557   0.64706    0.014
 3900.00    0.82428   0.65793    0.014
 3901.00    0.60418   0.68537    0.013
 3902.00    0.20819   0.69670    0.013
 3903.00   -0.08435   0.69224    0.000
 3904.00    0.12101   0.69470    0.012
 3905.00    0.25635   0.68560    0.012
 3906.00    0.11750   0.67882    0.012
 3907.00   -0.11979   0.70491    0.000
 3908.00   -0.67794   0.74143    0.000
 3909.00   -1.22806   0.76188    0.000
 3910.00   -1.75608   0.76883    0.000
 3911.00   -1.76356   0.77646    0.000
 3912.00   -0.54183   0.77916    0.000
 3913.00    0.31682   0.76545    0.013
 3914.00    0.43447   0.75582    0.014
 3915.00    0.43717   0.76145    0.014
 3916.00    0.23569   0.75782    0.014
 3917.00    0.37608   0.75150    0.014
 3918.00    1.04769   0.74445    0.014
 3919.00    1.24414   0.72931    0.015
 3920.00    0.79226   0.71208    0.015
 3921.00    0.55005   0.70678    0.015
 3922.00    0.55968   0.71542    0.015
 3923.00    0.61874   0.72227    0.015
 3924.00    0.73014   0.72750    0.015
 3925.00    0.63835   0.72047    0.015
 3926.00    0.35674   0.69836    0.015
 3927.00    0.13007   0.67484    0.015
 3928.00   -0.05135   0.64751    0.000
 3929.00    0.10616   0.61660    0.015
 3930.00    0.50938   0.58781    0.015
 3931.00    0.58394   0.55267    0.015
 3932.00    0.44934   0.49812    0.015
 3933.00    0.30168   0.44110    0.015
 3934.00    0.14674   0.42773    0.015
 3935.00    0.20995   0.47314    0.014
 3936.00    0.37876   0.54230    0.015
 3937.00    0.53281   0.59686    0.015
 3938.00    0.68069   0.63422    0.015
 3939.00    0.62647   0.66513    0.015
 3940.00    0.49997   0.69006    0.015
 3941.00    0.37518   0.70036    0.015
 3942.00    0.25090   0.69941    0.015
 3943.00    0.26971   0.68942    0.014
 3944.00    0.32446   0.68248    0.014
 3945.00    0.72598   0.70412    0.015
 3946.00    1.19821   0.73549    0.015
 3947.00    0.86127   0.73726    0.015
 3948.00    0.39475   0.72265    0.014
 3949.00    0.64470   0.72331    0.014
 3950.00    0.98019   0.73884    0.015
 3951.00    1.04477   0.74387    0.015
 3952.00    1.08728   0.72839    0.015
 3953.00    0.97783   0.71978    0.015
 3954.00    0.86138   0.73509    0.015
 3955.00    0.78995   0.73379    0.014
 3956.00    0.71443   0.70215    0.014
 3957.00    0.39537   0.68109    0.014
 3958.00    0.08996   0.68592    0.014
 3959.00    0.04322   0.69186    0.014
 3960.00    0.03132   0.66701    0.000
 3961.00    0.41206   0.60910    0.000
 3962.00    0.74299   0.56411    0.000
 3963.00    0.68248   0.54587    0.000
 3964.00    0.69767   0.52257    0.000
 3965.00    1.16209   0.48241    0.000
 3966.00    1.51397   0.42703    0.000
 3967.00    1.33748   0.36090    0.000
 3968.00    1.09376   0.29955    0.000
 3969.00    0.59242   0.26319    0.000
 3970.00    0.26156   0.26849    0.000
 3971.00    0.47562   0.31738    0.000
 3972.00    0.70338   0.38287    0.000
 3973.00    0.96827   0.44037    0.000
 3974.00    1.07813   0.49168    0.000
 3975.00    0.82802   0.54094    0.000
 3976.00    0.62324   0.57787    0.000
 3977.00    0.50953   0.60808    0.000
 3978.00    0.62866   0.64215    0.000
 3979.00    1.15506   0.67565    0.000
 3980.00    1.19684   0.70113    0.000
 3981.00    0.49670   0.70746    0.015
 3982.00    0.12994   0.70152    0.015
 3983.00    0.21155   0.70549    0.014
 3984.00    0.33740   0.72087    0.014
 3985.00    0.51565   0.73751    0.014
 3986.00    0.48123   0.74612    0.014
 3987.00    0.22473   0.75547    0.014
 3988.00    0.31322   0.77518    0.014
 3989.00    0.71946   0.78107    0.014
 3990.00    1.03903   0.77524    0.014
 3991.00    1.28825   0.78451    0.014
 3992.00    1.20040   0.80193    0.014
 3993.00    0.87174   0.81138    0.014
 3994.00    0.97118   0.80560    0.014
 3995.00    1.33903   0.79449    0.014
 3996.00    1.56637   0.78276    0.014
 3997.00    1.71670   0.76852    0.014
 3998.00    1.51828   0.76797    0.014
 3999.00    1.15373   0.79588    0.014
 4000.00    0.83871   0.82297    0.014
 4001.00    0.54405   0.82672    0.014
 4002.00    0.28435   0.82821    0.014
 4003.00    0.03693   0.83277    0.014
 4004.00    0.04276   0.81067    0.014
 4005.00    0.12362   0.76639    0.014
 4006.00    0.53669   0.75493    0.014
 4007.00    1.03137   0.78625    0.014
 4008.00    1.15163   0.81560    0.014
 4009.00    1.19745   0.82213    0.014
 4010.00    0.91398   0.82368    0.014
 4011.00    0.57934   0.82981    0.014
 4012.00    0.19430   0.83044    0.014
 4013.00   -0.19654   0.82999    0.000
 4014.00    0.41522   0.83207    0.014
 4015.00    1.10450   0.84083    0.014
 4016.00    1.23661   0.84484    0.014
 4017.00    1.34527   0.83354    0.014
 4018.00    0.90880   0.83273    0.014
 4019.00    0.46795   0.85251    0.014
 4020.00    0.05354   0.86046    0.014
 4021.00   -0.30563   0.84803    0.000
 4022.00    0.30927   0.83843    0.014
 4023.00    0.87568   0.83307    0.014
 4024.00    0.92045   0.81329    0.014
 4025.00    0.96418   0.79640    0.014
 4026.00    1.00000   0.80833    0.014
 4027.00    0.99819   0.83611    0.014
 4028.00    0.77934   0.85466    0.014
 4029.00    0.62837   0.84637    0.014
 4030.00    0.78848   0.80855    0.014
 4031.00    0.93791   0.77822    0.013
 4032.00    1.04730   0.77458    0.013
 4033.00    1.15267   0.77921    0.013
 4034.00    1.24538   0.78967    0.013
 4035.00    1.34672   0.80928    0.013
 4036.00    1.47100   0.83820    0.013
 4037.00    1.44463   0.86913    0.013
 4038.00    1.07426   0.88232    0.013
 4039.00    0.88667   0.87364    0.013
 4040.00    1.06044   0.85421    0.013
 4041.00    1.15525   0.84423    0.013
 4042.00    1.11400   0.85410    0.013
 4043.00    1.08380   0.85262    0.014
 4044.00    1.07023   0.80804    0.013
 4045.00    1.10791   0.74754    0.013
 4046.00    1.21350   0.73454    0.014
 4047.00    1.23448   0.78651    0.014
 4048.00    1.15668   0.83600    0.014
 4049.00    1.20502   0.84950    0.014
 4050.00    1.38322   0.85554    0.014
 4051.00    1.33617   0.85836    0.014
 4052.00    1.08455   0.84657    0.014
 4053.00    0.92713   0.83014    0.014
 4054.00    0.84508   0.81610    0.014
 4055.00    0.87632   0.81010    0.014
 4056.00    0.98733   0.81265    0.014
 4057.00    0.99421   0.80485    0.014
 4058.00    0.93678   0.79499    0.014
 4059.00    1.20185   0.80887    0.014
 4060.00    1.64095   0.83640    0.014
 4061.00    1.76835   0.84428    0.015
 4062.00    1.74967   0.81175    0.016
 4063.00    1.32717   0.75913    0.017
 4064.00    0.74150   0.74635    0.017
 4065.00    1.05913   0.78336    0.017
 4066.00    1.68822   0.80266    0.017
 4067.00    1.31614   0.79210    0.017
 4068.00    0.65334   0.80146    0.016
 4069.00    0.70572   0.82873    0.015
 4070.00    0.92987   0.82204    0.014
 4071.00    1.11255   0.77962    0.014
 4072.00    1.28718   0.76302    0.014
 4073.00    1.51310   0.79562    0.014
 4074.00    1.74675   0.82075    0.014
 4075.00    1.25554   0.80463    0.014
 4076.00    0.68415   0.76270    0.014
 4077.00    0.81303   0.72416    0.014
 4078.00    0.99319   0.72275    0.014
 4079.00    0.96980   0.75751    0.014
 4080.00    0.93861   0.79758    0.013
 4081.00    0.91324   0.82275    0.013
 4082.00    0.89357   0.81958    0.013
 4083.00    1.08723   0.79589    0.013
 4084.00    1.24824   0.77422    0.013
 4085.00    0.87130   0.76583    0.013
 4086.00    0.55486   0.77299    0.013
 4087.00    0.86092   0.79118    0.013
 4088.00    1.09200   0.80276    0.013
 4089.00    0.77286   0.79734    0.013
 4090.00    0.45275   0.78409    0.013
 4091.00    0.12723   0.76858    0.013
 4092.00   -0.08503   0.74862    0.000
 4093.00    0.20957   0.73796    0.000
 4094.00    0.39733   0.73064    0.000
 4095.00    0.19267   0.69806    0.000
 4096.00   -0.02455   0.65387    0.000
 4097.00   -0.28037   0.62277    0.000
 4098.00   -0.51217   0.60027    0.000
 4099.00   -0.68114   0.56813    0.000
 4100.00   -0.71403   0.50821    0.000
 4101.00   -0.44128   0.43459    0.000
 4102.00   -0.23159   0.41336    0.000
 4103.00   -0.14461   0.46619    0.000
 4104.00   -0.02333   0.53705    0.000
 4105.00    0.15617   0.59355    0.000
 4106.00    0.46907   0.63657    0.000
 4107.00    0.98027   0.66354    0.000
 4108.00    1.36808   0.67923    0.000
 4109.00    1.59465   0.68813    0.000
 4110.00    1.61022   0.69394    0.000
 4111.00    1.38292   0.70528    0.000
 4112.00    1.05583   0.72363    0.000
 4113.00    0.62745   0.74571    0.013
 4114.00    0.54797   0.76368    0.013
 4115.00    0.78089   0.77444    0.013
 4116.00    0.78014   0.78464    0.013
 4117.00    0.59501   0.78707    0.013
 4118.00    0.61866   0.77068    0.018
 4119.00    0.78718   0.75603    0.066
 4120.00    0.69144   0.76497   -1.000
 4121.00    0.43490   0.77759   -1.000
 4122.00    0.62042   0.77967   -1.000
 4123.00    1.04078   0.78315   -1.000
 4124.00    1.07816   0.79912   -1.000
 4125.00    0.93895   0.81536   -1.000
 4126.00    0.85954   0.81277   -1.000
 4127.00    0.80388   0.79504   -1.000
 4128.00    1.05343   0.78049   -1.000
 4129.00    1.40628   0.78301   -1.000
 4130.00    0.95687   0.78614   -1.000
 4131.00    0.27920   0.77406   -1.000
 4132.00    0.74324   0.75385    0.032
 4133.00    1.47533   0.75167    0.014
 4134.00    1.12709   0.76703    0.013
 4135.00    0.57492   0.79484    0.013
 4136.00    0.60573   0.82298    0.013
 4137.00    0.72167   0.82830    0.013
 4138.00    0.72701   0.83286    0.013
 4139.00    0.72059   0.84408    0.013
 4140.00    0.77143   0.84660    0.013
 4141.00    0.82622   0.83495    0.013
 4142.00    0.79647   0.79425    0.013
 4143.00    0.76380   0.73969    0.013
 4144.00    1.04193   0.73027    0.013
 4145.00    1.31297   0.77419    0.013
 4146.00    1.32958   0.81299    0.013
 4147.00    1.34050   0.82514    0.013
 4148.00    1.26341   0.82374    0.013
 4149.00    1.17984   0.81195    0.013
 4150.00    1.03247   0.80371    0.013
 4151.00    0.84211   0.80948    0.013
 4152.00    0.34657   0.81164    0.013
 4153.00   -0.04615   0.80294    0.000
 4154.00    0.12237   0.79038    0.012
 4155.00    0.32513   0.78771    0.012
 4156.00    0.67763   0.79055    0.012
 4157.00    0.95231   0.79534    0.012
 4158.00    0.94714   0.81100    0.012
 4159.00    0.90363   0.82723    0.012
 4160.00    0.74440   0.83215    0.012
 4161.00    0.63784   0.82917    0.012
 4162.00    0.66650   0.83492    0.012
 4163.00    0.77058   0.84242    0.012
 4164.00    1.04124   0.83883    0.012
 4165.00    1.10666   0.83461    0.012
 4166.00    0.77893   0.82787    0.012
 4167.00    0.59878   0.81177    0.012
 4168.00    0.66528   0.80726    0.012
 4169.00    0.72330   0.82305    0.012
 4170.00    0.76889   0.82816    0.012
 4171.00    0.74936   0.80174    0.012
 4172.00    0.64595   0.75838    0.012
 4173.00    0.54816   0.73898    0.012
 4174.00    0.45673   0.75590    0.012
 4175.00    0.48494   0.78227    0.012
 4176.00    0.63290   0.79468    0.012
 4177.00    0.92572   0.78513    0.012
 4178.00    1.34640   0.77386    0.012
 4179.00    1.29146   0.78715    0.012
 4180.00    0.86662   0.81020    0.012
 4181.00    0.74857   0.80990    0.012
 4182.00    0.84033   0.79531    0.012
 4183.00    0.74715   0.79558    0.012
 4184.00    0.54312   0.80879    0.012
 4185.00    0.46574   0.82294    0.012
 4186.00    0.45459   0.81479    0.012
 4187.00    0.55874   0.78308    0.012
 4188.00    0.71519   0.77690    0.012
 4189.00    0.61577   0.80319    0.012
 4190.00    0.41651   0.81904    0.012
 4191.00    0.49629   0.81269    0.012
 4192.00    0.66874   0.81807    0.012
 4193.00    0.61004   0.84294    0.012
 4194.00    0.48691   0.84639    0.012
 4195.00    0.51956   0.81857    0.012
 4196.00    0.58794   0.79390    0.012
 4197.00    0.76758   0.78039    0.012
 4198.00    0.96766   0.75785    0.012
 4199.00    0.87410   0.74928    0.012
 4200.00    0.73900   0.76638    0.012
 4201.00    0.73476   0.77078    0.012
 4202.00    0.74385   0.76496    0.012
 4203.00    0.59594   0.77803    0.012
 4204.00    0.43780   0.79377    0.012
 4205.00    0.11326   0.80085    0.012
 4206.00   -0.21511   0.81364    0.000
 4207.00    0.28348   0.82770    0.012
 4208.00    0.75947   0.83572    0.012
 4209.00    0.57158   0.83107    0.012
 4210.00    0.43037   0.82081    0.012
 4211.00    0.96865   0.82496    0.013
 4212.00    1.40580   0.83764    0.014
 4213.00    0.88664   0.83871    0.014
 4214.00    0.42917   0.81923    0.014
 4215.00    0.39582   0.78020    0.014
 4216.00    0.41285   0.76511    0.014
 4217.00    0.69763   0.79739    0.014
 4218.00    0.91487   0.83090    0.014
 4219.00    0.84367   0.84231    0.013
 4220.00    0.84718   0.84729    0.012
 4221.00    1.11396   0.85162    0.012
 4222.00    1.26759   0.83891    0.012
 4223.00    1.08617   0.81303    0.012
 4224.00    0.99761   0.78050    0.012
 4225.00    1.14340   0.73376    0.012
 4226.00    1.16035   0.67709    0.012
 4227.00    0.89734   0.66180    0.012
 4228.00    0.68501   0.72330    0.011
 4229.00    0.56825   0.79617    0.011
 4230.00    0.50679   0.82951    0.011
 4231.00    0.53636   0.83968    0.011
 4232.00    0.56117   0.82315    0.011
 4233.00    0.57912   0.79017    0.011
 4234.00    0.61498   0.78518    0.011
 4235.00    0.67359   0.79131    0.011
 4236.00    0.69808   0.77943    0.011
 4237.00    0.68438   0.78131    0.011
 4238.00    0.68081   0.79270    0.011
 4239.00    0.68723   0.79355    0.011
 4240.00    0.82761   0.80149    0.011
 4241.00    1.08457   0.81997    0.011
 4242.00    1.18713   0.82439    0.011
 4243.00    1.17133   0.82333    0.011
 4244.00    1.09640   0.84128    0.011
 4245.00    0.98163   0.84968    0.011
 4246.00    0.77439   0.82558    0.012
 4247.00    0.51257   0.79466    0.012
 4248.00    0.35951   0.78569    0.012
 4249.00    0.26246   0.78313    0.012
 4250.00    0.34521   0.76710    0.012
 4251.00    0.50819   0.77089    0.012
 4252.00    0.41363   0.80198    0.012
 4253.00    0.22032   0.80990    0.012
 4254.00    0.26192   0.78619    0.011
 4255.00    0.38009   0.77705    0.011
 4256.00    0.62047   0.80341    0.011
 4257.00    0.89421   0.83092    0.011
 4258.00    0.97732   0.81944    0.011
 4259.00    1.01770   0.78397    0.011
 4260.00    1.01329   0.75302    0.012
 4261.00    1.00087   0.75023    0.012
 4262.00    1.04914   0.78667    0.012
 4263.00    1.10571   0.82790    0.012
 4264.00    0.97720   0.84496    0.012
 4265.00    0.83061   0.84986    0.012
 4266.00    0.96043   0.84888    0.011
 4267.00    1.10715   0.83016    0.011
 4268.00    0.86258   0.81008    0.012
 4269.00    0.60703   0.79993    0.012
 4270.00    0.26749   0.77492    0.011
 4271.00   -0.04541   0.72790    0.000
 4272.00    0.34611   0.70924    0.011
 4273.00    0.69964   0.73357    0.011
 4274.00    0.53086   0.74519    0.012
 4275.00    0.36946   0.74800    0.012
 4276.00    0.27503   0.77852    0.012
 4277.00    0.25299   0.81608    0.012
 4278.00    0.71309   0.83263    0.012
 4279.00    1.07214   0.82218    0.012
 4280.00    0.90813   0.79686    0.012
 4281.00    0.79668   0.78601    0.012
 4282.00    0.90466   0.78700   -2.000
 4283.00    0.94578   0.79223   -2.000
 4284.00    0.75609   0.79811   -2.000
 4285.00    0.64479   0.78635   -2.000
 4286.00    0.76138   0.77391   -2.000
 4287.00    0.84050   0.77512   -2.000
 4288.00    0.82664   0.76549   -2.000
 4289.00    0.94393   0.72797   -2.000
 4290.00    1.34157   0.69966   -2.000
 4291.00    1.43820   0.72075   -2.000
 4292.00    0.97595   0.76685   -2.000
 4293.00    0.71320   0.78946   -2.000
 4294.00    0.77401   0.77524   -2.000
 4295.00    0.79159   0.76349   -2.000
 4296.00    0.74767   0.76320   -2.000
 4297.00    0.65417   0.75243   -2.000
 4298.00    0.49863   0.72546    0.012
 4299.00    0.63278   0.68030    0.012
 4300.00    1.08650   0.65419    0.012
 4301.00    1.22546   0.66729    0.012
 4302.00    1.05819   0.67685    0.012
 4303.00    0.88082   0.67973    0.012
 4304.00    0.69479   0.69706    0.011
 4305.00    0.48517   0.70620    0.011
 4306.00    0.25771   0.69837    0.011
 4307.00    0.41331   0.67547    0.011
 4308.00    0.82328   0.64826    0.011
 4309.00    1.02672   0.65018    0.011
 4310.00    1.11006   0.67721    0.011
 4311.00    1.06210   0.70293    0.011
 4312.00    0.94761   0.71742    0.011
 4313.00    0.78954   0.72234    0.011
 4314.00    0.61235   0.72445    0.011
 4315.00    0.63417   0.75096    0.011
 4316.00    0.73095   0.80711    0.011
 4317.00    0.66490   0.84297    0.011
 4318.00    0.54678   0.84116    0.011
 4319.00    0.61430   0.82737    0.011
 4320.00    0.73143   0.81118    0.011
 4321.00    0.59455   0.79406    0.011
 4322.00    0.40209   0.78550    0.011
 4323.00    0.32291   0.75809    0.011
 4324.00    0.26344   0.70570    0.011
 4325.00    0.39433   0.65514    0.011
 4326.00    0.55040   0.64525    0.011
 4327.00    0.72541   0.69514    0.011
 4328.00    0.90218   0.75404    0.011
 4329.00    1.21638   0.77230    0.011
 4330.00    1.53843   0.75428    0.000
 4331.00    1.08037   0.73688    0.000
 4332.00    0.60734   0.73526    0.000
 4333.00    0.50040   0.73040    0.000
 4334.00    0.41543   0.72079    0.000
 4335.00    0.85777   0.71278    0.000
 4336.00    1.24351   0.68149    0.000
 4337.00    0.89248   0.60931    0.000
 4338.00    0.58234   0.53580    0.000
 4339.00    0.62948   0.47784    0.000
 4340.00    0.69475   0.42533    0.000
 4341.00    0.87708   0.43262    0.000
 4342.00    0.99845   0.51050    0.000
 4343.00    0.81230   0.57831    0.000
 4344.00    0.66208   0.61308    0.000
 4345.00    0.65852   0.65120    0.000
 4346.00    0.65677   0.68310    0.000
 4347.00    0.66117   0.69721    0.000
 4348.00    0.66905   0.71989    0.000
 4349.00    0.68689   0.75022    0.000
 4350.00    0.74272   0.74506    0.000
 4351.00    0.89117   0.69435    0.011
 4352.00    1.04247   0.66246    0.011
 4353.00    1.19973   0.69318    0.011
 4354.00    1.24665   0.73811    0.011
 4355.00    1.09187   0.75851    0.011
 4356.00    0.88961   0.77726    0.013
 4357.00    0.61150   0.79487    0.036
 4358.00    0.66592   0.78783   -1.000
 4359.00    1.18657   0.76934   -1.000
 4360.00    1.30127   0.77712   -1.000
 4361.00    0.91513   0.80591   -1.000
 4362.00    0.68219   0.82213   -1.000
 4363.00    0.61586   0.82219   -1.000
 4364.00    0.58260   0.83164   -1.000
 4365.00    0.58106   0.84809   -1.000
 4366.00    0.64209   0.83951    0.041
 4367.00    0.75603   0.80755    0.014
 4368.00    0.78273   0.78887    0.011
 4369.00    0.74446   0.79558    0.011
 4370.00    0.63846   0.80304    0.011
 4371.00    0.48815   0.80808    0.011
 4372.00    0.64606   0.81305    0.011
 4373.00    0.98050   0.80025    0.011
 4374.00    1.03615   0.76500    0.011
 4375.00    0.95274   0.74356    0.011
 4376.00    0.84833   0.76575    0.011
 4377.00    0.73486   0.81027    0.011
 4378.00    0.64397   0.83557    0.011
 4379.00    0.56145   0.83303    0.011
 4380.00    0.47895   0.82415    0.011
 4381.00    0.39647   0.81676    0.012
 4382.00    0.32877   0.77850    0.011
 4383.00    0.26495   0.70093    0.011
 4384.00    0.54493   0.65469    0.011
 4385.00    0.89835   0.68643    0.011
 4386.00    0.85677   0.75087    0.011
 4387.00    0.74840   0.78330    0.011
 4388.00    0.58985   0.78469    0.011
 4389.00    0.42488   0.78347    0.011
 4390.00    0.59575   0.78079    0.011
 4391.00    0.79658   0.78509    0.011
 4392.00    0.53480   0.80481    0.011
 4393.00    0.24839   0.81420    0.011
 4394.00    0.44277   0.79449    0.011
 4395.00    0.64599   0.77609    0.011
 4396.00    0.80188   0.79878    0.012
 4397.00    0.95094   0.83920    0.012
 4398.00    0.94996   0.84740    0.012
 4399.00    0.92345   0.82233    0.011
 4400.00    0.58146   0.78757    0.011
 4401.00    0.29960   0.78217    0.011
 4402.00    0.52369   0.81461    0.011
 4403.00    0.74113   0.81891    0.011
 4404.00    0.91689   0.76773    0.012
 4405.00    1.04544   0.73798    0.011
 4406.00    0.94179   0.76874    0.011
 4407.00    0.93232   0.79310    0.011
 4408.00    1.29885   0.78429    0.011
 4409.00    1.49359   0.79208    0.011
 4410.00    1.11861   0.82565    0.011
 4411.00    0.85497   0.84961    0.011
 4412.00    0.90329   0.86220    0.011
 4413.00    0.95905   0.86140    0.011
 4414.00    1.03261   0.82190    0.011
 4415.00    1.00084   0.77079    0.011
 4416.00    0.75104   0.76428    0.011
 4417.00    0.59682   0.78678    0.011
 4418.00    0.61464   0.81284    0.011
 4419.00    0.70313   0.84540    0.011
 4420.00    0.90286   0.86345    0.011
 4421.00    1.02573   0.84955    0.011
 4422.00    1.04240   0.81990    0.011
 4423.00    0.99732   0.81068    0.011
 4424.00    0.87712   0.82496    0.011
 4425.00    0.85533   0.83114    0.011
 4426.00    0.93907   0.82413    0.011
 4427.00    0.96215   0.81978    0.011
 4428.00    0.92786   0.82957    0.011
 4429.00    0.72909   0.83517    0.011
 4430.00    0.39314   0.81778    0.011
 4431.00    0.57062   0.81477    0.011
 4432.00    1.12505   0.83169    0.011
 4433.00    1.41420   0.82593    0.011
 4434.00    1.53232   0.79388    0.012
 4435.00    1.36745   0.76730    0.011
 4436.00    1.04296   0.77763    0.011
 4437.00    0.87811   0.81885    0.011
 4438.00    0.79165   0.85516    0.011
 4439.00    0.67237   0.87156    0.011
 4440.00    0.53917   0.86169    0.011
 4441.00    0.52493   0.82922    0.011
 4442.00    0.55393   0.79340    0.011
 4443.00    0.43330   0.77434    0.011
 4444.00    0.26666   0.78914    0.011
 4445.00    0.32359   0.83128    0.011
 4446.00    0.43777   0.85674    0.011
 4447.00    0.75245   0.84936    0.011
 4448.00    1.10893   0.84677    0.011
 4449.00    1.01519   0.85021    0.011
 4450.00    0.84749   0.83734    0.011
 4451.00    1.05104   0.83241    0.011
 4452.00    1.30036   0.84246    0.011
 4453.00    1.17409   0.83467    0.011
 4454.00    1.01588   0.79866    0.011
 4455.00    0.88707   0.76524    0.011
 4456.00    0.75972   0.77025    0.011
 4457.00    0.67049   0.79166    0.011
 4458.00    0.58616   0.79522    0.010
 4459.00    0.77158   0.78875    0.011
 4460.00    0.93812   0.78747    0.011
 4461.00    0.72244   0.77839    0.000
 4462.00    0.50998   0.77395    0.000
 4463.00    0.33543   0.80169    0.000
 4464.00    0.23810   0.82653    0.000
 4465.00    0.76712   0.82618    0.000
 4466.00    1.24068   0.82151    0.000
 4467.00    1.37675   0.81850    0.000
 4468.00    1.43094   0.80746    0.000
 4469.00    1.09227   0.79115    0.000
 4470.00    0.81948   0.78758    0.000
 4471.00    0.80404   0.79778    0.000
 4472.00    0.82475   0.81822    0.000
 4473.00    0.96305   0.84648    0.000
 4474.00    1.06387   0.86486    0.000
 4475.00    1.06158   0.86280    0.000
 4476.00    1.09134   0.86089    0.000
 4477.00    1.19662   0.87495    0.000
 4478.00    1.21871   0.88124    0.000
 4479.00    1.07136   0.85641    0.000
 4480.00    0.93411   0.80586    0.000
 4481.00    0.81479   0.76279    0.000
 4482.00    0.69864   0.76436    0.010
 4483.00    0.58742   0.80800    0.010
 4484.00    0.66850   0.85168    0.010
 4485.00    1.01150   0.87355    0.010
 4486.00    1.23072   0.88069    0.010
 4487.00    1.30155   0.87337    0.010
 4488.00    1.09420   0.84521    0.010
 4489.00    0.59277   0.81407    0.010
 4490.00    0.41240   0.80641    0.010
 4491.00    0.53142   0.82594    0.010
 4492.00    0.62655   0.85085    0.010
 4493.00    0.70204   0.85435    0.010
 4494.00    0.68633   0.83122    0.010
 4495.00    0.60462   0.81363    0.010
 4496.00    0.70136   0.81683    0.010
 4497.00    0.91144   0.83353    0.010
 4498.00    0.98533   0.85651    0.010
 4499.00    0.98358   0.87034    0.010
 4500.00    0.93274   0.86205    0.010
 4501.00    0.85820   0.83911    0.010
 4502.00    0.83304   0.84172    0.010
 4503.00    0.82848   0.87765    0.010
 4504.00    0.83768   0.90357    0.010
 4505.00    0.85178   0.90401    0.010
 4506.00    0.79483   0.89254    0.010
 4507.00    0.71645   0.87691    0.010
 4508.00    0.72365   0.86664    0.010
 4509.00    0.75228   0.87040    0.010
 4510.00    0.74809   0.88317    0.010
 4511.00    0.73723   0.88694    0.010
 4512.00    0.76527   0.87456    0.010
 4513.00    0.79953   0.85978    0.010
 4514.00    0.87070   0.84666    0.010
 4515.00    0.94625   0.84071    0.010
 4516.00    0.90402   0.84881    0.010
 4517.00    0.85225   0.85078    0.010
 4518.00    0.71434   0.84258    0.010
 4519.00    0.57252   0.84724    0.010
 4520.00    0.56183   0.86099    0.010
 4521.00    0.55535   0.86826    0.010
 4522.00    0.68172   0.85139    0.010
 4523.00    0.80888   0.83012    0.010
 4524.00    0.95093   0.83202    0.010
 4525.00    1.07685   0.83012    0.011
 4526.00    1.02200   0.81349    0.010
 4527.00    0.96692   0.79490    0.010
 4528.00    0.91005   0.77880    0.010
 4529.00    0.84969   0.77454    0.010
 4530.00    0.76868   0.78613    0.010
 4531.00    0.71251   0.80216    0.010
 4532.00    0.77254   0.81697    0.010
 4533.00    0.82257   0.80618    0.010
 4534.00    0.83433   0.77646    0.010
 4535.00    0.80111   0.76649    0.010
 4536.00    0.62446   0.79602    0.010
 4537.00    0.49066   0.84903    0.010
 4538.00    0.47264   0.87519    0.010
 4539.00    0.53199   0.86389    0.010
 4540.00    0.77061   0.83893    0.010
 4541.00    0.84695   0.82264    0.010
 4542.00    0.59802   0.83255    0.010
 4543.00    0.46001   0.84999    0.010
 4544.00    0.51567   0.84321    0.010
 4545.00    0.55081   0.82823    0.010
 4546.00    0.55458   0.83201    0.010
 4547.00    0.70223   0.83865    0.010
 4548.00    1.04303   0.82452    0.010
 4549.00    1.18688   0.79190    0.010
 4550.00    1.09793   0.78879    0.000
 4551.00    1.01053   0.82205    0.000
 4552.00    0.92476   0.83416    0.000
 4553.00    0.76668   0.82011    0.000
 4554.00    0.54211   0.80212    0.000
 4555.00    0.42044   0.79303    0.000
 4556.00    0.38214   0.80870    0.000
 4557.00    0.45115   0.84203    0.000
 4558.00    0.59667   0.86024    0.000
 4559.00    0.61739   0.86292    0.000
 4560.00    0.56001   0.86678    0.000
 4561.00    0.56067   0.87309    0.000
 4562.00    0.59309   0.87125    0.000
 4563.00    0.71818   0.84752    0.000
 4564.00    0.88731   0.81950    0.000
 4565.00    0.73177   0.81391    0.000
 4566.00    0.44306   0.83173    0.000
 4567.00    0.55144   0.86057    0.000
 4568.00    0.79897   0.87702    0.000
 4569.00    0.91937   0.87626    0.000
 4570.00    1.00220   0.86263    0.000
 4571.00    0.94426   0.83024    0.000
 4572.00    0.85184   0.81728    0.000
 4573.00    0.96174   0.84873    0.000
 4574.00    1.11173   0.87213    0.000
 4575.00    1.03288   0.86721    0.000
 4576.00    0.91861   0.86281    0.000
 4577.00    0.99004   0.86421    0.000
 4578.00    1.08273   0.85846    0.000
 4579.00    0.97991   0.83881    0.000
 4580.00    0.86207   0.81714    0.000
 4581.00    0.93352   0.81110    0.000
 4582.00    1.01285   0.82006    0.000
 4583.00    0.96936   0.82170    0.000
 4584.00    0.92388   0.81644    0.000
 4585.00    0.83862   0.81881    0.000
 4586.00    0.77693   0.82358    0.000
 4587.00    1.12743   0.83559    0.000
 4588.00    1.43135   0.85143    0.000
 4589.00    1.23680   0.86081    0.000
 4590.00    1.07321   0.85818    0.000
 4591.00    1.14367   0.84224    0.000
 4592.00    1.21658   0.82687    0.000
 4593.00    1.30357   0.82698    0.000
 4594.00    1.29062   0.83337    0.000
 4595.00    0.82098   0.83159    0.000
 4596.00    0.50334   0.83108    0.000
 4597.00    0.75433   0.83610    0.000
 4598.00    0.98197   0.84178    0.000
 4599.00    1.13659   0.84651    0.000
 4600.00    1.22276   0.83656    0.000
 4601.00    1.12720   0.82748    0.000
 4602.00    0.95447   0.83461    0.000
 4603.00    0.60587   0.84164    0.000
 4604.00    0.38528   0.84356    0.000
 4605.00    0.41727   0.83989    0.000
 4606.00    0.53424   0.84103    0.000
 4607.00    0.79733   0.85311    0.000
 4608.00    0.98682   0.87250    0.000
 4609.00    1.06547   0.88760    0.000
 4610.00    1.00743   0.88404    0.000
 4611.00    0.76851   0.86894    0.000
 4612.00    0.69565   0.85981    0.000
 4613.00    0.81631   0.85483    0.000
 4614.00    0.86243   0.85827    0.000
 4615.00    0.83193   0.86695    0.000
 4616.00    0.80861   0.86289    0.000
 4617.00    0.79178   0.86249    0.000
 4618.00    0.71804   0.86057    0.000
 4619.00    0.59882   0.84605    0.000
 4620.00    0.67922   0.84782    0.000
 4621.00    0.89994   0.86698    0.000
 4622.00    0.86572   0.87280    0.000
 4623.00    0.67433   0.87113    0.000
 4624.00    0.65860   0.87252    0.000
 4625.00    0.73746   0.86614    0.000
 4626.00    0.73715   0.86003    0.000
 4627.00    0.69980   0.86396    0.000
 4628.00    0.63638   0.86123    0.000
 4629.00    0.56245   0.84615    0.000
 4630.00    0.79676   0.84648    0.000
 4631.00    1.13709   0.86611    0.000
 4632.00    1.21351   0.86964    0.000
 4633.00    1.21348   0.85159    0.000
 4634.00    1.03339   0.84010    0.000
 4635.00    0.81017   0.84314    0.000
 4636.00    0.79412   0.84657    0.000
 4637.00    0.81808   0.83921    0.000
 4638.00    0.83251   0.82993    0.000
 4639.00    0.84550   0.82708    0.000
 4640.00    0.72002   0.82841    0.000
 4641.00    0.57929   0.84332    0.000
 4642.00    0.53130   0.85834    0.000
 4643.00    0.49005   0.85574    0.000
 4644.00    0.62253   0.84737    0.000
 4645.00    0.76158   0.83505    0.000
 4646.00    0.64277   0.80798    0.000
 4647.00    0.53208   0.78974    0.000
 4648.00    0.77089   0.79620    0.000
 4649.00    0.98716   0.81502    0.000
 4650.00    0.83490   0.83261    0.000
 4651.00    0.70543   0.84175    0.000
 4652.00    0.80917   0.84770    0.000
 4653.00    0.86990   0.85073    0.000
 4654.00    0.61622   0.83562    0.000
 4655.00    0.42651   0.81823    0.000
 4656.00    0.59441   0.81622    0.000
 4657.00    0.72771   0.82790    0.000
 4658.00    0.70666   0.85585    0.000
 4659.00    0.66776   0.88325    0.000
 4660.00    0.56344   0.89145    0.000
 4661.00    0.54889   0.87861    0.000
 4662.00    0.80980   0.85788    0.000
 4663.00    0.98150   0.84099    0.000
 4664.00    0.92057   0.83694    0.000
 4665.00    0.89271   0.83590    0.000
 4666.00    0.93898   0.80949    0.000
 4667.00    0.89265   0.76976    0.000
 4668.00    0.66652   0.76133    0.000
 4669.00    0.58417   0.78731    0.000
 4670.00    0.74532   0.81796    0.000
 4671.00    0.74498   0.84125    0.000
 4672.00    0.50502   0.84685    0.000
 4673.00    0.40359   0.83827    0.000
 4674.00    0.48284   0.83479    0.000
 4675.00    0.55971   0.84411    0.000
 4676.00    0.63386   0.86076    0.000
 4677.00    0.68716   0.86466    0.000
 4678.00    0.71932   0.84822    0.000
 4679.00    0.63638   0.82992    0.000
 4680.00    0.45057   0.82079    0.000
 4681.00    0.55978   0.81639    0.000
 4682.00    0.90136   0.81975    0.000
 4683.00    1.01570   0.83436    0.000
 4684.00    0.97264   0.84319    0.000
 4685.00    0.87980   0.83782    0.000
 4686.00    0.75672   0.83316    0.000
 4687.00    0.80707   0.83316    0.000
 4688.00    0.94938   0.83554    0.000
 4689.00    1.13369   0.84054    0.000
 4690.00    1.33733   0.83912    0.000
 4691.00    1.23501   0.83141    0.000
 4692.00    1.01145   0.83395    0.000
 4693.00    0.91484   0.84329    0.000
 4694.00    0.86108   0.85085    0.000
 4695.00    0.68146   0.86121    0.000
 4696.00    0.46612   0.86929    0.000
 4697.00    0.48324   0.85997    0.000
 4698.00    0.55479   0.83211    0.000
 4699.00    0.65929   0.81501    0.000
 4700.00    0.76999   0.82117    0.000
 4701.00    1.03065   0.82409    0.000
 4702.00    1.31313   0.81038    0.000
 4703.00    1.05960   0.79789    0.000
 4704.00    0.74939   0.81063    0.000
 4705.00    0.64903   0.83258    0.000
 4706.00    0.56307   0.83448    0.000
 4707.00    0.70222   0.81834    0.000
 4708.00    0.84902   0.80551    0.000
 4709.00    0.57561   0.80349    0.000
 4710.00    0.31421   0.81650    0.000
 4711.00    0.46438   0.84165    0.000
 4712.00    0.60563   0.85083    0.000
 4713.00    0.60992   0.83828    0.000
 4714.00    0.61445   0.81962    0.000
 4715.00    0.62135   0.81767    0.000
 4716.00    0.64298   0.83877    0.000
 4717.00    0.76880   0.85805    0.000
 4718.00    0.90744   0.86218    0.000
 4719.00    1.11587   0.86683    0.000
 4720.00    1.25212   0.87344    0.000
 4721.00    1.07381   0.87032    0.000
 4722.00    0.94835   0.85983    0.000
 4723.00    1.01250   0.85807    0.000
 4724.00    1.04700   0.86911    0.000
 4725.00    0.99220   0.87823    0.000
 4726.00    0.87880   0.86824    0.000
 4727.00    0.61524   0.83553    0.000
 4728.00    0.45002   0.80815    0.000
 4729.00    0.50156   0.80634    0.000
 4730.00    0.56107   0.81241    0.000
 4731.00    0.63580   0.81536    0.000
 4732.00    0.74380   0.82586    0.000
 4733.00    0.90727   0.83767    0.000
 4734.00    0.98948   0.84520    0.000
 4735.00    0.95288   0.85041    0.000
 4736.00    0.97415   0.83688    0.000
 4737.00    1.06984   0.82442    0.000
 4738.00    1.06031   0.84090    0.000
 4739.00    0.93160   0.85617    0.000
 4740.00    0.76787   0.84912    0.000
 4741.00    0.56915   0.83892    0.000
 4742.00    0.47790   0.84277    0.000
 4743.00    0.48135   0.85530    0.000
 4744.00    0.68475   0.85698    0.000
 4745.00    1.04339   0.85061    0.000
 4746.00    1.09655   0.85577    0.000
 4747.00    0.94120   0.86421    0.000
 4748.00    0.84899   0.86241    0.000
 4749.00    0.79457   0.86020    0.000
 4750.00    0.83447   0.86384    0.000
 4751.00    0.92361   0.86330    0.000
 4752.00    0.94453   0.85297    0.000
 4753.00    0.93457   0.84315    0.000
 4754.00    0.93372   0.83624    0.000
 4755.00    0.93642   0.83381    0.000
 4756.00    0.97720   0.83183    0.000
 4757.00    1.03060   0.83255    0.000
 4758.00    0.98612   0.83894    0.000
 4759.00    0.91441   0.84704    0.000
 4760.00    0.82175   0.85190    0.000
 4761.00    0.72428   0.84007    0.010
 4762.00    0.78444   0.81507    0.010
 4763.00    0.87347   0.80275    0.010
 4764.00    0.92748   0.80198    0.010
 4765.00    0.97655   0.79695    0.010
 4766.00    0.98296   0.79480    0.010
 4767.00    0.98505   0.80545    0.010
 4768.00    1.04845   0.82130    0.010
 4769.00    1.11581   0.83780    0.010
 4770.00    0.91034   0.84570    0.010
 4771.00    0.69725   0.83305    0.010
 4772.00    0.80640   0.82002    0.010
 4773.00    0.90909   0.82746    0.010
 4774.00    0.82492   0.84727    0.010
 4775.00    0.73552   0.85616    0.010
 4776.00    0.57058   0.85169    0.009
 4777.00    0.43712   0.85305    0.009
 4778.00    0.59990   0.85434    0.009
 4779.00    0.74200   0.84525    0.009
 4780.00    0.74248   0.83848    0.009
 4781.00    0.75698   0.84068    0.009
 4782.00    0.84569   0.83685    0.009
 4783.00    0.90164   0.82338    0.009
 4784.00    0.81802   0.82343    0.009
 4785.00    0.74038   0.83081    0.009
 4786.00    0.68372   0.81929    0.009
 4787.00    0.68168   0.81353    0.009
 4788.00    0.84105   0.82167    0.009
 4789.00    0.92393   0.81949    0.009
 4790.00    0.81421   0.81974    0.009
 4791.00    0.76057   0.82865    0.009
 4792.00    0.82854   0.83507    0.009
 4793.00    0.88558   0.84743    0.009
 4794.00    0.92206   0.86505    0.009
 4795.00    0.94226   0.87362    0.009
 4796.00    0.93568   0.86848    0.009
 4797.00    0.90743   0.85577    0.009
 4798.00    0.84797   0.83876    0.009
 4799.00    0.73931   0.82327    0.009
 4800.00    0.56832   0.82101    0.010
 4801.00    0.51678   0.83533    0.010
 4802.00    0.59866   0.85395    0.009
 4803.00    0.70980   0.85888    0.009
 4804.00    0.84977   0.84661    0.009
 4805.00    0.82214   0.82895    0.009
 4806.00    0.64891   0.82639    0.009
 4807.00    0.63648   0.82744    0.009
 4808.00    0.74709   0.82321    0.009
 4809.00    0.84471   0.82650    0.009
 4810.00    0.93359   0.83402    0.009
 4811.00    0.89603   0.83575    0.009
 4812.00    0.78395   0.83469    0.009
 4813.00    0.73892   0.83576    0.009
 4814.00    0.72835   0.83892    0.009
 4815.00    0.72494   0.84295    0.009
 4816.00    0.72473   0.84803    0.010
 4817.00    0.83491   0.85324    0.010
 4818.00    0.98733   0.85597    0.009
 4819.00    0.96557   0.85766    0.010
 4820.00    0.88720   0.85533    0.010
 4821.00    0.78998   0.85191    0.010
 4822.00    0.68763   0.84015    0.010
 4823.00    0.90672   0.81007    0.010
 4824.00    1.19762   0.79467    0.010
 4825.00    1.05462   0.81416    0.010
 4826.00    0.83430   0.83544    0.009
 4827.00    0.77935   0.83767    0.010
 4828.00    0.74693   0.82762    0.010
 4829.00    0.75627   0.82035    0.010
 4830.00    0.76967   0.82311    0.010
 4831.00    0.75029   0.81815    0.010
 4832.00    0.72892   0.80573    0.010
 4833.00    0.86386   0.81075    0.010
 4834.00    1.00137   0.82520    0.009
 4835.00    0.85562   0.82788    0.009
 4836.00    0.71479   0.82292    0.009
 4837.00    0.70221   0.82199    0.010
 4838.00    0.71433   0.81719    0.010
 4839.00    1.06365   0.80071    0.010
 4840.00    1.35325   0.78810    0.010
 4841.00    1.10309   0.79195    0.009
 4842.00    0.87723   0.79667    0.009
 4843.00    0.81265   0.78934    0.010
 4844.00    0.73086   0.79012    0.010
 4845.00    0.56028   0.80408    0.010
 4846.00    0.42700   0.80892    0.009
 4847.00    0.44898   0.79496    0.010
 4848.00    0.52890   0.77041    0.000
 4849.00    0.80834   0.76004    0.000
 4850.00    0.97972   0.77007    0.000
 4851.00    0.83772   0.77241    0.000
 4852.00    0.70528   0.76226    0.000
 4853.00    0.59647   0.75275    0.000
 4854.00    0.49979   0.72881    0.000
 4855.00    0.42897   0.68925    0.000
 4856.00    0.44720   0.67183    0.000
 4857.00    0.63046   0.67804    0.000
 4858.00    0.71769   0.66409    0.000
 4859.00    0.64947   0.61203    0.000
 4860.00    0.62878   0.53003    0.000
 4861.00    0.67561   0.46041    0.000
 4862.00    0.69335   0.47675    0.000
 4863.00    0.67475   0.55783    0.000
 4864.00    0.69391   0.61705    0.000
 4865.00    0.75464   0.65228    0.000
 4866.00    0.82535   0.68315    0.000
 4867.00    0.90578   0.70369    0.000
 4868.00    1.00706   0.71660    0.000
 4869.00    1.12620   0.72955    0.000
 4870.00    0.94920   0.72203    0.000
 4871.00    0.54883   0.69321    0.000
 4872.00    0.60614   0.68932    0.000
 4873.00    0.96682   0.72183    0.000
 4874.00    0.98724   0.74981    0.000
 4875.00    0.81017   0.75655    0.010
 4876.00    0.54469   0.76131    0.010
 4877.00    0.23450   0.77066    0.010
 4878.00    0.32129   0.77867    0.010
 4879.00    0.58190   0.79894    0.010
 4880.00    0.58610   0.81107    0.010
 4881.00    0.49393   0.79520    0.010
 4882.00    0.54317   0.78384    0.010
 4883.00    0.63753   0.79155    0.010
 4884.00    0.72225   0.79253    0.010
 4885.00    0.80441   0.77822    0.010
 4886.00    0.91319   0.76886    0.010
 4887.00    1.02779   0.77529    0.010
 4888.00    0.81215   0.78541    0.010
 4889.00    0.53928   0.78400    0.010
 4890.00    0.74796   0.76338    0.010
 4891.00    1.02006   0.73955    0.010
 4892.00    0.97627   0.76018    0.010
 4893.00    0.90313   0.80832    0.010
 4894.00    0.98635   0.84034    0.010
 4895.00    1.07844   0.85737    0.010
 4896.00    0.93937   0.86192    0.010
 4897.00    0.79698   0.85970    0.010
 4898.00    0.86769   0.85505    0.010
 4899.00    0.93464   0.83744    0.010
 4900.00    0.91238   0.82067    0.010
 4901.00    0.88127   0.82598    0.010
 4902.00    0.73578   0.83015    0.010
 4903.00    0.63353   0.81746    0.010
 4904.00    0.90715   0.81458    0.010
 4905.00    1.09778   0.83457    0.010
 4906.00    0.75441   0.85440    0.010
 4907.00    0.49437   0.85374    0.010
 4908.00    0.65341   0.83701    0.010
 4909.00    0.75555   0.81406    0.010
 4910.00    0.62608   0.79302    0.010
 4911.00    0.57087   0.79215    0.010
 4912.00    0.76628   0.81174    0.010
 4913.00    0.93193   0.82720    0.010
 4914.00    1.01289   0.83572    0.010
 4915.00    1.01715   0.84877    0.010
 4916.00    0.83482   0.85389    0.010
 4917.00    0.69925   0.83585    0.010
 4918.00    0.66183   0.79417    0.009
 4919.00    0.69166   0.74960    0.009
 4920.00    0.84418   0.72591    0.010
 4921.00    0.90275   0.73619    0.010
 4922.00    0.81151   0.77048    0.010
 4923.00    0.76719   0.78705    0.010
 4924.00    0.78851   0.78066    0.009
 4925.00    0.76021   0.78789    0.009
 4926.00    0.67081   0.81790    0.009
 4927.00    0.59455   0.83857    0.009
 4928.00    0.53256   0.84581    0.009
 4929.00    0.56897   0.85567    0.009
 4930.00    0.69960   0.85926    0.009
 4931.00    0.81609   0.85616    0.009
 4932.00    0.92065   0.84294    0.009
 4933.00    0.92296   0.80759    0.009
 4934.00    0.84924   0.78722    0.009
 4935.00    0.83860   0.80890    0.009
 4936.00    0.86915   0.82735    0.009
 4937.00    0.81445   0.81041    0.009
 4938.00    0.71101   0.77837    0.009
 4939.00    0.75164   0.76610    0.009
 4940.00    0.86400   0.79327    0.000
 4941.00    0.78761   0.83115    0.000
 4942.00    0.62996   0.84387    0.000
 4943.00    0.69183   0.84949    0.000
 4944.00    0.83476   0.85595    0.000
 4945.00    0.95241   0.84670    0.000
 4946.00    1.06214   0.83527    0.000
 4947.00    1.13007   0.84188    0.000
 4948.00    1.18710   0.85408    0.000
 4949.00    1.00861   0.85747    0.000
 4950.00    0.77996   0.85838    0.000
 4951.00    0.94510   0.86178    0.000
 4952.00    1.17659   0.85564    0.000
 4953.00    1.12709   0.84343    0.000
 4954.00    1.04184   0.83944    0.000
 4955.00    0.87247   0.83562    0.000
 4956.00    0.69565   0.80615    0.000
 4957.00    0.84376   0.74689    0.000
 4958.00    1.00902   0.73233    0.000
 4959.00    0.93579   0.78822    0.000
 4960.00    0.85963   0.83537    0.000
 4961.00    0.91139   0.84195    0.000
 4962.00    0.95843   0.83629    0.000
 4963.00    0.90286   0.83818    0.000
 4964.00    0.85141   0.83461    0.000
 4965.00    0.85065   0.81419    0.000
 4966.00    0.85825   0.79952    0.000
 4967.00    0.93591   0.80043    0.000
 4968.00    0.98113   0.80186    0.000
 4969.00    0.82379   0.80503    0.000
 4970.00    0.70326   0.81026    0.000
 4971.00    0.76319   0.81860    0.000
 4972.00    0.81264   0.82969    0.000
 4973.00    0.82031   0.83522    0.000
 4974.00    0.84334   0.84148    0.000
 4975.00    0.91717   0.84323    0.000
 4976.00    0.96974   0.83783    0.000
 4977.00    0.96292   0.82991    0.000
 4978.00    0.89826   0.81431    0.000
 4979.00    0.69527   0.80376    0.000
 4980.00    0.58556   0.80224    0.000
 4981.00    0.66850   0.78618    0.000
 4982.00    0.70330   0.75205    0.000
 4983.00    0.65160   0.73220    0.000
 4984.00    0.54996   0.74239    0.000
 4985.00    0.36987   0.76312    0.000
 4986.00    0.38325   0.78653    0.000
 4987.00    0.66351   0.81411    0.000
 4988.00    0.79772   0.82497    0.000
 4989.00    0.75460   0.81655    0.000
 4990.00    0.76752   0.80363    0.000
 4991.00    0.84042   0.79550    0.000
 4992.00    0.83977   0.80426    0.000
 4993.00    0.76969   0.80877    0.000
 4994.00    0.79929   0.80388    0.000
 4995.00    0.91186   0.81345    0.000
 4996.00    1.02454   0.82298    0.000
 4997.00    1.13730   0.82185    0.000
 4998.00    1.04003   0.81515    0.000
 4999.00    0.80761   0.79552    0.000
 5000.00    0.64831   0.77564    0.000
 5001.00    0.53017   0.76996    0.000
 5002.00    0.64544   0.77369    0.000
 5003.00    0.87508   0.78354    0.000
 5004.00    0.98549   0.78530    0.000
 5005.00    1.04541   0.76420    0.000
 5006.00    0.98355   0.74062    0.000
 5007.00    0.87753   0.75105    0.000
 5008.00    0.89227   0.78665    0.000
 5009.00    0.94407   0.80761    0.000
 5010.00    0.96530   0.80527    0.000
 5011.00    0.97872   0.79044    0.000
 5012.00    0.86226   0.76501    0.000
 5013.00    0.71882   0.74232    0.000
 5014.00    0.88528   0.73287    0.000
 5015.00    1.10247   0.74279    0.000
 5016.00    0.88931   0.76120    0.000
 5017.00    0.62333   0.75874    0.000
 5018.00    0.61491   0.74403    0.000
 5019.00    0.62827   0.75073    0.000
 5020.00    0.73360   0.77318    0.000
 5021.00    0.84344   0.77949    0.000
 5022.00    0.71575   0.76845    0.000
 5023.00    0.59135   0.77216    0.000
 5024.00    0.89109   0.79102    0.000
 5025.00    1.15933   0.79999    0.000
 5026.00    0.79582   0.79670    0.000
 5027.00    0.46761   0.77992    0.000
 5028.00    0.55187   0.77470    0.000
 5029.00    0.65281   0.79368    0.009
 5030.00    0.88851   0.80599    0.009
 5031.00    1.07760   0.80899    0.009
 5032.00    0.98407   0.82071    0.009
 5033.00    0.91139   0.83444    0.009
 5034.00    0.93848   0.82890    0.009
 5035.00    0.93402   0.79674    0.009
 5036.00    0.80666   0.76974    0.009
 5037.00    0.71141   0.77741    0.009
 5038.00    0.72032   0.78379    0.009
 5039.00    0.70750   0.76277    0.009
 5040.00    0.63505   0.72543    0.009
 5041.00    0.63534   0.69675    0.009
 5042.00    0.80668   0.71930    0.009
 5043.00    0.88340   0.77394    0.009
 5044.00    0.76780   0.80716    0.009
 5045.00    0.67215   0.82545    0.009
 5046.00    0.61181   0.83777    0.009
 5047.00    0.70199   0.82834    0.009
 5048.00    1.02515   0.79823    0.009
 5049.00    1.12332   0.77332    0.009
 5050.00    0.91561   0.76947    0.009
 5051.00    0.75718   0.77112    0.009
 5052.00    0.65772   0.77451    0.009
 5053.00    0.66936   0.79184    0.009
 5054.00    0.79823   0.81061    0.009
 5055.00    0.81712   0.81656    0.009
 5056.00    0.73364   0.81493    0.009
 5057.00    0.81650   0.81646    0.009
 5058.00    1.03585   0.82306    0.009
 5059.00    1.07574   0.82459    0.009
 5060.00    0.98600   0.82598    0.009
 5061.00    0.93875   0.83342    0.009
 5062.00    0.91844   0.83753    0.009
 5063.00    0.94718   0.82494    0.009
 5064.00    1.00313   0.79033    0.009
 5065.00    0.87918   0.76496    0.009
 5066.00    0.66850   0.77612    0.009
 5067.00    0.66684   0.78933    0.009
 5068.00    0.75219   0.78429    0.009
 5069.00    0.76859   0.78588    0.009
 5070.00    0.76044   0.80134    0.009
 5071.00    0.75878   0.80024    0.009
 5072.00    0.75907   0.78159    0.009
 5073.00    0.76426   0.78267    0.009
 5074.00    0.77068   0.79554    0.009
 5075.00    0.85329   0.79295    0.009
 5076.00    0.95133   0.78952    0.009
 5077.00    0.86736   0.79779    0.009
 5078.00    0.75446   0.79108    0.009
 5079.00    0.71281   0.75121    0.009
 5080.00    0.67959   0.72503    0.009
 5081.00    0.57536   0.73993    0.009
 5082.00    0.46542   0.76099    0.009
 5083.00    0.71099   0.76524    0.009
 5084.00    0.97256   0.77209    0.009
 5085.00    0.91940   0.79010    0.009
 5086.00    0.86318   0.80067    0.009
 5087.00    0.84003   0.79760    0.009
 5088.00    0.81837   0.79599    0.009
 5089.00    0.82442   0.80174    0.009
 5090.00    0.82456   0.80390    0.009
 5091.00    0.75891   0.80341    0.009
 5092.00    0.71059   0.81132    0.009
 5093.00    0.79735   0.82311    0.009
 5094.00    0.87231   0.82435    0.009
 5095.00    0.87773   0.81288    0.009
 5096.00    0.85112   0.79644    0.009
 5097.00    0.67499   0.77871    0.009
 5098.00    0.60700   0.75673    0.009
 5099.00    0.95119   0.74088    0.009
 5100.00    1.13290   0.75472    0.009
 5101.00    0.79777   0.78451    0.009
 5102.00    0.55295   0.80064    0.009
 5103.00    0.55159   0.79804    0.009
 5104.00    0.57856   0.79018    0.009
 5105.00    0.67103   0.78705    0.009
 5106.00    0.66445   0.78164    0.009
 5107.00    0.45973   0.76651    0.009
 5108.00    0.41623   0.76159    0.009
 5109.00    0.65363   0.76636    0.009
 5110.00    0.80406   0.76307    0.009
 5111.00    0.82180   0.77213    0.009
 5112.00    0.85792   0.79088    0.009
 5113.00    0.91868   0.79741    0.009
 5114.00    0.90692   0.80091    0.009
 5115.00    0.80960   0.80375    0.009
 5116.00    0.60648   0.80744    0.009
 5117.00    0.29328   0.81772    0.009
 5118.00    0.27195   0.82290    0.009
 5119.00    0.51849   0.81736    0.009
 5120.00    0.73284   0.80576    0.009
 5121.00    0.92116   0.79251    0.009
 5122.00    0.95863   0.77940    0.009
 5123.00    0.88873   0.75955    0.009
 5124.00    0.73429   0.74458    0.009
 5125.00    0.52705   0.74909    0.009
 5126.00    0.47067   0.75872    0.009
 5127.00    0.49665   0.76080    0.009
 5128.00    0.55657   0.75835    0.009
 5129.00    0.63259   0.75462    0.009
 5130.00    0.68140   0.75814    0.009
 5131.00    0.71908   0.77202    0.009
 5132.00    0.78458   0.78054    0.009
 5133.00    0.85981   0.77952    0.009
 5134.00    0.89682   0.78349    0.009
 5135.00    0.92258   0.79869    0.009
 5136.00    0.88420   0.79649    0.009
 5137.00    0.83016   0.77648    0.009
 5138.00    0.69418   0.75988    0.009
 5139.00    0.54201   0.74515    0.009
 5140.00    0.60124   0.75569    0.009
 5141.00    0.69308   0.77346    0.009
 5142.00    0.70886   0.75560    0.009
 5143.00    0.71597   0.74436    0.009
 5144.00    0.68940   0.76456    0.009
 5145.00    0.66026   0.77181    0.009
 5146.00    0.58782   0.76018    0.009
 5147.00    0.51360   0.75212    0.009
 5148.00    0.42722   0.75527    0.009
 5149.00    0.34364   0.76908    0.009
 5150.00    0.38191   0.77119    0.009
 5151.00    0.43942   0.75788    0.009
 5152.00    0.83033   0.74956    0.009
 5153.00    1.17925   0.74767    0.009
 5154.00    1.08147   0.74790    0.009
 5155.00    0.97884   0.75964    0.009
 5156.00    0.83971   0.77972    0.009
 5157.00    0.72222   0.79829    0.009
 5158.00    0.72862   0.80682    0.009
 5159.00    0.72188   0.80393    0.009
 5160.00    0.65527   0.80440    0.009
 5161.00    0.63048   0.80216    0.009
 5162.00    0.76167   0.78691    0.009
 5163.00    0.82904   0.78025    0.009
 5164.00    0.69726   0.77679    0.009
 5165.00    0.60185   0.74619    0.009
 5166.00    0.60275   0.68750    0.009
 5167.00    0.64819   0.62741    0.009
 5168.00    0.79490   0.61026    0.009
 5169.00    0.83799   0.64800    0.009
 5170.00    0.67704   0.69521    0.009
 5171.00    0.59556   0.68396    0.009
 5172.00    0.65044   0.62148    0.009
 5173.00    0.79631   0.60623    0.009
 5174.00    1.07893   0.67245    0.009
 5175.00    1.13793   0.74163    0.009
 5176.00    0.90158   0.76481    0.009
 5177.00    0.75579   0.76955    0.009
 5178.00    0.71537   0.77561    0.009
 5179.00    0.63121   0.77441    0.009
 5180.00    0.50220   0.76476    0.009
 5181.00    0.40329   0.74628    0.009
 5182.00    0.33164   0.69662    0.009
 5183.00    0.43110   0.62040    0.009
 5184.00    0.66704   0.59891    0.009
 5185.00    0.67472   0.66550    0.009
 5186.00    0.52225   0.73888    0.008
 5187.00    0.59476   0.76735    0.008
 5188.00    0.80572   0.76274    0.009
 5189.00    0.87583   0.76575    0.009
 5190.00    0.87023   0.77997    0.000
 5191.00    0.83872   0.75726    0.000
 5192.00    0.79511   0.71715    0.000
 5193.00    0.64721   0.71967    0.000
 5194.00    0.45736   0.74426    0.000
 5195.00    0.43958   0.74693    0.000
 5196.00    0.48085   0.74785    0.000
 5197.00    0.48371   0.76022    0.000
 5198.00    0.47546   0.77041    0.000
 5199.00    0.49101   0.78223    0.000
 5200.00    0.51224   0.79084    0.000
 5201.00    0.68572   0.78824    0.000
 5202.00    0.88852   0.77936    0.000
 5203.00    0.92785   0.77096    0.000
 5204.00    0.94275   0.74854    0.000
 5205.00    0.74972   0.71569    0.000
 5206.00    0.53393   0.70541    0.000
 5207.00    0.60058   0.71250    0.000
 5208.00    0.68763   0.70420    0.000
 5209.00    0.69814   0.70351    0.000
 5210.00    0.70579   0.72675    0.000
 5211.00    0.82542   0.75430    0.008
 5212.00    0.94122   0.78191    0.008
 5213.00    0.89833   0.80088    0.008
 5214.00    0.84631   0.79893    0.008
 5215.00    0.64628   0.77522    0.008
 5216.00    0.46923   0.75502    0.008
 5217.00    0.52594   0.75858    0.008
 5218.00    0.57459   0.77908    0.008
 5219.00    0.56458   0.79764    0.008
 5220.00    0.53848   0.80652    0.008
 5221.00    0.42274   0.81229    0.008
 5222.00    0.36802   0.81049    0.009
 5223.00    0.58477   0.79596    0.009
 5224.00    0.76658   0.77147    0.009
 5225.00    0.82079   0.73877    0.009
 5226.00    0.83916   0.69984    0.009
 5227.00    0.74785   0.68277    0.009
 5228.00    0.68058   0.72095    0.009
 5229.00    0.67585   0.77023    0.009
 5230.00    0.71160   0.79044    0.009
 5231.00    0.83786   0.79842    0.009
 5232.00    0.86414   0.78398    0.009
 5233.00    0.69663   0.75495    0.009
 5234.00    0.61312   0.74742    0.009
 5235.00    0.67160   0.76021    0.009
 5236.00    0.77274   0.78397    0.009
 5237.00    0.93705   0.80400    0.009
 5238.00    1.01492   0.81017    0.009
 5239.00    0.98025   0.80779    0.009
 5240.00    1.04568   0.80598    0.009
 5241.00    1.22592   0.80877    0.009
 5242.00    1.16551   0.80641    0.009
 5243.00    0.86165   0.80181    0.009
 5244.00    0.65324   0.81096    0.009
 5245.00    0.52998   0.81947    0.009
 5246.00    0.54727   0.79811    0.009
 5247.00    0.67507   0.76664    0.009
 5248.00    0.80258   0.76574    0.009
 5249.00    0.92990   0.77448    0.009
 5250.00    0.94837   0.76216    0.009
 5251.00    0.90085   0.75770    0.009
 5252.00    0.89514   0.77377    0.009
 5253.00    0.91155   0.78519    0.009
 5254.00    0.84415   0.77840    0.009
 5255.00    0.73827   0.76630    0.009
 5256.00    0.76490   0.78041    0.009
 5257.00    0.84390   0.80983    0.009
 5258.00    0.82670   0.82602    0.009
 5259.00    0.77710   0.82569    0.009
 5260.00    0.88813   0.81181    0.009
 5261.00    1.04462   0.78598    0.009
 5262.00    1.06982   0.75218    0.009
 5263.00    1.06437   0.72310    0.009
 5264.00    0.98695   0.70282    0.009
 5265.00    0.89604   0.68778    0.009
 5266.00    0.77828   0.68819    0.009
 5267.00    0.65663   0.71992    0.009
 5268.00    0.64633   0.73267    0.009
 5269.00    0.64775   0.68367    0.009
 5270.00    0.90286   0.65198    0.009
 5271.00    1.17526   0.69754    0.009
 5272.00    1.04181   0.75148    0.009
 5273.00    0.89475   0.76412    0.009
 5274.00    0.85583   0.75930    0.009
 5275.00    0.81932   0.74705    0.009
 5276.00    0.85622   0.74937    0.009
 5277.00    0.89137   0.78575    0.009
 5278.00    0.89989   0.81668    0.009
 5279.00    0.88907   0.81750    0.008
 5280.00    0.68963   0.80008    0.008
 5281.00    0.51614   0.78144    0.008
 5282.00    0.52528   0.76765    0.009
 5283.00    0.53937   0.75406    0.009
 5284.00    0.58026   0.75215    0.009
 5285.00    0.62814   0.78343    0.009
 5286.00    0.70637   0.82082    0.009
 5287.00    0.76339   0.83184    0.009
 5288.00    0.74456   0.82381    0.009
 5289.00    0.74466   0.82025    0.009
 5290.00    0.80160   0.82736    0.009
 5291.00    0.88657   0.83141    0.009
 5292.00    1.04324   0.82497    0.009
 5293.00    1.11511   0.81655    0.009
 5294.00    1.00044   0.81592    0.009
 5295.00    0.90709   0.81123    0.009
 5296.00    0.85445   0.78712    0.009
 5297.00    0.77399   0.74965    0.009
 5298.00    0.64722   0.73214    0.009
 5299.00    0.62325   0.75430    0.009
 5300.00    0.74934   0.78114    0.009
 5301.00    0.91834   0.78199    0.009
 5302.00    1.14242   0.77933    0.009
 5303.00    1.15126   0.79463    0.009
 5304.00    0.91673   0.81814    0.009
 5305.00    0.85252   0.82938    0.009
 5306.00    0.95818   0.82201    0.009
 5307.00    0.87374   0.80773    0.009
 5308.00    0.62209   0.80656    0.009
 5309.00    0.59829   0.81921    0.009
 5310.00    0.75105   0.82817    0.009
 5311.00    0.80493   0.82641    0.009
 5312.00    0.79143   0.82039    0.009
 5313.00    0.69576   0.81398    0.009
 5314.00    0.55101   0.81146    0.008
 5315.00    0.55960   0.80578    0.008
 5316.00    0.64807   0.78799    0.008
 5317.00    0.64643   0.78046    0.008
 5318.00    0.60409   0.79465    0.008
 5319.00    0.66712   0.80544    0.008
 5320.00    0.77108   0.80491    0.008
 5321.00    0.85958   0.80305    0.008
 5322.00    0.94298   0.79935    0.009
 5323.00    0.88634   0.78464    0.009
 5324.00    0.79087   0.76422    0.008
 5325.00    0.91273   0.76590    0.008
 5326.00    1.08416   0.77214    0.008
 5327.00    0.86795   0.73621    0.008
 5328.00    0.58098   0.67693    0.008
 5329.00    0.70900   0.67963    0.008
 5330.00    0.89522   0.73970    0.008
 5331.00    0.91098   0.78446    0.008
 5332.00    0.90954   0.78979    0.008
 5333.00    0.71697   0.78472    0.008
 5334.00    0.51215   0.79629    0.008
 5335.00    0.51699   0.80913    0.008
 5336.00    0.52821   0.80544    0.008
 5337.00    0.59694   0.79658    0.008
 5338.00    0.66552   0.79498    0.008
 5339.00    0.72994   0.78230    0.008
 5340.00    0.79193   0.75275    0.008
 5341.00    0.81902   0.74556    0.008
 5342.00    0.85623   0.77250    0.008
 5343.00    0.98817   0.79547    0.008
 5344.00    1.05850   0.80078    0.008
 5345.00    0.70864   0.79164    0.008
 5346.00    0.44113   0.78358    0.008
 5347.00    0.60840   0.78748    0.008
 5348.00    0.76286   0.78203    0.008
 5349.00    0.86292   0.76984    0.009
 5350.00    0.91651   0.77765    0.009
 5351.00    0.80723   0.80164    0.008
 5352.00    0.74736   0.81375    0.008
 5353.00    0.83315   0.81137    0.009
 5354.00    0.87590   0.81742    0.009
 5355.00    0.81051   0.83069    0.009
 5356.00    0.78665   0.83550    0.009
 5357.00    0.85267   0.83479    0.009
 5358.00    0.89059   0.83475    0.009
 5359.00    0.87574   0.83499    0.009
 5360.00    0.87882   0.83030    0.009
 5361.00    0.91133   0.81544    0.009
 5362.00    0.94044   0.79892    0.009
 5363.00    0.96468   0.79310    0.009
 5364.00    1.02501   0.79028    0.009
 5365.00    1.13099   0.78273    0.009
 5366.00    1.03869   0.78270    0.009
 5367.00    0.72533   0.78612    0.009
 5368.00    0.58880   0.78548   -2.000
 5369.00    0.62615   0.77185   -2.000
 5370.00    0.68463   0.74149   -2.000
 5371.00    0.76142   0.71910   -2.000
 5372.00    0.93375   0.73538   -2.000
 5373.00    1.17907   0.77881   -2.000
 5374.00    1.27875   0.80898   -2.000
 5375.00    1.28065   0.82128   -2.000
 5376.00    1.19648   0.81928   -2.000
 5377.00    1.06169   0.81186   -2.000
 5378.00    0.98386   0.81279   -2.000
 5379.00    0.93524   0.81269   -2.000
 5380.00    0.85620   0.80362   -2.000
 5381.00    0.76363   0.79560   -2.000
 5382.00    0.90905   0.79224   -2.000
 5383.00    1.14532   0.78635    0.008
 5384.00    1.13388   0.79060    0.008
 5385.00    1.04210   0.80464    0.008
 5386.00    0.88174   0.81025    0.008
 5387.00    0.70275   0.80781    0.008
 5388.00    0.63762   0.80253    0.008
 5389.00    0.59784   0.79165    0.008
 5390.00    0.66566   0.78070    0.008
 5391.00    0.75259   0.77694    0.008
 5392.00    0.70761   0.77491    0.008
 5393.00    0.64472   0.77231    0.008
 5394.00    0.64375   0.77246    0.008
 5395.00    0.64877   0.77267    0.008
 5396.00    0.76833   0.75460    0.008
 5397.00    0.89478   0.73102    0.008
 5398.00    0.84720   0.74474    0.008
 5399.00    0.79498   0.77488    0.008
 5400.00    0.72392   0.78226    0.008
 5401.00    0.65991   0.78249    0.008
 5402.00    0.77742   0.78931    0.008
 5403.00    0.88610   0.77734    0.008
 5404.00    0.87515   0.74286    0.008
 5405.00    0.84930   0.71367    0.008
 5406.00    0.68945   0.71361    0.008
 5407.00    0.55963   0.74117    0.008
 5408.00    0.62822   0.76114    0.008
 5409.00    0.70543   0.75063    0.008
 5410.00    0.82697   0.73431    0.008
 5411.00    0.93633   0.74635    0.008
 5412.00    0.99518   0.77511    0.008
 5413.00    1.01316   0.79089    0.008
 5414.00    0.89073   0.78704    0.008
 5415.00    0.78947   0.78233    0.008
 5416.00    0.74942   0.79412    0.008
 5417.00    0.74057   0.80849    0.008
 5418.00    0.80880   0.80862    0.008
 5419.00    0.89142   0.79940    0.008
 5420.00    1.00466   0.78982    0.008
 5421.00    0.99883   0.78950    0.008
 5422.00    0.77279   0.79755    0.008
 5423.00    0.69655   0.78947    0.008
 5424.00    0.86235   0.76890    0.008
 5425.00    0.86959   0.77214    0.008
 5426.00    0.65206   0.79707    0.008
 5427.00    0.58080   0.81496    0.008
 5428.00    0.69193   0.79897    0.008
 5429.00    0.75717   0.75398    0.008
 5430.00    0.77197   0.73846    0.008
 5431.00    0.71375   0.76555    0.008
 5432.00    0.58473   0.77695    0.008
 5433.00    0.53059   0.76207    0.008
 5434.00    0.54046   0.74646    0.008
 5435.00    0.63762   0.74368    0.008
 5436.00    0.80052   0.75608    0.008
 5437.00    0.87830   0.77658    0.008
 5438.00    0.89978   0.79954    0.008
 5439.00    0.90942   0.81499    0.008
 5440.00    0.91222   0.82041    0.008
 5441.00    0.89176   0.82080    0.008
 5442.00    0.85957   0.82077    0.008
 5443.00    0.82267   0.82019    0.008
 5444.00    0.78373   0.80768    0.008
 5445.00    0.80224   0.77835    0.008
 5446.00    0.84230   0.74009    0.008
 5447.00    0.82875   0.72543    0.008
 5448.00    0.79813   0.75313    0.008
 5449.00    0.73965   0.78553    0.008
 5450.00    0.67376   0.79775    0.008
 5451.00    0.78846   0.79775    0.008
 5452.00    0.94244   0.79422    0.008
 5453.00    0.85694   0.78680    0.008
 5454.00    0.73008   0.76486    0.008
 5455.00    0.77072   0.73207    0.008
 5456.00    0.83333   0.72902    0.008
 5457.00    0.95174   0.76384    0.008
 5458.00    1.07530   0.79425    0.008
 5459.00    1.04520   0.80124    0.008
 5460.00    1.00645   0.79361    0.008
 5461.00    0.99850   0.78231    0.008
 5462.00    0.99038   0.76618    0.008
 5463.00    0.89344   0.75132    0.008
 5464.00    0.80083   0.76003    0.008
 5465.00    0.81001   0.77887    0.008
 5466.00    0.82853   0.78196    0.008
 5467.00    0.96714   0.78218    0.008
 5468.00    1.08210   0.78955    0.008
 5469.00    0.99238   0.78954    0.008
 5470.00    0.90511   0.78042    0.008
 5471.00    0.83356   0.77765    0.008
 5472.00    0.78696   0.77795    0.008
 5473.00    0.86545   0.76796    0.008
 5474.00    0.91689   0.76238    0.008
 5475.00    0.85856   0.75790    0.008
 5476.00    0.79785   0.73062    0.008
 5477.00    0.72915   0.71568    0.008
 5478.00    0.68117   0.74353   -2.000
 5479.00    0.69204   0.77477   -2.000
 5480.00    0.67809   0.77339   -2.000
 5481.00    0.60390   0.75282   -2.000
 5482.00    0.64004   0.74909   -2.000
 5483.00    0.90734   0.76392   -2.000
 5484.00    1.04052   0.78255   -2.000
 5485.00    0.92945   0.79691   -2.000
 5486.00    1.16857   0.79239   -2.000
 5487.00    1.96512   0.77205   -2.000
 5488.00    2.53116   0.76385   -2.000
 5489.00    2.77518   0.77354   -2.000
 5490.00    2.77538   0.77931   -2.000
 5491.00    2.47582   0.78312   -2.000
 5492.00    1.88603   0.78736   -2.000
 5493.00    0.98171   0.78078   -2.000
 5494.00    0.54884   0.77716   -2.000
 5495.00    0.56660   0.78435   -2.000
 5496.00    0.58891   0.78230   -2.000
 5497.00    0.61503   0.76631   -2.000
 5498.00    0.61802   0.76756   -2.000
 5499.00    0.60382   0.78747   -2.000
 5500.00    0.60647   0.78882   -2.000
 5501.00    0.62009   0.76900   -2.000
 5502.00    0.68102   0.75805    0.007
 5503.00    0.76894   0.76426    0.007
 5504.00    0.88193   0.77373    0.008
 5505.00    1.00737   0.77044    0.008
 5506.00    0.98665   0.75303    0.008
 5507.00    0.90312   0.75112    0.008
 5508.00    0.85861   0.76984    0.008
 5509.00    0.82846   0.77855    0.008
 5510.00    0.81318   0.77486    0.008
 5511.00    0.80254   0.76489    0.008
 5512.00    0.85685   0.74889    0.008
 5513.00    0.92805   0.74124    0.008
 5514.00    0.94199   0.74726    0.008
 5515.00    0.94378   0.75926    0.008
 5516.00    0.84292   0.76950    0.008
 5517.00    0.72483   0.77785    0.008
 5518.00    0.68477   0.79071    0.008
 5519.00    0.65459   0.79878    0.008
 5520.00    0.64893   0.79652    0.008
 5521.00    0.64544   0.79208    0.007
 5522.00    0.65165   0.79052    0.008
 5523.00    0.65837   0.79135    0.008
 5524.00    0.75105   0.79047    0.007
 5525.00    0.84329   0.78239    0.007
 5526.00    0.78046   0.76910    0.007
 5527.00    0.72041   0.74940    0.007
 5528.00    0.72008   0.73240    0.007
 5529.00    0.72000   0.74281    0.007
 5530.00    0.72303   0.77076    0.007
 5531.00    0.72434   0.78518    0.007
 5532.00    0.71143   0.78359    0.007
 5533.00    0.70751   0.77830    0.007
 5534.00    0.75962   0.77034    0.007
 5535.00    0.82036   0.76219    0.007
 5536.00    0.92329   0.76839    0.007
 5537.00    1.00231   0.77827    0.007
 5538.00    0.98643   0.77932    0.007
 5539.00    0.98284   0.78404    0.007
 5540.00    1.01983   0.79415    0.007
 5541.00    1.03702   0.79887    0.007
 5542.00    0.99901   0.79185    0.007
 5543.00    0.96606   0.77874    0.007
 5544.00    0.94523   0.77465    0.007
 5545.00    0.90924   0.77735    0.007
 5546.00    0.84203   0.77732    0.007
 5547.00    0.77518   0.78216    0.007
 5548.00    0.70898   0.79352    0.007
 5549.00    0.74607   0.79969    0.007
 5550.00    0.94514   0.80061    0.007
 5551.00    1.03764   0.79983    0.007
 5552.00    0.98340   0.79485    0.007
 5553.00    0.94374   0.78441    0.007
 5554.00    0.92174   0.77440    0.007
 5555.00    0.94472   0.77544    0.007
 5556.00    1.01576   0.78238    0.007
 5557.00    1.01047   0.78286    0.007
 5558.00    0.93324   0.78113    0.007
 5559.00    0.91197   0.78326    0.007
 5560.00    0.93720   0.78398    0.007
 5561.00    0.89505   0.78114    0.007
 5562.00    0.80362   0.77343    0.007
 5563.00    0.75882   0.76546    0.007
 5564.00    0.74398   0.76624    0.007
 5565.00    0.75442   0.76555    0.007
 5566.00    0.77906   0.76059    0.007
 5567.00    0.85064   0.76206    0.007
 5568.00    0.94518   0.76448    0.007
 5569.00    0.95014   0.75913    0.007
 5570.00    0.91724   0.76120    0.007
 5571.00    0.88379   0.77154    0.007
 5572.00    0.85014   0.76195    0.007
 5573.00    0.81741   0.75105    0.007
 5574.00    0.78496   0.76479    0.007
 5575.00    0.74360   0.77533    0.007
 5576.00    0.69997   0.77176    0.007
 5577.00    0.69941   0.77526    0.007
 5578.00    0.70778   0.77935    0.007
 5579.00    0.78295   0.78069    0.007
 5580.00    0.86902   0.78391    0.007
 5581.00    0.85855   0.77949    0.007
 5582.00    0.83629   0.77195    0.007
 5583.00    0.79582   0.77408    0.007
 5584.00    0.75382   0.77619    0.007
 5585.00    0.75315   0.76699    0.007
 5586.00    0.75447   0.74417    0.007
 5587.00    0.80117   0.71984    0.007
 5588.00    0.84767   0.70960    0.007
 5589.00    0.84211   0.71426    0.007
 5590.00    0.83799   0.73055    0.007
 5591.00    0.86264   0.74713    0.007
 5592.00    0.88631   0.75226    0.007
 5593.00    0.89864   0.74793    0.007
 5594.00    0.90261   0.74192    0.008
 5595.00    0.83943   0.75296    0.007
 5596.00    0.78677   0.77571    0.007
 5597.00    0.79762   0.77415    0.007
 5598.00    0.79905   0.75044    0.008
 5599.00    0.75561   0.74145    0.008
 5600.00    0.69880   0.74465    0.007
 5601.00    0.59010   0.73824    0.008
 5602.00    0.52719   0.72803    0.008
 5603.00    0.61242   0.73085    0.008
 5604.00    0.68911   0.75520    0.008
 5605.00    0.74239   0.78030    0.007
 5606.00    0.78352   0.79174    0.007
 5607.00    0.79617   0.79372    0.007
 5608.00    0.81340   0.79214    0.007
 5609.00    0.83995   0.79035    0.007
 5610.00    0.84483   0.78906    0.007
 5611.00    0.81146   0.79155    0.007
 5612.00    0.81248   0.79588    0.007
 5613.00    0.86665   0.79239    0.007
 5614.00    0.88267   0.76476    0.007
 5615.00    0.84693   0.72335    0.007
 5616.00    0.84731   0.71713    0.007
 5617.00    0.89085   0.74567    0.007
 5618.00    0.93830   0.76293    0.007
 5619.00    0.98988   0.76194    0.007
 5620.00    0.98480   0.76195    0.007
 5621.00    0.92708   0.77050    0.007
 5622.00    0.89243   0.77813    0.007
 5623.00    0.87667   0.76868    0.007
 5624.00    0.88652   0.74310    0.007
 5625.00    0.91482   0.73344    0.007
 5626.00    0.87380   0.74898    0.007
 5627.00    0.78890   0.76349    0.007
 5628.00    0.75964   0.76922    0.007
 5629.00    0.76115   0.77693    0.007
 5630.00    0.84649   0.78328    0.007
 5631.00    0.97217   0.78547    0.007
 5632.00    0.95442   0.78417    0.007
 5633.00    0.87707   0.77920    0.007
 5634.00    0.81777   0.77372    0.007
 5635.00    0.76488   0.76941    0.007
 5636.00    0.80573   0.76195    0.007
 5637.00    0.87471   0.75331    0.007
 5638.00    0.81900   0.75292    0.007
 5639.00    0.73223   0.76045    0.007
 5640.00    0.65890   0.76053    0.007
 5641.00    0.58830   0.75175    0.007
 5642.00    0.65013   0.75241    0.007
 5643.00    0.73294   0.75912    0.007
 5644.00    0.77637   0.76154    0.007
 5645.00    0.81516   0.76428    0.007
 5646.00    0.73872   0.76784    0.007
 5647.00    0.65307   0.77150    0.007
 5648.00    0.68739   0.77240    0.007
 5649.00    0.72704   0.76833    0.007
 5650.00    0.77441   0.76576    0.007
 5651.00    0.82120   0.77093    0.007
 5652.00    0.83608   0.77905    0.007
 5653.00    0.84855   0.77943    0.007
 5654.00    0.81667   0.76791    0.007
 5655.00    0.78888   0.75863    0.007
 5656.00    0.80635   0.76218    0.007
 5657.00    0.80557   0.75053    0.007
 5658.00    0.66323   0.71791    0.007
 5659.00    0.54552   0.71367    0.007
 5660.00    0.57236   0.74254    0.007
 5661.00    0.59901   0.75394    0.007
 5662.00    0.62478   0.74126    0.007
 5663.00    0.65748   0.73926    0.007
 5664.00    0.71658   0.75557    0.007
 5665.00    0.74809   0.76915    0.007
 5666.00    0.69206   0.76796    0.007
 5667.00    0.66526   0.75784    0.007
 5668.00    0.71709   0.75229    0.007
 5669.00    0.76243   0.75446    0.007
 5670.00    0.79277   0.75868    0.007
 5671.00    0.81576   0.76353    0.007
 5672.00    0.82410   0.77312    0.007
 5673.00    0.84837   0.78356    0.007
 5674.00    0.90034   0.78397    0.007
 5675.00    0.96235   0.77690    0.007
 5676.00    1.03961   0.77740    0.007
 5677.00    1.02509   0.78385    0.007
 5678.00    0.88778   0.78084    0.007
 5679.00    0.80981   0.77406    0.007
 5680.00    0.80173   0.77314    0.007
 5681.00    0.77964   0.77044    0.007
 5682.00    0.74298   0.75645    0.007
 5683.00    0.74871   0.74832    0.007
 5684.00    0.79328   0.75465    0.007
 5685.00    0.78021   0.76226    0.007
 5686.00    0.72058   0.75845    0.007
 5687.00    0.70393   0.74770    0.007
 5688.00    0.71780   0.74319    0.007
 5689.00    0.74175   0.75101    0.007
 5690.00    0.77197   0.76381    0.007
 5691.00    0.80158   0.77253    0.007
 5692.00    0.83086   0.77889    0.007
 5693.00    0.86439   0.78112    0.007
 5694.00    0.89993   0.77717    0.007
 5695.00    0.95027   0.77494    0.007
 5696.00    1.00667   0.77697    0.007
 5697.00    0.98276   0.77482    0.007
 5698.00    0.93085   0.76291    0.007
 5699.00    0.90367   0.75743    0.007
 5700.00    0.88377   0.75513    0.007
 5701.00    0.87488   0.74593    0.007
 5702.00    0.86867   0.74244    0.007
 5703.00    0.85687   0.75127    0.007
 5704.00    0.84397   0.76139    0.007
 5705.00    0.82126   0.75896    0.006
 5706.00    0.79704   0.74612    0.006
 5707.00    0.76339   0.73671    0.006
 5708.00    0.72868   0.72702    0.006
 5709.00    0.71373   0.71708    0.007
 5710.00    0.70028   0.71999    0.007
 5711.00    0.68999   0.72403    0.007
 5712.00    0.67983   0.72878    0.006
 5713.00    0.71656   0.74829    0.007
 5714.00    0.75292   0.76473    0.007
 5715.00    0.75895   0.76865    0.007
 5716.00    0.76942   0.77164    0.007
 5717.00    0.85610   0.77134    0.007
 5718.00    0.93777   0.76964    0.007
 5719.00    0.96659   0.77439    0.007
 5720.00    0.98146   0.77943    0.007
 5721.00    0.89184   0.78283    0.007
 5722.00    0.79557   0.78757    0.007
 5723.00    0.66136   0.78948    0.007
 5724.00    0.57136   0.78760    0.007
 5725.00    0.68214   0.78377    0.007
 5726.00    0.77821   0.77353    0.007
 5727.00    0.81952   0.76187    0.007
 5728.00    0.85041   0.76484    0.007
 5729.00    0.84891   0.77649    0.007
 5730.00    0.83854   0.77715    0.007
 5731.00    0.80476   0.76584    0.007
 5732.00    0.78542   0.76268    0.007
 5733.00    0.79884   0.77315    0.007
 5734.00    0.81855   0.78178    0.007
 5735.00    0.85063   0.78383    0.007
 5736.00    0.87750   0.78064    0.007
 5737.00    0.89545   0.77658    0.007
 5738.00    0.87069   0.77542    0.007
 5739.00    0.78187   0.77509    0.006
 5740.00    0.73486   0.77506    0.000
 5741.00    0.74298   0.77493    0.000
 5742.00    0.76418   0.77258    0.000
 5743.00    0.80057   0.77065    0.000
 5744.00    0.81019   0.77533    0.000
 5745.00    0.79240   0.78355    0.000
 5746.00    0.81921   0.78550    0.000
 5747.00    0.88629   0.77403    0.000
 5748.00    0.93045   0.76107    0.000
 5749.00    0.95636   0.76608    0.000
 5750.00    0.98356   0.77993    0.000
 5751.00    1.01166   0.78174    0.000
 5752.00    1.03929   0.76684    0.000
 5753.00    1.06662   0.74723    0.000
 5754.00    1.02336   0.73983    0.000
 5755.00    0.94223   0.75305    0.000
 5756.00    0.83470   0.77249    0.000
 5757.00    0.71486   0.78295    0.000
 5758.00    0.72045   0.78525    0.000
 5759.00    0.77639   0.77902    0.000
 5760.00    0.76886   0.76847    0.000
 5761.00    0.73958   0.75661    0.000
 5762.00    0.75898   0.74413    0.000
 5763.00    0.79241   0.74262    0.000
 5764.00    0.87528   0.76083    0.000
 5765.00    0.96992   0.77774    0.000
 5766.00    0.98598   0.78237    0.000
 5767.00    0.98697   0.78267    0.000
 5768.00    0.92589   0.78190    0.000
 5769.00    0.85557   0.77970    0.000
 5770.00    0.87348   0.77808    0.000
 5771.00    0.90102   0.77528    0.000
 5772.00    0.93824   0.77056    0.000
 5773.00    0.97615   0.76948    0.000
 5774.00    0.90557   0.76782    0.000
 5775.00    0.83099   0.76582    0.000
 5776.00    0.77485   0.77041    0.000
 5777.00    0.72176   0.77518    0.000
 5778.00    0.77537   0.77494    0.000
 5779.00    0.82298   0.76792    0.000
 5780.00    0.77403   0.75023    0.000
 5781.00    0.72583   0.73034    0.000
 5782.00    0.68519   0.72651    0.000
 5783.00    0.65275   0.73462    0.000
 5784.00    0.67962   0.73499    0.000
 5785.00    0.70221   0.72877    0.000
 5786.00    0.70098   0.73585    0.000
 5787.00    0.69928   0.75281    0.000
 5788.00    0.69545   0.76266    0.000
 5789.00    0.70368   0.76668    0.000
 5790.00    0.75586   0.76079    0.000
 5791.00    0.80398   0.75191   -2.000
 5792.00    0.83969   0.75645   -2.000
 5793.00    0.84419   0.76608   -2.000
 5794.00    0.76767   0.77352   -2.000
 5795.00    0.71579   0.77962   -2.000
 5796.00    0.71887   0.77742   -2.000
 5797.00    0.74115   0.76430   -2.000
 5798.00    0.80058   0.75679   -2.000
 5799.00    0.83649   0.76778   -2.000
 5800.00    0.83271   0.78135   -2.000
 5801.00    0.84835   0.78646   -2.000
 5802.00    0.89272   0.78873   -2.000
 5803.00    0.90286   0.78442   -2.000
 5804.00    0.86855   0.77132   -2.000
 5805.00    0.87061   0.76371   -2.000
 5806.00    0.91433   0.76484   -2.000
 5807.00    0.93583   0.77023   -2.000
 5808.00    0.93491   0.77354   -2.000
 5809.00    0.94033   0.77410   -2.000
 5810.00    0.95139   0.77613   -2.000
 5811.00    0.98401   0.77797    0.000
 5812.00    1.03353   0.77777    0.000
 5813.00    1.00995   0.77613    0.000
 5814.00    0.93591   0.77230    0.000
 5815.00    0.84204   0.76325    0.000
 5816.00    0.73618   0.75579    0.000
 5817.00    0.72399   0.76098    0.000
 5818.00    0.76128   0.77475    0.000
 5819.00    0.82733   0.78280    0.000
 5820.00    0.90656   0.78457    0.000
 5821.00    0.90347   0.78430    0.000
 5822.00    0.86791   0.78172    0.000
 5823.00    0.90015   0.77870    0.000
 5824.00    0.95518   0.77843    0.000
 5825.00    0.93466   0.78171    0.000
 5826.00    0.89280   0.78251    0.000
 5827.00    0.88403   0.78133    0.000
 5828.00    0.88295   0.78141    0.000
 5829.00    0.85460   0.78330    0.000
 5830.00    0.82117   0.78393    0.000
 5831.00    0.75113   0.78210    0.000
 5832.00    0.67581   0.78156    0.000
 5833.00    0.63612   0.78067    0.000
 5834.00    0.60017   0.77622    0.000
 5835.00    0.70251   0.77368    0.000
 5836.00    0.81421   0.77807    0.000
 5837.00    0.85221   0.77974    0.000
 5838.00    0.88777   0.77436    0.000
 5839.00    0.94231   0.77340    0.000
 5840.00    0.99318   0.77936    0.000
 5841.00    0.92743   0.78519    0.000
 5842.00    0.86771   0.78732    0.000
 5843.00    0.89917   0.78682    0.000
 5844.00    0.93363   0.78368    0.000
 5845.00    0.99715   0.77887    0.000
 5846.00    1.05067   0.77227    0.000
 5847.00    1.03406   0.76481    0.000
 5848.00    1.01343   0.76318    0.000
 5849.00    0.97105   0.76665    0.000
 5850.00    0.92674   0.76890    0.000
 5851.00    0.87412   0.76579    0.000
 5852.00    0.82852   0.75551    0.000
 5853.00    0.80796   0.74301    0.000
 5854.00    0.79258   0.74284    0.000
 5855.00    0.79272   0.75155    0.000
 5856.00    0.81112   0.74740    0.000
 5857.00    0.87606   0.72868    0.000
 5858.00    0.92345   0.72126    0.000
 5859.00    0.93230   0.73376    0.000
 5860.00    0.91880   0.74843    0.000
 5861.00    0.86273   0.75556    0.000
 5862.00    0.83863   0.75206    0.000
 5863.00    0.86765   0.75063    0.000
 5864.00    0.88434   0.75742    0.000
 5865.00    0.88307   0.76024    0.000
 5866.00    0.87227   0.75270    0.000
 5867.00    0.84926   0.74754    0.000
 5868.00    0.86989   0.75483    0.000
 5869.00    0.93980   0.76481    0.000
 5870.00    0.96292   0.77010    0.000
 5871.00    0.93947   0.77033    0.000
 5872.00    0.88031   0.76575    0.000
 5873.00    0.78981   0.76112    0.000
 5874.00    0.74318   0.75892    0.000
 5875.00    0.73048   0.75651    0.000
 5876.00    0.77956   0.75257    0.000
 5877.00    0.87064   0.75180    0.000
 5878.00    0.88011   0.75439    0.000
 5879.00    0.84093   0.75052    0.000
 5880.00    0.79263   0.74359    0.000
 5881.00    0.73960   0.74447    0.000
 5882.00    0.71584   0.75027    0.000
 5883.00    0.70528   0.74771    0.000
 5884.00    0.70063   0.74171    0.000
 5885.00    0.69827   0.74341    0.000
 5886.00    0.65024   0.74680    0.000
 5887.00    0.58715   0.73866    0.000
 5888.00    0.64240   0.70221    0.000
 5889.00    0.73039   0.62833    0.000
 5890.00    0.82963   0.57603    0.000
 5891.00    0.93143   0.60733    0.000
 5892.00    0.92370   0.66652    0.000
 5893.00    0.89605   0.69446    0.000
 5894.00    0.84691   0.69061    0.000
 5895.00    0.79478   0.64619    0.000
 5896.00    0.76343   0.60742    0.000
 5897.00    0.73416   0.63812    0.000
 5898.00    0.71348   0.69027    0.000
 5899.00    0.69336   0.71190    0.000
 5900.00    0.74920   0.72269    0.000
 5901.00    0.80731   0.73521    0.006
 5902.00    0.88198   0.74127    0.006
 5903.00    0.95423   0.74343    0.007
 5904.00    0.95827   0.74506    0.006
 5905.00    0.96025   0.74235    0.006
 5906.00    0.93273   0.73978    0.006
 5907.00    0.89897   0.74378    0.006
 5908.00    0.80705   0.74925    0.006
 5909.00    0.72373   0.74927    0.006
 5910.00    0.69878   0.74814    0.006
 5911.00    0.70150   0.75219    0.006
 5912.00    0.84984   0.75314    0.006
 5913.00    0.96580   0.74201    0.006
 5914.00    0.94465   0.72650    0.006
 5915.00    0.90906   0.72360    0.006
 5916.00    0.82301   0.72891    0.006
 5917.00    0.75536   0.73704    0.006
 5918.00    0.74182   0.74315    0.006
 5919.00    0.73750   0.74569    0.006
 5920.00    0.75627   0.74956    0.006
 5921.00    0.78806   0.74828    0.006
 5922.00    0.84796   0.74295    0.006
 5923.00    0.88033   0.74378    0.006
 5924.00    0.86107   0.74854    0.006
 5925.00    0.82845   0.75165    0.006
 5926.00    0.77396   0.75388    0.006
 5927.00    0.73386   0.75251    0.006
 5928.00    0.71444   0.74653    0.006
 5929.00    0.68150   0.73747    0.006
 5930.00    0.63148   0.73127    0.006
 5931.00    0.61807   0.73934    0.006
 5932.00    0.64538   0.75186    0.006
 5933.00    0.70770   0.75232    0.006
 5934.00    0.80437   0.74151    0.006
 5935.00    0.88060   0.73701    0.006
 5936.00    0.93914   0.74531    0.006
 5937.00    0.91726   0.75283    0.006
 5938.00    0.83406   0.75578    0.006
 5939.00    0.74749   0.75681    0.006
 5940.00    0.65865   0.75037    0.006
 5941.00    0.63647   0.73874    0.006
 5942.00    0.65342   0.73653    0.006
 5943.00    0.71252   0.74254    0.006
 5944.00    0.79319   0.74835    0.006
 5945.00    0.84483   0.75369    0.006
 5946.00    0.88360   0.75673    0.006
 5947.00    0.83598   0.75147    0.006
 5948.00    0.75547   0.73798    0.006
 5949.00    0.67185   0.72983    0.006
 5950.00    0.58724   0.73783    0.006
 5951.00    0.62346   0.74685    0.006
 5952.00    0.69240   0.74020    0.006
 5953.00    0.73736   0.73219    0.006
 5954.00    0.77699   0.73983    0.006
 5955.00    0.75794   0.74732    0.006
 5956.00    0.72849   0.74040    0.006
 5957.00    0.68120   0.73254    0.006
 5958.00    0.63149   0.73522    0.006
 5959.00    0.62147   0.74300    0.006
 5960.00    0.61527   0.75139    0.006
 5961.00    0.65938   0.75664    0.006
 5962.00    0.70649   0.75885    0.006
 5963.00    0.71984   0.75836    0.006
 5964.00    0.73257   0.75566    0.006
 5965.00    0.78379   0.74969    0.006
 5966.00    0.83527   0.74527    0.006
 5967.00    0.89326   0.74975    0.006
 5968.00    0.94436   0.75493    0.006
 5969.00    0.90265   0.75724    0.006
 5970.00    0.85906   0.75958    0.006
 5971.00    0.79859   0.76122    0.006
 5972.00    0.74574   0.76046    0.006
 5973.00    0.74300   0.75972    0.006
 5974.00    0.73747   0.75603    0.006
 5975.00    0.71758   0.74693    0.006
 5976.00    0.69920   0.73707    0.006
 5977.00    0.68706   0.73201    0.006
 5978.00    0.68518   0.73323    0.006
 5979.00    0.71847   0.74008    0.006
 5980.00    0.75534   0.74973    0.006
 5981.00    0.80251   0.75437    0.006
 5982.00    0.82883   0.75059    0.006
 5983.00    0.80377   0.73746    0.006
 5984.00    0.79197   0.72279    0.006
 5985.00    0.80835   0.72372    0.006
 5986.00    0.84004   0.73542    0.006
 5987.00    0.89997   0.74115    0.006
 5988.00    0.93443   0.74314    0.006
 5989.00    0.92779   0.74812    0.006
 5990.00    0.89957   0.74986    0.006
 5991.00    0.84083   0.74396    0.006
 5992.00    0.81002   0.74278    0.006
 5993.00    0.81399   0.75233    0.006
 5994.00    0.82669   0.76021    0.006
 5995.00    0.84898   0.75890    0.006
 5996.00    0.85458   0.75161    0.006
 5997.00    0.84404   0.74221    0.006
 5998.00    0.85389   0.73778    0.006
 5999.00    0.88114   0.74147    0.006
 6000.00    0.88848   0.74716    0.006
 6001.00    0.88085   0.74909    0.006
 6002.00    0.84915   0.74182    0.006
 6003.00    0.80157   0.73510    0.006
 6004.00    0.77842   0.74006    0.006
 6005.00    0.76939   0.74537    0.006
 6006.00    0.76941   0.74064    0.006
 6007.00    0.77400   0.72855    0.006
 6008.00    0.73935   0.71739    0.006
 6009.00    0.68758   0.72492    0.006
 6010.00    0.66668   0.74400    0.006
 6011.00    0.65731   0.75140    0.006
 6012.00    0.68292   0.74261    0.006
 6013.00    0.71962   0.73152    0.006
 6014.00    0.70238   0.73323    0.006
 6015.00    0.67084   0.74019    0.006
 6016.00    0.65555   0.73696    0.006
 6017.00    0.64378   0.73326    0.006
 6018.00    0.65946   0.73824    0.006
 6019.00    0.67986   0.73702    0.006
 6020.00    0.70367   0.72736    0.006
 6021.00    0.72792   0.72410    0.006
 6022.00    0.80959   0.72898    0.006
 6023.00    0.89652   0.73279    0.006
 6024.00    0.86544   0.73278    0.006
 6025.00    0.82778   0.73931    0.006
 6026.00    0.73991   0.74500    0.006
 6027.00    0.65265   0.74315    0.006
 6028.00    0.73545   0.74679    0.006
 6029.00    0.81686   0.75310    0.006
 6030.00    0.86600   0.75383    0.006
 6031.00    0.90733   0.75206    0.006
 6032.00    0.84888   0.75448    0.006
 6033.00    0.79583   0.75865    0.006
 6034.00    0.78923   0.75872    0.006
 6035.00    0.77999   0.75740    0.006
 6036.00    0.75384   0.75701    0.006
 6037.00    0.72873   0.75718    0.006
 6038.00    0.70879   0.75649    0.006
 6039.00    0.69796   0.75303    0.006
 6040.00    0.72393   0.74956    0.006
 6041.00    0.74483   0.74848    0.006
 6042.00    0.74865   0.74849    0.006
 6043.00    0.76347   0.75359    0.006
 6044.00    0.80946   0.75936    0.006
 6045.00    0.84696   0.75981    0.006
 6046.00    0.86392   0.75934    0.006
 6047.00    0.88011   0.76047    0.006
 6048.00    0.89470   0.76083    0.006
 6049.00    0.89597   0.75931    0.006
 6050.00    0.87302   0.76067    0.006
 6051.00    0.81940   0.76213    0.006
 6052.00    0.71706   0.75898    0.006
 6053.00    0.67107   0.75320    0.006
 6054.00    0.70366   0.74974    0.006
 6055.00    0.74094   0.74648    0.006
 6056.00    0.78400   0.74185    0.006
 6057.00    0.79202   0.74264    0.006
 6058.00    0.76214   0.74763    0.006
 6059.00    0.74618   0.75397    0.006
 6060.00    0.74349   0.75753    0.006
 6061.00    0.73508   0.75706    0.006
 6062.00    0.72187   0.75242    0.006
 6063.00    0.71917   0.74583    0.006
 6064.00    0.72425   0.73568    0.006
 6065.00    0.75255   0.72130    0.006
 6066.00    0.79596   0.72451    0.006
 6067.00    0.80517   0.74518    0.006
 6068.00    0.79489   0.75881    0.006
 6069.00    0.79383   0.76226    0.006
 6070.00    0.79734   0.76270    0.006
 6071.00    0.81213   0.76353    0.006
 6072.00    0.83175   0.76419    0.006
 6073.00    0.81666   0.76409    0.006
 6074.00    0.78882   0.76361    0.006
 6075.00    0.73428   0.76311    0.006
 6076.00    0.67143   0.75997    0.006
 6077.00    0.67889   0.75309    0.006
 6078.00    0.70460   0.74129    0.006
 6079.00    0.74794   0.73601    0.006
 6080.00    0.79501   0.74119    0.006
 6081.00    0.81192   0.74081    0.006
 6082.00    0.82379   0.73401    0.006
 6083.00    0.82938   0.73528    0.006
 6084.00    0.83418   0.73970    0.006
 6085.00    0.81140   0.73754    0.006
 6086.00    0.78621   0.73739    0.006
 6087.00    0.78119   0.74320    0.006
 6088.00    0.77721   0.74808    0.006
 6089.00    0.77634   0.74321    0.006
 6090.00    0.77529   0.73332    0.006
 6091.00    0.75676   0.73187    0.006
 6092.00    0.73921   0.73503    0.006
 6093.00    0.74248   0.73648    0.006
 6094.00    0.74780   0.74289    0.006
 6095.00    0.77798   0.75256    0.006
 6096.00    0.81003   0.75292    0.006
 6097.00    0.85769   0.74740    0.006
 6098.00    0.89615   0.74761    0.006
 6099.00    0.87768   0.75315    0.006
 6100.00    0.84946   0.75576    0.006
 6101.00    0.77382   0.74255    0.006
 6102.00    0.71610   0.70814    0.006
 6103.00    0.72938   0.69054    0.006
 6104.00    0.74684   0.71443    0.006
 6105.00    0.77808   0.74132    0.006
 6106.00    0.80083   0.74885    0.006
 6107.00    0.79994   0.74405    0.006
 6108.00    0.79815   0.73914    0.006
 6109.00    0.79420   0.74549    0.006
 6110.00    0.78761   0.75089    0.006
 6111.00    0.77557   0.74515    0.006
 6112.00    0.78644   0.74255    0.006
 6113.00    0.83834   0.74906    0.006
 6114.00    0.87206   0.75522    0.006
 6115.00    0.87733   0.75355    0.006
 6116.00    0.86536   0.74495    0.006
 6117.00    0.82971   0.74353    0.006
 6118.00    0.78839   0.74937    0.006
 6119.00    0.74022   0.74539    0.006
 6120.00    0.69189   0.73287    0.006
 6121.00    0.64341   0.71523    0.006
 6122.00    0.61432   0.69834    0.006
 6123.00    0.60350   0.70882    0.006
 6124.00    0.63261   0.73442    0.006
 6125.00    0.69486   0.74200    0.006
 6126.00    0.76141   0.73749    0.006
 6127.00    0.83111   0.73374    0.006
 6128.00    0.84825   0.73123    0.006
 6129.00    0.83170   0.73437    0.006
 6130.00    0.80195   0.74343    0.006
 6131.00    0.76480   0.74922    0.006
 6132.00    0.77443   0.74870    0.006
 6133.00    0.80688   0.74831    0.006
 6134.00    0.81143   0.74302    0.006
 6135.00    0.80422   0.72533    0.006
 6136.00    0.80491   0.69264    0.006
 6137.00    0.80847   0.66488    0.006
 6138.00    0.83590   0.67996    0.006
 6139.00    0.87063   0.72181    0.006
 6140.00    0.85610   0.74078    0.006
 6141.00    0.82905   0.72568    0.006
 6142.00    0.83790   0.71347    0.006
 6143.00    0.85416   0.72787    0.006
 6144.00    0.86068   0.74673    0.006
 6145.00    0.86561   0.75197    0.006
 6146.00    0.80176   0.74977    0.006
 6147.00    0.72953   0.74513    0.006
 6148.00    0.70771   0.73519    0.006
 6149.00    0.69010   0.72622    0.006
 6150.00    0.74275   0.72353    0.006
 6151.00    0.79876   0.72831    0.006
 6152.00    0.85029   0.73660    0.006
 6153.00    0.90066   0.74171    0.006
 6154.00    0.88795   0.73519    0.006
 6155.00    0.87740   0.72697    0.006
 6156.00    0.90942   0.72855    0.006
 6157.00    0.93622   0.73015    0.006
 6158.00    0.90283   0.72799    0.006
 6159.00    0.87251   0.72558    0.006
 6160.00    0.86685   0.71083    0.006
 6161.00    0.85820   0.67548    0.006
 6162.00    0.83159   0.64664    0.006
 6163.00    0.79340   0.65019    0.006
 6164.00    0.70017   0.67487    0.006
 6165.00    0.62252   0.69546    0.006
 6166.00    0.60520   0.70369    0.006
 6167.00    0.59181   0.71019    0.006
 6168.00    0.59113   0.70541    0.006
 6169.00    0.59244   0.68026    0.006
 6170.00    0.59922   0.66920    0.006
 6171.00    0.61767   0.69109    0.006
 6172.00    0.66343   0.71287    0.006
 6173.00    0.69117   0.71376    0.006
 6174.00    0.68240   0.71230    0.006
 6175.00    0.65813   0.71404    0.006
 6176.00    0.60657   0.71223    0.006
 6177.00    0.58462   0.71171    0.006
 6178.00    0.60837   0.71920    0.006
 6179.00    0.63344   0.72334    0.006
 6180.00    0.66030   0.72005    0.006
 6181.00    0.68879   0.72274    0.006
 6182.00    0.71921   0.72914    0.006
 6183.00    0.74305   0.72989    0.006
 6184.00    0.75996   0.72826    0.006
 6185.00    0.75352   0.72618    0.006
 6186.00    0.72541   0.71760    0.006
 6187.00    0.70370   0.70924    0.006
 6188.00    0.68722   0.70657    0.006
 6189.00    0.67710   0.70704    0.006
 6190.00    0.67155   0.69836    0.006
 6191.00    0.66412   0.67609    0.006
 6192.00    0.65550   0.67413    0.006
 6193.00    0.69940   0.69916    0.006
 6194.00    0.77231   0.71617    0.006
 6195.00    1.07801   0.72026    0.006
 6196.00    1.49550   0.72393   -2.000
 6197.00    1.98277   0.72751   -2.000
 6198.00    2.49897   0.72286   -2.000
 6199.00    2.55912   0.70793   -2.000
 6200.00    2.45761   0.69808   -2.000
 6201.00    1.93722   0.70615   -2.000
 6202.00    1.29148   0.72025   -2.000
 6203.00    0.89606   0.72674   -2.000
 6204.00    0.56282   0.72622   -2.000
 6205.00    0.51257   0.72522   -2.000
 6206.00    0.51930   0.72722   -2.000
 6207.00    0.63710   0.72887   -2.000
 6208.00    0.77241   0.72877    0.006
 6209.00    0.81801   0.72776    0.006
 6210.00    0.85309   0.72384    0.006
 6211.00    0.79463   0.71965    0.006
 6212.00    0.72876   0.71410    0.006
 6213.00    0.69377   0.69810    0.006
 6214.00    0.66014   0.68391    0.006
 6215.00    0.65501   0.67998    0.006
 6216.00    0.65022   0.68503    0.005
 6217.00    0.64640   0.69838    0.005
 6218.00    0.64293   0.70467    0.005
 6219.00    0.64581   0.69498    0.005
 6220.00    0.65316   0.68716    0.005
 6221.00    0.70971   0.69176    0.005
 6222.00    0.76278   0.70096    0.006
 6223.00    0.78890   0.70503    0.006
 6224.00    0.81692   0.70228    0.006
 6225.00    0.85601   0.70277    0.006
 6226.00    0.89922   0.70617    0.006
 6227.00    0.96151   0.70720    0.006
 6228.00    1.00219   0.70614    0.006
 6229.00    0.96093   0.69524    0.006
 6230.00    0.91996   0.67237    0.006
 6231.00    0.87991   0.66184    0.006
 6232.00    0.83554   0.67263    0.006
 6233.00    0.77952   0.68691    0.006
 6234.00    0.72241   0.70366    0.006
 6235.00    0.66278   0.71700    0.006
 6236.00    0.62872   0.71711    0.006
 6237.00    0.64562   0.70874    0.006
 6238.00    0.67540   0.69933    0.006
 6239.00    0.72754   0.69114    0.006
 6240.00    0.77365   0.68557    0.006
 6241.00    0.81058   0.69019    0.006
 6242.00    0.81596   0.69132    0.006
 6243.00    0.77922   0.68048    0.006
 6244.00    0.70749   0.67806    0.006
 6245.00    0.59461   0.68073    0.006
 6246.00    0.55306   0.67865    0.006
 6247.00    0.58545   0.68504    0.006
 6248.00    0.62394   0.69987    0.006
 6249.00    0.66801   0.70928    0.006
 6250.00    0.70624   0.71026    0.006
 6251.00    0.73977   0.70097    0.006
 6252.00    0.75483   0.68134    0.006
 6253.00    0.75680   0.67024    0.006
 6254.00    0.79901   0.67292    0.006
 6255.00    0.86625   0.67831    0.006
 6256.00    0.91189   0.67622    0.006
 6257.00    0.94579   0.66801    0.006
 6258.00    1.03106   0.66093    0.006
 6259.00    1.14061   0.66694    0.006
 6260.00    1.27441   0.68375    0.006
 6261.00    1.41809   0.69232    0.007
 6262.00    1.34242   0.70011    0.007
 6263.00    1.19041   0.71194    0.008
 6264.00    0.94578   0.70963    0.007
 6265.00    0.67399   0.69675    0.007
 6266.00    0.52983   0.69664    0.007
 6267.00    0.41666   0.70632    0.006
 6268.00    0.45939   0.70770    0.006
 6269.00    0.53271   0.70215    0.006
 6270.00    0.61284   0.69934    0.006
 6271.00    0.69402   0.70207    0.006
 6272.00    0.71021   0.70824    0.005
 6273.00    0.71906   0.71220    0.005
 6274.00    0.71855   0.71062    0.006
 6275.00    0.71734   0.70952    0.006
 6276.00    0.72004   0.71092    0.005
 6277.00    0.72289   0.71034    0.005
 6278.00    0.70810   0.70779    0.005
 6279.00    0.69467   0.70115    0.005
 6280.00    0.74149   0.69096    0.000
 6281.00    0.78653   0.68971    0.000
 6282.00    0.80139   0.69726    0.000
 6283.00    0.81280   0.70554    0.000
 6284.00    0.78794   0.71161    0.000
 6285.00    0.76336   0.71112    0.000
 6286.00    0.74078   0.71280    0.000
 6287.00    0.71938   0.71962    0.000
 6288.00    0.70462   0.72490    0.000
 6289.00    0.69595   0.72559    0.000
 6290.00    0.71485   0.71836    0.000
 6291.00    0.72215   0.71062    0.000
 6292.00    0.68641   0.70741    0.000
 6293.00    0.65824   0.70713    0.000
 6294.00    0.65356   0.71170    0.000
 6295.00    0.67005   0.71262    0.000
 6296.00    0.74237   0.70176    0.000
 6297.00    0.79914   0.69107    0.000
 6298.00    0.82073   0.69241    0.000
 6299.00    0.83030   0.70065    0.000
 6300.00    0.81630   0.70045    0.000
 6301.00    0.81598   0.68906    0.000
 6302.00    0.83906   0.68255    0.000
 6303.00    0.84511   0.69122    0.000
 6304.00    0.82568   0.70372    0.000
 6305.00    0.79268   0.70735    0.000
 6306.00    0.74181   0.70924    0.000
 6307.00    0.69959   0.71836    0.000
 6308.00    0.66740   0.72488    0.000
 6309.00    0.65533   0.72212    0.000
 6310.00    0.66385   0.71438    0.000
 6311.00    0.69064   0.70777    0.000
 6312.00    0.73391   0.70702    0.000
 6313.00    0.75959   0.71057    0.000
 6314.00    0.77129   0.70390    0.000
 6315.00    0.74757   0.69263    0.000
 6316.00    0.69909   0.69492    0.000
 6317.00    0.68175   0.69640    0.000
 6318.00    0.68350   0.68539    0.000
 6319.00    0.68129   0.68589    0.000
 6320.00    0.67695   0.70030    0.000
 6321.00    0.63682   0.70817    0.005
 6322.00    0.58003   0.70632    0.005
 6323.00    0.56809   0.70783    0.005
 6324.00    0.57411   0.71628    0.005
 6325.00    0.62667   0.72085    0.005
 6326.00    0.69512   0.72044    0.005
 6327.00    0.70029   0.71735    0.005
 6328.00    0.68728   0.71788    0.005
 6329.00    0.66108   0.71983    0.005
 6330.00    0.63175   0.71531    0.005
 6331.00    0.67772   0.71483    0.005
 6332.00    0.73809   0.72184    0.005
 6333.00    0.77635   0.72724    0.005
 6334.00    0.81132   0.71880    0.005
 6335.00    0.77458   0.69706    0.005
 6336.00    0.73006   0.68382    0.005
 6337.00    0.72301   0.69013    0.005
 6338.00    0.71863   0.70195    0.005
 6339.00    0.69384   0.70744    0.005
 6340.00    0.66832   0.71529    0.006
 6341.00    0.66439   0.72279    0.006
 6342.00    0.66078   0.71973    0.006
 6343.00    0.66510   0.70777    0.006
 6344.00    0.67011   0.69717    0.006
 6345.00    0.68601   0.69915    0.006
 6346.00    0.70244   0.70383    0.006
 6347.00    0.72424   0.70485    0.005
 6348.00    0.74451   0.71059    0.005
 6349.00    0.75375   0.71895    0.005
 6350.00    0.75465   0.72189    0.005
 6351.00    0.70940   0.72203    0.005
 6352.00    0.67183   0.72159    0.005
 6353.00    0.66822   0.71677    0.005
 6354.00    0.67468   0.70597    0.005
 6355.00    0.71772   0.69833    0.005
 6356.00    0.75963   0.70273    0.005
 6357.00    0.79808   0.70418    0.005
 6358.00    0.82803   0.69266    0.005
 6359.00    0.83592   0.68390    0.005
 6360.00    0.81825   0.68662    0.005
 6361.00    0.74366   0.68666    0.005
 6362.00    0.68636   0.68063    0.006
 6363.00    0.66246   0.68016    0.006
 6364.00    0.66479   0.68745    0.006
 6365.00    0.71130   0.69569    0.006
 6366.00    0.75188   0.70166    0.006
 6367.00    0.78371   0.70858    0.006
 6368.00    0.81280   0.71510    0.006
 6369.00    0.83832   0.71495    0.006
 6370.00    0.84914   0.70869    0.006
 6371.00    0.84315   0.70689    0.006
 6372.00    0.81159   0.71450    0.006
 6373.00    0.75426   0.72264    0.006
 6374.00    0.71383   0.72401    0.005
 6375.00    0.68843   0.72287    0.005
 6376.00    0.67145   0.72275    0.005
 6377.00    0.66109   0.72057    0.005
 6378.00    0.65925   0.71320    0.005
 6379.00    0.66329   0.70665    0.005
 6380.00    0.66292   0.70466    0.005
 6381.00    0.65988   0.70601    0.005
 6382.00    0.66711   0.71165    0.005
 6383.00    0.67975   0.71514    0.005
 6384.00    0.70543   0.71142    0.005
 6385.00    0.73706   0.70962    0.005
 6386.00    0.73443   0.71321    0.005
 6387.00    0.71830   0.71709    0.005
 6388.00    0.70696   0.71720    0.005
 6389.00    0.69722   0.71627    0.005
 6390.00    0.70669   0.71682    0.005
 6391.00    0.72156   0.71532    0.005
 6392.00    0.72670   0.70322    0.005
 6393.00    0.72958   0.68387    0.006
 6394.00    0.71479   0.68228    0.006
 6395.00    0.69671   0.70105    0.006
 6396.00    0.68218   0.71690    0.006
 6397.00    0.66815   0.72312    0.006
 6398.00    0.68597   0.71921    0.006
 6399.00    0.70711   0.69656    0.006
 6400.00    0.75423   0.67384    0.006
 6401.00    0.80309   0.68553    0.006
 6402.00    0.76186   0.71272    0.006
 6403.00    0.71769   0.72513    0.005
 6404.00    0.64435   0.72767    0.005
 6405.00    0.57379   0.72536    0.005
 6406.00    0.58976   0.71854    0.005
 6407.00    0.60901   0.70616    0.005
 6408.00    0.67760   0.69839    0.005
 6409.00    0.73952   0.70784    0.005
 6410.00    0.73708   0.71522    0.005
 6411.00    0.72779   0.70353    0.005
 6412.00    0.67057   0.69705    0.005
 6413.00    0.62076   0.70474    0.005
 6414.00    0.61083   0.71018    0.005
 6415.00    0.61035   0.71165    0.005
 6416.00    0.65074   0.71432    0.005
 6417.00    0.68649   0.71490    0.006
 6418.00    0.70575   0.71337    0.006
 6419.00    0.72062   0.70599    0.006
 6420.00    0.72242   0.69110    0.006
 6421.00    0.72602   0.68357    0.006
 6422.00    0.73421   0.69711    0.005
 6423.00    0.74433   0.71809    0.005
 6424.00    0.75871   0.72511    0.005
 6425.00    0.76254   0.72268    0.005
 6426.00    0.74636   0.72345    0.005
 6427.00    0.73184   0.72733    0.005
 6428.00    0.72008   0.72757    0.005
 6429.00    0.71876   0.71895    0.005
 6430.00    0.73261   0.69952    0.005
 6431.00    0.73136   0.68674    0.005
 6432.00    0.71077   0.69453    0.005
 6433.00    0.67436   0.70841    0.005
 6434.00    0.62010   0.71768    0.005
 6435.00    0.58677   0.72279    0.005
 6436.00    0.57425   0.72508    0.005
 6437.00    0.59751   0.71973    0.005
 6438.00    0.65213   0.69917    0.005
 6439.00    0.69265   0.68274    0.005
 6440.00    0.72230   0.69595    0.005
 6441.00    0.74040   0.71993    0.005
 6442.00    0.75066   0.73026    0.006
 6443.00    0.74011   0.73182    0.006
 6444.00    0.71717   0.73139    0.006
 6445.00    0.70480   0.73158    0.005
 6446.00    0.69791   0.73302    0.005
 6447.00    0.73162   0.73112    0.006
 6448.00    0.78360   0.71696    0.006
 6449.00    0.77944   0.68599    0.006
 6450.00    0.75355   0.66528    0.005
 6451.00    0.74629   0.68083    0.005
 6452.00    0.74514   0.70687    0.005
 6453.00    0.78951   0.72057    0.005
 6454.00    0.84642   0.71939    0.005
 6455.00    0.89328   0.70505    0.005
 6456.00    0.93786   0.69410    0.005
 6457.00    0.90621   0.70235    0.005
 6458.00    0.86073   0.71907    0.005
 6459.00    0.77607   0.72938    0.005
 6460.00    0.68595   0.73013    0.005
 6461.00    0.63185   0.71515    0.005
 6462.00    0.58134   0.68381    0.005
 6463.00    0.59428   0.67171    0.005
 6464.00    0.61122   0.69238    0.005
 6465.00    0.65292   0.71234    0.005
 6466.00    0.69514   0.72132    0.005
 6467.00    0.67891   0.72549    0.005
 6468.00    0.66283   0.72453    0.005
 6469.00    0.65106   0.71815    0.005
 6470.00    0.63979   0.71201    0.005
 6471.00    0.63564   0.70507    0.006
 6472.00    0.63000   0.70366    0.006
 6473.00    0.61053   0.71170    0.006
 6474.00    0.59719   0.71165    0.006
 6475.00    0.62532   0.70365    0.005
 6476.00    0.64333   0.70430    0.005
 6477.00    0.60821   0.71329    0.005
 6478.00    0.58386   0.71678    0.005
 6479.00    0.60501   0.71638    0.005
 6480.00    0.63193   0.71297    0.005
 6481.00    0.67901   0.69903    0.005
 6482.00    0.71891   0.68316    0.005
 6483.00    0.73774   0.68234    0.005
 6484.00    0.75387   0.69413    0.005
 6485.00    0.76326   0.70392    0.005
 6486.00    0.75268   0.70816    0.005
 6487.00    0.69906   0.71010    0.005
 6488.00    0.65434   0.71096    0.005
 6489.00    0.62627   0.70856    0.005
 6490.00    0.61112   0.70190    0.005
 6491.00    0.61708   0.69552    0.005
 6492.00    0.62698   0.68913    0.005
 6493.00    0.64252   0.66988    0.005
 6494.00    0.66432   0.63854    0.005
 6495.00    0.69399   0.62185    0.005
 6496.00    0.71285   0.62538    0.005
 6497.00    0.71970   0.63836    0.005
 6498.00    0.71511   0.65478    0.005
 6499.00    0.69930   0.66267    0.005
 6500.00    0.67392   0.67285    0.005
 6501.00    0.64026   0.68708    0.005
 6502.00    0.63723   0.69578    0.005
 6503.00    0.65750   0.70020    0.005
 6504.00    0.65749   0.70247    0.005
 6505.00    0.64391   0.70563    0.005
 6506.00    0.63159   0.70862    0.005
 6507.00    0.62002   0.70686    0.005
 6508.00    0.63260   0.70118    0.005
 6509.00    0.65753   0.69916    0.005
 6510.00    0.67867   0.70353    0.005
 6511.00    0.69813   0.70699    0.005
 6512.00    0.66759   0.70679    0.005
 6513.00    0.61805   0.70568    0.005
 6514.00    0.62115   0.70234    0.005
 6515.00    0.64124   0.69429    0.005
 6516.00    0.69109   0.68686    0.005
 6517.00    0.74897   0.68385    0.005
 6518.00    0.73218   0.68135    0.005
 6519.00    0.69886   0.68378    0.005
 6520.00    0.62596   0.69481    0.005
 6521.00    0.54609   0.70385    0.005
 6522.00    0.49405   0.70518    0.005
 6523.00    0.44576   0.70353    0.005
 6524.00    0.51599   0.70427    0.006
 6525.00    0.59754   0.70412    0.006
 6526.00    0.69711   0.69696    0.007
 6527.00    0.79774   0.68992    0.008
 6528.00    0.77234   0.69286    0.000
 6529.00    0.74344   0.70033    0.000
 6530.00    0.66562   0.70301    0.000
 6531.00    0.59018   0.69894    0.000
 6532.00    0.57436   0.69208    0.000
 6533.00    0.56156   0.68801    0.000
 6534.00    0.58930   0.69109    0.000
 6535.00    0.62104   0.69864    0.000
 6536.00    0.68847   0.70208    0.000
 6537.00    0.75560   0.69898    0.000
 6538.00    0.82084   0.69747    0.000
 6539.00    0.86939   0.70143    0.000
 6540.00    0.83263   0.70484    0.000
 6541.00    0.79256   0.70225    0.000
 6542.00    0.73877   0.69523    0.000
 6543.00    0.69919   0.68875    0.000
 6544.00    0.70814   0.68407    0.000
 6545.00    0.71946   0.67400    0.000
 6546.00    0.73763   0.66035    0.000
 6547.00    0.74977   0.66085    0.000
 6548.00    0.74710   0.67175    0.000
 6549.00    0.74161   0.67682    0.000
 6550.00    0.73012   0.67335    0.000
 6551.00    0.72810   0.66663    0.000
 6552.00    0.74351   0.66165    0.000
 6553.00    0.76350   0.65628    0.000
 6554.00    0.79083   0.64590    0.000
 6555.00    0.81080   0.63404    0.000
 6556.00    0.82035   0.62872    0.000
 6557.00    0.86029   0.63027    0.000
 6558.00    0.93800   0.62897    0.000
 6559.00    1.02732   0.61900    0.000
 6560.00    1.12937   0.59845    0.000
 6561.00    1.16288   0.54553    0.000
 6562.00    1.13018   0.45209    0.000
 6563.00    1.02514   0.40689    0.000
 6564.00    0.85849   0.47186    0.000
 6565.00    0.72423   0.56165    0.000
 6566.00    0.61426   0.60814    0.000
 6567.00    0.57491   0.62781    0.000
 6568.00    0.58211   0.63431    0.000
 6569.00    0.59157   0.63296    0.000
 6570.00    0.60233   0.63757    0.000
 6571.00    0.61797   0.64574    0.000
 6572.00    0.63605   0.64476    0.000
 6573.00    0.64930   0.63853    0.000
 6574.00    0.66044   0.63583    0.000
 6575.00    0.66006   0.64185    0.000
 6576.00    0.65538   0.65762    0.000
 6577.00    0.70542   0.67233    0.000
 6578.00    0.77278   0.67870    0.000
 6579.00    0.79645   0.67845    0.000
 6580.00    0.80857   0.67317    0.000
 6581.00    0.81160   0.66857    0.000
 6582.00    0.81268   0.67323    0.000
 6583.00    0.79296   0.68084    0.000
 6584.00    0.76967   0.68329    0.000
 6585.00    0.70840   0.68118    0.000
 6586.00    0.64219   0.67785    0.000
 6587.00    0.64252   0.68074    0.000
 6588.00    0.64894   0.68818    0.000
 6589.00    0.68193   0.69298    0.000
 6590.00    0.71638   0.69387    0.000
 6591.00    0.69763   0.68648    0.000
 6592.00    0.67755   0.66505    0.000
 6593.00    0.63962   0.64365    0.000
 6594.00    0.60294   0.64792    0.000
 6595.00    0.59473   0.67004    0.000
 6596.00    0.58917   0.68315    0.000
 6597.00    0.61717   0.68262    0.000
 6598.00    0.64821   0.67674    0.000
 6599.00    0.70519   0.67692    0.000
 6600.00    0.74559   0.68617    0.000
 6601.00    0.68052   0.69518    0.000
 6602.00    0.61962   0.69694    0.000
 6603.00    0.57944   0.69349    0.000
 6604.00    0.55168   0.68689    0.000
 6605.00    0.57402   0.68182    0.000
 6606.00    0.58723   0.68131    0.000
 6607.00    0.56981   0.67971    0.000
 6608.00    0.56755   0.67277    0.000
 6609.00    0.60811   0.66647    0.005
 6610.00    0.64120   0.67440    0.005
 6611.00    0.65622   0.68986    0.005
 6612.00    0.66249   0.69503    0.005
 6613.00    0.65051   0.68939    0.005
 6614.00    0.64024   0.68660    0.005
 6615.00    0.63307   0.69254    0.005
 6616.00    0.64178   0.69684    0.005
 6617.00    0.67568   0.69532    0.005
 6618.00    0.69243   0.69354    0.005
 6619.00    0.68531   0.69459    0.005
 6620.00    0.68086   0.69690    0.005
 6621.00    0.67966   0.69825    0.005
 6622.00    0.70118   0.69694    0.005
 6623.00    0.74723   0.69071    0.005
 6624.00    0.76026   0.68039    0.005
 6625.00    0.74185   0.67534    0.005
 6626.00    0.71890   0.68035    0.005
 6627.00    0.69214   0.68569    0.005
 6628.00    0.66939   0.68710    0.005
 6629.00    0.64961   0.68704    0.005
 6630.00    0.62104   0.68546    0.005
 6631.00    0.58675   0.68350    0.005
 6632.00    0.57580   0.67852    0.005
 6633.00    0.57812   0.66842    0.005
 6634.00    0.57431   0.66263    0.005
 6635.00    0.56747   0.67042    0.005
 6636.00    0.58233   0.68165    0.005
 6637.00    0.60647   0.68772    0.005
 6638.00    0.63949   0.68859    0.005
 6639.00    0.67577   0.68560    0.005
 6640.00    0.68664   0.68413    0.005
 6641.00    0.68963   0.68873    0.005
 6642.00    0.65241   0.68735    0.005
 6643.00    0.60478   0.67352    0.005
 6644.00    0.60605   0.66806    0.005
 6645.00    0.61763   0.67719    0.005
 6646.00    0.62219   0.68453    0.005
 6647.00    0.62558   0.68459    0.005
 6648.00    0.60626   0.68429    0.005
 6649.00    0.58409   0.68623    0.005
 6650.00    0.55013   0.68605    0.005
 6651.00    0.51515   0.68288    0.005
 6652.00    0.52172   0.68041    0.005
 6653.00    0.53042   0.68026    0.005
 6654.00    0.60483   0.68134    0.005
 6655.00    0.67965   0.68262    0.005
 6656.00    0.70110   0.68182    0.005
 6657.00    0.72073   0.68137    0.005
 6658.00    0.70202   0.68277    0.005
 6659.00    0.68809   0.68274    0.005
 6660.00    0.73180   0.68051    0.005
 6661.00    0.76685   0.67714    0.005
 6662.00    0.73039   0.66985    0.005
 6663.00    0.68351   0.65894    0.005
 6664.00    0.57221   0.65925    0.005
 6665.00    0.47661   0.66885    0.005
 6666.00    0.45730   0.67261    0.005
 6667.00    0.45670   0.67204    0.005
 6668.00    0.53002   0.67341    0.005
 6669.00    0.59538   0.67888    0.005
 6670.00    0.63458   0.68430    0.005
 6671.00    0.65774   0.68660    0.005
 6672.00    0.63634   0.68581    0.005
 6673.00    0.62273   0.68515    0.005
 6674.00    0.62763   0.68558    0.005
 6675.00    0.63320   0.68582    0.005
 6676.00    0.64017   0.67982    0.005
 6677.00    0.63626   0.66047    0.005
 6678.00    0.61294   0.64389    0.005
 6679.00    0.59655   0.65148    0.005
 6680.00    0.59101   0.66737    0.005
 6681.00    0.59014   0.67176    0.005
 6682.00    0.59569   0.67258    0.005
 6683.00    0.58738   0.67529    0.005
 6684.00    0.56234   0.67805    0.005
 6685.00    0.55391   0.67894    0.005
 6686.00    0.56316   0.67823    0.005
 6687.00    0.57690   0.67688    0.005
 6688.00    0.59487   0.67600    0.005
 6689.00    0.59749   0.67728    0.005
 6690.00    0.58739   0.67897    0.005
 6691.00    0.58420   0.67949    0.005
 6692.00    0.58604   0.67848    0.005
 6693.00    0.58864   0.67862    0.005
 6694.00    0.59174   0.67751    0.005
 6695.00    0.59323   0.67161    0.005
 6696.00    0.59384   0.66376    0.000
 6697.00    0.60688   0.66295    0.000
 6698.00    0.62598   0.66743    0.000
 6699.00    0.65300   0.67239    0.000
 6700.00    0.68335   0.67822    0.000
 6701.00    0.68525   0.68063    0.000
 6702.00    0.67690   0.67820    0.000
 6703.00    0.67291   0.67214    0.000
 6704.00    0.67025   0.66671    0.000
 6705.00    0.65292   0.66733    0.000
 6706.00    0.63186   0.67278    0.000
 6707.00    0.61769   0.67577    0.000
 6708.00    0.60493   0.67598    0.000
 6709.00    0.63099   0.67493    0.000
 6710.00    0.66333   0.67193    0.000
 6711.00    0.68610   0.67175    0.000
 6712.00    0.70770   0.67262    0.000
 6713.00    0.74035   0.66928    0.000
 6714.00    0.77391   0.66442    0.000
 6715.00    0.74946   0.65900    0.000
 6716.00    0.72226   0.65088    0.000
 6717.00    0.71607   0.64016    0.000
 6718.00    0.71025   0.63969    0.000
 6719.00    0.70884   0.65321    0.000
 6720.00    0.70680   0.66386    0.000
 6721.00    0.69260   0.66438    0.000
 6722.00    0.68127   0.66330    0.000
 6723.00    0.70286   0.66705    0.000
 6724.00    0.72138   0.67010    0.000
 6725.00    0.71547   0.66739    0.000
 6726.00    0.71062   0.66261    0.000
 6727.00    0.71207   0.66323    0.000
 6728.00    0.71770   0.66785    0.000
 6729.00    0.74319   0.67092    0.000
 6730.00    0.75304   0.67254    0.000
 6731.00    0.70251   0.67258    0.000
 6732.00    0.65683   0.67081    0.000
 6733.00    0.62677   0.66850    0.000
 6734.00    0.59967   0.66820    0.000
 6735.00    0.58067   0.66956    0.000
 6736.00    0.57674   0.67152    0.000
 6737.00    0.60803   0.66949    0.000
 6738.00    0.63571   0.66346    0.000
 6739.00    0.65609   0.65918    0.000
 6740.00    0.66667   0.66121    0.000
 6741.00    0.66000   0.66523    0.000
 6742.00    0.64033   0.66306    0.000
 6743.00    0.60065   0.65798    0.000
 6744.00    0.54731   0.66031    0.000
 6745.00    0.47549   0.66482    0.000
 6746.00    0.45636   0.66459    0.000
 6747.00    0.49994   0.66264    0.000
 6748.00    0.54363   0.65984    0.000
 6749.00    0.58743   0.65484    0.000
 6750.00    0.59687   0.65162    0.000
 6751.00    0.57448   0.65495    0.000
 6752.00    0.58972   0.65710    0.000
 6753.00    0.63569   0.65560    0.006
 6754.00    0.65338   0.65972    0.006
 6755.00    0.65073   0.66429    0.006
 6756.00    0.61926   0.66596    0.006
 6757.00    0.56959   0.66846    0.006
 6758.00    0.53579   0.67143    0.006
 6759.00    0.51074   0.67383    0.006
 6760.00    0.56237   0.67473    0.006
 6761.00    0.65076   0.67398    0.006
 6762.00    0.69344   0.67200    0.006
 6763.00    0.71723   0.67264    0.006
 6764.00    0.73520   0.67347    0.006
 6765.00    0.75111   0.67181    0.006
 6766.00    0.75283   0.66570    0.006
 6767.00    0.75030   0.65713    0.006
 6768.00    0.77058   0.65544    0.006
 6769.00    0.79651   0.66158    0.006
 6770.00    0.80363   0.66367    0.006
 6771.00    0.80697   0.65954    0.006
 6772.00    0.79048   0.66018    0.006
 6773.00    0.77087   0.66641    0.006
 6774.00    0.72017   0.67293    0.006
 6775.00    0.66584   0.67678    0.006
 6776.00    0.63023   0.67781    0.006
 6777.00    0.59609   0.67694    0.005
 6778.00    0.61125   0.67636    0.006
 6779.00    0.62856   0.67840    0.006
 6780.00    0.62787   0.67803    0.006
 6781.00    0.62646   0.67318    0.006
 6782.00    0.60058   0.66542    0.006
 6783.00    0.57441   0.65636    0.006
 6784.00    0.54287   0.65050    0.006
 6785.00    0.51929   0.65104    0.005
 6786.00    0.58281   0.65392    0.005
 6787.00    0.64594   0.65850    0.005
 6788.00    0.70608   0.66439    0.006
 6789.00    0.75255   0.66618    0.006
 6790.00    0.71933   0.66473    0.006
 6791.00    0.68219   0.66514    0.006
 6792.00    0.62687   0.66548    0.006
 6793.00    0.58413   0.66181    0.006
 6794.00    0.58897   0.65947    0.006
 6795.00    0.57370   0.66086    0.006
 6796.00    0.49499   0.66242    0.006
 6797.00    0.45707   0.66408    0.005
 6798.00    0.52838   0.66457    0.005
 6799.00    0.59675   0.66531    0.005
 6800.00    0.65840   0.66787    0.006
 6801.00    0.69517   0.66988    0.006
 6802.00    0.68246   0.67062    0.006
 6803.00    0.68450   0.66844    0.006
 6804.00    0.71211   0.66547    0.006
 6805.00    0.69002   0.66590    0.006
 6806.00    0.59255   0.66516    0.005
 6807.00    0.55060   0.66327    0.005
 6808.00    0.58265   0.66561    0.005
 6809.00    0.62717   0.66589    0.005
 6810.00    0.68632   0.66274    0.005
 6811.00    0.69676   0.66375    0.006
 6812.00    0.65678   0.66682    0.006
 6813.00    0.64586   0.66694    0.006
 6814.00    0.66148   0.66213    0.006
 6815.00    0.64500   0.65761    0.006
 6816.00    0.60270   0.66153    0.006
 6817.00    0.61389   0.66871    0.006
 6818.00    0.66296   0.66989    0.006
 6819.00    0.70232   0.66545    0.005
 6820.00    0.73565   0.66103    0.005
 6821.00    0.71074   0.66291    0.005
 6822.00    0.65422   0.66928    0.005
 6823.00    0.61662   0.67245    0.005
 6824.00    0.58794   0.67277    0.005
 6825.00    0.58083   0.67297    0.005
 6826.00    0.58247   0.67228    0.005
 6827.00    0.59306   0.66628    0.005
 6828.00    0.60674   0.65881    0.005
 6829.00    0.64774   0.65886    0.005
 6830.00    0.69672   0.66574    0.005
 6831.00    0.69948   0.67059    0.005
 6832.00    0.69105   0.66959    0.005
 6833.00    0.69208   0.66764    0.005
 6834.00    0.69496   0.66996    0.006
 6835.00    0.68370   0.67280    0.006
 6836.00    0.67029   0.67209    0.006
 6837.00    0.66624   0.66877    0.006
 6838.00    0.66323   0.66362    0.006
 6839.00    0.64057   0.65709    0.006
 6840.00    0.61643   0.65107    0.006
 6841.00    0.58491   0.64416    0.006
 6842.00    0.55309   0.64159    0.006
 6843.00    0.52713   0.64716    0.006
 6844.00    0.50433   0.65724    0.005
 6845.00    0.60555   0.66539    0.005
 6846.00    0.69660   0.66762    0.005
 6847.00    0.61582   0.66703    0.005
 6848.00    0.54740   0.66747    0.005
 6849.00    0.60821   0.66710    0.005
 6850.00    0.65605   0.66566    0.005
 6851.00    0.60759   0.66478    0.005
 6852.00    0.57021   0.66545    0.005
 6853.00    0.59562   0.66562    0.005
 6854.00    0.62468   0.65897    0.005
 6855.00    0.67023   0.64857    0.005
 6856.00    0.70024   0.64796    0.005
 6857.00    0.67275   0.65321    0.005
 6858.00    0.65126   0.65542    0.005
 6859.00    0.64835   0.65784    0.006
 6860.00    0.64994   0.65673    0.006
 6861.00    0.66337   0.64976    0.006
 6862.00    0.66476   0.64824    0.006
 6863.00    0.63895   0.65793    0.006
 6864.00    0.59835   0.66817    0.005
 6865.00    0.52880   0.66921    0.005
 6866.00    0.51127   0.66410    0.005
 6867.00    0.58248   0.65767    0.005
 6868.00    0.62726   0.65144    0.006
 6869.00    0.63253   0.65343    0.006
 6870.00    0.61463   0.65976    0.005
 6871.00    0.56626   0.65969    0.005
 6872.00    0.55203   0.65471    0.005
 6873.00    0.57730   0.65544    0.005
 6874.00    0.62564   0.65949    0.005
 6875.00    0.69754   0.66041    0.005
 6876.00    0.71391   0.66154    0.005
 6877.00    0.68032   0.66538    0.005
 6878.00    0.61921   0.66942    0.005
 6879.00    0.53627   0.67025    0.005
 6880.00    0.51763   0.66764    0.005
 6881.00    0.54386   0.66129    0.005
 6882.00    0.60193   0.65355    0.005
 6883.00    0.67949   0.65165    0.005
 6884.00    0.70213   0.65735    0.005
 6885.00    0.69542   0.66187    0.005
 6886.00    0.64053   0.66066    0.005
 6887.00    0.56329   0.66281    0.005
 6888.00    0.54899   0.66834    0.005
 6889.00    0.55986   0.66988    0.005
 6890.00    0.60539   0.67037    0.005
 6891.00    0.66273   0.67327    0.005
 6892.00    0.67706   0.67324    0.005
 6893.00    0.67905   0.67058    0.005
 6894.00    0.65383   0.66992    0.005
 6895.00    0.62216   0.66856    0.005
 6896.00    0.60211   0.66682    0.005
 6897.00    0.58429   0.66734    0.005
 6898.00    0.57399   0.67056    0.005
 6899.00    0.56480   0.67114    0.005
 6900.00    0.61217   0.66673    0.005
 6901.00    0.66565   0.66613    0.006
 6902.00    0.61870   0.67118    0.006
 6903.00    0.56464   0.67504    0.005
 6904.00    0.57815   0.67327    0.005
 6905.00    0.59407   0.67064    0.005
 6906.00    0.57419   0.67287    0.005
 6907.00    0.55373   0.67806    0.005
 6908.00    0.51728   0.67965    0.005
 6909.00    0.48542   0.67794    0.005
 6910.00    0.52633   0.67561    0.005
 6911.00    0.56650   0.67283    0.005
 6912.00    0.59932   0.67070    0.005
 6913.00    0.61902   0.66585    0.005
 6914.00    0.54440   0.65789    0.005
 6915.00    0.48132   0.65728    0.005
 6916.00    0.48188   0.66117    0.005
 6917.00    0.48923   0.66278    0.005
 6918.00    0.52648   0.66458    0.005
 6919.00    0.56428   0.66652    0.005
 6920.00    0.60406   0.66966    0.005
 6921.00    0.62692   0.67350    0.005
 6922.00    0.59836   0.67483    0.005
 6923.00    0.57824   0.66969    0.005
 6924.00    0.57996   0.66010    0.005
 6925.00    0.58105   0.65431    0.005
 6926.00    0.58075   0.65680    0.005
 6927.00    0.57212   0.66541    0.005
 6928.00    0.54743   0.67183    0.005
 6929.00    0.53781   0.67289    0.005
 6930.00    0.55356   0.67234    0.005
 6931.00    0.59835   0.67148    0.005
 6932.00    0.68592   0.66736    0.005
 6933.00    0.70471   0.66212    0.005
 6934.00    0.63444   0.66381    0.005
 6935.00    0.58886   0.67023    0.005
 6936.00    0.57143   0.67187    0.005
 6937.00    0.56422   0.67068    0.005
 6938.00    0.56731   0.66981    0.005
 6939.00    0.59038   0.67132    0.005
 6940.00    0.63119   0.67412    0.005
 6941.00    0.63134   0.67591    0.005
 6942.00    0.59969   0.67400    0.005
 6943.00    0.59057   0.66930    0.006
 6944.00    0.59694   0.66080    0.006
 6945.00    0.57587   0.65324    0.006
 6946.00    0.53827   0.65791    0.006
 6947.00    0.52411   0.66841    0.006
 6948.00    0.52229   0.67401    0.006
 6949.00    0.53307   0.67557    0.006
 6950.00    0.54959   0.67279    0.006
 6951.00    0.56652   0.66620    0.006
 6952.00    0.58362   0.66330    0.006
 6953.00    0.61731   0.66357    0.005
 6954.00    0.65655   0.66346    0.005
 6955.00    0.66141   0.66558    0.005
 6956.00    0.65661   0.67000    0.005
 6957.00    0.57933   0.67319    0.005
 6958.00    0.48529   0.67353    0.005
 6959.00    0.47270   0.67349    0.005
 6960.00    0.47524   0.67372    0.005
 6961.00    0.48271   0.67486    0.005
 6962.00    0.49089   0.67579    0.005
 6963.00    0.54738   0.67699    0.005
 6964.00    0.60887   0.67758    0.006
 6965.00    0.56889   0.67466    0.006
 6966.00    0.52215   0.67192    0.006
 6967.00    0.51431   0.67498    0.006
 6968.00    0.50773   0.68092    0.006
 6969.00    0.56458   0.68176    0.006
 6970.00    0.61786   0.67805    0.006
 6971.00    0.56142   0.67373    0.006
 6972.00    0.50905   0.67460    0.006
 6973.00    0.51712   0.67872    0.006
 6974.00    0.52580   0.67804    0.006
 6975.00    0.54038   0.67154    0.006
 6976.00    0.55626   0.66434    0.006
 6977.00    0.58128   0.65367    0.005
 6978.00    0.59498   0.63794    0.005
 6979.00    0.54789   0.63343    0.005
 6980.00    0.51278   0.64865    0.006
 6981.00    0.52929   0.66639    0.006
 6982.00    0.55899   0.67587    0.006
 6983.00    0.63553   0.68000    0.006
 6984.00    0.68043   0.68125    0.005
 6985.00    0.63098   0.68092    0.006
 6986.00    0.59433   0.68077    0.006
 6987.00    0.59024   0.67936    0.006
 6988.00    0.59104   0.67372    0.006
 6989.00    0.60253   0.66758    0.006
 6990.00    0.59721   0.66821    0.006
 6991.00    0.55998   0.67393    0.006
 6992.00    0.54264   0.67887    0.006
 6993.00    0.55822   0.67928    0.006
 6994.00    0.54510   0.67561    0.006
 6995.00    0.49035   0.67491    0.005
 6996.00    0.48504   0.67755    0.005
 6997.00    0.54284   0.67936    0.005
 6998.00    0.55974   0.67590    0.005
 6999.00    0.53066   0.66645    0.005
 7000.00    0.53930   0.66043    0.005
 7001.00    0.58536   0.66494    0.005
 7002.00    0.64501   0.67308    0.006
 7003.00    0.71654   0.67301    0.006
 7004.00    0.68476   0.66511    0.006
 7005.00    0.57335   0.66047    0.006
 7006.00    0.52266   0.66166    0.006
 7007.00    0.51312   0.66549    0.006
 7008.00    0.51007   0.67011    0.006
 7009.00    0.51088   0.67463    0.006
 7010.00    0.50707   0.67499    0.006
 7011.00    0.50087   0.67138    0.006
 7012.00    0.50586   0.67104    0.006
 7013.00    0.51588   0.67500    0.006
 7014.00    0.49897   0.67400    0.006
 7015.00    0.47167   0.66066    0.006
 7016.00    0.47809   0.64274    0.006
 7017.00    0.49558   0.64304    0.006
 7018.00    0.49250   0.66219    0.006
 7019.00    0.48376   0.67661    0.006
 7020.00    0.54835   0.68164    0.006
 7021.00    0.62951   0.68180    0.006
 7022.00    0.65891   0.67540    0.006
 7023.00    0.67897   0.66340    0.006
 7024.00    0.66013   0.65593    0.006
 7025.00    0.63590   0.65970    0.006
 7026.00    0.62626   0.66772    0.006
 7027.00    0.61806   0.67087    0.006
 7028.00    0.56802   0.67165    0.006
 7029.00    0.51536   0.67401    0.006
 7030.00    0.56712   0.67724    0.006
 7031.00    0.62167   0.67895    0.006
 7032.00    0.63220   0.67747    0.006
 7033.00    0.64107   0.67474    0.006
 7034.00    0.60391   0.67306    0.006
 7035.00    0.56884   0.67443    0.006
 7036.00    0.56305   0.67774    0.006
 7037.00    0.55599   0.67246    0.006
 7038.00    0.53716   0.65811    0.006
 7039.00    0.52325   0.65786    0.006
 7040.00    0.54248   0.67612    0.006
 7041.00    0.56755   0.69159    0.006
 7042.00    0.62315   0.69766    0.006
 7043.00    0.65392   0.69756    0.006
 7044.00    0.58015   0.69154    0.006
 7045.00    0.51927   0.68514    0.006
 7046.00    0.50322   0.68610    0.006
 7047.00    0.52335   0.69213    0.006
 7048.00    0.64936   0.69743    0.006
 7049.00    0.73002   0.69780    0.006
 7050.00    0.69748   0.69455   -2.000
 7051.00    0.67913   0.68889   -2.000
 7052.00    0.69132   0.67640   -2.000
 7053.00    0.67375   0.66100   -2.000
 7054.00    0.60061   0.65118   -2.000
 7055.00    0.59893   0.64822   -2.000
 7056.00    0.71382   0.65280   -2.000
 7057.00    0.75569   0.65991   -2.000
 7058.00    0.69311   0.66127   -2.000
 7059.00    0.66006   0.65382   -2.000
 7060.00    0.66418   0.64526   -2.000
 7061.00    0.69743   0.64419   -2.000
 7062.00    0.76296   0.64841   -2.000
 7063.00    0.75665   0.65248   -2.000
 7064.00    0.68008   0.65744   -2.000
 7065.00    0.65101   0.65888   -2.000
 7066.00    0.66293   0.65308   -2.000
 7067.00    0.66213   0.64496   -2.000
 7068.00    0.65167   0.63770   -2.000
 7069.00    0.62956   0.63925   -2.000
 7070.00    0.59968   0.65014   -2.000
 7071.00    0.61573   0.65884   -2.000
 7072.00    0.65866   0.66143   -2.000
 7073.00    0.67385   0.66220   -2.000
 7074.00    0.67490   0.66314   -2.000
 7075.00    0.62302   0.66272   -2.000
 7076.00    0.54775   0.66081   -2.000
 7077.00    0.56025   0.66047   -2.000
 7078.00    0.60602   0.66200   -2.000
 7079.00    0.62377   0.66314   -2.000
 7080.00    0.63250   0.66455   -2.000
 7081.00    0.58165   0.66577   -2.000
 7082.00    0.51475   0.66173   -2.000
 7083.00    0.57567   0.65039   -2.000
 7084.00    0.66481   0.63499   -2.000
 7085.00    0.72778   0.62784   -2.000
 7086.00    0.78615   0.63143   -2.000
 7087.00    0.68715   0.63089   -2.000
 7088.00    0.56706   0.62489   -2.000
 7089.00    0.59074   0.62080   -2.000
 7090.00    0.62808   0.61803   -2.000
 7091.00    0.63903   0.61874   -2.000
 7092.00    0.64844   0.62265   -2.000
 7093.00    0.69212   0.62225   -2.000
 7094.00    0.73628   0.62186   -2.000
 7095.00    0.73172   0.62146   -2.000
 7096.00    0.72746   0.62155   -2.000
 7097.00    0.73060   0.62278   -2.000
 7098.00    0.72945   0.62567   -2.000
 7099.00    0.67147   0.63588   -2.000
 7100.00    0.60582   0.64010   -2.000
 7101.00    0.47228   0.63863   -2.000
 7102.00    0.37115   0.63451   -2.000
 7103.00    0.48178   0.63294   -2.000
 7104.00    0.58144   0.63680   -2.000
 7105.00    0.62520   0.64238   -2.000
 7106.00    0.64883   0.64216   -2.000
 7107.00    0.58958   0.63863   -2.000
 7108.00    0.55343   0.63866   -2.000
 7109.00    0.59595   0.63969   -2.000
 7110.00    0.63907   0.63497   -2.000
 7111.00    0.68389   0.62766   -2.000
 7112.00    0.70814   0.62705   -2.000
 7113.00    0.68190   0.63346   -2.000
 7114.00    0.65807   0.63844   -2.000
 7115.00    0.63933   0.64024   -2.000
 7116.00    0.61580   0.64241   -2.000
 7117.00    0.58348   0.64492   -2.000
 7118.00    0.57656   0.64511   -2.000
 7119.00    0.61046   0.64432   -2.000
 7120.00    0.67152   0.64385   -2.000
 7121.00    0.77088   0.64067   -2.000
 7122.00    0.83346   0.63564   -2.000
 7123.00    0.85043   0.63841   -2.000
 7124.00    0.87058   0.64325   -2.000
 7125.00    0.89422   0.63725   -2.000
 7126.00    0.87000   0.62682   -2.000
 7127.00    0.79964   0.62419   -2.000
 7128.00    0.84703   0.62817   -2.000
 7129.00    0.99455   0.62733   -2.000
 7130.00    1.01846   0.61844   -2.000
 7131.00    0.94979   0.61158   -2.000
 7132.00    0.80464   0.61655   -2.000
 7133.00    0.60916   0.62502   -2.000
 7134.00    0.52483   0.63238   -2.000
 7135.00    0.50452   0.63597   -2.000
 7136.00    0.55939   0.63647   -2.000
 7137.00    0.65197   0.63879   -2.000
 7138.00    0.60798   0.63674   -2.000
 7139.00    0.50467   0.63221   -2.000
 7140.00    0.50171   0.63295   -2.000
 7141.00    0.53614   0.63781   -2.000
 7142.00    0.50613   0.63930   -2.000
 7143.00    0.45575   0.63889   -2.000
 7144.00    0.51881   0.63865   -2.000
 7145.00    0.61179   0.63754   -2.000
 7146.00    0.54815   0.63706   -2.000
 7147.00    0.45075   0.62926   -2.000
 7148.00    0.50188   0.61554   -2.000
 7149.00    0.57840   0.61726   -2.000
 7150.00    0.58134   0.62906   -2.000
 7151.00    0.57476   0.63613   -2.000
 7152.00    0.52471   0.64193   -2.000
 7153.00    0.47072   0.64807   -2.000
 7154.00    0.62752   0.64802   -2.000
 7155.00    0.79586   0.64431   -2.000
 7156.00    0.80299   0.64642   -2.000
 7157.00    0.80638   0.65345   -2.000
 7158.00    0.77707   0.65310   -2.000
 7159.00    0.75530   0.64614   -2.000
 7160.00    0.90458   0.64133   -2.000
 7161.00    1.03903   0.64377   -2.000
 7162.00    0.98656   0.64803   -2.000
 7163.00    0.92564   0.63879   -2.000
 7164.00    0.79265   0.62073   -2.000
 7165.00    0.66513   0.61041   -2.000
 7166.00    0.57227   0.61899   -2.000
 7167.00    0.51833   0.63385   -2.000
 7168.00    0.65763   0.64127   -2.000
 7169.00    0.76582   0.64102   -2.000
 7170.00    0.74882   0.64026   -2.000
 7171.00    0.75099   0.64290   -2.000
 7172.00    0.81720   0.64744   -2.000
 7173.00    0.82671   0.64896   -2.000
 7174.00    0.67625   0.64733   -2.000
 7175.00    0.55366   0.64232   -2.000
 7176.00    0.49829   0.63516   -2.000
 7177.00    0.45958   0.63582   -2.000
 7178.00    0.45556   0.64268   -2.000
 7179.00    0.47796   0.64181   -2.000
 7180.00    0.54821   0.62997   -2.000
 7181.00    0.61279   0.61993   -2.000
 7182.00    0.66838   0.62341   -2.000
 7183.00    0.67025   0.63833   -2.000
 7184.00    0.59745   0.64698   -2.000
 7185.00    0.58137   0.64580   -2.000
 7186.00    0.63462   0.63796   -2.000
 7187.00    0.63679   0.62272   -2.000
 7188.00    0.58391   0.61516   -2.000
 7189.00    0.55178   0.61853   -2.000
 7190.00    0.53938   0.62677   -2.000
 7191.00    0.59431   0.63548   -2.000
 7192.00    0.70569   0.63583   -2.000
 7193.00    0.75045   0.63276   -2.000
 7194.00    0.74604   0.63432   -2.000
 7195.00    0.69911   0.64044   -2.000
 7196.00    0.62462   0.63918   -2.000
 7197.00    0.61265   0.63151   -2.000
 7198.00    0.63615   0.63186   -2.000
 7199.00    0.65064   0.63931   -2.000
 7200.00    0.66069   0.64244   -2.000
 7201.00    0.81789   0.63664   -2.000
 7202.00    1.03793   0.63005   -2.000
 7203.00    0.96720   0.63386   -2.000
 7204.00    0.79008   0.64434   -2.000
 7205.00    0.63898   0.64835   -2.000
 7206.00    0.49593   0.63623   -2.000
 7207.00    0.44886   0.61634   -2.000
 7208.00    0.42656   0.61182   -2.000
 7209.00    0.43397   0.62054   -2.000
 7210.00    0.44764   0.63268   -2.000
 7211.00    0.48778   0.64488   -2.000
 7212.00    0.53232   0.64701   -2.000
 7213.00    0.54727   0.64199   -2.000
 7214.00    0.55852   0.63745   -2.000
 7215.00    0.62336   0.63548   -2.000
 7216.00    0.69285   0.63658   -2.000
 7217.00    0.68410   0.64257   -2.000
 7218.00    0.67136   0.64965   -2.000
