###################################################################
## OUTPUT of StarlightChains_v04.for    [Cid@UFSC - 01/Apr/2007] ##
###################################################################

## Some input info
KUG0210-078._26_29.txt                   [arq_obs]
Base.CB07.vall.4m                        [arq_base]
Masks.EmLines.NEW.gm                     [arq_masks]
StCv04.C11.config                        [arq_config]
   66                                    [N_base]
    0                                    [N_YAV_components = # of components with extra extinction!]
    0                                    [i_FitPowerLaw (1/0 = Yes/No)]
-9.99                                    [alpha_PowerLaw]
CCM                                      [red_law_option]
 1.458241                                [q_norm = A(l_norm)/A(V)]

## (Re)Sampling Parameters
 3741.00                                 [l_ini (A)]
 7218.00                                 [l_fin (A)]
    1.00                                 [dl    (A)]     (OBS: dl_cushion =    50.00 A)

## Normalization info
 4020.00                                 [l_norm (A) - for base]
 4010.00                                 [llow_norm (A) - window for f_obs]
 4060.00                                 [lupp_norm (A) - window for f_obs]
1.506382E-17                             [fobs_norm (in input units)]

## S/N
 3691.00                                 [llow_SN (A) - window for S/N]
 7268.00                                 [lupp_SN (A) - window for S/N]
   5.736                                 [S/N in S/N window]
   4.920                                 [S/N in norm. window]
   0.027                                 [S/N_err in S/N window]
   0.024                                 [S/N_err in norm. window]
  1.0000                                 [fscale_chi2]

## etc...
    -2007325                             [idum_orig]
  2428                                   [NOl_eff]
  2049                                   [Nl_eff]
   379    NSIGMA                         [Ntot_cliped & clip_method]
 14939190                                [Nglobal_steps]
   7                                     [N_chains]
  15                                     [NEX0s_base = N_base in EX0s-fits]
 0   0   1      379   2.0   1.308E+04    [Clip-Bug, RC-Crash & Burn-In warning-flags, n_censored_weights, wei_nsig_threshold & wei_limit]
   100     99.195     98.738      0.457  [idt_all, wdt_TotTime, wdt_UsrTime & wdt_SysTime (sec)]

## Synthesis Results - Best model ##

 1.19877E-05                             [chi2/Nl_eff]
    10.05815                             [adev (%)]

   127.93806                             [sum-of-x (%)]
 4.10885E-17                             [Flux_tot (units of input spectrum!)]
 8.75944E-13                             [Mini_tot (???)]
 4.40333E-13                             [Mcor_tot (???)]

  42.43                                  [v0_min  (km/s)]
 141.91                                  [vd_min  (km/s)]
 0.5637                                  [AV_min  (mag)]
 0.0000                                  [YAV_min (mag)]

# j     x_j(%)      Mini_j(%)     Mcor_j(%)     age_j(yr)     Z_j      (L/M)_j    YAV?  Mstars   component_j        a/Fe...       SSP_chi2r SSP_adev(%)   SSP_AV   SSP_x(%)
  1     20.9827     7.0322E-02    1.3989E-01    1.000000E+06  0.00400  1.094E-02    0   1.0000   age020_m42            0.0000     1.8409E-05    13.5709   2.9955   108.8707
  2      0.0000     0.0000E+00    0.0000E+00    3.160000E+06  0.00400  4.007E-02    0   0.9999   age045_m42            0.0000     1.7050E-05    12.8764   2.3355   113.1653
  3      0.0000     0.0000E+00    0.0000E+00    5.010000E+06  0.00400  2.539E-02    0   0.9488   age055_m42            0.0000     1.7316E-05    13.0842   2.6246   111.8957
  4      0.0000     0.0000E+00    0.0000E+00    6.610000E+06  0.00400  2.620E-02    0   0.9220   age061_m42            0.0000     1.6539E-05    12.6797   2.2578   113.6760
  5      0.0000     0.0000E+00    0.0000E+00    1.000000E+07  0.00400  1.322E-02    0   0.8862   age070_m42            0.0000     1.4665E-05    11.6688   1.9386   118.5406
  6      0.0000     0.0000E+00    0.0000E+00    1.445000E+07  0.00400  7.883E-03    0   0.8571   age078_m42            0.0000     1.5226E-05    11.9907   2.2564   115.8755
  7      0.0000     0.0000E+00    0.0000E+00    2.512000E+07  0.00400  5.251E-03    0   0.8174   age090_m42            0.0000     1.4261E-05    11.4297   1.8093   119.3148
  8      0.0000     0.0000E+00    0.0000E+00    4.000000E+07  0.00400  3.649E-03    0   0.7851   age104_m42            0.0000     1.4178E-05    11.3786   1.5964   119.5351
  9      0.0000     0.0000E+00    0.0000E+00    5.500000E+07  0.00400  3.098E-03    0   0.7629   age110_m42            0.0000     1.4810E-05    11.7145   1.7768   117.8839
 10      0.0000     0.0000E+00    0.0000E+00    1.015200E+08  0.00400  2.228E-03    0   0.7207   age116_m42            0.0000     1.5132E-05    11.9027   1.8115   117.2080
 11      0.0000     0.0000E+00    0.0000E+00    2.861200E+08  0.00400  1.093E-03    0   0.6648   age125_m42            0.0000     1.4307E-05    11.4338   1.2319   121.2404
 12      0.0000     0.0000E+00    0.0000E+00    5.088000E+08  0.00400  6.597E-04    0   0.6365   age130_m42            0.0000     1.4634E-05    11.6453   1.2511   120.5569
 13      0.0000     0.0000E+00    0.0000E+00    1.434000E+09  0.00400  2.132E-04    0   0.5798   age139_m42            0.0000     1.3476E-05    11.1432   0.3128   121.3932
 14      0.0000     0.0000E+00    0.0000E+00    4.250000E+09  0.00400  5.895E-05    0   0.5377   age158_m42            0.0000     1.4599E-05    11.8485  -0.1176   115.9458
 15      0.0000     0.0000E+00    0.0000E+00    7.500000E+09  0.00400  3.510E-05    0   0.5212   age171_m42            0.0000     1.4960E-05    12.0219  -0.2968   114.5860
 16      0.0000     0.0000E+00    0.0000E+00    1.300000E+10  0.00400  2.005E-05    0   0.5034   age193_m42            0.0000     1.5448E-05    12.2228  -0.4559   113.5247
 17      0.0000     0.0000E+00    0.0000E+00    1.800000E+10  0.00400  1.525E-05    0   0.4967   age213_m42            0.0000     1.5377E-05    12.1894  -0.4841   113.2989
 18      0.0000     0.0000E+00    0.0000E+00    1.000000E+06  0.00800  1.238E-02    0   1.0000   age020_m52            0.0000     1.8409E-05    13.5608   2.9941   108.9902
 19      0.0000     0.0000E+00    0.0000E+00    3.160000E+06  0.00800  3.074E-02    0   0.9966   age045_m52            0.0000     1.8241E-05    13.5211   2.9238   109.6716
 20      0.0000     0.0000E+00    0.0000E+00    5.010000E+06  0.00800  2.668E-02    0   0.9443   age055_m52            0.0000     1.7321E-05    13.1031   2.6986   111.3122
 21      0.0000     0.0000E+00    0.0000E+00    6.610000E+06  0.00800  2.136E-02    0   0.9177   age061_m52            0.0000     1.4393E-05    11.6679   1.4389   119.9526
 22      0.0000     0.0000E+00    0.0000E+00    1.000000E+07  0.00800  1.215E-02    0   0.8827   age070_m52            0.0000     1.4405E-05    11.4697   2.0998   119.2409
 23      0.0000     0.0000E+00    0.0000E+00    1.445000E+07  0.00800  8.717E-03    0   0.8552   age078_m52            0.0000     1.4945E-05    11.7978   2.2277   117.2401
 24      0.0000     0.0000E+00    0.0000E+00    2.512000E+07  0.00800  5.592E-03    0   0.8162   age090_m52            0.0000     1.4010E-05    11.2120   1.8773   120.4816
 25      0.0000     0.0000E+00    0.0000E+00    4.000000E+07  0.00800  3.896E-03    0   0.7841   age104_m52            0.0000     1.4119E-05    11.2794   1.8084   120.2622
 26      0.0000     0.0000E+00    0.0000E+00    1.015200E+08  0.00800  2.148E-03    0   0.7226   age116_m52            0.0000     1.4661E-05    11.6260   1.7723   118.5585
 27      0.0000     0.0000E+00    0.0000E+00    2.861200E+08  0.00800  9.925E-04    0   0.6683   age125_m52            0.0000     1.4417E-05    11.5322   1.3192   121.5157
 28      0.0000     0.0000E+00    0.0000E+00    9.047900E+08  0.00800  3.141E-04    0   0.6138   age135_m52            0.0000     1.4076E-05    11.3550   0.5863   122.7494
 29      0.0000     0.0000E+00    0.0000E+00    1.434000E+09  0.00800  1.719E-04    0   0.5853   age139_m52            0.0000     1.3826E-05    11.3842  -0.0119   121.1656
 30      0.0000     0.0000E+00    0.0000E+00    2.500000E+09  0.00800  7.872E-05    0   0.5600   age150_m52            0.0000     1.4883E-05    11.8836  -0.2523   116.4092
 31      0.0000     0.0000E+00    0.0000E+00    4.250000E+09  0.00800  4.336E-05    0   0.5426   age158_m52            0.0000     1.5068E-05    11.9765  -0.2667   115.2702
 32      0.0000     0.0000E+00    0.0000E+00    6.250000E+09  0.00800  3.159E-05    0   0.5319   age166_m52            0.0000     1.5677E-05    12.2105  -0.4506   114.2298
 33      7.6175     2.0521E+01    2.0709E+01    1.300000E+10  0.00800  1.361E-05    0   0.5073   age193_m52            0.0000     1.6502E-05    12.4451  -0.8924   112.1022
 34     21.2199     7.8699E+01    7.8120E+01    1.800000E+10  0.00800  9.886E-06    0   0.4990   age213_m52            0.0000     1.7367E-05    12.7320  -0.9794   110.4095
 35      0.0000     0.0000E+00    0.0000E+00    1.000000E+06  0.02000  1.544E-02    0   1.0000   age020_m62            0.0000     1.8445E-05    13.5815   2.9882   109.3336
 36      0.0000     0.0000E+00    0.0000E+00    3.160000E+06  0.02000  3.762E-02    0   0.9858   age045_m62            0.0000     1.8306E-05    13.5879   2.9298   110.1557
 37      0.0000     0.0000E+00    0.0000E+00    5.010000E+06  0.02000  3.296E-02    0   0.9342   age055_m62            0.0000     1.7262E-05    13.0524   2.5986   112.5412
 38     64.8026     2.0589E-01    3.6292E-01    8.710000E+06  0.02000  1.154E-02    0   0.8861   age067_m62            0.0000     1.2185E-05     9.9579   1.4530   129.0999
 39      0.0000     0.0000E+00    0.0000E+00    1.445000E+07  0.02000  7.663E-03    0   0.8472   age078_m62            0.0000     1.3481E-05    10.9223   1.7206   123.5232
 40      0.0000     0.0000E+00    0.0000E+00    2.512000E+07  0.02000  4.532E-03    0   0.8099   age090_m62            0.0000     1.3331E-05    10.7980   1.7102   123.3524
 41      0.0000     0.0000E+00    0.0000E+00    5.500000E+07  0.02000  2.733E-03    0   0.7595   age110_m62            0.0000     1.4035E-05    11.2962   1.7819   119.9172
 42      0.0000     0.0000E+00    0.0000E+00    1.609000E+08  0.02000  1.369E-03    0   0.6985   age120_m62            0.0000     1.4458E-05    11.5258   1.6644   120.6209
 43      0.0000     0.0000E+00    0.0000E+00    2.861200E+08  0.02000  9.013E-04    0   0.6714   age125_m62            0.0000     1.4423E-05    11.4465   1.4457   122.3420
 44      0.0000     0.0000E+00    0.0000E+00    5.088000E+08  0.02000  5.028E-04    0   0.6449   age130_m62            0.0000     1.4894E-05    11.6742   1.1250   122.2213
 45      0.0000     0.0000E+00    0.0000E+00    9.047900E+08  0.02000  2.428E-04    0   0.6179   age135_m62            0.0000     1.4496E-05    11.6495   0.5567   120.4187
 46      0.0000     0.0000E+00    0.0000E+00    1.434000E+09  0.02000  1.263E-04    0   0.5908   age139_m62            0.0000     1.4537E-05    11.7128   0.1158   118.4830
 47      0.0000     0.0000E+00    0.0000E+00    2.500000E+09  0.02000  5.985E-05    0   0.5673   age150_m62            0.0000     1.5552E-05    12.1492  -0.2337   115.8577
 48      0.0000     0.0000E+00    0.0000E+00    4.250000E+09  0.02000  3.271E-05    0   0.5468   age158_m62            0.0000     1.6657E-05    12.5481  -0.5147   113.5298
 49      0.0000     0.0000E+00    0.0000E+00    1.000000E+10  0.02000  1.360E-05    0   0.5167   age181_m62            0.0000     1.7924E-05    12.8144  -0.8197   110.8027
 50      0.0000     0.0000E+00    0.0000E+00    1.800000E+10  0.02000  7.124E-06    0   0.5013   age213_m62            0.0000     1.9171E-05    13.1257  -1.0000   108.3485
 51      3.2590     4.6099E-03    9.1685E-03    1.000000E+06  0.05000  2.592E-02    0   0.9998   age020_m72            0.0000     1.8499E-05    13.6034   2.9727   109.7086
 52      0.0000     0.0000E+00    0.0000E+00    3.160000E+06  0.05000  4.845E-02    0   0.9577   age045_m72            0.0000     1.8037E-05    13.4650   2.8329   110.6288
 53      0.0000     0.0000E+00    0.0000E+00    5.010000E+06  0.05000  3.072E-02    0   0.9147   age055_m72            0.0000     1.5301E-05    12.0949   2.3067   118.0820
 54      0.0000     0.0000E+00    0.0000E+00    6.610000E+06  0.05000  1.455E-02    0   0.8877   age061_m72            0.0000     1.4817E-05    11.6228   1.4219   133.7947
 55      0.0000     0.0000E+00    0.0000E+00    1.000000E+07  0.05000  9.074E-03    0   0.8524   age070_m72            0.0000     1.6801E-05    13.2049   2.4597   118.4130
 56      0.0000     0.0000E+00    0.0000E+00    2.512000E+07  0.05000  4.250E-03    0   0.7902   age090_m72            0.0000     1.5251E-05    12.0568   2.2039   119.0273
 57      0.0000     0.0000E+00    0.0000E+00    4.000000E+07  0.05000  3.087E-03    0   0.7618   age104_m72            0.0000     1.4785E-05    11.7232   1.9815   120.8931
 58      0.0000     0.0000E+00    0.0000E+00    1.015200E+08  0.05000  1.700E-03    0   0.7096   age116_m72            0.0000     1.4358E-05    11.3753   1.7873   121.1500
 59     10.0563     4.9933E-01    6.5886E-01    2.861200E+08  0.05000  7.384E-04    0   0.6633   age125_m72            0.0000     1.4437E-05    11.4101   1.3488   121.9889
 60      0.0000     0.0000E+00    0.0000E+00    5.088000E+08  0.05000  3.819E-04    0   0.6372   age130_m72            0.0000     1.4511E-05    11.5889   0.9034   121.3208
 61      0.0000     0.0000E+00    0.0000E+00    9.047900E+08  0.05000  1.676E-04    0   0.6110   age135_m72            0.0000     1.5385E-05    12.1322   0.2428   117.2049
 62      0.0000     0.0000E+00    0.0000E+00    1.434000E+09  0.05000  8.837E-05    0   0.5874   age139_m72            0.0000     1.5436E-05    12.0790  -0.2208   116.8106
 63      0.0000     0.0000E+00    0.0000E+00    2.500000E+09  0.05000  4.233E-05    0   0.5598   age150_m72            0.0000     1.6989E-05    12.6113  -0.4984   113.6000
 64      0.0000     0.0000E+00    0.0000E+00    6.250000E+09  0.05000  1.435E-05    0   0.5249   age166_m72            0.0000     1.8392E-05    12.9401  -0.9060   109.7715
 65      0.0000     0.0000E+00    0.0000E+00    1.300000E+10  0.05000  6.513E-06    0   0.5036   age193_m72            0.0000     2.0600E-05    12.7125  -1.0000   103.2709
 66      0.0000     0.0000E+00    0.0000E+00    1.800000E+10  0.05000  4.527E-06    0   0.4945   age213_m72            0.0000     2.2816E-05    12.6486  -1.0000    96.8852


## Synthesis Results - Average & Chains ##

# j      x_j: min, <> & last-chain-values for 1 ...  7 chains
  1     20.9827     27.4864     27.2069     31.9194     22.3266     31.4169     35.0072     36.0918     31.3062
  2      0.0000      0.2985      0.0000      0.0177      0.4431      0.0089      0.0590      0.0696      0.0106
  3      0.0000      0.3209      0.1721      0.0408      0.0000      0.0544      0.0988      0.0965      0.3079
  4      0.0000      0.2432      0.0000      0.1124      0.0000      0.0044      0.0689      0.0129      0.2746
  5      0.0000      0.3579      0.0000      0.0564      0.1273      0.0171      0.2020      0.0335      0.0734
  6      0.0000      0.4256      0.0000      0.0000      0.6826      0.0080      0.0513      0.0837      0.1183
  7      0.0000      0.2782      0.0362      0.0133      0.0000      0.0103      0.0557      0.0173      0.3174
  8      0.0000      0.3044      0.1357      0.1620      1.1778      0.0082      0.0664      0.0000      0.0132
  9      0.0000      0.3183      0.1084      0.1552      0.7717      0.0066      0.1036      0.0066      0.0000
 10      0.0000      0.3572      0.1660      0.0000      0.6741      0.0000      0.1103      0.0000      0.0393
 11      0.0000      0.2283      0.0000      0.0035      0.0000      0.0107      0.1727      0.0067      0.0930
 12      0.0000      0.3792      0.0644      0.2468      1.2907      0.0086      0.0012      0.0000      0.1335
 13      0.0000      0.2620      0.0435      0.1939      0.0000      0.0478      0.0523      0.0000      0.0122
 14      0.0000      0.3053      0.0306      0.0418      0.1721      0.0311      0.0583      0.0803      0.1350
 15      0.0000      0.2813      0.0804      0.0127      0.2262      0.0156      0.0192      0.0137      0.0213
 16      0.0000      1.4359      2.7222      1.2041      1.2590      0.7586      0.8725      1.8682      1.3016
 17      0.0000      0.2644      0.0450      0.0785      0.1987      0.0068      0.2544      0.0433      0.0000
 18      0.0000      0.3530      0.2539      0.0158      1.7687      0.0000      0.0195      0.0028      0.0187
 19      0.0000      0.3379      0.1943      0.0000      0.2810      0.0250      0.0137      0.0215      0.0959
 20      0.0000      0.2846      0.1544      0.0922      1.0100      0.0011      0.1124      0.0340      0.0792
 21      0.0000      0.3267      0.0082      0.0027      0.0000      0.0000      0.0385      0.0000      0.0701
 22      0.0000      0.3189      0.0000      0.0460      0.1682      0.0007      0.4449      0.0099      0.1695
 23      0.0000      0.2406      0.0000      0.0000      1.0281      0.0473      0.0885      0.0359      0.1962
 24      0.0000      0.2663      0.0104      0.0614      0.0000      0.0000      0.0000      0.0760      0.0339
 25      0.0000      0.3593      0.0000      0.0879      0.5385      0.0247      0.2816      0.0000      0.0484
 26      0.0000      0.3888      0.0894      0.1790      0.0000      0.0003      0.0620      0.0000      0.0000
 27      0.0000      0.2347      0.0361      0.0359      0.0000      0.0058      0.0340      0.0643      0.0000
 28      0.0000      0.3085      0.0268      0.0041      0.0237      0.0138      0.0872      0.0000      0.0717
 29      0.0000      0.4388      0.0286      0.0000      0.0000      0.0300      0.0000      0.0078      0.0121
 30      0.0000      0.3303      0.0094      0.2758      1.5150      0.0000      0.0287      0.0213      0.0169
 31      0.0000      0.2661      0.0567      0.0085      0.9677      0.0023      0.0643      0.0000      0.0079
 32      0.0000      0.3408      0.0659      0.0000      0.0000      0.0243      0.0000      0.0000      0.1410
 33      7.6175      9.0465     10.1775      5.4029      9.0395     10.4941     11.6477     11.7814     10.3933
 34     21.2199     32.7733     36.9344     40.5088     28.4341     39.0673     36.1422     36.7564     37.4536
 35      0.0000      0.2796      0.0000      0.1513      0.0588      0.0167      0.1717      0.0017      0.1455
 36      0.0000      0.3411      0.0097      0.0898      1.6618      0.0000      0.0000      0.0321      0.0962
 37      0.0000      0.3711      0.0654      0.0105      0.0788      0.0089      0.0000      0.0000      0.0584
 38     64.8026      0.3525      0.0018      0.3112      1.9122      0.0107      0.0000      0.0145      0.0655
 39      0.0000      0.2665      0.0044      0.0791      0.7113      0.0393      0.0000      0.0000      0.0000
 40      0.0000      0.2671      0.0541      0.1139      1.1165      0.0224      0.1463      0.3910      0.0000
 41      0.0000      0.3022      0.0630      0.1081      0.0596      0.0013      0.3428      0.0038      0.0767
 42      0.0000      0.2716      0.0000      0.0004      0.4114      0.0131      0.0000      0.0612      0.0000
 43      0.0000      0.2817      0.0332      0.0726      1.2634      0.0150      0.1686      0.0001      0.0000
 44      0.0000      0.3346      0.0000      0.1251      0.0000      0.0000      0.1590      0.0487      0.0407
 45      0.0000      0.2717      0.0000      0.0510      0.1828      0.0000      0.0000      0.0000      0.1123
 46      0.0000      0.3080      0.0000      0.0155      0.2021      0.0163      0.4435      0.0134      0.0000
 47      0.0000      0.3143      0.1101      0.0420      0.0000      0.0000      0.0066      0.0097      0.0661
 48      0.0000      0.2995      0.0774      0.0000      0.0000      0.0026      0.3390      0.0000      0.0437
 49      0.0000      0.3047      0.0628      0.0000      0.8971      0.0000      0.1304      0.1493      0.0534
 50      0.0000      0.3283      0.0065      0.0904      0.2994      0.0000      0.0000      0.0000      0.0342
 51      3.2590      0.3505      0.0000      0.3658      0.0000      0.0249      0.2523      0.0147      0.0000
 52      0.0000      0.2132      0.1152      0.1065      0.3620      0.0317      0.0000      0.0000      0.0579
 53      0.0000      0.6600      0.5813      0.5963      0.2865      0.5898      0.6159      0.8996      0.5727
 54      0.0000     15.0575     17.5779     17.5856     13.8008     17.5710     18.5907     13.7781     17.5256
 55      0.0000     20.6460     26.7325     23.3890     19.4159     24.6642     17.2377     22.0639     22.5622
 56      0.0000      0.3200      0.0160      0.0000      1.0762      0.0090      0.0190      0.0850      0.0464
 57      0.0000      0.3608      0.2861      0.0000      2.0497      0.0211      0.0820      0.0002      0.0798
 58      0.0000      0.2619      0.0781      0.3086      0.6960      0.0189      0.0000      0.0772      0.1400
 59     10.0563      0.3213      0.1249      0.2942      1.5648      0.0113      0.0109      0.0000      0.0061
 60      0.0000      0.3466      0.0000      0.0985      0.4944      0.0251      0.0042      0.0345      0.0888
 61      0.0000      0.3057      0.0709      0.0000      0.6899      0.0000      0.0000      0.0578      0.1297
 62      0.0000      0.3137      0.1582      0.0000      0.7063      0.0000      0.0778      0.0000      0.1685
 63      0.0000      0.2637      0.1997      0.1931      0.0000      0.0065      0.1141      0.1422      0.1166
 64      0.0000      0.4010      0.0000      0.0000      0.0544      0.0059      0.0604      0.0242      0.0000
 65      0.0000      0.3442      0.0438      0.1019      1.3403      0.0390      0.0000      0.0209      0.0000
 66      0.0000      0.2438      0.0660      0.0000      1.2386      0.0307      0.1041      0.1128      0.1035

# j      m_j: min, <> & last-chain-values for 1 ...  7 chains
  1  1.3989E-01  1.1495E-01  1.0612E-01  1.2647E-01  9.4711E-02  1.1982E-01  1.3757E-01  1.3901E-01  1.2218E-01
  2  0.0000E+00  3.4086E-04  0.0000E+00  1.9191E-05  5.1313E-04  9.3072E-06  6.3291E-05  7.3131E-05  1.1312E-05
  3  0.0000E+00  5.4867E-04  2.7443E-04  6.6149E-05  0.0000E+00  8.4871E-05  1.5867E-04  1.5195E-04  4.9128E-04
  4  0.0000E+00  3.9155E-04  0.0000E+00  1.7139E-04  0.0000E+00  6.4589E-06  1.0421E-04  1.9095E-05  4.1265E-04
  5  0.0000E+00  1.0975E-03  0.0000E+00  1.6377E-04  3.9596E-04  4.7836E-05  5.8220E-04  9.4504E-05  2.1015E-04
  6  0.0000E+00  2.1171E-03  0.0000E+00  0.0000E+00  3.4445E-03  3.6395E-05  2.3957E-04  3.8347E-04  5.4927E-04
  7  0.0000E+00  1.9811E-03  2.4046E-04  8.9752E-05  0.0000E+00  6.6875E-05  3.7308E-04  1.1351E-04  2.1095E-03
  8  0.0000E+00  2.9968E-03  1.2458E-03  1.5110E-03  1.1761E-02  7.3892E-05  6.1376E-04  0.0000E+00  1.2127E-04
  9  0.0000E+00  3.5867E-03  1.1386E-03  1.6567E-03  8.8186E-03  6.8137E-05  1.0970E-03  6.8701E-05  0.0000E+00
 10  0.0000E+00  5.2863E-03  2.2917E-03  0.0000E+00  1.0119E-02  0.0000E+00  1.5336E-03  0.0000E+00  5.4228E-04
 11  0.0000E+00  6.3533E-03  0.0000E+00  9.3276E-05  0.0000E+00  2.7066E-04  4.5159E-03  1.7177E-04  2.4155E-03
 12  0.0000E+00  1.6739E-02  2.6512E-03  1.0323E-02  5.7793E-02  3.4567E-04  5.1774E-05  0.0000E+00  5.4980E-03
 13  0.0000E+00  3.2603E-02  5.0430E-03  2.2860E-02  0.0000E+00  5.4262E-03  6.1158E-03  0.0000E+00  1.4117E-03
 14  0.0000E+00  1.2743E-01  1.1907E-02  1.6520E-02  7.2832E-02  1.1822E-02  2.2858E-02  3.0871E-02  5.2577E-02
 15  0.0000E+00  1.9111E-01  5.0922E-02  8.1936E-03  1.5585E-01  9.6930E-03  1.2237E-02  8.5737E-03  1.3495E-02
 16  0.0000E+00  1.6495E+00  2.9165E+00  1.3104E+00  1.4670E+00  7.9463E-01  9.4181E-01  1.9765E+00  1.3953E+00
 17  0.0000E+00  3.9401E-01  6.2483E-02  1.1086E-01  3.0031E-01  9.2883E-03  3.5622E-01  5.9361E-02  0.0000E+00
 18  0.0000E+00  1.3046E-03  8.7516E-04  5.5304E-05  6.6302E-03  0.0000E+00  6.7750E-05  9.4432E-06  6.4375E-05
 19  0.0000E+00  5.0125E-04  2.6875E-04  0.0000E+00  4.2275E-04  3.3777E-05  1.9048E-05  2.9414E-05  1.3274E-04
 20  0.0000E+00  4.6083E-04  2.3316E-04  1.4148E-04  1.6591E-03  1.6477E-06  1.7101E-04  5.0719E-05  1.1975E-04
 21  0.0000E+00  6.4224E-04  1.5069E-05  5.0807E-06  0.0000E+00  0.0000E+00  7.1040E-05  0.0000E+00  1.2852E-04
 22  0.0000E+00  1.0601E-03  0.0000E+00  1.4490E-04  5.6713E-04  2.2672E-06  1.3897E-03  3.0415E-05  5.2576E-04
 23  0.0000E+00  1.0798E-03  0.0000E+00  0.0000E+00  4.6809E-03  1.9348E-04  3.7324E-04  1.4855E-04  8.2202E-04
 24  0.0000E+00  1.7782E-03  6.4880E-05  3.8866E-04  0.0000E+00  0.0000E+00  0.0000E+00  4.6764E-04  2.1118E-04
 25  0.0000E+00  3.3084E-03  0.0000E+00  7.6678E-04  5.0299E-03  2.0740E-04  2.4370E-03  0.0000E+00  4.1552E-04
 26  0.0000E+00  5.9849E-03  1.2840E-03  2.6095E-03  0.0000E+00  4.4590E-06  8.9699E-04  0.0000E+00  0.0000E+00
 27  0.0000E+00  7.2298E-03  1.0385E-03  1.0475E-03  0.0000E+00  1.6180E-04  9.8428E-04  1.8232E-03  0.0000E+00
 28  0.0000E+00  2.7582E-02  2.2357E-03  3.4433E-04  2.1498E-03  1.1247E-03  7.3266E-03  0.0000E+00  5.9852E-03
 29  0.0000E+00  6.8354E-02  4.1564E-03  0.0000E+00  0.0000E+00  4.2608E-03  0.0000E+00  1.1250E-03  1.7609E-03
 30  0.0000E+00  1.0750E-01  2.8428E-03  8.5050E-02  5.0015E-01  0.0000E+00  8.7913E-03  6.3794E-03  5.1447E-03
 31  0.0000E+00  1.5236E-01  3.0291E-02  4.6049E-03  5.6198E-01  1.1821E-03  3.4589E-02  0.0000E+00  4.2335E-03
 32  0.0000E+00  2.6254E-01  4.7376E-02  0.0000E+00  0.0000E+00  1.7051E-02  0.0000E+00  0.0000E+00  1.0139E-01
 33  2.0709E+01  1.5428E+01  1.6188E+01  8.7295E+00  1.5637E+01  1.6320E+01  1.8665E+01  1.8504E+01  1.6540E+01
 34  7.8120E+01  7.5687E+01  7.9553E+01  8.8631E+01  6.6606E+01  8.2274E+01  7.8431E+01  7.8177E+01  8.0715E+01
 35  0.0000E+00  8.2842E-04  0.0000E+00  4.2464E-04  1.7678E-04  4.5229E-05  4.7798E-04  4.6814E-06  4.0245E-04
 36  0.0000E+00  4.0891E-04  1.0865E-05  1.0200E-04  2.0209E-03  0.0000E+00  0.0000E+00  3.5444E-05  1.0767E-04
 37  0.0000E+00  4.8122E-04  7.9063E-05  1.2866E-05  1.0360E-04  1.0513E-05  0.0000E+00  0.0000E+00  7.0682E-05
 38  3.6292E-01  1.2384E-03  5.9490E-06  1.0358E-03  6.8141E-03  3.4283E-05  0.0000E+00  4.6823E-05  2.1468E-04
 39  0.0000E+00  1.3479E-03  2.0930E-05  3.7924E-04  3.6496E-03  1.8112E-04  0.0000E+00  0.0000E+00  0.0000E+00
 40  0.0000E+00  2.1843E-03  4.1234E-04  8.8215E-04  9.2597E-03  1.6712E-04  1.1239E-03  2.9445E-03  0.0000E+00
 41  0.0000E+00  3.8427E-03  7.4749E-04  1.3022E-03  7.6907E-04  1.4726E-05  4.0955E-03  4.4115E-05  9.0968E-04
 42  0.0000E+00  6.3396E-03  0.0000E+00  8.2765E-06  9.7410E-03  2.7881E-04  0.0000E+00  1.3167E-03  0.0000E+00
 43  0.0000E+00  9.6022E-03  1.0551E-03  2.3432E-03  4.3675E-02  4.6484E-04  5.4005E-03  2.3554E-06  0.0000E+00
 44  0.0000E+00  1.9635E-02  0.0000E+00  6.9565E-03  0.0000E+00  0.0000E+00  8.7681E-03  2.6344E-03  2.2296E-03
 45  0.0000E+00  3.1633E-02  0.0000E+00  5.6218E-03  2.1588E-02  0.0000E+00  0.0000E+00  0.0000E+00  1.2205E-02
 46  0.0000E+00  6.5927E-02  0.0000E+00  3.1378E-03  4.3871E-02  3.1770E-03  8.9187E-02  2.6450E-03  0.0000E+00
 47  0.0000E+00  1.3632E-01  4.4538E-02  1.7275E-02  0.0000E+00  0.0000E+00  2.6963E-03  3.8911E-03  2.6763E-02
 48  0.0000E+00  2.2905E-01  5.5196E-02  0.0000E+00  0.0000E+00  1.8277E-03  2.4365E-01  0.0000E+00  3.1199E-02
 49  0.0000E+00  5.2970E-01  1.0189E-01  0.0000E+00  1.5818E+00  0.0000E+00  2.1300E-01  2.3904E-01  8.6647E-02
 50  0.0000E+00  1.0570E+00  1.9518E-02  2.7573E-01  9.7760E-01  0.0000E+00  0.0000E+00  0.0000E+00  1.0270E-01
 51  9.1685E-03  6.1856E-04  0.0000E+00  6.1156E-04  0.0000E+00  4.0063E-05  4.1847E-04  2.3971E-05  0.0000E+00
 52  0.0000E+00  1.9279E-04  9.7196E-05  9.1274E-05  3.3208E-04  2.6105E-05  0.0000E+00  0.0000E+00  4.8888E-05
 53  0.0000E+00  8.9906E-04  7.3861E-04  7.6967E-04  3.9584E-04  7.3270E-04  7.8840E-04  1.1287E-03  7.2809E-04
 54  0.0000E+00  4.2032E-02  4.5763E-02  4.6507E-02  3.9075E-02  4.4727E-02  4.8763E-02  3.5421E-02  4.5651E-02
 55  0.0000E+00  8.8736E-02  1.0716E-01  9.5238E-02  8.4644E-02  9.6668E-02  6.9617E-02  8.7336E-02  9.0491E-02
 56  0.0000E+00  2.7225E-03  1.2729E-04  0.0000E+00  9.2863E-03  6.9725E-05  1.5157E-04  6.6589E-04  3.6799E-04
 57  0.0000E+00  4.0735E-03  3.0126E-03  0.0000E+00  2.3474E-02  2.1741E-04  8.6956E-04  1.9561E-06  8.4106E-04
 58  0.0000E+00  5.0021E-03  1.3918E-03  5.5830E-03  1.3482E-02  3.2983E-04  0.0000E+00  1.3572E-03  2.4958E-03
 59  6.5886E-01  1.3207E-02  4.7866E-03  1.1455E-02  6.5233E-02  4.2411E-04  4.1925E-04  0.0000E+00  2.3468E-04
 60  0.0000E+00  2.6462E-02  0.0000E+00  7.1225E-03  3.8279E-02  1.7503E-03  3.0232E-04  2.4287E-03  6.3234E-03
 61  0.0000E+00  5.0988E-02  1.1035E-02  0.0000E+00  1.1672E-01  0.0000E+00  0.0000E+00  8.8787E-03  2.0188E-02
 62  0.0000E+00  9.5390E-02  4.4883E-02  0.0000E+00  2.1788E-01  0.0000E+00  2.2221E-02  0.0000E+00  4.7808E-02
 63  0.0000E+00  1.5956E-01  1.1268E-01  1.1072E-01  0.0000E+00  3.5844E-03  6.4870E-02  7.9255E-02  6.5824E-02
 64  0.0000E+00  6.7106E-01  0.0000E+00  0.0000E+00  9.2329E-02  9.0694E-03  9.5015E-02  3.7260E-02  0.0000E+00
 65  0.0000E+00  1.2178E+00  1.4464E-01  3.4169E-01  4.8093E+00  1.2575E-01  0.0000E+00  6.8198E-02  0.0000E+00
 66  0.0000E+00  1.2185E+00  3.0771E-01  0.0000E+00  6.2789E+00  1.4010E-01  4.8893E-01  5.1898E-01  4.8258E-01

# AV, chi2 & Mass for <> & i_chain = 1 ...  7 solutions
AV       0.5637      0.1665      0.1608      0.2151      0.2381      0.1543      0.1692      0.1653      0.1704
chi2 1.1988E-05  1.2739E-05  1.2479E-05  1.2441E-05  1.2444E-05  1.2460E-05  1.2455E-05  1.2478E-05  1.2463E-05
Mass 4.4033E-13  4.1175E-13  4.3809E-13  4.6393E-13  4.4689E-13  4.4420E-13  4.3979E-13  4.4638E-13  4.4357E-13
  42.43                                  [v0_min (km/s) before EX0s...]
 141.91                                  [vd_min (km/s) before EX0s...]


## Synthetic spectrum (Best Model) ##l_obs f_obs f_syn wei
 3478    [Nl_obs]
 3741.00    1.20447   1.10576    0.000
 3742.00    1.28786   1.11576    0.000
 3743.00    1.34870   1.10939    0.000
 3744.00    1.23434   1.08972    0.000
 3745.00    1.01789   1.06017   -1.000
 3746.00    0.87668   1.02338   -1.000
 3747.00    0.77368   0.98111   -1.000
 3748.00    0.70377   0.93771   -1.000
 3749.00    0.64841   0.90257   -1.000
 3750.00    1.01321   0.88713   -1.000
 3751.00    1.53664   0.89866   -1.000
 3752.00    1.59824   0.93539   -1.000
 3753.00    1.51182   0.98675   -1.000
 3754.00    1.53387   1.03857   -1.000
 3755.00    1.58499   1.07970   -1.000
 3756.00    1.58809   1.10494   -1.000
 3757.00    1.58064   1.11522   -1.000
 3758.00    1.25357   1.11674   -1.000
 3759.00    0.87069   1.11691   -1.000
 3760.00    0.88048   1.12026   -1.000
 3761.00    0.94243   1.12579   -1.000
 3762.00    1.15804   1.12919   -1.000
 3763.00    1.38808   1.12681   -1.000
 3764.00    1.42501   1.11702   -1.000
 3765.00    1.45081   1.09892   -1.000
 3766.00    1.08048   1.07220   -1.000
 3767.00    0.70498   1.03790   -1.000
 3768.00    0.84228   0.99885   -1.000
 3769.00    0.96918   0.96116   -1.000
 3770.00    0.84309   0.93421   -1.000
 3771.00    0.72648   0.92669   -1.000
 3772.00    0.73400   0.94196   -1.000
 3773.00    0.78832   0.97661   -1.000
 3774.00    1.25360   1.02126   -1.000
 3775.00    1.62312   1.06552   -1.000
 3776.00    1.37182   1.10397   -1.000
 3777.00    1.12484   1.13581   -1.000
 3778.00    0.89976   1.16270   -1.000
 3779.00    0.77275   1.18643   -1.000
 3780.00    1.04719   1.20719   -1.000
 3781.00    1.29676   1.22409   -1.000
 3782.00    1.46195   1.23568   -1.000
 3783.00    1.61116   1.24037   -1.000
 3784.00    1.71470   1.23756   -1.000
 3785.00    1.81532   1.22759   -1.000
 3786.00    1.90881   1.21209   -1.000
 3787.00    1.86733   1.19370   -1.000
 3788.00    1.54139   1.17522   -1.000
 3789.00    1.28659   1.15835   -1.000
 3790.00    1.16212   1.14222   -1.000
 3791.00    1.19157   1.12412   -1.000
 3792.00    1.46744   1.10045   -1.000
 3793.00    1.45797   1.06792   -1.000
 3794.00    1.04771   1.02506   -1.000
 3795.00    0.75008   0.97380   -1.000
 3796.00    0.59166   0.92031   -1.000
 3797.00    0.51563   0.87511   -1.000
 3798.00    0.52937   0.85099   -1.000
 3799.00    0.63422   0.85652   -1.000
 3800.00    0.82662   0.89153   -1.000
 3801.00    1.05033   0.94676   -1.000
 3802.00    1.30058   1.00768   -1.000
 3803.00    1.31462   1.06140   -1.000
 3804.00    1.15239   1.10114   -1.000
 3805.00    1.12153   1.12641   -1.000
 3806.00    1.17679   1.14184   -1.000
 3807.00    1.26776   1.15472   -1.000
 3808.00    1.37923   1.17003   -1.000
 3809.00    1.34509   1.18832   -1.000
 3810.00    1.23817   1.20539   -1.000
 3811.00    0.96824   1.21522   -1.000
 3812.00    0.62782   1.21497   -1.000
 3813.00    0.50835   1.20606   -1.000
 3814.00    0.47084   1.19197   -1.000
 3815.00    0.60589   1.17600   -1.000
 3816.00    0.79520   1.15953   -1.000
 3817.00    0.66560   1.14030   -1.000
 3818.00    0.45234   1.11609   -1.000
 3819.00    0.50087   1.09117   -1.000
 3820.00    0.60548   1.07451   -1.000
 3821.00    0.90177   1.07221   -1.000
 3822.00    1.23058   1.08360   -1.000
 3823.00    1.03984   1.09934   -1.000
 3824.00    0.78244   1.10790   -1.000
 3825.00    0.69600   1.10548   -1.000
 3826.00    0.62490   1.09503   -1.000
 3827.00    0.70809   1.08110   -1.000
 3828.00    0.79957   1.06519   -1.000
 3829.00    0.77413   1.04533   -1.000
 3830.00    0.74558   1.01795   -1.000
 3831.00    0.65308   0.98015   -1.000
 3832.00    0.56954   0.93255   -1.000
 3833.00    0.68489   0.87975   -1.000
 3834.00    0.79883   0.83085   -1.000
 3835.00    0.89526   0.79767   -1.000
 3836.00    0.95653   0.78795   -1.000
 3837.00    0.72069   0.80256   -1.000
 3838.00    0.54161   0.83739   -1.000
 3839.00    0.71970   0.88411   -1.000
 3840.00    0.90364   0.93513   -1.000
 3841.00    1.11650   0.98646   -1.000
 3842.00    1.20432   1.03438   -1.000
 3843.00    0.79164   1.07587   -1.000
 3844.00    0.49097   1.10920   -1.000
 3845.00    0.56271   1.13358   -1.000
 3846.00    0.67049   1.15009   -1.000
 3847.00    0.87951   1.16037    0.000
 3848.00    1.03525   1.16553    0.000
 3849.00    1.06302   1.16743    0.000
 3850.00    1.13509   1.16847    0.000
 3851.00    1.29900   1.17071    0.000
 3852.00    1.33181   1.17403    0.000
 3853.00    1.12815   1.17672    0.000
 3854.00    0.94157   1.17636    0.000
 3855.00    0.78189   1.17171    0.000
 3856.00    0.78141   1.16517    0.000
 3857.00    1.00131   1.15889    0.000
 3858.00    1.07285   1.15340    0.000
 3859.00    0.96362   1.15010    0.000
 3860.00    0.87133   1.15016    0.000
 3861.00    0.79724   1.15424    0.000
 3862.00    0.76251   1.16157    0.000
 3863.00    0.76506   1.16927    0.000
 3864.00    0.77934   1.17391    0.000
 3865.00    0.80340   1.17390    0.000
 3866.00    0.91906   1.17019    0.000
 3867.00    1.10209   1.16535    0.000
 3868.00    1.18678   1.16071    0.000
 3869.00    1.20795   1.15486    0.000
 3870.00    1.21151   1.14698    0.000
 3871.00    1.20511   1.13809    0.000
 3872.00    1.17303   1.13119    0.000
 3873.00    1.12830   1.12961    0.000
 3874.00    1.04441   1.13269    0.000
 3875.00    0.94386   1.13604    0.000
 3876.00    1.00386   1.13470    0.000
 3877.00    1.12234   1.12677    0.000
 3878.00    1.11900   1.11500    0.000
 3879.00    1.07812   1.10297    0.000
 3880.00    0.94845   1.09061    0.000
 3881.00    0.79600   1.07657   -1.000
 3882.00    0.81389   1.05995   -1.000
 3883.00    0.86740   1.03884   -1.000
 3884.00    0.83903   1.01032   -1.000
 3885.00    0.79715   0.97226   -1.000
 3886.00    0.85799   0.92486   -1.000
 3887.00    0.93155   0.87288   -1.000
 3888.00    1.10200   0.82845   -1.000
 3889.00    1.28073   0.80649   -1.000
 3890.00    1.10429   0.81441   -1.000
 3891.00    0.91016   0.84993   -1.000
 3892.00    1.03168   0.90309   -1.000
 3893.00    1.15634   0.95944   -1.000
 3894.00    1.14945   1.00831   -1.000
 3895.00    1.14083   1.04681   -1.000
 3896.00    1.09691   1.07646   -1.000
 3897.00    1.05834   1.09887   -1.000
 3898.00    1.08291   1.11585   -1.000
 3899.00    1.09980   1.12963   -1.000
 3900.00    1.05401   1.14183   -1.000
 3901.00    1.02365   1.15311   -1.000
 3902.00    1.08755   1.16311   -1.000
 3903.00    1.12277   1.17056   -1.000
 3904.00    1.01998   1.17410   -1.000
 3905.00    0.91455   1.17552   -1.000
 3906.00    0.79878   1.17899   -1.000
 3907.00    0.73061   1.18623   -1.000
 3908.00    0.81758   1.19700   -1.000
 3909.00    0.93543   1.20930   -1.000
 3910.00    1.13843   1.21952   -1.000
 3911.00    1.31662   1.22590   -1.000
 3912.00    1.43625   1.22873   -1.000
 3913.00    1.52026   1.22914   -1.000
 3914.00    1.53159   1.22794   -1.000
 3915.00    1.46193   1.22459   -1.000
 3916.00    1.24842   1.21787   -1.000
 3917.00    1.11428   1.20670   -1.000
 3918.00    1.10346   1.19074   -1.000
 3919.00    1.21722   1.17233   -1.000
 3920.00    1.50097   1.15593   -1.000
 3921.00    1.51623   1.14546   -1.000
 3922.00    1.20898   1.14162   -1.000
 3923.00    1.00163   1.14167   -1.000
 3924.00    0.90008   1.14074   -1.000
 3925.00    0.94950   1.13453   -1.000
 3926.00    1.13994   1.12321   -1.000
 3927.00    1.23660   1.10926   -1.000
 3928.00    1.25602   1.09480   -1.000
 3929.00    1.10865   1.08130   -1.000
 3930.00    0.84036   1.06800   -1.000
 3931.00    0.76649   1.05340   -1.000
 3932.00    0.81636   1.03774   -1.000
 3933.00    0.87346   1.02416   -1.000
 3934.00    0.93458   1.01740   -1.000
 3935.00    0.96836   1.02058   -1.000
 3936.00    0.98890   1.03409   -1.000
 3937.00    0.99634   1.05503   -1.000
 3938.00    0.99831   1.07850   -1.000
 3939.00    1.13051   1.10031   -1.000
 3940.00    1.30929   1.11760   -1.000
 3941.00    1.32494   1.12917   -1.000
 3942.00    1.29129   1.13526   -1.000
 3943.00    1.15503   1.13759   -1.000
 3944.00    0.99299   1.14010   -1.000
 3945.00    1.13415   1.14583   -1.000
 3946.00    1.33714   1.15437   -1.000
 3947.00    1.23457   1.16415   -1.000
 3948.00    1.08308   1.17352   -1.000
 3949.00    1.05552   1.18087   -1.000
 3950.00    1.04276   1.18571   -1.000
 3951.00    1.30677   1.18780   -1.000
 3952.00    1.59333   1.18711   -1.000
 3953.00    1.35372   1.18423   -1.000
 3954.00    1.08993   1.17959   -1.000
 3955.00    1.52280   1.17387   -1.000
 3956.00    1.94879   1.16746   -1.000
 3957.00    1.55181   1.15965   -1.000
 3958.00    1.15449   1.14911   -1.000
 3959.00    0.75090   1.13366   -1.000
 3960.00    0.38187   1.11058    0.000
 3961.00    0.40244   1.07946    0.000
 3962.00    0.42724   1.04224    0.000
 3963.00    0.48535   1.00070    0.000
 3964.00    0.49744   0.95682    0.000
 3965.00    0.23647   0.91072    0.000
 3966.00    0.01688   0.86026    0.000
 3967.00   -0.00850   0.80610    0.000
 3968.00    0.09357   0.75317    0.000
 3969.00    0.68408   0.71036    0.000
 3970.00    1.11953   0.68914    0.000
 3971.00    1.05937   0.69679    0.000
 3972.00    0.99122   0.73245    0.000
 3973.00    0.90146   0.78883    0.000
 3974.00    0.73300   0.85470    0.000
 3975.00    0.38184   0.91967    0.000
 3976.00    0.10537   0.97836    0.000
 3977.00   -0.02107   1.02891    0.000
 3978.00    0.16464   1.07077    0.000
 3979.00    0.89632   1.10422    0.000
 3980.00    1.13824   1.12923    0.000
 3981.00    0.63034   1.14591   -1.000
 3982.00    0.45399   1.15648   -1.000
 3983.00    0.72352   1.16463   -1.000
 3984.00    0.81309   1.17369   -1.000
 3985.00    0.68955   1.18498   -1.000
 3986.00    0.66920   1.19791   -1.000
 3987.00    0.75661   1.21057   -1.000
 3988.00    0.96110   1.22050   -1.000
 3989.00    1.27345   1.22726   -1.000
 3990.00    1.59642   1.23215   -1.000
 3991.00    1.92803   1.23577   -1.000
 3992.00    1.66336   1.23817   -1.000
 3993.00    0.97267   1.23861   -1.000
 3994.00    0.70042   1.23630   -1.000
 3995.00    0.69054   1.23194   -1.000
 3996.00    0.70109   1.22723   -1.000
 3997.00    0.72282   1.22497   -1.000
 3998.00    1.16117   1.22765   -1.000
 3999.00    1.79798   1.23467   -1.000
 4000.00    1.96379   1.24336   -1.000
 4001.00    1.93603   1.25109   -1.000
 4002.00    1.44116   1.25468   -1.000
 4003.00    0.78224   1.25132   -1.000
 4004.00    0.37264   1.24110   -1.000
 4005.00    0.03691   1.22799   -1.000
 4006.00    0.04961   1.21648   -1.000
 4007.00    0.14790   1.20898   -1.000
 4008.00    0.43764   1.20689   -1.000
 4009.00    0.76545   1.21044   -1.000
 4010.00    1.08892   1.21793   -1.000
 4011.00    1.41173   1.22766   -1.000
 4012.00    1.58618   1.23897   -1.000
 4013.00    1.74357   1.25004   -1.000
 4014.00    1.58598   1.25899   -1.000
 4015.00    1.40404   1.26515   -1.000
 4016.00    1.15738   1.26814   -1.000
 4017.00    0.90800   1.26909   -1.000
 4018.00    1.20499   1.26933   -1.000
 4019.00    1.49465   1.26840   -1.000
 4020.00    1.24511   1.26520   -1.000
 4021.00    1.00000   1.25818   -1.000
 4022.00    0.83312   1.24503   -1.000
 4023.00    0.69211   1.22477   -1.000
 4024.00    0.82940   1.20010   -1.000
 4025.00    0.88838   1.17764   -1.000
 4026.00    0.35279   1.16551   -1.000
 4027.00   -0.07866   1.16764    0.000
 4028.00    0.09057   1.18019   -1.000
 4029.00    0.26854   1.19467   -1.000
 4030.00    0.48656   1.20337   -1.000
 4031.00    0.67952   1.20384   -1.000
 4032.00    0.77842   1.19948   -1.000
 4033.00    0.95973   1.19700   -1.000
 4034.00    1.39939   1.20151   -1.000
 4035.00    1.66882   1.21432   -1.000
 4036.00    1.48540   1.23322   -1.000
 4037.00    1.44029   1.25336   -1.000
 4038.00    1.71101   1.26934   -1.000
 4039.00    1.68244   1.27720   -1.000
 4040.00    1.06223   1.27644   -1.000
 4041.00    0.93175   1.26945   -1.000
 4042.00    1.64491   1.25765   -1.000
 4043.00    1.82397   1.24117   -1.000
 4044.00    1.19731   1.22176   -1.000
 4045.00    0.79357   1.20440   -1.000
 4046.00    0.68532   1.19582   -1.000
 4047.00    0.70837   1.19948   -1.000
 4048.00    0.88472   1.21380   -1.000
 4049.00    0.92242   1.23333   -1.000
 4050.00    0.81739   1.25041   -1.000
 4051.00    0.84812   1.25973   -1.000
 4052.00    1.00214   1.26089   -1.000
 4053.00    1.08475   1.25579   -1.000
 4054.00    1.11019   1.24721   -1.000
 4055.00    0.91280   1.23839   -1.000
 4056.00    0.55849   1.23098   -1.000
 4057.00    0.71961   1.22581   -1.000
 4058.00    1.19911   1.22362   -1.000
 4059.00    1.16364   1.22340   -1.000
 4060.00    0.85030   1.22277   -1.000
 4061.00    0.97244   1.21885   -1.000
 4062.00    1.29867   1.21008   -1.000
 4063.00    1.36272   1.19960   -1.000
 4064.00    1.32085   1.19262   -1.000
 4065.00    1.32242   1.19136   -1.000
 4066.00    1.33898   1.19544   -1.000
 4067.00    1.33599   1.20247   -1.000
 4068.00    1.32734   1.20768   -1.000
 4069.00    1.50457   1.20746   -1.000
 4070.00    1.72645   1.20192   -1.000
 4071.00    1.79132   1.19444   -1.000
 4072.00    1.82577   1.18918   -1.000
 4073.00    1.35596   1.18663   -1.000
 4074.00    0.81018   1.18412   -1.000
 4075.00    0.71423   1.17946   -1.000
 4076.00    0.66804   1.17225   -1.000
 4077.00    0.79448   1.16573   -1.000
 4078.00    0.93357   1.16586   -1.000
 4079.00    0.86263   1.17586   -1.000
 4080.00    0.78366   1.19268   -1.000
 4081.00    0.84779   1.20918   -1.000
 4082.00    0.91963   1.21912   -1.000
 4083.00    1.25196   1.22058   -1.000
 4084.00    1.54377   1.21633   -1.000
 4085.00    1.16787   1.21155   -1.000
 4086.00    0.85275   1.21037   -1.000
 4087.00    1.16320   1.21308   -1.000
 4088.00    1.46778   1.21711   -1.000
 4089.00    1.72932   1.21956   -1.000
 4090.00    1.99013   1.21805   -1.000
 4091.00    2.24687   1.21123   -1.000
 4092.00    2.28369   1.19979    0.000
 4093.00    1.33639   1.18380    0.000
 4094.00    0.64534   1.16108    0.000
 4095.00    0.89540   1.13092    0.000
 4096.00    0.94582   1.09476    0.000
 4097.00    0.38227   1.05351    0.000
 4098.00    0.16522   1.00756    0.000
 4099.00    0.85383   0.95772    0.000
 4100.00    1.36578   0.90742    0.000
 4101.00    1.48103   0.86643    0.000
 4102.00    1.60564   0.84670    0.000
 4103.00    1.74845   0.85439    0.000
 4104.00    1.88404   0.88847    0.000
 4105.00    2.00739   0.94020    0.000
 4106.00    1.87438   0.99563    0.000
 4107.00    1.36032   1.04369    0.000
 4108.00    0.99909   1.07995    0.000
 4109.00    0.83756   1.10467    0.000
 4110.00    0.79021   1.12122    0.000
 4111.00    0.87430   1.13427    0.000
 4112.00    0.92845   1.14746    0.000
 4113.00    0.95222   1.16155   -1.000
 4114.00    1.02603   1.17503   -1.000
 4115.00    1.14465   1.18578   -1.000
 4116.00    1.10153   1.19156   -1.000
 4117.00    0.93080   1.19035   -1.000
 4118.00    0.80462   1.18304   -1.000
 4119.00    0.70936   1.17359   -1.000
 4120.00    0.75028   1.16629   -1.000
 4121.00    0.87408   1.16491   -1.000
 4122.00    0.97160   1.17125   -1.000
 4123.00    1.05515   1.18365   -1.000
 4124.00    1.11606   1.19797   -1.000
 4125.00    1.16653   1.20908   -1.000
 4126.00    1.04220   1.21353   -1.000
 4127.00    0.84845   1.21098   -1.000
 4128.00    0.88138   1.20348   -1.000
 4129.00    0.99101   1.19328   -1.000
 4130.00    1.19642   1.18223   -1.000
 4131.00    1.42907   1.17226   -1.000
 4132.00    1.62783   1.16576   -1.000
 4133.00    1.81863   1.16482   -1.000
 4134.00    1.86887   1.17098   -1.000
 4135.00    1.89257   1.18348   -1.000
 4136.00    1.77762   1.19856   -1.000
 4137.00    1.64243   1.21234   -1.000
 4138.00    1.39018   1.22158   -1.000
 4139.00    1.12549   1.22317   -1.000
 4140.00    0.89810   1.21501   -1.000
 4141.00    0.67330   1.19587   -1.000
 4142.00    0.81830   1.16807   -1.000
 4143.00    0.97605   1.14115   -1.000
 4144.00    1.06982   1.12603   -1.000
 4145.00    1.16441   1.12690   -1.000
 4146.00    1.29032   1.14156   -1.000
 4147.00    1.42085   1.16274   -1.000
 4148.00    1.62269   1.18054   -1.000
 4149.00    1.81061   1.18968   -1.000
 4150.00    1.86129   1.19165   -1.000
 4151.00    1.90780   1.18941   -1.000
 4152.00    1.92472   1.18544   -1.000
 4153.00    1.89048   1.18207   -1.000
 4154.00    1.57689   1.18040   -1.000
 4155.00    1.31860   1.18058   -1.000
 4156.00    1.30200   1.18372   -1.000
 4157.00    1.26512   1.19066   -1.000
 4158.00    1.15529   1.20008   -1.000
 4159.00    1.11849   1.20964   -1.000
 4160.00    1.30208   1.21775   -1.000
 4161.00    1.39873   1.22371   -1.000
 4162.00    1.27211   1.22679   -1.000
 4163.00    1.24145   1.22658   -1.000
 4164.00    1.42278   1.22380   -1.000
 4165.00    1.33361   1.21895   -1.000
 4166.00    0.72631   1.21207   -1.000
 4167.00    0.50367   1.20454   -1.000
 4168.00    0.92395   1.19830   -1.000
 4169.00    1.38917   1.19317   -1.000
 4170.00    1.92024   1.18702   -1.000
 4171.00    1.99552   1.17836   -1.000
 4172.00    1.48376   1.16840   -1.000
 4173.00    1.23879   1.15984   -1.000
 4174.00    1.29656   1.15498   -1.000
 4175.00    0.96684   1.15476   -1.000
 4176.00    0.24929   1.15828   -1.000
 4177.00    0.12170   1.16359   -1.000
 4178.00    0.51488   1.16950   -1.000
 4179.00    0.89595   1.17531   -1.000
 4180.00    1.26759   1.18014   -1.000
 4181.00    1.41870   1.18383   -1.000
 4182.00    1.41899   1.18684   -1.000
 4183.00    1.48751   1.18901   -1.000
 4184.00    1.59694   1.19010   -1.000
 4185.00    1.46079   1.18930   -1.000
 4186.00    1.19620   1.18600   -1.000
 4187.00    1.09015   1.18183   -1.000
 4188.00    1.05602   1.17888   -1.000
 4189.00    1.19907   1.17820   -1.000
 4190.00    1.41125   1.18076   -1.000
 4191.00    1.50120   1.18689   -1.000
 4192.00    1.55055   1.19451   -1.000
 4193.00    1.45703   1.19947    0.090
 4194.00    1.32369   1.19873    0.040
 4195.00    1.36858   1.19167    0.036
 4196.00    1.45435   1.17919    0.035
 4197.00    1.49967   1.16343    0.035
 4198.00    1.53756   1.14870    0.036
 4199.00    1.37929   1.13869    0.036
 4200.00    1.19327   1.13381    0.036
 4201.00    1.10948   1.13372    0.035
 4202.00    1.03611   1.13864    0.035
 4203.00    1.11055   1.14744    0.034
 4204.00    1.19462   1.15850    0.034
 4205.00    1.24482   1.17138    0.034
 4206.00    1.29346   1.18492    0.034
 4207.00    1.00193   1.19692    0.034
 4208.00    0.72969   1.20545    0.034
 4209.00    1.02380   1.21006    0.034
 4210.00    1.31519   1.21150    0.035
 4211.00    1.56694   1.21055    0.035
 4212.00    1.74261   1.20715    0.035
 4213.00    1.19880   1.20102    0.035
 4214.00    0.73017   1.19255    0.034
 4215.00    0.77825   1.18492    0.034
 4216.00    0.87434   1.18248    0.034
 4217.00    1.22560   1.18678    0.035
 4218.00    1.50131   1.19630    0.035
 4219.00    1.45437   1.20779    0.035
 4220.00    1.39668   1.21573    0.035
 4221.00    1.30111   1.21444    0.035
 4222.00    1.25195   1.20219    0.035
 4223.00    1.34018   1.18030    0.035
 4224.00    1.30191   1.15129    0.036
 4225.00    0.94437   1.12010    0.035
 4226.00    0.79277   1.09561    0.035
 4227.00    1.08866   1.08632    0.035
 4228.00    1.28923   1.09409    0.035
 4229.00    1.31001   1.11461    0.034
 4230.00    1.33187   1.14053    0.034
 4231.00    1.35553   1.16264    0.034
 4232.00    1.34941   1.17454    0.034
 4233.00    1.30031   1.17692    0.034
 4234.00    1.21226   1.17321    0.034
 4235.00    1.07476   1.16660    0.033
 4236.00    1.02953   1.16139    0.033
 4237.00    1.08752   1.16008    0.033
 4238.00    1.13691   1.16208    0.033
 4239.00    1.17781   1.16710    0.033
 4240.00    1.14090   1.17515    0.033
 4241.00    1.03625   1.18446    0.033
 4242.00    1.12204   1.19409    0.033
 4243.00    1.35381   1.20410    0.033
 4244.00    1.47474   1.21212    0.034
 4245.00    1.52097   1.21473    0.034
 4246.00    1.34214   1.21080    0.035
 4247.00    1.03041   1.20131    0.035
 4248.00    0.77608   1.18784    0.035
 4249.00    0.55129   1.17319    0.035
 4250.00    0.55041   1.16154    0.035
 4251.00    0.64943   1.15450    0.035
 4252.00    0.76895   1.14978    0.035
 4253.00    0.89634   1.14611    0.035
 4254.00    1.07505   1.14545    0.034
 4255.00    1.27048   1.14904    0.034
 4256.00    1.03056   1.15518    0.034
 4257.00    0.67182   1.16069    0.034
 4258.00    0.93166   1.16288    0.034
 4259.00    1.33014   1.16079    0.035
 4260.00    1.28977   1.15725    0.035
 4261.00    1.17091   1.15776    0.034
 4262.00    1.06539   1.16560    0.035
 4263.00    0.96169   1.17910    0.035
 4264.00    0.89698   1.19321    0.034
 4265.00    0.83609   1.20157    0.033
 4266.00    0.73857   1.20014    0.033
 4267.00    0.63880   1.19060    0.033
 4268.00    0.96719   1.17622    0.033
 4269.00    1.30625   1.15827    0.032
 4270.00    1.47291   1.13826    0.033
 4271.00    1.62046   1.11986    0.033
 4272.00    1.26279   1.10594    0.033
 4273.00    0.92169   1.09742    0.032
 4274.00    0.80830   1.09633    0.032
 4275.00    0.69814   1.10461    0.032
 4276.00    0.61737   1.12049    0.032
 4277.00    0.57845   1.13931    0.032
 4278.00    0.81830   1.15608    0.033
 4279.00    1.01659   1.16699    0.033
 4280.00    0.99970   1.17106    0.031
 4281.00    0.98987   1.16965    0.030
 4282.00    1.00955   1.16534   -2.000
 4283.00    1.12367   1.16045   -2.000
 4284.00    1.56384   1.15569   -2.000
 4285.00    1.91304   1.15088   -2.000
 4286.00    1.99778   1.14530   -2.000
 4287.00    1.89613   1.13741   -2.000
 4288.00    1.33215   1.12666   -2.000
 4289.00    0.90607   1.11585   -2.000
 4290.00    0.77478   1.10929   -2.000
 4291.00    0.86828   1.10943   -2.000
 4292.00    1.37914   1.11547   -2.000
 4293.00    1.71887   1.12379   -2.000
 4294.00    1.78105   1.13075   -2.000
 4295.00    1.69117   1.13286   -2.000
 4296.00    1.38497   1.12778   -2.000
 4297.00    1.19012   1.11560   -2.000
 4298.00    1.13463   1.09839    0.031
 4299.00    1.16735   1.07968    0.031
 4300.00    1.29738   1.06322    0.031
 4301.00    1.29916   1.05107    0.031
 4302.00    1.17616   1.04400    0.031
 4303.00    1.09553   1.04197    0.031
 4304.00    1.05126   1.04240    0.031
 4305.00    1.08972   1.04170    0.031
 4306.00    1.19070   1.03797    0.030
 4307.00    1.28207   1.03210    0.031
 4308.00    1.36705   1.02731    0.031
 4309.00    1.26623   1.02730    0.031
 4310.00    1.05736   1.03439    0.031
 4311.00    0.96289   1.04863    0.031
 4312.00    0.92640   1.06841    0.031
 4313.00    0.98067   1.09168    0.030
 4314.00    1.07477   1.11786    0.030
 4315.00    1.19584   1.14664    0.030
 4316.00    1.32708   1.17520    0.030
 4317.00    1.36631   1.19949    0.031
 4318.00    1.37612   1.21600    0.031
 4319.00    1.44930   1.22254    0.031
 4320.00    1.53941   1.21869    0.031
 4321.00    1.36662   1.20568    0.031
 4322.00    1.13630   1.18445    0.032
 4323.00    1.06332   1.15675    0.031
 4324.00    1.01771   1.12706    0.031
 4325.00    1.05661   1.10331    0.031
 4326.00    1.10668   1.09333    0.031
 4327.00    1.16894   1.09937    0.032
 4328.00    1.23233   1.11673    0.032
 4329.00    1.17294   1.13704    0.031
 4330.00    1.10653   1.15302    0.000
 4331.00    1.25667   1.16058    0.000
 4332.00    1.41031   1.15933    0.000
 4333.00    1.38753   1.15123    0.000
 4334.00    1.36627   1.13658    0.000
 4335.00    1.38134   1.11160    0.000
 4336.00    1.40558   1.07208    0.000
 4337.00    1.54922   1.01892    0.000
 4338.00    1.63245   0.95809    0.000
 4339.00    1.18787   0.90038    0.000
 4340.00    0.79751   0.86069    0.000
 4341.00    0.75737   0.84986    0.000
 4342.00    0.75846   0.86772    0.000
 4343.00    0.96749   0.90663    0.000
 4344.00    1.18545   0.95651    0.000
 4345.00    1.43986   1.00655    0.000
 4346.00    1.60709   1.04920    0.000
 4347.00    1.47941   1.08280    0.000
 4348.00    1.35595   1.10738    0.000
 4349.00    1.24453   1.12116    0.000
 4350.00    1.21328   1.12371    0.000
 4351.00    1.37749   1.11972    0.031
 4352.00    1.46773   1.11634    0.031
 4353.00    1.40240   1.11853    0.030
 4354.00    1.41574   1.12854    0.030
 4355.00    1.57293   1.14558    0.031
 4356.00    1.54187   1.16482    0.031
 4357.00    1.21004   1.17992    0.031
 4358.00    1.06381   1.18860    0.030
 4359.00    1.17780   1.19356    0.030
 4360.00    1.26468   1.19834    0.031
 4361.00    1.31810   1.20478    0.031
 4362.00    1.39696   1.21329    0.031
 4363.00    1.50349   1.22298    0.030
 4364.00    1.57548   1.23089    0.030
 4365.00    1.61434   1.23311    0.030
 4366.00    1.54499   1.22854    0.030
 4367.00    1.38411   1.21973    0.029
 4368.00    1.19554   1.21012    0.029
 4369.00    0.98635   1.20190    0.030
 4370.00    0.92062   1.19603    0.030
 4371.00    0.94878   1.19160    0.030
 4372.00    1.04917   1.18598    0.030
 4373.00    1.19093   1.17770    0.030
 4374.00    1.22744   1.16904    0.030
 4375.00    1.21146   1.16452    0.030
 4376.00    1.24204   1.16692    0.030
 4377.00    1.29271   1.17504    0.029
 4378.00    1.14596   1.18444    0.029
 4379.00    0.92618   1.18952    0.029
 4380.00    0.86990   1.18492    0.029
 4381.00    0.86490   1.16724    0.029
 4382.00    0.94994   1.13832    0.029
 4383.00    1.05853   1.10655    0.029
 4384.00    1.04692   1.08190    0.029
 4385.00    1.00964   1.06985    0.029
 4386.00    0.98958   1.06988    0.028
 4387.00    0.97242   1.07907    0.028
 4388.00    1.03644   1.09355    0.028
 4389.00    1.11082   1.10917    0.029
 4390.00    1.30355   1.12428    0.029
 4391.00    1.50683   1.13930    0.028
 4392.00    1.51458   1.15343    0.029
 4393.00    1.51191   1.16483    0.029
 4394.00    1.52887   1.17358    0.029
 4395.00    1.54581   1.18207    0.028
 4396.00    1.52972   1.19133    0.028
 4397.00    1.51034   1.19963    0.029
 4398.00    1.41840   1.20452    0.029
 4399.00    1.32374   1.20458    0.029
 4400.00    1.19545   1.20049    0.029
 4401.00    1.06979   1.19346    0.029
 4402.00    0.96633   1.18297    0.029
 4403.00    0.89128   1.16895    0.029
 4404.00    0.99431   1.15423    0.029
 4405.00    1.07520   1.14260    0.028
 4406.00    1.04726   1.13626    0.028
 4407.00    1.03233   1.13693    0.028
 4408.00    1.06935   1.14616    0.029
 4409.00    1.11330   1.16259    0.029
 4410.00    1.18029   1.18172    0.028
 4411.00    1.22118   1.19843    0.028
 4412.00    1.18897   1.20783    0.028
 4413.00    1.14680   1.20622    0.028
 4414.00    1.08075   1.19494    0.028
 4415.00    1.10226   1.18069    0.028
 4416.00    1.30500   1.17124    0.029
 4417.00    1.41850   1.17172    0.029
 4418.00    1.37136   1.18214    0.029
 4419.00    1.28222   1.19747    0.029
 4420.00    1.12696   1.21067    0.029
 4421.00    1.04515   1.21708    0.029
 4422.00    1.06482   1.21714    0.029
 4423.00    1.08786   1.21401    0.029
 4424.00    1.11498   1.21037    0.029
 4425.00    1.16391   1.20773    0.029
 4426.00    1.23624   1.20651    0.029
 4427.00    1.32294   1.20623    0.029
 4428.00    1.42323   1.20552    0.029
 4429.00    1.43214   1.20368    0.029
 4430.00    1.36485   1.20171    0.029
 4431.00    1.32075   1.19961    0.029
 4432.00    1.29368   1.19570    0.029
 4433.00    1.28431   1.18903    0.029
 4434.00    1.28635   1.18128    0.030
 4435.00    1.27839   1.17653    0.030
 4436.00    1.26478   1.17834    0.030
 4437.00    1.23637   1.18767    0.030
 4438.00    1.20068   1.20168    0.030
 4439.00    1.32069   1.21424    0.030
 4440.00    1.50675   1.21956    0.030
 4441.00    1.48435   1.21613    0.030
 4442.00    1.38618   1.20781    0.030
 4443.00    1.39252   1.20135    0.030
 4444.00    1.43101   1.20152    0.030
 4445.00    1.35113   1.20836    0.030
 4446.00    1.24094   1.21864    0.031
 4447.00    1.22166   1.22865    0.030
 4448.00    1.22133   1.23518    0.030
 4449.00    1.27837   1.23695    0.030
 4450.00    1.34483   1.23479    0.030
 4451.00    1.35867   1.22953    0.030
 4452.00    1.36602   1.22099    0.029
 4453.00    1.37838   1.20868    0.029
 4454.00    1.39117   1.19390    0.030
 4455.00    1.26899   1.17991    0.029
 4456.00    1.14014   1.16905    0.029
 4457.00    0.99876   1.16195    0.028
 4458.00    0.86321   1.15813    0.028
 4459.00    1.10566   1.15634    0.029
 4460.00    1.33216   1.15562    0.029
 4461.00    1.23578   1.15678    0.000
 4462.00    1.14134   1.16157    0.000
 4463.00    1.06980   1.16978    0.000
 4464.00    1.01632   1.17914    0.000
 4465.00    1.10932   1.18671    0.000
 4466.00    1.19247   1.18984    0.000
 4467.00    1.21563   1.18696    0.000
 4468.00    1.22757   1.17822    0.000
 4469.00    1.18566   1.16624    0.000
 4470.00    1.16848   1.15595    0.000
 4471.00    1.24787   1.15316    0.000
 4472.00    1.32543   1.16136    0.000
 4473.00    1.39701   1.17949    0.000
 4474.00    1.46405   1.20336    0.000
 4475.00    1.51861   1.22777    0.000
 4476.00    1.53190   1.24760    0.000
 4477.00    1.44795   1.25827    0.000
 4478.00    1.39379   1.25705    0.000
 4479.00    1.40031   1.24503    0.000
 4480.00    1.44296   1.22750    0.000
 4481.00    1.54964   1.21223    0.000
 4482.00    1.63654   1.20602    0.029
 4483.00    1.69275   1.21152    0.029
 4484.00    1.60585   1.22621    0.029
 4485.00    1.32404   1.24353    0.029
 4486.00    1.17620   1.25587    0.029
 4487.00    1.18900   1.25863    0.030
 4488.00    1.24326   1.25246    0.030
 4489.00    1.34134   1.24238    0.029
 4490.00    1.40638   1.23398    0.029
 4491.00    1.44059   1.22978    0.029
 4492.00    1.39108   1.22843    0.029
 4493.00    1.27273   1.22703    0.029
 4494.00    1.20206   1.22424    0.028
 4495.00    1.16588   1.22127    0.028
 4496.00    1.27082   1.22093    0.029
 4497.00    1.46540   1.22537    0.029
 4498.00    1.46668   1.23409    0.029
 4499.00    1.36061   1.24449    0.029
 4500.00    1.28257   1.25444    0.029
 4501.00    1.21809   1.26418    0.029
 4502.00    1.16350   1.27489    0.029
 4503.00    1.11304   1.28639    0.029
 4504.00    1.31968   1.29694    0.029
 4505.00    1.61809   1.30409    0.029
 4506.00    1.73194   1.30642    0.029
 4507.00    1.79016   1.30462    0.029
 4508.00    1.52053   1.30077    0.029
 4509.00    1.16880   1.29670    0.028
 4510.00    1.27117   1.29256    0.028
 4511.00    1.46585   1.28719    0.028
 4512.00    1.54510   1.27978    0.028
 4513.00    1.60594   1.27086    0.029
 4514.00    1.50886   1.26228    0.028
 4515.00    1.39301   1.25582    0.028
 4516.00    1.28526   1.25213    0.028
 4517.00    1.17817   1.25142    0.028
 4518.00    1.34136   1.25350    0.028
 4519.00    1.51684   1.25737    0.029
 4520.00    1.29444   1.26098    0.029
 4521.00    1.07502   1.26174    0.028
 4522.00    1.25701   1.25829    0.028
 4523.00    1.42074   1.25039    0.028
 4524.00    1.24168   1.23817    0.028
 4525.00    1.09718   1.22251    0.028
 4526.00    1.33998   1.20492    0.028
 4527.00    1.54043   1.18762    0.028
 4528.00    1.40956   1.17348    0.028
 4529.00    1.28237   1.16495    0.028
 4530.00    1.17700   1.16299    0.028
 4531.00    1.12274   1.16610    0.028
 4532.00    1.30775   1.17076    0.028
 4533.00    1.44233   1.17443    0.028
 4534.00    1.38419   1.17770    0.028
 4535.00    1.31360   1.18359    0.028
 4536.00    1.20336   1.19419    0.028
 4537.00    1.17898   1.20809    0.028
 4538.00    1.38660   1.22131    0.028
 4539.00    1.53292   1.22994    0.028
 4540.00    1.53720   1.23282    0.028
 4541.00    1.54064   1.23194    0.028
 4542.00    1.54238   1.22987    0.028
 4543.00    1.52407   1.22830    0.028
 4544.00    1.47076   1.22784    0.028
 4545.00    1.35214   1.22791    0.028
 4546.00    1.13372   1.22721    0.028
 4547.00    1.07819   1.22477    0.028
 4548.00    1.24135   1.22095    0.028
 4549.00    1.32576   1.21710    0.028
 4550.00    1.31707   1.21374    0.000
 4551.00    1.28214   1.21044    0.000
 4552.00    1.21986   1.20716    0.000
 4553.00    1.22486   1.20451    0.000
 4554.00    1.29170   1.20430    0.000
 4555.00    1.34200   1.20888    0.000
 4556.00    1.37889   1.21909    0.000
 4557.00    1.30709   1.23359    0.000
 4558.00    1.15778   1.24933    0.000
 4559.00    1.11237   1.26277    0.000
 4560.00    1.13200   1.27122    0.000
 4561.00    1.11947   1.27324    0.000
 4562.00    1.08936   1.26897    0.000
 4563.00    1.16419   1.26061    0.000
 4564.00    1.28892   1.25188    0.000
 4565.00    1.33133   1.24653    0.000
 4566.00    1.33999   1.24657    0.000
 4567.00    1.29456   1.25128    0.000
 4568.00    1.23018   1.25762    0.000
 4569.00    1.16241   1.26172    0.000
 4570.00    1.09363   1.26183    0.000
 4571.00    1.16036   1.25966    0.000
 4572.00    1.26029   1.25790    0.000
 4573.00    1.34231   1.25813    0.000
 4574.00    1.42078   1.26067    0.000
 4575.00    1.37777   1.26399    0.000
 4576.00    1.31597   1.26549    0.000
 4577.00    1.33876   1.26302    0.000
 4578.00    1.37124   1.25591    0.000
 4579.00    1.24737   1.24561    0.000
 4580.00    1.11148   1.23511    0.000
 4581.00    1.28437   1.22706    0.000
 4582.00    1.47011   1.22269    0.000
 4583.00    1.29849   1.22192    0.000
 4584.00    1.12681   1.22381    0.000
 4585.00    1.08542   1.22766    0.000
 4586.00    1.05150   1.23343    0.000
 4587.00    1.14824   1.24067    0.000
 4588.00    1.24846   1.24777    0.000
 4589.00    1.38595   1.25238    0.000
 4590.00    1.50747   1.25275    0.000
 4591.00    1.50822   1.24878    0.000
 4592.00    1.49661   1.24198    0.000
 4593.00    1.41397   1.23448    0.000
 4594.00    1.31998   1.22837    0.000
 4595.00    1.17416   1.22496    0.000
 4596.00    1.07141   1.22453    0.000
 4597.00    1.12978   1.22641    0.000
 4598.00    1.16921   1.22899    0.000
 4599.00    1.14939   1.23074    0.000
 4600.00    1.14348   1.23125    0.000
 4601.00    1.17454   1.23102    0.000
 4602.00    1.24439   1.23091    0.000
 4603.00    1.40265   1.23169    0.000
 4604.00    1.45325   1.23397    0.000
 4605.00    1.29142   1.23843    0.000
 4606.00    1.22851   1.24582    0.000
 4607.00    1.33568   1.25601    0.000
 4608.00    1.39583   1.26738    0.000
 4609.00    1.38520   1.27740    0.000
 4610.00    1.30540   1.28373    0.000
 4611.00    1.13409   1.28537    0.000
 4612.00    1.17524   1.28351    0.000
 4613.00    1.46399   1.28064    0.000
 4614.00    1.57776   1.27861    0.000
 4615.00    1.51170   1.27813    0.000
 4616.00    1.48532   1.27848    0.000
 4617.00    1.49491   1.27820    0.000
 4618.00    1.43857   1.27704    0.000
 4619.00    1.32954   1.27609    0.000
 4620.00    1.31662   1.27630    0.000
 4621.00    1.37125   1.27812    0.000
 4622.00    1.39535   1.28115    0.000
 4623.00    1.40064   1.28384    0.000
 4624.00    1.36979   1.28483    0.000
 4625.00    1.31948   1.28391    0.000
 4626.00    1.33155   1.28139    0.000
 4627.00    1.37279   1.27778    0.000
 4628.00    1.37528   1.27424    0.000
 4629.00    1.36215   1.27193    0.000
 4630.00    1.32204   1.27082    0.000
 4631.00    1.27265   1.26993    0.000
 4632.00    1.24918   1.26827    0.000
 4633.00    1.23323   1.26514    0.000
 4634.00    1.30385   1.26030    0.000
 4635.00    1.39521   1.25398    0.000
 4636.00    1.43859   1.24662    0.000
 4637.00    1.47270   1.23875    0.000
 4638.00    1.39781   1.23138    0.000
 4639.00    1.30656   1.22611    0.000
 4640.00    1.22757   1.22418    0.000
 4641.00    1.14992   1.22545    0.000
 4642.00    1.23553   1.22820    0.000
 4643.00    1.33301   1.22940    0.000
 4644.00    1.34895   1.22600    0.000
 4645.00    1.36180   1.21719    0.000
 4646.00    1.34102   1.20508    0.000
 4647.00    1.31984   1.19363    0.000
 4648.00    1.29026   1.18688    0.000
 4649.00    1.26340   1.18719    0.000
 4650.00    1.28125   1.19423    0.000
 4651.00    1.29753   1.20521    0.000
 4652.00    1.29778   1.21599    0.000
 4653.00    1.29261   1.22357    0.000
 4654.00    1.24786   1.22746    0.000
 4655.00    1.21303   1.22972    0.000
 4656.00    1.23377   1.23396    0.000
 4657.00    1.26006   1.24268    0.000
 4658.00    1.31117   1.25529    0.000
 4659.00    1.35799   1.26813    0.000
 4660.00    1.38913   1.27659    0.000
 4661.00    1.40731   1.27758    0.000
 4662.00    1.38571   1.27092    0.000
 4663.00    1.32978   1.25841    0.000
 4664.00    1.18430   1.24201    0.000
 4665.00    1.09782   1.22343    0.000
 4666.00    1.14354   1.20505    0.000
 4667.00    1.18546   1.19010    0.000
 4668.00    1.21996   1.18206    0.000
 4669.00    1.22159   1.18307    0.000
 4670.00    1.16752   1.19221    0.000
 4671.00    1.17200   1.20568    0.000
 4672.00    1.26335   1.21905    0.000
 4673.00    1.34352   1.22948    0.000
 4674.00    1.40910   1.23656    0.000
 4675.00    1.42113   1.24101    0.000
 4676.00    1.37163   1.24341    0.000
 4677.00    1.37955   1.24355    0.000
 4678.00    1.44564   1.24083    0.000
 4679.00    1.42584   1.23531    0.000
 4680.00    1.32925   1.22845    0.000
 4681.00    1.35578   1.22255    0.000
 4682.00    1.47927   1.21907    0.000
 4683.00    1.41605   1.21802    0.000
 4684.00    1.22352   1.21868    0.000
 4685.00    1.23209   1.21997    0.000
 4686.00    1.36281   1.22129    0.000
 4687.00    1.37475   1.22282    0.000
 4688.00    1.32371   1.22470    0.000
 4689.00    1.37288   1.22686    0.000
 4690.00    1.46815   1.22941    0.000
 4691.00    1.33780   1.23253    0.000
 4692.00    1.11804   1.23663    0.000
 4693.00    1.02586   1.24203    0.000
 4694.00    0.97676   1.24802    0.000
 4695.00    1.10650   1.25247    0.000
 4696.00    1.28699   1.25280    0.000
 4697.00    1.33629   1.24791    0.000
 4698.00    1.35488   1.23884    0.000
 4699.00    1.16580   1.22781    0.000
 4700.00    0.93765   1.21733    0.000
 4701.00    0.92787   1.20940    0.000
 4702.00    0.94985   1.20485    0.000
 4703.00    1.09922   1.20327    0.000
 4704.00    1.26207   1.20353    0.000
 4705.00    1.33866   1.20440    0.000
 4706.00    1.40933   1.20484    0.000
 4707.00    1.39166   1.20443    0.000
 4708.00    1.37098   1.20401    0.000
 4709.00    1.24500   1.20490    0.000
 4710.00    1.12494   1.20714    0.000
 4711.00    1.20303   1.20976    0.000
 4712.00    1.27205   1.21167    0.000
 4713.00    1.20191   1.21282    0.000
 4714.00    1.13489   1.21462    0.000
 4715.00    1.09858   1.21920    0.000
 4716.00    1.07459   1.22786    0.000
 4717.00    1.13769   1.24013    0.000
 4718.00    1.16618   1.25377    0.000
 4719.00    1.00636   1.26598    0.000
 4720.00    0.92042   1.27476    0.000
 4721.00    1.15646   1.27966    0.000
 4722.00    1.35265   1.28152    0.000
 4723.00    1.40588   1.28117    0.000
 4724.00    1.39988   1.27846    0.000
 4725.00    1.21555   1.27223    0.000
 4726.00    1.06997   1.26165    0.000
 4727.00    1.02368   1.24742    0.000
 4728.00    1.01360   1.23198    0.000
 4729.00    1.08331   1.21896    0.000
 4730.00    1.11619   1.21150    0.000
 4731.00    1.07866   1.21061    0.000
 4732.00    1.09502   1.21506    0.000
 4733.00    1.20128   1.22243    0.000
 4734.00    1.25022   1.22984    0.000
 4735.00    1.21534   1.23563    0.000
 4736.00    1.21047   1.23972    0.000
 4737.00    1.24418   1.24252    0.000
 4738.00    1.29769   1.24451    0.000
 4739.00    1.37361   1.24607    0.000
 4740.00    1.40922   1.24739    0.000
 4741.00    1.40455   1.24863    0.000
 4742.00    1.30880   1.25009    0.000
 4743.00    1.13279   1.25227    0.000
 4744.00    1.03771   1.25555    0.000
 4745.00    1.00547   1.25964    0.000
 4746.00    1.12768   1.26383    0.000
 4747.00    1.35531   1.26758    0.000
 4748.00    1.39205   1.27033    0.000
 4749.00    1.31457   1.27138    0.000
 4750.00    1.23198   1.27024    0.000
 4751.00    1.14672   1.26684    0.000
 4752.00    1.14838   1.26151    0.000
 4753.00    1.18938   1.25512    0.000
 4754.00    1.20765   1.24882    0.000
 4755.00    1.21706   1.24372    0.000
 4756.00    1.14679   1.24053    0.000
 4757.00    1.05012   1.23931    0.000
 4758.00    1.16014   1.23925    0.000
 4759.00    1.32763   1.23873    0.000
 4760.00    1.37827   1.23601    0.000
 4761.00    1.40220   1.23017    0.027
 4762.00    1.30678   1.22137    0.027
 4763.00    1.18950   1.21100    0.027
 4764.00    1.21749   1.20140    0.027
 4765.00    1.26592   1.19501    0.026
 4766.00    1.26454   1.19343    0.026
 4767.00    1.25809   1.19697    0.025
 4768.00    1.24985   1.20440    0.026
 4769.00    1.24149   1.21331    0.026
 4770.00    1.18846   1.22142    0.026
 4771.00    1.13436   1.22768    0.026
 4772.00    1.21389   1.23248    0.026
 4773.00    1.28558   1.23685    0.026
 4774.00    1.12993   1.24164    0.026
 4775.00    0.99116   1.24671    0.026
 4776.00    1.09626   1.25093    0.026
 4777.00    1.20206   1.25302    0.026
 4778.00    1.31439   1.25245    0.026
 4779.00    1.41058   1.24936    0.026
 4780.00    1.39634   1.24418    0.026
 4781.00    1.38578   1.23767    0.025
 4782.00    1.39473   1.23084    0.025
 4783.00    1.37853   1.22444    0.025
 4784.00    1.25523   1.21892    0.025
 4785.00    1.15833   1.21467    0.025
 4786.00    1.15422   1.21173    0.025
 4787.00    1.12836   1.21000    0.025
 4788.00    1.03823   1.20976    0.025
 4789.00    1.00493   1.21149    0.025
 4790.00    1.11475   1.21577    0.025
 4791.00    1.20956   1.22306    0.025
 4792.00    1.27180   1.23314    0.026
 4793.00    1.30218   1.24468    0.025
 4794.00    1.27260   1.25542    0.025
 4795.00    1.28515   1.26274    0.025
 4796.00    1.36694   1.26475    0.026
 4797.00    1.34106   1.26137    0.026
 4798.00    1.16006   1.25467    0.026
 4799.00    1.10380   1.24793    0.025
 4800.00    1.20566   1.24397    0.026
 4801.00    1.20219   1.24371    0.026
 4802.00    1.08109   1.24585    0.026
 4803.00    1.09300   1.24787    0.026
 4804.00    1.23593   1.24760    0.026
 4805.00    1.30509   1.24435    0.026
 4806.00    1.31015   1.23921    0.026
 4807.00    1.27796   1.23421    0.025
 4808.00    1.21726   1.23101    0.025
 4809.00    1.21679   1.23023    0.025
 4810.00    1.25684   1.23150    0.025
 4811.00    1.28028   1.23397    0.025
 4812.00    1.29395   1.23684    0.026
 4813.00    1.31678   1.23984    0.026
 4814.00    1.34433   1.24324    0.026
 4815.00    1.35952   1.24738    0.026
 4816.00    1.36921   1.25225    0.026
 4817.00    1.15582   1.25727    0.025
 4818.00    0.85708   1.26136    0.025
 4819.00    0.98335   1.26318    0.025
 4820.00    1.24781   1.26150    0.025
 4821.00    1.38137   1.25590    0.025
 4822.00    1.47930   1.24747    0.025
 4823.00    1.49098   1.23841    0.025
 4824.00    1.48339   1.23117    0.025
 4825.00    1.37293   1.22721    0.025
 4826.00    1.24414   1.22636    0.025
 4827.00    1.14090   1.22704    0.025
 4828.00    1.04115   1.22725    0.025
 4829.00    1.06862   1.22586    0.025
 4830.00    1.10845   1.22323    0.025
 4831.00    1.14113   1.22067    0.025
 4832.00    1.17339   1.21939    0.025
 4833.00    1.10926   1.22005    0.025
 4834.00    1.04320   1.22245    0.025
 4835.00    1.09078   1.22539    0.025
 4836.00    1.13752   1.22711    0.025
 4837.00    1.16263   1.22631    0.025
 4838.00    1.18597   1.22284    0.025
 4839.00    1.18533   1.21755    0.025
 4840.00    1.19957   1.21183    0.025
 4841.00    1.34834   1.20718    0.024
 4842.00    1.46607   1.20469    0.024
 4843.00    1.37781   1.20456    0.024
 4844.00    1.29531   1.20605    0.024
 4845.00    1.24250   1.20774    0.024
 4846.00    1.19294   1.20810    0.024
 4847.00    1.15689   1.20626    0.025
 4848.00    1.14816   1.20226    0.000
 4849.00    1.23354   1.19703    0.000
 4850.00    1.31756   1.19138    0.000
 4851.00    1.39766   1.18482    0.000
 4852.00    1.40738   1.17565    0.000
 4853.00    1.24293   1.16231    0.000
 4854.00    1.11728   1.14437    0.000
 4855.00    1.07440   1.12231    0.000
 4856.00    1.04326   1.09661    0.000
 4857.00    1.03385   1.06672    0.000
 4858.00    1.03710   1.03168    0.000
 4859.00    1.06082   0.99269    0.000
 4860.00    1.07401   0.95478    0.000
 4861.00    1.07224   0.92609    0.000
 4862.00    1.07138   0.91483    0.000
 4863.00    1.07166   0.92472    0.000
 4864.00    1.03352   0.95285    0.000
 4865.00    0.95308   0.99129    0.000
 4866.00    0.95517   1.03115    0.000
 4867.00    1.03743   1.06536    0.000
 4868.00    1.09267   1.08997    0.000
 4869.00    1.12477   1.10454    0.000
 4870.00    1.06823   1.11119    0.000
 4871.00    0.94482   1.11362    0.000
 4872.00    0.83792   1.11606    0.000
 4873.00    0.74196   1.12181    0.000
 4874.00    0.79585   1.13195    0.000
 4875.00    0.93671   1.14546    0.024
 4876.00    1.04884   1.16055    0.024
 4877.00    1.14646   1.17532    0.024
 4878.00    1.16827   1.18811    0.024
 4879.00    1.15690   1.19766    0.024
 4880.00    1.20630   1.20309    0.024
 4881.00    1.27854   1.20406    0.024
 4882.00    1.27023   1.20119    0.024
 4883.00    1.23622   1.19580    0.024
 4884.00    1.15583   1.18930    0.024
 4885.00    1.06308   1.18271    0.023
 4886.00    1.06148   1.17664    0.023
 4887.00    1.07976   1.17125    0.024
 4888.00    1.07178   1.16650    0.024
 4889.00    1.05926   1.16287    0.024
 4890.00    1.00249   1.16174    0.024
 4891.00    0.93989   1.16547    0.023
 4892.00    1.02282   1.17641    0.024
 4893.00    1.11926   1.19483    0.024
 4894.00    1.13276   1.21809    0.024
 4895.00    1.14155   1.24137    0.024
 4896.00    1.15631   1.25965    0.025
 4897.00    1.17090   1.26984    0.025
 4898.00    1.15283   1.27161    0.025
 4899.00    1.13652   1.26677    0.025
 4900.00    1.16168   1.25837    0.025
 4901.00    1.19125   1.24968    0.025
 4902.00    1.27788   1.24324    0.025
 4903.00    1.34574   1.24028    0.025
 4904.00    1.25040   1.24071    0.025
 4905.00    1.17588   1.24318    0.025
 4906.00    1.23522   1.24534    0.025
 4907.00    1.27705   1.24471    0.025
 4908.00    1.23073   1.24014    0.025
 4909.00    1.19439   1.23263    0.025
 4910.00    1.19863   1.22496    0.025
 4911.00    1.19701   1.22036    0.024
 4912.00    1.17557   1.22071    0.025
 4913.00    1.18586   1.22538    0.025
 4914.00    1.28646   1.23136    0.025
 4915.00    1.33992   1.23424    0.025
 4916.00    1.27866   1.22976    0.025
 4917.00    1.25249   1.21549    0.025
 4918.00    1.29996   1.19235    0.025
 4919.00    1.29464   1.16489    0.025
 4920.00    1.19298   1.13980    0.025
 4921.00    1.09970   1.12342    0.025
 4922.00    1.01978   1.11933    0.025
 4923.00    1.02691   1.12743    0.025
 4924.00    1.15589   1.14479    0.025
 4925.00    1.21727   1.16759    0.025
 4926.00    1.19541   1.19243    0.025
 4927.00    1.19578   1.21648    0.025
 4928.00    1.22028   1.23730    0.025
 4929.00    1.25587   1.25261    0.025
 4930.00    1.30208   1.26061    0.025
 4931.00    1.29747   1.26079    0.025
 4932.00    1.24994   1.25422    0.025
 4933.00    1.19448   1.24331    0.025
 4934.00    1.13311   1.23104    0.025
 4935.00    1.19512   1.21953    0.025
 4936.00    1.33771   1.20961    0.025
 4937.00    1.21622   1.20135    0.025
 4938.00    0.94379   1.19543    0.025
 4939.00    1.01978   1.19352    0.024
 4940.00    1.26923   1.19734    0.000
 4941.00    1.28609   1.20690    0.000
 4942.00    1.20280   1.22008    0.000
 4943.00    1.20510   1.23371    0.000
 4944.00    1.23901   1.24526    0.000
 4945.00    1.25838   1.25379    0.000
 4946.00    1.27319   1.25994    0.000
 4947.00    1.24074   1.26499    0.000
 4948.00    1.19595   1.26984    0.000
 4949.00    1.25927   1.27435    0.000
 4950.00    1.34561   1.27753    0.000
 4951.00    1.33001   1.27794    0.000
 4952.00    1.29723   1.27419    0.000
 4953.00    1.23904   1.26518    0.000
 4954.00    1.17761   1.25065    0.000
 4955.00    1.20858   1.23168    0.000
 4956.00    1.24774   1.21108    0.000
 4957.00    1.17297   1.19335    0.000
 4958.00    1.09219   1.18328    0.000
 4959.00    1.15322   1.18345    0.000
 4960.00    1.21777   1.19248    0.000
 4961.00    1.34605   1.20558    0.000
 4962.00    1.46484   1.21715    0.000
 4963.00    1.37721   1.22323    0.000
 4964.00    1.29345   1.22285    0.000
 4965.00    1.25732   1.21759    0.000
 4966.00    1.22296   1.21043    0.000
 4967.00    1.20343   1.20435    0.000
 4968.00    1.18818   1.20150    0.000
 4969.00    1.19974   1.20271    0.000
 4970.00    1.22060   1.20773    0.000
 4971.00    1.28712   1.21549    0.000
 4972.00    1.34685   1.22447    0.000
 4973.00    1.37952   1.23288    0.000
 4974.00    1.37158   1.23888    0.000
 4975.00    1.22927   1.24097    0.000
 4976.00    1.13386   1.23836    0.000
 4977.00    1.16956   1.23100    0.000
 4978.00    1.17298   1.21947    0.000
 4979.00    1.09921   1.20472    0.000
 4980.00    1.03607   1.18791    0.000
 4981.00    0.99488   1.17062    0.000
 4982.00    1.04151   1.15522    0.000
 4983.00    1.24589   1.14460    0.000
 4984.00    1.32135   1.14117    0.000
 4985.00    1.19422   1.14555    0.000
 4986.00    1.06782   1.15605    0.000
 4987.00    0.94244   1.16922    0.000
 4988.00    0.90173   1.18137    0.000
 4989.00    0.96382   1.19002    0.000
 4990.00    1.00273   1.19469    0.000
 4991.00    1.01684   1.19659    0.000
 4992.00    1.05582   1.19748    0.000
 4993.00    1.11828   1.19862    0.000
 4994.00    1.09352   1.20034    0.000
 4995.00    0.99614   1.20193    0.000
 4996.00    0.96192   1.20205    0.000
 4997.00    0.97397   1.19928    0.000
 4998.00    1.07074   1.19281    0.000
 4999.00    1.22204   1.18310    0.000
 5000.00    1.20577   1.17183    0.000
 5001.00    1.09517   1.16110    0.000
 5002.00    1.04231   1.15237    0.000
 5003.00    1.01773   1.14587    0.000
 5004.00    1.06341   1.14114    0.000
 5005.00    1.13885   1.13807    0.000
 5006.00    1.08360   1.13737    0.000
 5007.00    0.98097   1.13981    0.000
 5008.00    1.04732   1.14481    0.000
 5009.00    1.16551   1.14992    0.000
 5010.00    1.23123   1.15174    0.000
 5011.00    1.28356   1.14782    0.000
 5012.00    1.17110   1.13823    0.000
 5013.00    1.02439   1.12554    0.000
 5014.00    0.99332   1.11370    0.000
 5015.00    0.98118   1.10616    0.000
 5016.00    0.93223   1.10461    0.000
 5017.00    0.87876   1.10860    0.000
 5018.00    0.91613   1.11629    0.000
 5019.00    0.96119   1.12541    0.000
 5020.00    1.09677   1.13413    0.000
 5021.00    1.23679   1.14156    0.000
 5022.00    1.17181   1.14774    0.000
 5023.00    1.10362   1.15317    0.000
 5024.00    1.03236   1.15816    0.000
 5025.00    0.96391   1.16261    0.000
 5026.00    0.95188   1.16631    0.000
 5027.00    0.95242   1.16962    0.000
 5028.00    1.09986   1.17363    0.000
 5029.00    1.21488   1.17947    0.024
 5030.00    1.06817   1.18738    0.024
 5031.00    0.98320   1.19620    0.024
 5032.00    1.27256   1.20358    0.024
 5033.00    1.47828   1.20687    0.024
 5034.00    1.28407   1.20422    0.024
 5035.00    1.11236   1.19542    0.024
 5036.00    1.02834   1.18172    0.024
 5037.00    0.99104   1.16506    0.024
 5038.00    1.10527   1.14729    0.024
 5039.00    1.18463   1.13040    0.024
 5040.00    1.16830   1.11715    0.024
 5041.00    1.14466   1.11111    0.024
 5042.00    1.10382   1.11510    0.024
 5043.00    1.11851   1.12911    0.024
 5044.00    1.24608   1.14939    0.024
 5045.00    1.28615   1.16973    0.024
 5046.00    1.17142   1.18412    0.024
 5047.00    1.14671   1.18935    0.024
 5048.00    1.26134   1.18605    0.024
 5049.00    1.29579   1.17788    0.024
 5050.00    1.22124   1.16968    0.024
 5051.00    1.13691   1.16539    0.024
 5052.00    1.04090   1.16678    0.024
 5053.00    1.01998   1.17332    0.024
 5054.00    1.07833   1.18304    0.024
 5055.00    1.12821   1.19364    0.024
 5056.00    1.17022   1.20346    0.024
 5057.00    1.11519   1.21180    0.024
 5058.00    0.98052   1.21858    0.023
 5059.00    1.00898   1.22375    0.023
 5060.00    1.15527   1.22670    0.024
 5061.00    1.10200   1.22623    0.024
 5062.00    0.92222   1.22116    0.023
 5063.00    0.91621   1.21132    0.023
 5064.00    1.00655   1.19818    0.024
 5065.00    1.05143   1.18462    0.024
 5066.00    1.07439   1.17367    0.023
 5067.00    1.08880   1.16714    0.023
 5068.00    1.09965   1.16503    0.023
 5069.00    1.11279   1.16593    0.023
 5070.00    1.12673   1.16802    0.023
 5071.00    1.12605   1.16993    0.023
 5072.00    1.12097   1.17112    0.023
 5073.00    1.03087   1.17161    0.023
 5074.00    0.91954   1.17145    0.023
 5075.00    0.93316   1.17018    0.023
 5076.00    0.97210   1.16678    0.023
 5077.00    0.95170   1.16026    0.023
 5078.00    0.92187   1.15053    0.023
 5079.00    0.89013   1.13905    0.023
 5080.00    0.85817   1.12858    0.023
 5081.00    0.95032   1.12205    0.022
 5082.00    1.05245   1.12124    0.022
 5083.00    1.07128   1.12608    0.022
 5084.00    1.08636   1.13500    0.022
 5085.00    1.05479   1.14579    0.022
 5086.00    1.02563   1.15655    0.022
 5087.00    1.14426   1.16612    0.022
 5088.00    1.25267   1.17412    0.021
 5089.00    1.17104   1.18081    0.022
 5090.00    1.09608   1.18666    0.022
 5091.00    1.09547   1.19189    0.022
 5092.00    1.08532   1.19611    0.022
 5093.00    1.00088   1.19822    0.022
 5094.00    0.93769   1.19681    0.022
 5095.00    0.99959   1.19089    0.022
 5096.00    1.05550   1.18072    0.022
 5097.00    1.08343   1.16809    0.022
 5098.00    1.09787   1.15597    0.022
 5099.00    1.06092   1.14737    0.022
 5100.00    1.03752   1.14404    0.022
 5101.00    1.05721   1.14564    0.022
 5102.00    1.08113   1.14991    0.022
 5103.00    1.11650   1.15389    0.022
 5104.00    1.11657   1.15531    0.022
 5105.00    1.03501   1.15341    0.023
 5106.00    0.96310   1.14894    0.023
 5107.00    0.91050   1.14353    0.023
 5108.00    0.88607   1.13898    0.023
 5109.00    0.91073   1.13678    0.023
 5110.00    0.89123   1.13779    0.023
 5111.00    0.80434   1.14216    0.023
 5112.00    0.84133   1.14935    0.023
 5113.00    1.04430   1.15842    0.024
 5114.00    1.11388   1.16832    0.024
 5115.00    1.02606   1.17800    0.024
 5116.00    1.01264   1.18638    0.024
 5117.00    1.07664   1.19221    0.024
 5118.00    1.09996   1.19418    0.024
 5119.00    1.08593   1.19121    0.024
 5120.00    1.15936   1.18300    0.024
 5121.00    1.30354   1.17029    0.024
 5122.00    1.33413   1.15491    0.024
 5123.00    1.28386   1.13932    0.024
 5124.00    1.14043   1.12587    0.023
 5125.00    0.93882   1.11612    0.023
 5126.00    0.90293   1.11046    0.023
 5127.00    0.95752   1.10840    0.023
 5128.00    0.94391   1.10920    0.023
 5129.00    0.89795   1.11243    0.023
 5130.00    1.03943   1.11794    0.023
 5131.00    1.25763   1.12547    0.024
 5132.00    1.17046   1.13435    0.024
 5133.00    0.97655   1.14333    0.024
 5134.00    0.90819   1.15083    0.023
 5135.00    0.87684   1.15533    0.023
 5136.00    0.91434   1.15585    0.023
 5137.00    0.96865   1.15247    0.023
 5138.00    0.98273   1.14638    0.023
 5139.00    0.98886   1.13942    0.023
 5140.00    1.08477   1.13317    0.023
 5141.00    1.19452   1.12835    0.024
 5142.00    1.21976   1.12487    0.023
 5143.00    1.23537   1.12236    0.023
 5144.00    1.18793   1.12049    0.023
 5145.00    1.13568   1.11911    0.023
 5146.00    0.98570   1.11819    0.023
 5147.00    0.83169   1.11764    0.023
 5148.00    0.90982   1.11723    0.023
 5149.00    0.98857   1.11654    0.023
 5150.00    1.01249   1.11512    0.023
 5151.00    1.03362   1.11304    0.023
 5152.00    1.00654   1.11125    0.023
 5153.00    0.98590   1.11146    0.023
 5154.00    1.03387   1.11543    0.023
 5155.00    1.08189   1.12394    0.023
 5156.00    1.13029   1.13628    0.023
 5157.00    1.16173   1.15031    0.023
 5158.00    1.09603   1.16327    0.022
 5159.00    1.06421   1.17264    0.022
 5160.00    1.18671   1.17664    0.022
 5161.00    1.24717   1.17420    0.023
 5162.00    1.07615   1.16464    0.023
 5163.00    0.93140   1.14740    0.023
 5164.00    0.86862   1.12245    0.022
 5165.00    0.83203   1.09116    0.022
 5166.00    0.86478   1.05692    0.022
 5167.00    0.88002   1.02468    0.022
 5168.00    0.85545   0.99914    0.022
 5169.00    0.85828   0.98255    0.022
 5170.00    0.91504   0.97417    0.022
 5171.00    0.90705   0.97197    0.022
 5172.00    0.78793   0.97501    0.022
 5173.00    0.73219   0.98426    0.022
 5174.00    0.77168   1.00109    0.022
 5175.00    0.81771   1.02473    0.022
 5176.00    0.87238   1.05127    0.022
 5177.00    0.90649   1.07496    0.022
 5178.00    0.91666   1.09039    0.022
 5179.00    0.95457   1.09426    0.022
 5180.00    1.02094   1.08598    0.022
 5181.00    1.02972   1.06788    0.022
 5182.00    0.98638   1.04530    0.021
 5183.00    0.92944   1.02565    0.022
 5184.00    0.86164   1.01622    0.022
 5185.00    0.82540   1.02111    0.022
 5186.00    0.81130   1.03914    0.022
 5187.00    0.84139   1.06450    0.022
 5188.00    0.89866   1.08941    0.023
 5189.00    0.90553   1.10759    0.023
 5190.00    0.88531   1.11618    0.000
 5191.00    0.92908   1.11612    0.000
 5192.00    1.00270   1.11106    0.000
 5193.00    0.99640   1.10561    0.000
 5194.00    0.95795   1.10354    0.000
 5195.00    1.00483   1.10667    0.000
 5196.00    1.08100   1.11464    0.000
 5197.00    1.06166   1.12562    0.000
 5198.00    1.01474   1.13714    0.000
 5199.00    1.01283   1.14666    0.000
 5200.00    1.02167   1.15195    0.000
 5201.00    1.13279   1.15130    0.000
 5202.00    1.26361   1.14387    0.000
 5203.00    1.21003   1.12997    0.000
 5204.00    1.12889   1.11129    0.000
 5205.00    0.92864   1.09072    0.000
 5206.00    0.71535   1.07194    0.000
 5207.00    0.78936   1.05844    0.000
 5208.00    0.88413   1.05290    0.000
 5209.00    0.91324   1.05661    0.000
 5210.00    0.93990   1.06915    0.000
 5211.00    0.99714   1.08829    0.023
 5212.00    1.05450   1.11032    0.023
 5213.00    1.11057   1.13094    0.023
 5214.00    1.15963   1.14691    0.023
 5215.00    1.09502   1.15729    0.023
 5216.00    1.04100   1.16358    0.023
 5217.00    1.09487   1.16856    0.022
 5218.00    1.14260   1.17444    0.022
 5219.00    1.14561   1.18143    0.022
 5220.00    1.14223   1.18767    0.023
 5221.00    1.10331   1.19011    0.023
 5222.00    1.07603   1.18598    0.023
 5223.00    1.10059   1.17417    0.022
 5224.00    1.11124   1.15615    0.022
 5225.00    1.07109   1.13591    0.022
 5226.00    1.03786   1.11902    0.022
 5227.00    1.02581   1.11045    0.022
 5228.00    1.01388   1.11241    0.022
 5229.00    1.00228   1.12312    0.022
 5230.00    0.96851   1.13779    0.022
 5231.00    0.88519   1.15104    0.022
 5232.00    0.88545   1.15965    0.022
 5233.00    1.04772   1.16383    0.022
 5234.00    1.15702   1.16640    0.022
 5235.00    1.17680   1.17060    0.022
 5236.00    1.18746   1.17806    0.022
 5237.00    1.18461   1.18811    0.022
 5238.00    1.15500   1.19862    0.022
 5239.00    1.09053   1.20750    0.022
 5240.00    1.07960   1.21370    0.022
 5241.00    1.13007   1.21725    0.022
 5242.00    1.14222   1.21858    0.022
 5243.00    1.11561   1.21771    0.021
 5244.00    1.11040   1.21410    0.022
 5245.00    1.12430   1.20703    0.022
 5246.00    1.10921   1.19649    0.022
 5247.00    1.07132   1.18369    0.022
 5248.00    1.13409   1.17082    0.022
 5249.00    1.26648   1.16022    0.023
 5250.00    1.23485   1.15345    0.023
 5251.00    1.10378   1.15098    0.023
 5252.00    1.03414   1.15233    0.023
 5253.00    0.99700   1.15670    0.023
 5254.00    0.93788   1.16345    0.023
 5255.00    0.86866   1.17225    0.023
 5256.00    0.95930   1.18262    0.023
 5257.00    1.11314   1.19314    0.023
 5258.00    1.10720   1.20109    0.023
 5259.00    1.04744   1.20307    0.023
 5260.00    1.07047   1.19634    0.024
 5261.00    1.11694   1.18023    0.024
 5262.00    1.08804   1.15659    0.024
 5263.00    1.04154   1.12927    0.024
 5264.00    0.98936   1.10277    0.024
 5265.00    0.93612   1.08070    0.024
 5266.00    0.92234   1.06472    0.024
 5267.00    0.91429   1.05455    0.024
 5268.00    0.96019   1.04906    0.024
 5269.00    1.01176   1.04780    0.024
 5270.00    1.07234   1.05149    0.024
 5271.00    1.13354   1.06113    0.025
 5272.00    1.04595   1.07652    0.024
 5273.00    0.95337   1.09579    0.024
 5274.00    0.87638   1.11634    0.024
 5275.00    0.81049   1.13628    0.023
 5276.00    1.09984   1.15485    0.024
 5277.00    1.36162   1.17155    0.024
 5278.00    1.20351   1.18515    0.024
 5279.00    1.06485   1.19383    0.023
 5280.00    1.11586   1.19641    0.023
 5281.00    1.15040   1.19366    0.023
 5282.00    1.06899   1.18858    0.023
 5283.00    1.00619   1.18530    0.022
 5284.00    1.04436   1.18723    0.022
 5285.00    1.07618   1.19554    0.022
 5286.00    1.08041   1.20870    0.022
 5287.00    1.07284   1.22347    0.022
 5288.00    1.02307   1.23651    0.022
 5289.00    0.99569   1.24571    0.022
 5290.00    1.03552   1.25043    0.022
 5291.00    1.09123   1.25089    0.022
 5292.00    1.18751   1.24742    0.022
 5293.00    1.25224   1.24002    0.022
 5294.00    1.24754   1.22858    0.022
 5295.00    1.17513   1.21347    0.022
 5296.00    0.97349   1.19615    0.022
 5297.00    0.90058   1.17938    0.022
 5298.00    1.04198   1.16649    0.022
 5299.00    1.17178   1.16021    0.022
 5300.00    1.28467   1.16154    0.023
 5301.00    1.28896   1.16967    0.023
 5302.00    1.15390   1.18252    0.022
 5303.00    1.08459   1.19769    0.022
 5304.00    1.08962   1.21288    0.022
 5305.00    1.10853   1.22622    0.022
 5306.00    1.14128   1.23652    0.022
 5307.00    1.14413   1.24358    0.022
 5308.00    1.12067   1.24803    0.022
 5309.00    1.09988   1.25078    0.022
 5310.00    1.08115   1.25230    0.022
 5311.00    1.15673   1.25246    0.022
 5312.00    1.29655   1.25088    0.022
 5313.00    1.26858   1.24739    0.022
 5314.00    1.14040   1.24232    0.022
 5315.00    1.13539   1.23643    0.022
 5316.00    1.19456   1.23064    0.022
 5317.00    1.24293   1.22577    0.022
 5318.00    1.28643   1.22213    0.023
 5319.00    1.25413   1.21935    0.023
 5320.00    1.19239   1.21642    0.023
 5321.00    1.17409   1.21205    0.023
 5322.00    1.17016   1.20511    0.023
 5323.00    1.12080   1.19492    0.023
 5324.00    1.05884   1.18129    0.023
 5325.00    0.93296   1.16462    0.023
 5326.00    0.79249   1.14614    0.023
 5327.00    0.89733   1.12836    0.023
 5328.00    1.04694   1.11502    0.023
 5329.00    1.08224   1.10990    0.023
 5330.00    1.10150   1.11508    0.023
 5331.00    1.00383   1.12952    0.023
 5332.00    0.89437   1.14954    0.022
 5333.00    1.04101   1.17044    0.022
 5334.00    1.20408   1.18835    0.023
 5335.00    1.28459   1.20099    0.022
 5336.00    1.36226   1.20750    0.022
 5337.00    1.28295   1.20802    0.022
 5338.00    1.20744   1.20359    0.022
 5339.00    1.24043   1.19615    0.022
 5340.00    1.26733   1.18843    0.022
 5341.00    1.20680   1.18306    0.022
 5342.00    1.15826   1.18151    0.021
 5343.00    1.22214   1.18352    0.022
 5344.00    1.27930   1.18727    0.022
 5345.00    1.29072   1.19061    0.022
 5346.00    1.29024   1.19227    0.022
 5347.00    1.22695   1.19246    0.021
 5348.00    1.16961   1.19262    0.021
 5349.00    1.13747   1.19461    0.021
 5350.00    1.10469   1.19985    0.021
 5351.00    1.06966   1.20879    0.022
 5352.00    1.05318   1.22072    0.022
 5353.00    1.09137   1.23418    0.021
 5354.00    1.12793   1.24749    0.021
 5355.00    1.16039   1.25926    0.022
 5356.00    1.22242   1.26844    0.022
 5357.00    1.34846   1.27432    0.022
 5358.00    1.43497   1.27637    0.022
 5359.00    1.44720   1.27434    0.022
 5360.00    1.41420   1.26843    0.022
 5361.00    1.30702   1.25943    0.022
 5362.00    1.18814   1.24863    0.022
 5363.00    1.05245   1.23750    0.022
 5364.00    1.01229   1.22716    0.022
 5365.00    1.09301   1.21794    0.022
 5366.00    1.15095   1.20932    0.022
 5367.00    1.18348   1.20026    0.022
 5368.00    1.17389   1.19001   -2.000
 5369.00    1.12287   1.17898   -2.000
 5370.00    1.08658   1.16921   -2.000
 5371.00    1.06307   1.16388   -2.000
 5372.00    0.90853   1.16578   -2.000
 5373.00    0.65390   1.17561   -2.000
 5374.00    0.66887   1.19137   -2.000
 5375.00    0.86485   1.20913   -2.000
 5376.00    1.01773   1.22486   -2.000
 5377.00    1.14526   1.23596   -2.000
 5378.00    1.26041   1.24180   -2.000
 5379.00    1.36923   1.24308   -2.000
 5380.00    1.33989   1.24114   -2.000
 5381.00    1.24917   1.23743   -2.000
 5382.00    1.23871   1.23333   -2.000
 5383.00    1.25890   1.23000    0.023
 5384.00    1.20686   1.22802    0.023
 5385.00    1.13139   1.22720    0.023
 5386.00    1.15846   1.22657    0.023
 5387.00    1.21337   1.22485    0.022
 5388.00    1.20835   1.22101    0.022
 5389.00    1.18998   1.21486    0.021
 5390.00    1.11715   1.20697    0.022
 5391.00    1.03464   1.19831    0.022
 5392.00    1.00662   1.18972    0.021
 5393.00    0.98599   1.18148    0.021
 5394.00    0.98664   1.17354    0.021
 5395.00    0.98935   1.16606    0.021
 5396.00    1.05994   1.15984    0.021
 5397.00    1.13461   1.15627    0.021
 5398.00    1.11038   1.15642    0.021
 5399.00    1.08363   1.16008    0.021
 5400.00    1.06739   1.16536    0.021
 5401.00    1.05297   1.16923    0.021
 5402.00    1.08557   1.16885    0.021
 5403.00    1.11936   1.16299    0.021
 5404.00    1.16913   1.15268    0.021
 5405.00    1.20173   1.14076    0.021
 5406.00    1.07977   1.13067    0.021
 5407.00    0.98998   1.12494    0.021
 5408.00    1.11273   1.12454    0.021
 5409.00    1.20870   1.12904    0.021
 5410.00    1.16686   1.13751    0.021
 5411.00    1.11916   1.14905    0.021
 5412.00    1.04708   1.16282    0.021
 5413.00    0.98813   1.17776    0.021
 5414.00    0.97427   1.19249    0.022
 5415.00    0.99748   1.20564    0.022
 5416.00    1.12797   1.21619    0.021
 5417.00    1.21338   1.22357    0.021
 5418.00    1.18749   1.22760    0.021
 5419.00    1.17922   1.22855    0.021
 5420.00    1.20847   1.22712    0.022
 5421.00    1.22476   1.22431    0.022
 5422.00    1.21708   1.22112    0.022
 5423.00    1.19321   1.21833    0.022
 5424.00    1.14319   1.21630    0.022
 5425.00    1.13632   1.21481    0.022
 5426.00    1.19061   1.21293    0.023
 5427.00    1.24484   1.20929    0.023
 5428.00    1.29900   1.20284    0.023
 5429.00    1.30783   1.19361    0.023
 5430.00    1.26683   1.18297    0.023
 5431.00    1.21895   1.17287    0.023
 5432.00    1.16440   1.16494    0.022
 5433.00    1.09843   1.16008    0.022
 5434.00    1.02270   1.15887    0.022
 5435.00    1.00325   1.16198    0.022
 5436.00    1.02616   1.17005    0.022
 5437.00    1.12749   1.18303    0.022
 5438.00    1.28072   1.19957    0.022
 5439.00    1.28148   1.21714    0.022
 5440.00    1.19390   1.23263    0.022
 5441.00    1.15688   1.24319    0.022
 5442.00    1.14537   1.24679    0.021
 5443.00    1.13530   1.24266    0.021
 5444.00    1.12587   1.23150    0.021
 5445.00    1.14532   1.21571    0.021
 5446.00    1.17561   1.19916    0.022
 5447.00    1.15152   1.18600    0.021
 5448.00    1.11012   1.17918    0.021
 5449.00    1.08402   1.17903    0.021
 5450.00    1.06199   1.18314    0.021
 5451.00    1.09964   1.18761    0.021
 5452.00    1.15026   1.18901    0.021
 5453.00    1.18022   1.18605    0.021
 5454.00    1.20660   1.17998    0.021
 5455.00    1.25287   1.17385    0.021
 5456.00    1.30175   1.17085    0.021
 5457.00    1.19137   1.17264    0.021
 5458.00    1.06627   1.17849    0.021
 5459.00    1.09859   1.18575    0.021
 5460.00    1.13975   1.19144    0.021
 5461.00    1.16741   1.19381    0.021
 5462.00    1.19437   1.19315    0.020
 5463.00    1.18057   1.19128    0.021
 5464.00    1.17100   1.19024    0.021
 5465.00    1.26077   1.19119    0.021
 5466.00    1.33700   1.19397    0.022
 5467.00    1.23935   1.19738    0.021
 5468.00    1.14643   1.19991    0.021
 5469.00    1.09439   1.20039    0.021
 5470.00    1.04503   1.19826    0.021
 5471.00    1.01277   1.19358    0.022
 5472.00    0.98448   1.18674    0.022
 5473.00    0.97608   1.17837    0.022
 5474.00    0.97484   1.16933    0.022
 5475.00    1.00265   1.16071    0.022
 5476.00    1.02748   1.15389    0.023
 5477.00    1.04226   1.15009    0.022
 5478.00    1.07560   1.14988   -2.000
 5479.00    1.16166   1.15278   -2.000
 5480.00    1.20241   1.15766   -2.000
 5481.00    1.13320   1.16344   -2.000
 5482.00    1.06720   1.16960   -2.000
 5483.00    1.00792   1.17614   -2.000
 5484.00    0.90991   1.18288   -2.000
 5485.00    0.74137   1.18904   -2.000
 5486.00    0.42152   1.19358   -2.000
 5487.00   -0.13916   1.19592   -2.000
 5488.00   -0.33351   1.19647   -2.000
 5489.00   -0.01609   1.19630   -2.000
 5490.00    0.40325   1.19646   -2.000
 5491.00    0.94787   1.19735   -2.000
 5492.00    1.75409   1.19868   -2.000
 5493.00    2.84380   1.19981   -2.000
 5494.00    3.28471   1.20024   -2.000
 5495.00    3.10545   1.19987   -2.000
 5496.00    2.36011   1.19897   -2.000
 5497.00    1.13763   1.19793   -2.000
 5498.00    0.76868   1.19698   -2.000
 5499.00    1.03319   1.19594   -2.000
 5500.00    1.08400   1.19440   -2.000
 5501.00    0.99551   1.19196   -2.000
 5502.00    0.97478   1.18857    0.020
 5503.00    0.99271   1.18460    0.020
 5504.00    1.02597   1.18070    0.021
 5505.00    1.06684   1.17743    0.021
 5506.00    1.14693   1.17514    0.021
 5507.00    1.24386   1.17397    0.021
 5508.00    1.18595   1.17365    0.021
 5509.00    1.07100   1.17339    0.021
 5510.00    1.07971   1.17225    0.021
 5511.00    1.12701   1.16972    0.022
 5512.00    1.12299   1.16626    0.021
 5513.00    1.10562   1.16338    0.021
 5514.00    1.13008   1.16291    0.021
 5515.00    1.16342   1.16621    0.021
 5516.00    1.12125   1.17357    0.021
 5517.00    1.06640   1.18404    0.022
 5518.00    1.12959   1.19577    0.022
 5519.00    1.20773   1.20673    0.022
 5520.00    1.30800   1.21523    0.022
 5521.00    1.41023   1.22030    0.022
 5522.00    1.25582   1.22165    0.022
 5523.00    1.08800   1.21949    0.021
 5524.00    1.08056   1.21427    0.022
 5525.00    1.07693   1.20668    0.022
 5526.00    1.13560   1.19788    0.022
 5527.00    1.18903   1.18953    0.022
 5528.00    1.12971   1.18347    0.021
 5529.00    1.07579   1.18101    0.021
 5530.00    1.08781   1.18226    0.021
 5531.00    1.09663   1.18603    0.021
 5532.00    1.07864   1.19047    0.021
 5533.00    1.06913   1.19401    0.021
 5534.00    1.11227   1.19616    0.021
 5535.00    1.15272   1.19750    0.021
 5536.00    1.17997   1.19910    0.021
 5537.00    1.19670   1.20188    0.020
 5538.00    1.17165   1.20602    0.020
 5539.00    1.18247   1.21090    0.021
 5540.00    1.31165   1.21543    0.021
 5541.00    1.38729   1.21850    0.021
 5542.00    1.31364   1.21951    0.021
 5543.00    1.27689   1.21865    0.020
 5544.00    1.32820   1.21693    0.021
 5545.00    1.33511   1.21574    0.021
 5546.00    1.25052   1.21624    0.020
 5547.00    1.15640   1.21887    0.020
 5548.00    1.04520   1.22316    0.020
 5549.00    1.01931   1.22793    0.020
 5550.00    1.12719   1.23171    0.021
 5551.00    1.17727   1.23335    0.021
 5552.00    1.14777   1.23251    0.021
 5553.00    1.13203   1.22957    0.021
 5554.00    1.13297   1.22547    0.021
 5555.00    1.11714   1.22133    0.021
 5556.00    1.08336   1.21795    0.020
 5557.00    1.05884   1.21559    0.021
 5558.00    1.04304   1.21400    0.021
 5559.00    1.07890   1.21263    0.021
 5560.00    1.15769   1.21088    0.021
 5561.00    1.16807   1.20827    0.021
 5562.00    1.12839   1.20469    0.021
 5563.00    1.12087   1.20038    0.021
 5564.00    1.13402   1.19579    0.021
 5565.00    1.16447   1.19145    0.022
 5566.00    1.20465   1.18784    0.022
 5567.00    1.21579   1.18531    0.022
 5568.00    1.21272   1.18399    0.021
 5569.00    1.23630   1.18381    0.022
 5570.00    1.27112   1.18452    0.022
 5571.00    1.25349   1.18588    0.022
 5572.00    1.21688   1.18773    0.022
 5573.00    1.20100   1.18999    0.021
 5574.00    1.19146   1.19273    0.021
 5575.00    1.15527   1.19600    0.021
 5576.00    1.11229   1.19958    0.021
 5577.00    1.17687   1.20308    0.021
 5578.00    1.26373   1.20616    0.020
 5579.00    1.25909   1.20834    0.020
 5580.00    1.23954   1.20909    0.020
 5581.00    1.26006   1.20806    0.021
 5582.00    1.28547   1.20479    0.021
 5583.00    1.33574   1.19878    0.021
 5584.00    1.38809   1.18980    0.020
 5585.00    1.27546   1.17812    0.021
 5586.00    1.15485   1.16474    0.021
 5587.00    1.09190   1.15153    0.020
 5588.00    1.03222   1.14072    0.020
 5589.00    1.11595   1.13415    0.020
 5590.00    1.19357   1.13272    0.020
 5591.00    1.14977   1.13605    0.020
 5592.00    1.11045   1.14274    0.020
 5593.00    1.12317   1.15102    0.020
 5594.00    1.14019   1.15926    0.021
 5595.00    1.19175   1.16619    0.021
 5596.00    1.23307   1.17082    0.021
 5597.00    1.21258   1.17247    0.022
 5598.00    1.18695   1.17099    0.022
 5599.00    1.13683   1.16707    0.022
 5600.00    1.11299   1.16226    0.022
 5601.00    1.19129   1.15858    0.022
 5602.00    1.24109   1.15814    0.022
 5603.00    1.19866   1.16235    0.022
 5604.00    1.16625   1.17127    0.022
 5605.00    1.16129   1.18361    0.021
 5606.00    1.16247   1.19737    0.021
 5607.00    1.17806   1.21033    0.021
 5608.00    1.18388   1.22064    0.020
 5609.00    1.16990   1.22714    0.021
 5610.00    1.18038   1.22951    0.021
 5611.00    1.23406   1.22781    0.021
 5612.00    1.26148   1.22218    0.021
 5613.00    1.24831   1.21299    0.021
 5614.00    1.26921   1.20126    0.021
 5615.00    1.33632   1.18891    0.021
 5616.00    1.36633   1.17836    0.021
 5617.00    1.35200   1.17165    0.021
 5618.00    1.30284   1.16956    0.021
 5619.00    1.21699   1.17132    0.020
 5620.00    1.19600   1.17513    0.020
 5621.00    1.23526   1.17860    0.020
 5622.00    1.25370   1.17997    0.020
 5623.00    1.25509   1.17905    0.020
 5624.00    1.22446   1.17690    0.020
 5625.00    1.17076   1.17517    0.020
 5626.00    1.15680   1.17546    0.020
 5627.00    1.16798   1.17874    0.020
 5628.00    1.21163   1.18499    0.019
 5629.00    1.27323   1.19313    0.019
 5630.00    1.24751   1.20129    0.019
 5631.00    1.17977   1.20755    0.019
 5632.00    1.20342   1.21091    0.019
 5633.00    1.26505   1.21112    0.020
 5634.00    1.31252   1.20841    0.020
 5635.00    1.35497   1.20350    0.020
 5636.00    1.24879   1.19741    0.019
 5637.00    1.09803   1.19118    0.019
 5638.00    1.02020   1.18568    0.019
 5639.00    0.96055   1.18144    0.019
 5640.00    1.01061   1.17871    0.019
 5641.00    1.08282   1.17758    0.020
 5642.00    1.07922   1.17801    0.020
 5643.00    1.06363   1.17978    0.020
 5644.00    1.06445   1.18258    0.020
 5645.00    1.06722   1.18606    0.020
 5646.00    1.02870   1.18985    0.020
 5647.00    0.98688   1.19341    0.021
 5648.00    0.98369   1.19653    0.020
 5649.00    0.98223   1.19932    0.020
 5650.00    1.12682   1.20179    0.020
 5651.00    1.26814   1.20375    0.021
 5652.00    1.16903   1.20463    0.020
 5653.00    1.07762   1.20367    0.020
 5654.00    1.12791   1.20016    0.020
 5655.00    1.18259   1.19375    0.020
 5656.00    1.28599   1.18480    0.020
 5657.00    1.36597   1.17448    0.020
 5658.00    1.26437   1.16461    0.020
 5659.00    1.17889   1.15708    0.020
 5660.00    1.18797   1.15299    0.020
 5661.00    1.19168   1.15254    0.019
 5662.00    1.17040   1.15537    0.019
 5663.00    1.14222   1.16052    0.019
 5664.00    1.08781   1.16631    0.019
 5665.00    1.05725   1.17148    0.019
 5666.00    1.10235   1.17573    0.018
 5667.00    1.14009   1.17914    0.018
 5668.00    1.15806   1.18188    0.018
 5669.00    1.17555   1.18456    0.019
 5670.00    1.19190   1.18816    0.019
 5671.00    1.19937   1.19330    0.019
 5672.00    1.18908   1.19982    0.019
 5673.00    1.17648   1.20677    0.019
 5674.00    1.15988   1.21304    0.019
 5675.00    1.13499   1.21777    0.019
 5676.00    1.09749   1.22046    0.019
 5677.00    1.09712   1.22084    0.019
 5678.00    1.14640   1.21902    0.020
 5679.00    1.18351   1.21543    0.020
 5680.00    1.20628   1.21052    0.020
 5681.00    1.22646   1.20469    0.020
 5682.00    1.24393   1.19863    0.020
 5683.00    1.25206   1.19314    0.020
 5684.00    1.25161   1.18872    0.020
 5685.00    1.23553   1.18547    0.020
 5686.00    1.20684   1.18358    0.020
 5687.00    1.21005   1.18329    0.020
 5688.00    1.23591   1.18466    0.020
 5689.00    1.21097   1.18785    0.020
 5690.00    1.15436   1.19291    0.020
 5691.00    1.13645   1.19947    0.020
 5692.00    1.13964   1.20635    0.020
 5693.00    1.16878   1.21199    0.020
 5694.00    1.21020   1.21513    0.020
 5695.00    1.17229   1.21527    0.020
 5696.00    1.10197   1.21252    0.020
 5697.00    1.11909   1.20739    0.020
 5698.00    1.16669   1.20074    0.020
 5699.00    1.16984   1.19347    0.020
 5700.00    1.15990   1.18637    0.020
 5701.00    1.18416   1.18014    0.020
 5702.00    1.21675   1.17532    0.020
 5703.00    1.23814   1.17180    0.019
 5704.00    1.25732   1.16876    0.019
 5705.00    1.24798   1.16534    0.019
 5706.00    1.23425   1.16081    0.018
 5707.00    1.21211   1.15493    0.019
 5708.00    1.18902   1.14840    0.019
 5709.00    1.15882   1.14291    0.019
 5710.00    1.12809   1.14038    0.019
 5711.00    1.06309   1.14204    0.018
 5712.00    0.99670   1.14810    0.018
 5713.00    1.08668   1.15791    0.018
 5714.00    1.17644   1.16985    0.019
 5715.00    1.20711   1.18222    0.019
 5716.00    1.23233   1.19379    0.019
 5717.00    1.16393   1.20356    0.019
 5718.00    1.10442   1.21131    0.018
 5719.00    1.13900   1.21765    0.019
 5720.00    1.16768   1.22305    0.019
 5721.00    1.15220   1.22765    0.019
 5722.00    1.14007   1.23121    0.019
 5723.00    1.14705   1.23309    0.019
 5724.00    1.15299   1.23284    0.019
 5725.00    1.15420   1.23051    0.019
 5726.00    1.15120   1.22657    0.019
 5727.00    1.13248   1.22196    0.019
 5728.00    1.14144   1.21776    0.019
 5729.00    1.23658   1.21475    0.019
 5730.00    1.29838   1.21338    0.019
 5731.00    1.27212   1.21379    0.019
 5732.00    1.24050   1.21547    0.019
 5733.00    1.19673   1.21768    0.019
 5734.00    1.18122   1.22013    0.019
 5735.00    1.22127   1.22268    0.019
 5736.00    1.23626   1.22469    0.019
 5737.00    1.20832   1.22539    0.019
 5738.00    1.16958   1.22478    0.019
 5739.00    1.11465   1.22339    0.019
 5740.00    1.09780   1.22194    0.000
 5741.00    1.13116   1.22101    0.000
 5742.00    1.16920   1.22089    0.000
 5743.00    1.21268   1.22159    0.000
 5744.00    1.22971   1.22283    0.000
 5745.00    1.21966   1.22403    0.000
 5746.00    1.22055   1.22468    0.000
 5747.00    1.23134   1.22451    0.000
 5748.00    1.25671   1.22325    0.000
 5749.00    1.29370   1.22087    0.000
 5750.00    1.29042   1.21766    0.000
 5751.00    1.25894   1.21426    0.000
 5752.00    1.20700   1.21121    0.000
 5753.00    1.14248   1.20868    0.000
 5754.00    1.15273   1.20713    0.000
 5755.00    1.20309   1.20743    0.000
 5756.00    1.21675   1.20991    0.000
 5757.00    1.21333   1.21371    0.000
 5758.00    1.25299   1.21693    0.000
 5759.00    1.30994   1.21764    0.000
 5760.00    1.30258   1.21525    0.000
 5761.00    1.27320   1.21101    0.000
 5762.00    1.20646   1.20707    0.000
 5763.00    1.12895   1.20551    0.000
 5764.00    1.20072   1.20746    0.000
 5765.00    1.30803   1.21266    0.000
 5766.00    1.32315   1.21975    0.000
 5767.00    1.32059   1.22675    0.000
 5768.00    1.31982   1.23169    0.000
 5769.00    1.31932   1.23389    0.000
 5770.00    1.41168   1.23382    0.000
 5771.00    1.51415   1.23214    0.000
 5772.00    1.41999   1.22955    0.000
 5773.00    1.31173   1.22671    0.000
 5774.00    1.26673   1.22392    0.000
 5775.00    1.22407   1.22115    0.000
 5776.00    1.27732   1.21807    0.000
 5777.00    1.32714   1.21386    0.000
 5778.00    1.23991   1.20782    0.000
 5779.00    1.15672   1.19962    0.000
 5780.00    1.13860   1.18936    0.000
 5781.00    1.12341   1.17813    0.000
 5782.00    1.13786   1.16761    0.000
 5783.00    1.15046   1.15961    0.000
 5784.00    1.14958   1.15569    0.000
 5785.00    1.15223   1.15640    0.000
 5786.00    1.17440   1.16083    0.000
 5787.00    1.19164   1.16754    0.000
 5788.00    1.18700   1.17557    0.000
 5789.00    1.17811   1.18410    0.000
 5790.00    1.15377   1.19196    0.000
 5791.00    1.13615   1.19852   -2.000
 5792.00    1.13909   1.20407   -2.000
 5793.00    1.12253   1.20896   -2.000
 5794.00    1.05534   1.21350   -2.000
 5795.00    0.98852   1.21763   -2.000
 5796.00    0.92256   1.22076   -2.000
 5797.00    0.93835   1.22293   -2.000
 5798.00    1.11226   1.22484   -2.000
 5799.00    1.23045   1.22716   -2.000
 5800.00    1.25462   1.23031   -2.000
 5801.00    1.26317   1.23414   -2.000
 5802.00    1.24861   1.23734   -2.000
 5803.00    1.22909   1.23835   -2.000
 5804.00    1.20314   1.23687   -2.000
 5805.00    1.18839   1.23387   -2.000
 5806.00    1.18645   1.23064   -2.000
 5807.00    1.18562   1.22847   -2.000
 5808.00    1.18590   1.22809   -2.000
 5809.00    1.17931   1.22910   -2.000
 5810.00    1.16661   1.23052   -2.000
 5811.00    1.18309   1.23148    0.000
 5812.00    1.22246   1.23143    0.000
 5813.00    1.23472   1.23025    0.000
 5814.00    1.22826   1.22814    0.000
 5815.00    1.18621   1.22585    0.000
 5816.00    1.12263   1.22438    0.000
 5817.00    1.15732   1.22450    0.000
 5818.00    1.24392   1.22657    0.000
 5819.00    1.28267   1.23038    0.000
 5820.00    1.29949   1.23499    0.000
 5821.00    1.30048   1.23903    0.000
 5822.00    1.29523   1.24165    0.000
 5823.00    1.32087   1.24290    0.000
 5824.00    1.35690   1.24332    0.000
 5825.00    1.35190   1.24345    0.000
 5826.00    1.33532   1.24381    0.000
 5827.00    1.34126   1.24457    0.000
 5828.00    1.35245   1.24549    0.000
 5829.00    1.31951   1.24616    0.000
 5830.00    1.27832   1.24636    0.000
 5831.00    1.25740   1.24592    0.000
 5832.00    1.23941   1.24469    0.000
 5833.00    1.18720   1.24275    0.000
 5834.00    1.13141   1.24049    0.000
 5835.00    1.13985   1.23841    0.000
 5836.00    1.15264   1.23685    0.000
 5837.00    1.18728   1.23617    0.000
 5838.00    1.22264   1.23671    0.000
 5839.00    1.22403   1.23826    0.000
 5840.00    1.22399   1.24023    0.000
 5841.00    1.17945   1.24231    0.000
 5842.00    1.14240   1.24414    0.000
 5843.00    1.21841   1.24484    0.000
 5844.00    1.28550   1.24368    0.000
 5845.00    1.26600   1.24060    0.000
 5846.00    1.24888   1.23604    0.000
 5847.00    1.24836   1.23058    0.000
 5848.00    1.24739   1.22477    0.000
 5849.00    1.24396   1.21891    0.000
 5850.00    1.24517   1.21310    0.000
 5851.00    1.26649   1.20719    0.000
 5852.00    1.27747   1.20090    0.000
 5853.00    1.25158   1.19419    0.000
 5854.00    1.22999   1.18747    0.000
 5855.00    1.22126   1.18143    0.000
 5856.00    1.22054   1.17687    0.000
 5857.00    1.24025   1.17410    0.000
 5858.00    1.24554   1.17284    0.000
 5859.00    1.21919   1.17315    0.000
 5860.00    1.19550   1.17557    0.000
 5861.00    1.17690   1.17997    0.000
 5862.00    1.17051   1.18502    0.000
 5863.00    1.18441   1.18933    0.000
 5864.00    1.19191   1.19235    0.000
 5865.00    1.19008   1.19448    0.000
 5866.00    1.19215   1.19647    0.000
 5867.00    1.19922   1.19863    0.000
 5868.00    1.16086   1.20098    0.000
 5869.00    1.07122   1.20365    0.000
 5870.00    1.05328   1.20644    0.000
 5871.00    1.10670   1.20829    0.000
 5872.00    1.13886   1.20806    0.000
 5873.00    1.15234   1.20546    0.000
 5874.00    1.13289   1.20095    0.000
 5875.00    1.08798   1.19554    0.000
 5876.00    1.06833   1.19024    0.000
 5877.00    1.06587   1.18574    0.000
 5878.00    1.10043   1.18249    0.000
 5879.00    1.15706   1.18049    0.000
 5880.00    1.15059   1.17929    0.000
 5881.00    1.11132   1.17794    0.000
 5882.00    1.09155   1.17577    0.000
 5883.00    1.08057   1.17218    0.000
 5884.00    1.07929   1.16562    0.000
 5885.00    1.08177   1.15390    0.000
 5886.00    1.11252   1.13567    0.000
 5887.00    1.15258   1.11116    0.000
 5888.00    1.13027   1.08190    0.000
 5889.00    1.09072   1.05084    0.000
 5890.00    1.05693   1.02212    0.000
 5891.00    1.02446   0.99987    0.000
 5892.00    1.01271   0.98768    0.000
 5893.00    1.00472   0.98620    0.000
 5894.00    0.98313   0.99154    0.000
 5895.00    0.95964   0.99896    0.000
 5896.00    0.98731   1.00742    0.000
 5897.00    1.02011   1.01840    0.000
 5898.00    1.02122   1.03455    0.000
 5899.00    1.02032   1.05729    0.000
 5900.00    1.03672   1.08355    0.000
 5901.00    1.05355   1.10854    0.017
 5902.00    1.04468   1.12991    0.017
 5903.00    1.03676   1.14705    0.017
 5904.00    1.05581   1.15972    0.018
 5905.00    1.07835   1.16853    0.018
 5906.00    1.15077   1.17460    0.018
 5907.00    1.21354   1.17884    0.018
 5908.00    1.18657   1.18198    0.017
 5909.00    1.16173   1.18441    0.017
 5910.00    1.15137   1.18578    0.017
 5911.00    1.14505   1.18552    0.017
 5912.00    1.16001   1.18360    0.017
 5913.00    1.17296   1.18047    0.017
 5914.00    1.17745   1.17669    0.017
 5915.00    1.18184   1.17304    0.017
 5916.00    1.18593   1.17072    0.017
 5917.00    1.18543   1.17076    0.017
 5918.00    1.17141   1.17295    0.016
 5919.00    1.17310   1.17642    0.016
 5920.00    1.21416   1.18014    0.016
 5921.00    1.23977   1.18338    0.016
 5922.00    1.23202   1.18600    0.016
 5923.00    1.21883   1.18781    0.016
 5924.00    1.19544   1.18889    0.016
 5925.00    1.18308   1.18959    0.016
 5926.00    1.18879   1.18983    0.016
 5927.00    1.18843   1.18933    0.016
 5928.00    1.17936   1.18812    0.017
 5929.00    1.19066   1.18645    0.017
 5930.00    1.22768   1.18472    0.017
 5931.00    1.24550   1.18347    0.017
 5932.00    1.24195   1.18315    0.017
 5933.00    1.25148   1.18388    0.017
 5934.00    1.27386   1.18507    0.017
 5935.00    1.27680   1.18599    0.017
 5936.00    1.26292   1.18669    0.017
 5937.00    1.26881   1.18775    0.018
 5938.00    1.28976   1.18922    0.018
 5939.00    1.26071   1.19025    0.017
 5940.00    1.19814   1.19038    0.017
 5941.00    1.19067   1.18989    0.017
 5942.00    1.21554   1.18913    0.017
 5943.00    1.23310   1.18876    0.017
 5944.00    1.24692   1.18953    0.018
 5945.00    1.23135   1.19105    0.017
 5946.00    1.20273   1.19222    0.017
 5947.00    1.19438   1.19233    0.017
 5948.00    1.19374   1.19107    0.016
 5949.00    1.18039   1.18852    0.016
 5950.00    1.16293   1.18530    0.016
 5951.00    1.15473   1.18247    0.016
 5952.00    1.14905   1.18063    0.016
 5953.00    1.18215   1.17930    0.016
 5954.00    1.22387   1.17794    0.016
 5955.00    1.27026   1.17710    0.016
 5956.00    1.31749   1.17755    0.016
 5957.00    1.30358   1.17903    0.016
 5958.00    1.28141   1.18127    0.016
 5959.00    1.25683   1.18473    0.016
 5960.00    1.23202   1.18956    0.016
 5961.00    1.22722   1.19487    0.016
 5962.00    1.22361   1.19951    0.017
 5963.00    1.22398   1.20273    0.017
 5964.00    1.22433   1.20445    0.017
 5965.00    1.20604   1.20511    0.017
 5966.00    1.18784   1.20546    0.017
 5967.00    1.17204   1.20608    0.017
 5968.00    1.15931   1.20748    0.017
 5969.00    1.18800   1.20978    0.017
 5970.00    1.21524   1.21210    0.017
 5971.00    1.22943   1.21353    0.017
 5972.00    1.24246   1.21351    0.017
 5973.00    1.24785   1.21166    0.017
 5974.00    1.24938   1.20794    0.017
 5975.00    1.23108   1.20289    0.017
 5976.00    1.21559   1.19728    0.017
 5977.00    1.21176   1.19192    0.017
 5978.00    1.20734   1.18772    0.016
 5979.00    1.20095   1.18517    0.016
 5980.00    1.19807   1.18389    0.016
 5981.00    1.20534   1.18320    0.016
 5982.00    1.21273   1.18234    0.016
 5983.00    1.22041   1.18075    0.016
 5984.00    1.21308   1.17866    0.016
 5985.00    1.17386   1.17690    0.016
 5986.00    1.16211   1.17662    0.016
 5987.00    1.20104   1.17874    0.016
 5988.00    1.23840   1.18258    0.016
 5989.00    1.27326   1.18668    0.016
 5990.00    1.28888   1.19060    0.016
 5991.00    1.27729   1.19434    0.016
 5992.00    1.25089   1.19758    0.016
 5993.00    1.20606   1.20006    0.016
 5994.00    1.18400   1.20199    0.016
 5995.00    1.18691   1.20326    0.016
 5996.00    1.19707   1.20305    0.017
 5997.00    1.21424   1.20113    0.017
 5998.00    1.20481   1.19815    0.017
 5999.00    1.17268   1.19503    0.016
 6000.00    1.14372   1.19249    0.016
 6001.00    1.11714   1.19062    0.017
 6002.00    1.11415   1.18895    0.017
 6003.00    1.12673   1.18695    0.017
 6004.00    1.15632   1.18435    0.017
 6005.00    1.19574   1.18170    0.016
 6006.00    1.19846   1.17962    0.016
 6007.00    1.18269   1.17776    0.016
 6008.00    1.19887   1.17613    0.016
 6009.00    1.22898   1.17530    0.016
 6010.00    1.24623   1.17576    0.016
 6011.00    1.25867   1.17767    0.016
 6012.00    1.23652   1.17978    0.016
 6013.00    1.20338   1.18043    0.016
 6014.00    1.18254   1.17949    0.016
 6015.00    1.16497   1.17796    0.016
 6016.00    1.18202   1.17674    0.016
 6017.00    1.20659   1.17558    0.016
 6018.00    1.20430   1.17400    0.016
 6019.00    1.19738   1.17273    0.016
 6020.00    1.16105   1.17239    0.016
 6021.00    1.12088   1.17263    0.016
 6022.00    1.14798   1.17364    0.016
 6023.00    1.18127   1.17609    0.016
 6024.00    1.19827   1.17987    0.016
 6025.00    1.21436   1.18440    0.016
 6026.00    1.17298   1.18936    0.016
 6027.00    1.13091   1.19470    0.016
 6028.00    1.14531   1.19977    0.017
 6029.00    1.16015   1.20423    0.017
 6030.00    1.18536   1.20848    0.017
 6031.00    1.21040   1.21227    0.017
 6032.00    1.23323   1.21515    0.017
 6033.00    1.24903   1.21735    0.017
 6034.00    1.20425   1.21934    0.017
 6035.00    1.16817   1.22088    0.016
 6036.00    1.18768   1.22158    0.016
 6037.00    1.21220   1.22149    0.016
 6038.00    1.26179   1.22093    0.016
 6039.00    1.29708   1.22010    0.016
 6040.00    1.27448   1.21938    0.016
 6041.00    1.26014   1.21902    0.016
 6042.00    1.27355   1.21954    0.016
 6043.00    1.29506   1.22116    0.016
 6044.00    1.33953   1.22358    0.016
 6045.00    1.37370   1.22653    0.016
 6046.00    1.38292   1.22935    0.016
 6047.00    1.37840   1.23137    0.016
 6048.00    1.34515   1.23247    0.016
 6049.00    1.31660   1.23256    0.016
 6050.00    1.29660   1.23155    0.016
 6051.00    1.29529   1.22964    0.016
 6052.00    1.32365   1.22706    0.016
 6053.00    1.32127   1.22375    0.016
 6054.00    1.27600   1.21992    0.016
 6055.00    1.27906   1.21628    0.016
 6056.00    1.34141   1.21351    0.017
 6057.00    1.37685   1.21175    0.022
 6058.00    1.38316   1.21092    0.068
 6059.00    1.34383   1.21091   -1.000
 6060.00    1.26097   1.21110   -1.000
 6061.00    1.18049   1.21078   -1.000
 6062.00    1.10200   1.20925   -1.000
 6063.00    1.03657   1.20653   -1.000
 6064.00    0.98083   1.20352   -1.000
 6065.00    0.94252   1.20156   -1.000
 6066.00    0.91558   1.20178   -1.000
 6067.00    0.96724   1.20488    0.048
 6068.00    1.06368   1.21145    0.019
 6069.00    1.16043   1.21996    0.016
 6070.00    1.25735   1.22780    0.016
 6071.00    1.27716   1.23385    0.016
 6072.00    1.26391   1.23788    0.016
 6073.00    1.23125   1.23979    0.016
 6074.00    1.19147   1.23952    0.015
 6075.00    1.17957   1.23715    0.015
 6076.00    1.17635   1.23290    0.015
 6077.00    1.16147   1.22719    0.015
 6078.00    1.14355   1.22055    0.015
 6079.00    1.19461   1.21361    0.015
 6080.00    1.26028   1.20705    0.016
 6081.00    1.26230   1.20187    0.015
 6082.00    1.25367   1.19827    0.015
 6083.00    1.21787   1.19555    0.015
 6084.00    1.17864   1.19394    0.016
 6085.00    1.17417   1.19386    0.016
 6086.00    1.17275   1.19445    0.016
 6087.00    1.22003   1.19468    0.016
 6088.00    1.26984   1.19471    0.016
 6089.00    1.28837   1.19462    0.016
 6090.00    1.30549   1.19410    0.016
 6091.00    1.26035   1.19320    0.016
 6092.00    1.21755   1.19297    0.016
 6093.00    1.22473   1.19453    0.017
 6094.00    1.23303   1.19747    0.017
 6095.00    1.25505   1.20090    0.017
 6096.00    1.27179   1.20427    0.017
 6097.00    1.24470   1.20627    0.016
 6098.00    1.22046   1.20565    0.016
 6099.00    1.21388   1.20259    0.016
 6100.00    1.20703   1.19792    0.016
 6101.00    1.19881   1.19207    0.016
 6102.00    1.19561   1.18545    0.016
 6103.00    1.21228   1.17908    0.016
 6104.00    1.23225   1.17481    0.015
 6105.00    1.26307   1.17530    0.016
 6106.00    1.28364   1.18048    0.016
 6107.00    1.27567   1.18698    0.015
 6108.00    1.27057   1.19267    0.015
 6109.00    1.27226   1.19740    0.015
 6110.00    1.27904   1.20150    0.015
 6111.00    1.29626   1.20516    0.015
 6112.00    1.30000   1.20773    0.015
 6113.00    1.27958   1.20913    0.015
 6114.00    1.25129   1.21020    0.015
 6115.00    1.21066   1.21070    0.016
 6116.00    1.18823   1.20938    0.016
 6117.00    1.19082   1.20551    0.016
 6118.00    1.19728   1.19953    0.016
 6119.00    1.20840   1.19257    0.016
 6120.00    1.21887   1.18498    0.016
 6121.00    1.22865   1.17707    0.016
 6122.00    1.24305   1.17035    0.016
 6123.00    1.26180   1.16631    0.016
 6124.00    1.28731   1.16590    0.016
 6125.00    1.31845   1.16951    0.016
 6126.00    1.32294   1.17491    0.016
 6127.00    1.30798   1.17974    0.016
 6128.00    1.28970   1.18408    0.015
 6129.00    1.26929   1.18821    0.015
 6130.00    1.25079   1.19170    0.015
 6131.00    1.23336   1.19380    0.015
 6132.00    1.23569   1.19330    0.015
 6133.00    1.24766   1.18896    0.015
 6134.00    1.26198   1.18078    0.015
 6135.00    1.27729   1.16989    0.015
 6136.00    1.25286   1.15787    0.015
 6137.00    1.21408   1.14705    0.015
 6138.00    1.17956   1.14022    0.016
 6139.00    1.14634   1.13992    0.016
 6140.00    1.13085   1.14668    0.016
 6141.00    1.11987   1.15702    0.015
 6142.00    1.14872   1.16679    0.016
 6143.00    1.18580   1.17510    0.016
 6144.00    1.19803   1.18302    0.016
 6145.00    1.20623   1.19016    0.015
 6146.00    1.22093   1.19457    0.016
 6147.00    1.23642   1.19552    0.016
 6148.00    1.22792   1.19402    0.016
 6149.00    1.21742   1.19123    0.016
 6150.00    1.21951   1.18814    0.016
 6151.00    1.22220   1.18574    0.016
 6152.00    1.19986   1.18458    0.016
 6153.00    1.17782   1.18436    0.016
 6154.00    1.19449   1.18393    0.016
 6155.00    1.20903   1.18184    0.016
 6156.00    1.18172   1.17700    0.016
 6157.00    1.15666   1.16949    0.016
 6158.00    1.15765   1.15943    0.016
 6159.00    1.15797   1.14654    0.016
 6160.00    1.15292   1.13158    0.016
 6161.00    1.14295   1.11600    0.015
 6162.00    1.10329   1.10138    0.015
 6163.00    1.07050   1.09002    0.015
 6164.00    1.07033   1.08458    0.015
 6165.00    1.07371   1.08547    0.015
 6166.00    1.09082   1.09027    0.015
 6167.00    1.10090   1.09606    0.015
 6168.00    1.08824   1.10129    0.015
 6169.00    1.09328   1.10564    0.015
 6170.00    1.14665   1.10881    0.015
 6171.00    1.19136   1.11181    0.016
 6172.00    1.21579   1.11702    0.016
 6173.00    1.21728   1.12443    0.016
 6174.00    1.17235   1.13165    0.016
 6175.00    1.13147   1.13770    0.016
 6176.00    1.09774   1.14336    0.015
 6177.00    1.09096   1.14865    0.016
 6178.00    1.12575   1.15329    0.016
 6179.00    1.16270   1.15766    0.016
 6180.00    1.20259   1.16175    0.016
 6181.00    1.22305   1.16472    0.016
 6182.00    1.22031   1.16632    0.016
 6183.00    1.19712   1.16678    0.016
 6184.00    1.15242   1.16544    0.015
 6185.00    1.12423   1.16167    0.016
 6186.00    1.11135   1.15559    0.016
 6187.00    1.10731   1.14761    0.016
 6188.00    1.11052   1.13857    0.016
 6189.00    1.11743   1.13002    0.016
 6190.00    1.12702   1.12319    0.016
 6191.00    1.09853   1.11862    0.015
 6192.00    1.04599   1.11663    0.015
 6193.00    0.91660   1.11811    0.016
 6194.00    0.74477   1.12378    0.017
 6195.00    0.39440   1.13165    0.018
 6196.00   -0.04170   1.13864   -2.000
 6197.00   -0.52539   1.14373   -2.000
 6198.00   -1.02882   1.14694   -2.000
 6199.00   -0.97743   1.14834   -2.000
 6200.00   -0.72938   1.14840   -2.000
 6201.00   -0.10775   1.14859   -2.000
 6202.00    0.62567   1.15062   -2.000
 6203.00    1.13214   1.15470   -2.000
 6204.00    1.58225   1.15939   -2.000
 6205.00    1.65614   1.16335   -2.000
 6206.00    1.65427   1.16614   -2.000
 6207.00    1.50836   1.16762   -2.000
 6208.00    1.33972   1.16726    0.017
 6209.00    1.27241   1.16442    0.016
 6210.00    1.21697   1.15892    0.016
 6211.00    1.20033   1.15097    0.016
 6212.00    1.18678   1.14133    0.016
 6213.00    1.13223   1.13107    0.015
 6214.00    1.07587   1.12089    0.015
 6215.00    1.07441   1.11172    0.015
 6216.00    1.07372   1.10510    0.015
 6217.00    1.08075   1.10167    0.015
 6218.00    1.08612   1.10089    0.015
 6219.00    1.06097   1.10170    0.015
 6220.00    1.03678   1.10277    0.015
 6221.00    1.02299   1.10398    0.015
 6222.00    1.01358   1.10612    0.015
 6223.00    1.03809   1.10910    0.015
 6224.00    1.03987   1.11180    0.014
 6225.00    0.90866   1.11305    0.015
 6226.00    0.68815   1.11251    0.015
 6227.00    0.05342   1.11046    0.014
 6228.00   -0.43556   1.10682    0.000
 6229.00   -0.37197   1.10195    0.000
 6230.00   -0.18270   1.09687    0.000
 6231.00    0.40441   1.09269    0.015
 6232.00    0.88588   1.09120    0.016
 6233.00    1.08376   1.09387    0.016
 6234.00    1.21019   1.09961    0.016
 6235.00    1.17206   1.10604    0.015
 6236.00    1.13107   1.11135    0.015
 6237.00    1.08439   1.11374    0.016
 6238.00    1.06016   1.11231    0.016
 6239.00    1.07489   1.10785    0.016
 6240.00    1.08026   1.10173    0.015
 6241.00    1.07141   1.09534    0.015
 6242.00    1.07581   1.09024    0.015
 6243.00    1.09790   1.08707    0.015
 6244.00    1.10610   1.08527    0.015
 6245.00    1.09796   1.08546    0.015
 6246.00    1.08744   1.08835    0.015
 6247.00    1.07447   1.09265    0.015
 6248.00    1.07698   1.09727    0.015
 6249.00    1.09365   1.10157    0.015
 6250.00    1.09862   1.10393    0.014
 6251.00    1.09416   1.10307    0.015
 6252.00    1.10081   1.09898    0.015
 6253.00    1.11534   1.09223    0.015
 6254.00    1.10804   1.08454    0.015
 6255.00    1.08714   1.07801    0.015
 6256.00    1.07480   1.07320    0.016
 6257.00    1.06711   1.06999    0.015
 6258.00    1.08044   1.06879    0.016
 6259.00    1.10371   1.07044    0.017
 6260.00    1.03454   1.07553    0.017
 6261.00    0.92771   1.08381    0.018
 6262.00    0.86904   1.09340    0.019
 6263.00    0.82715   1.10246    0.019
 6264.00    0.97877   1.11048    0.019
 6265.00    1.18717   1.11648    0.020
 6266.00    1.33330   1.11979    0.018
 6267.00    1.46432   1.12177    0.017
 6268.00    1.41729   1.12386    0.016
 6269.00    1.33533   1.12570    0.016
 6270.00    1.28492   1.12699    0.015
 6271.00    1.23934   1.12848    0.015
 6272.00    1.21067   1.13058    0.015
 6273.00    1.18390   1.13291    0.015
 6274.00    1.15626   1.13477    0.015
 6275.00    1.12855   1.13544    0.015
 6276.00    1.17892   1.13488    0.015
 6277.00    1.23243   1.13348    0.015
 6278.00    1.29871   1.13142    0.015
 6279.00    1.36277   1.12899    0.015
 6280.00    1.33275   1.12658    0.000
 6281.00    1.30197   1.12469    0.000
 6282.00    1.25850   1.12447    0.000
 6283.00    1.21707   1.12686    0.000
 6284.00    1.19725   1.13137    0.000
 6285.00    1.17895   1.13693    0.000
 6286.00    1.17199   1.14257    0.000
 6287.00    1.16863   1.14783    0.000
 6288.00    1.18572   1.15255    0.000
 6289.00    1.19929   1.15599    0.000
 6290.00    1.19694   1.15732    0.000
 6291.00    1.20215   1.15618    0.000
 6292.00    1.23541   1.15286    0.000
 6293.00    1.25516   1.14842    0.000
 6294.00    1.23299   1.14375    0.000
 6295.00    1.20644   1.13924    0.000
 6296.00    1.16833   1.13472    0.000
 6297.00    1.13327   1.12983    0.000
 6298.00    1.10513   1.12539    0.000
 6299.00    1.09439   1.12284    0.000
 6300.00    1.11777   1.12224    0.000
 6301.00    1.14837   1.12258    0.000
 6302.00    1.19128   1.12335    0.000
 6303.00    1.21796   1.12536    0.000
 6304.00    1.22033   1.12948    0.000
 6305.00    1.21721   1.13511    0.000
 6306.00    1.20685   1.14073    0.000
 6307.00    1.19041   1.14569    0.000
 6308.00    1.16693   1.15016    0.000
 6309.00    1.16361   1.15347    0.000
 6310.00    1.18089   1.15433    0.000
 6311.00    1.19362   1.15264    0.000
 6312.00    1.20225   1.14926    0.000
 6313.00    1.19776   1.14501    0.000
 6314.00    1.18285   1.14045    0.000
 6315.00    1.15232   1.13568    0.000
 6316.00    1.11087   1.13100    0.000
 6317.00    1.11778   1.12776    0.000
 6318.00    1.15433   1.12656    0.000
 6319.00    1.18294   1.12680    0.000
 6320.00    1.20731   1.12905    0.000
 6321.00    1.21368   1.13394    0.015
 6322.00    1.21168   1.14026    0.015
 6323.00    1.21556   1.14659    0.015
 6324.00    1.22180   1.15272    0.015
 6325.00    1.22318   1.15857    0.015
 6326.00    1.22289   1.16341    0.015
 6327.00    1.19541   1.16690    0.015
 6328.00    1.16011   1.16936    0.014
 6329.00    1.17130   1.17118    0.015
 6330.00    1.19352   1.17219    0.015
 6331.00    1.22537   1.17156    0.015
 6332.00    1.25907   1.16953    0.015
 6333.00    1.28369   1.16701    0.014
 6334.00    1.30697   1.16381    0.014
 6335.00    1.30878   1.15940    0.014
 6336.00    1.30825   1.15431    0.015
 6337.00    1.29554   1.15043    0.015
 6338.00    1.28196   1.14958    0.015
 6339.00    1.27083   1.15109    0.015
 6340.00    1.25979   1.15307    0.015
 6341.00    1.24422   1.15486    0.015
 6342.00    1.22864   1.15623    0.015
 6343.00    1.21328   1.15645    0.015
 6344.00    1.19948   1.15554    0.015
 6345.00    1.21081   1.15464    0.015
 6346.00    1.22248   1.15524    0.015
 6347.00    1.23764   1.15770    0.015
 6348.00    1.25316   1.16120    0.015
 6349.00    1.27129   1.16490    0.015
 6350.00    1.28726   1.16803    0.015
 6351.00    1.29127   1.16970    0.014
 6352.00    1.29464   1.16946    0.014
 6353.00    1.29517   1.16711    0.015
 6354.00    1.28863   1.16244    0.015
 6355.00    1.25637   1.15581    0.014
 6356.00    1.22996   1.14835    0.014
 6357.00    1.22135   1.14119    0.014
 6358.00    1.20616   1.13427    0.014
 6359.00    1.17391   1.12713    0.014
 6360.00    1.15360   1.12085    0.015
 6361.00    1.15986   1.11700    0.015
 6362.00    1.17007   1.11568    0.015
 6363.00    1.18789   1.11648    0.015
 6364.00    1.20617   1.11971    0.015
 6365.00    1.22521   1.12546    0.016
 6366.00    1.25059   1.13291    0.016
 6367.00    1.28530   1.14112    0.015
 6368.00    1.29019   1.14948    0.015
 6369.00    1.25641   1.15751    0.015
 6370.00    1.22329   1.16440    0.015
 6371.00    1.19092   1.16985    0.015
 6372.00    1.18154   1.17448    0.015
 6373.00    1.19534   1.17870    0.015
 6374.00    1.22560   1.18184    0.015
 6375.00    1.27048   1.18303    0.015
 6376.00    1.26179   1.18232    0.015
 6377.00    1.21112   1.18039    0.015
 6378.00    1.17867   1.17766    0.014
 6379.00    1.15877   1.17416    0.014
 6380.00    1.18184   1.17058    0.014
 6381.00    1.23086   1.16806    0.014
 6382.00    1.25341   1.16702    0.014
 6383.00    1.26200   1.16731    0.014
 6384.00    1.26663   1.16840    0.014
 6385.00    1.26945   1.16950    0.014
 6386.00    1.26814   1.17054    0.015
 6387.00    1.26520   1.17152    0.015
 6388.00    1.26218   1.17157    0.015
 6389.00    1.25913   1.16983    0.015
 6390.00    1.26821   1.16671    0.015
 6391.00    1.28071   1.16312    0.015
 6392.00    1.25865   1.15945    0.015
 6393.00    1.22858   1.15578    0.015
 6394.00    1.18597   1.15248    0.016
 6395.00    1.14103   1.15089    0.016
 6396.00    1.16020   1.15170    0.016
 6397.00    1.18859   1.15384    0.016
 6398.00    1.22091   1.15573    0.016
 6399.00    1.25364   1.15670    0.015
 6400.00    1.28621   1.15673    0.015
 6401.00    1.31876   1.15710    0.015
 6402.00    1.27522   1.16013    0.015
 6403.00    1.22920   1.16545    0.015
 6404.00    1.19402   1.17027    0.015
 6405.00    1.16039   1.17347    0.014
 6406.00    1.17478   1.17485    0.014
 6407.00    1.19198   1.17412    0.014
 6408.00    1.25149   1.17170    0.014
 6409.00    1.30770   1.16862    0.014
 6410.00    1.33207   1.16633    0.015
 6411.00    1.34880   1.16484    0.015
 6412.00    1.31212   1.16303    0.014
 6413.00    1.28022   1.16170    0.014
 6414.00    1.27412   1.16194    0.015
 6415.00    1.27495   1.16285    0.015
 6416.00    1.30580   1.16328    0.015
 6417.00    1.33205   1.16294    0.015
 6418.00    1.34194   1.16205    0.015
 6419.00    1.33894   1.16110    0.015
 6420.00    1.29741   1.16022    0.016
 6421.00    1.26816   1.15980    0.016
 6422.00    1.27020   1.16124    0.015
 6423.00    1.27097   1.16564    0.015
 6424.00    1.26899   1.17194    0.015
 6425.00    1.25476   1.17735    0.015
 6426.00    1.21724   1.18020    0.015
 6427.00    1.20470   1.18089    0.015
 6428.00    1.23357   1.18002    0.015
 6429.00    1.25903   1.17741    0.015
 6430.00    1.27954   1.17306    0.015
 6431.00    1.27926   1.16787    0.015
 6432.00    1.25240   1.16414    0.014
 6433.00    1.23833   1.16369    0.014
 6434.00    1.23867   1.16540    0.014
 6435.00    1.24599   1.16726    0.014
 6436.00    1.26024   1.16891    0.015
 6437.00    1.26506   1.17044    0.015
 6438.00    1.26161   1.17159    0.015
 6439.00    1.28505   1.17217    0.015
 6440.00    1.32925   1.17337    0.015
 6441.00    1.34755   1.17739    0.015
 6442.00    1.34825   1.18372    0.015
 6443.00    1.31939   1.18963    0.015
 6444.00    1.27295   1.19333    0.015
 6445.00    1.23961   1.19392    0.015
 6446.00    1.21307   1.19134    0.015
 6447.00    1.21218   1.18633    0.015
 6448.00    1.22284   1.17922    0.016
 6449.00    1.21461   1.17045    0.015
 6450.00    1.19908   1.16115    0.015
 6451.00    1.20690   1.15393    0.015
 6452.00    1.22241   1.15191    0.015
 6453.00    1.25436   1.15474    0.015
 6454.00    1.29085   1.15970    0.014
 6455.00    1.27935   1.16481    0.014
 6456.00    1.25696   1.16912    0.014
 6457.00    1.23167   1.17288    0.014
 6458.00    1.20585   1.17634    0.014
 6459.00    1.21166   1.17866    0.014
 6460.00    1.22187   1.17908    0.015
 6461.00    1.25195   1.17745    0.015
 6462.00    1.28401   1.17408    0.015
 6463.00    1.26359   1.16997    0.014
 6464.00    1.23986   1.16778    0.014
 6465.00    1.23620   1.16950    0.015
 6466.00    1.23318   1.17346    0.015
 6467.00    1.24759   1.17733    0.015
 6468.00    1.26056   1.18051    0.015
 6469.00    1.23340   1.18290    0.015
 6470.00    1.20868   1.18388    0.016
 6471.00    1.21831   1.18331    0.016
 6472.00    1.22594   1.18180    0.016
 6473.00    1.21491   1.18059    0.016
 6474.00    1.20180   1.18029    0.016
 6475.00    1.17466   1.18009    0.015
 6476.00    1.16121   1.17953    0.015
 6477.00    1.21959   1.17903    0.015
 6478.00    1.26968   1.17838    0.014
 6479.00    1.28484   1.17668    0.014
 6480.00    1.29757   1.17385    0.014
 6481.00    1.30183   1.17026    0.014
 6482.00    1.30313   1.16614    0.014
 6483.00    1.29576   1.16248    0.014
 6484.00    1.28839   1.16104    0.014
 6485.00    1.28100   1.16204    0.014
 6486.00    1.28263   1.16385    0.014
 6487.00    1.30369   1.16480    0.014
 6488.00    1.31446   1.16407    0.014
 6489.00    1.30599   1.16061    0.015
 6490.00    1.29034   1.15305    0.015
 6491.00    1.26295   1.14133    0.015
 6492.00    1.23581   1.12685    0.015
 6493.00    1.20902   1.11125    0.015
 6494.00    1.19675   1.09537    0.015
 6495.00    1.20278   1.08038    0.015
 6496.00    1.19010   1.06994    0.015
 6497.00    1.15663   1.06666    0.015
 6498.00    1.13431   1.07017    0.015
 6499.00    1.12293   1.07889    0.015
 6500.00    1.13021   1.09074    0.015
 6501.00    1.15360   1.10483    0.015
 6502.00    1.17052   1.12002    0.015
 6503.00    1.18250   1.13408    0.015
 6504.00    1.18816   1.14569    0.014
 6505.00    1.18957   1.15466    0.014
 6506.00    1.20972   1.16148    0.014
 6507.00    1.24084   1.16644    0.014
 6508.00    1.28260   1.16935    0.014
 6509.00    1.32980   1.17061    0.014
 6510.00    1.34592   1.17123    0.014
 6511.00    1.34829   1.17168    0.014
 6512.00    1.34215   1.17148    0.014
 6513.00    1.33278   1.17015    0.014
 6514.00    1.32921   1.16781    0.015
 6515.00    1.32752   1.16491    0.015
 6516.00    1.30685   1.16196    0.015
 6517.00    1.28106   1.15963    0.015
 6518.00    1.27596   1.15858    0.015
 6519.00    1.27544   1.15881    0.015
 6520.00    1.26321   1.16062    0.015
 6521.00    1.24892   1.16408    0.015
 6522.00    1.28752   1.16779    0.015
 6523.00    1.33324   1.17047    0.016
 6524.00    1.32403   1.17215    0.015
 6525.00    1.30956   1.17323    0.015
 6526.00    1.30727   1.17357    0.015
 6527.00    1.30569   1.17253    0.015
 6528.00    1.31886   1.17072    0.000
 6529.00    1.33239   1.16960    0.000
 6530.00    1.34536   1.16944    0.000
 6531.00    1.35798   1.16950    0.000
 6532.00    1.36172   1.16926    0.000
 6533.00    1.36503   1.16901    0.000
 6534.00    1.36267   1.16961    0.000
 6535.00    1.35818   1.17151    0.000
 6536.00    1.33475   1.17416    0.000
 6537.00    1.31204   1.17635    0.000
 6538.00    1.29404   1.17746    0.000
 6539.00    1.27799   1.17780    0.000
 6540.00    1.27188   1.17766    0.000
 6541.00    1.26658   1.17607    0.000
 6542.00    1.26459   1.17203    0.000
 6543.00    1.26307   1.16617    0.000
 6544.00    1.26315   1.15981    0.000
 6545.00    1.26926   1.15372    0.000
 6546.00    1.29276   1.14775    0.000
 6547.00    1.31002   1.14200    0.000
 6548.00    1.31192   1.13800    0.000
 6549.00    1.32585   1.13587    0.000
 6550.00    1.36526   1.13371    0.000
 6551.00    1.38912   1.13014    0.000
 6552.00    1.38429   1.12521    0.000
 6553.00    1.35697   1.11953    0.000
 6554.00    1.29345   1.11275    0.000
 6555.00    1.24036   1.10387    0.000
 6556.00    1.20201   1.09288    0.000
 6557.00    1.18104   1.07971    0.000
 6558.00    1.18166   1.06273    0.000
 6559.00    1.19100   1.04126    0.000
 6560.00    1.20991   1.01802    0.000
 6561.00    1.22484   0.99604    0.000
 6562.00    1.23594   0.97593    0.000
 6563.00    1.22668   0.95893    0.000
 6564.00    1.20007   0.95221    0.000
 6565.00    1.19441   0.96255    0.000
 6566.00    1.20445   0.98491    0.000
 6567.00    1.20244   1.01005    0.000
 6568.00    1.19249   1.03390    0.000
 6569.00    1.17616   1.05528    0.000
 6570.00    1.15613   1.07275    0.000
 6571.00    1.15072   1.08554    0.000
 6572.00    1.15265   1.09410    0.000
 6573.00    1.15079   1.09940    0.000
 6574.00    1.14727   1.10308    0.000
 6575.00    1.16011   1.10701    0.000
 6576.00    1.17906   1.11228    0.000
 6577.00    1.22340   1.11875    0.000
 6578.00    1.27577   1.12530    0.000
 6579.00    1.28344   1.13102    0.000
 6580.00    1.27930   1.13562    0.000
 6581.00    1.28328   1.13904    0.000
 6582.00    1.28900   1.14158    0.000
 6583.00    1.35562   1.14424    0.000
 6584.00    1.43269   1.14729    0.000
 6585.00    1.44238   1.14997    0.000
 6586.00    1.44331   1.15194    0.000
 6587.00    1.40118   1.15304    0.000
 6588.00    1.35512   1.15331    0.000
 6589.00    1.36291   1.15200    0.000
 6590.00    1.37368   1.14861    0.000
 6591.00    1.33839   1.14398    0.000
 6592.00    1.30208   1.13853    0.000
 6593.00    1.26285   1.13228    0.000
 6594.00    1.22523   1.12684    0.000
 6595.00    1.22419   1.12506    0.000
 6596.00    1.22665   1.12736    0.000
 6597.00    1.27347   1.13149    0.000
 6598.00    1.31516   1.13571    0.000
 6599.00    1.31287   1.13994    0.000
 6600.00    1.30950   1.14451    0.000
 6601.00    1.29924   1.14893    0.000
 6602.00    1.28874   1.15182    0.000
 6603.00    1.27703   1.15236    0.000
 6604.00    1.26121   1.15068    0.000
 6605.00    1.22885   1.14735    0.000
 6606.00    1.19726   1.14360    0.000
 6607.00    1.16825   1.14063    0.000
 6608.00    1.15418   1.13862    0.000
 6609.00    1.18232   1.13722    0.015
 6610.00    1.21426   1.13702    0.015
 6611.00    1.25541   1.13970    0.015
 6612.00    1.28845   1.14477    0.015
 6613.00    1.30460   1.14961    0.016
 6614.00    1.29472   1.15316    0.016
 6615.00    1.23761   1.15669    0.016
 6616.00    1.21207   1.16107    0.016
 6617.00    1.23662   1.16484    0.016
 6618.00    1.25236   1.16679    0.016
 6619.00    1.25583   1.16738    0.015
 6620.00    1.26979   1.16713    0.015
 6621.00    1.29660   1.16590    0.015
 6622.00    1.28121   1.16352    0.015
 6623.00    1.22026   1.16019    0.015
 6624.00    1.20155   1.15619    0.015
 6625.00    1.22307   1.15192    0.015
 6626.00    1.26470   1.14850    0.015
 6627.00    1.32320   1.14669    0.015
 6628.00    1.35422   1.14546    0.015
 6629.00    1.36490   1.14373    0.015
 6630.00    1.36020   1.14147    0.015
 6631.00    1.34551   1.13929    0.015
 6632.00    1.29853   1.13759    0.015
 6633.00    1.23320   1.13600    0.015
 6634.00    1.20172   1.13456    0.015
 6635.00    1.18698   1.13426    0.015
 6636.00    1.20048   1.13595    0.015
 6637.00    1.22605   1.13896    0.016
 6638.00    1.23161   1.14191    0.016
 6639.00    1.22982   1.14369    0.015
 6640.00    1.26218   1.14413    0.016
 6641.00    1.30513   1.14421    0.016
 6642.00    1.31166   1.14433    0.016
 6643.00    1.30876   1.14348    0.015
 6644.00    1.27487   1.14136    0.015
 6645.00    1.23443   1.14010    0.015
 6646.00    1.22599   1.14102    0.015
 6647.00    1.22289   1.14257    0.015
 6648.00    1.22622   1.14336    0.015
 6649.00    1.23037   1.14398    0.015
 6650.00    1.20874   1.14512    0.015
 6651.00    1.18485   1.14597    0.015
 6652.00    1.17302   1.14585    0.015
 6653.00    1.16181   1.14526    0.015
 6654.00    1.20522   1.14488    0.015
 6655.00    1.24910   1.14461    0.015
 6656.00    1.25709   1.14402    0.015
 6657.00    1.26506   1.14286    0.015
 6658.00    1.27257   1.14119    0.015
 6659.00    1.27667   1.13894    0.015
 6660.00    1.23971   1.13583    0.016
 6661.00    1.20852   1.13223    0.016
 6662.00    1.22502   1.12859    0.016
 6663.00    1.23550   1.12495    0.016
 6664.00    1.20884   1.12168    0.016
 6665.00    1.18496   1.12048    0.016
 6666.00    1.17452   1.12180    0.016
 6667.00    1.17642   1.12421    0.016
 6668.00    1.22704   1.12713    0.016
 6669.00    1.26333   1.13095    0.016
 6670.00    1.25254   1.13555    0.015
 6671.00    1.24444   1.13959    0.015
 6672.00    1.24382   1.14175    0.015
 6673.00    1.24266   1.14136    0.015
 6674.00    1.24025   1.13837    0.015
 6675.00    1.25080   1.13354    0.015
 6676.00    1.28795   1.12797    0.015
 6677.00    1.30702   1.12166    0.016
 6678.00    1.29378   1.11441    0.015
 6679.00    1.25918   1.10888    0.015
 6680.00    1.19123   1.10807    0.015
 6681.00    1.13630   1.11104    0.015
 6682.00    1.09924   1.11483    0.015
 6683.00    1.10580   1.11883    0.015
 6684.00    1.16502   1.12370    0.016
 6685.00    1.22062   1.12880    0.016
 6686.00    1.27238   1.13274    0.016
 6687.00    1.28378   1.13509    0.016
 6688.00    1.25730   1.13639    0.016
 6689.00    1.24755   1.13716    0.016
 6690.00    1.25167   1.13774    0.016
 6691.00    1.24225   1.13779    0.016
 6692.00    1.22295   1.13698    0.015
 6693.00    1.21510   1.13543    0.015
 6694.00    1.21458   1.13372    0.015
 6695.00    1.21365   1.13199    0.015
 6696.00    1.21251   1.12999    0.000
 6697.00    1.20829   1.12814    0.000
 6698.00    1.20258   1.12742    0.000
 6699.00    1.19111   1.12780    0.000
 6700.00    1.17722   1.12862    0.000
 6701.00    1.19199   1.12969    0.000
 6702.00    1.21707   1.13071    0.000
 6703.00    1.23861   1.13137    0.000
 6704.00    1.25908   1.13143    0.000
 6705.00    1.22633   1.13122    0.000
 6706.00    1.18010   1.13136    0.000
 6707.00    1.14910   1.13163    0.000
 6708.00    1.12124   1.13159    0.000
 6709.00    1.12482   1.13089    0.000
 6710.00    1.13349   1.12934    0.000
 6711.00    1.14445   1.12678    0.000
 6712.00    1.15570   1.12345    0.000
 6713.00    1.18290   1.11915    0.000
 6714.00    1.21143   1.11368    0.000
 6715.00    1.23914   1.10820    0.000
 6716.00    1.26681   1.10361    0.000
 6717.00    1.27659   1.09999    0.000
 6718.00    1.28525   1.09746    0.000
 6719.00    1.24577   1.09735    0.000
 6720.00    1.20727   1.10027    0.000
 6721.00    1.18761   1.10416    0.000
 6722.00    1.17405   1.10753    0.000
 6723.00    1.23046   1.11076    0.000
 6724.00    1.27076   1.11442    0.000
 6725.00    1.18277   1.11767    0.000
 6726.00    1.11015   1.11960    0.000
 6727.00    1.12974   1.12080    0.000
 6728.00    1.15633   1.12226    0.000
 6729.00    1.21613   1.12393    0.000
 6730.00    1.26294   1.12523    0.000
 6731.00    1.25961   1.12616    0.000
 6732.00    1.26314   1.12674    0.000
 6733.00    1.28877   1.12683    0.000
 6734.00    1.30394   1.12626    0.000
 6735.00    1.29058   1.12518    0.000
 6736.00    1.26066   1.12392    0.000
 6737.00    1.19202   1.12255    0.000
 6738.00    1.14333   1.12066    0.000
 6739.00    1.13498   1.11805    0.000
 6740.00    1.12966   1.11558    0.000
 6741.00    1.12967   1.11420    0.000
 6742.00    1.12993   1.11348    0.000
 6743.00    1.13057   1.11214    0.000
 6744.00    1.11467   1.11057    0.000
 6745.00    1.07641   1.10986    0.000
 6746.00    1.08735   1.10932    0.000
 6747.00    1.15687   1.10804    0.000
 6748.00    1.18923   1.10648    0.000
 6749.00    1.18257   1.10503    0.000
 6750.00    1.15027   1.10376    0.000
 6751.00    1.09422   1.10320    0.000
 6752.00    1.06037   1.10395    0.000
 6753.00    1.04463   1.10553    0.018
 6754.00    1.03869   1.10777    0.019
 6755.00    1.03979   1.11164    0.019
 6756.00    1.03759   1.11646    0.019
 6757.00    1.03330   1.12124    0.019
 6758.00    1.11750   1.12571    0.019
 6759.00    1.25048   1.12955    0.019
 6760.00    1.32977   1.13250    0.020
 6761.00    1.38332   1.13416    0.020
 6762.00    1.46288   1.13432    0.020
 6763.00    1.55320   1.13288    0.020
 6764.00    1.54187   1.13048    0.020
 6765.00    1.49461   1.12773    0.020
 6766.00    1.40585   1.12465    0.019
 6767.00    1.30471   1.12098    0.019
 6768.00    1.29506   1.11752    0.019
 6769.00    1.30807   1.11601    0.019
 6770.00    1.35360   1.11653    0.019
 6771.00    1.40566   1.11775    0.019
 6772.00    1.33641   1.11958    0.018
 6773.00    1.24810   1.12301    0.018
 6774.00    1.25941   1.12764    0.018
 6775.00    1.28234   1.13219    0.018
 6776.00    1.31420   1.13609    0.019
 6777.00    1.34677   1.13902    0.019
 6778.00    1.32898   1.14041    0.019
 6779.00    1.30899   1.14001    0.019
 6780.00    1.25866   1.13793    0.019
 6781.00    1.20990   1.13415    0.019
 6782.00    1.24883   1.12899    0.019
 6783.00    1.29195   1.12308    0.019
 6784.00    1.41118   1.11746    0.019
 6785.00    1.51154   1.11316    0.019
 6786.00    1.40543   1.11055    0.019
 6787.00    1.29811   1.10955    0.018
 6788.00    1.18143   1.11015    0.018
 6789.00    1.09536   1.11168    0.018
 6790.00    1.18775   1.11290    0.018
 6791.00    1.27038   1.11383    0.019
 6792.00    1.30791   1.11495    0.019
 6793.00    1.31784   1.11572    0.019
 6794.00    1.22344   1.11575    0.018
 6795.00    1.17514   1.11586    0.018
 6796.00    1.27239   1.11688    0.019
 6797.00    1.32233   1.11851    0.019
 6798.00    1.24556   1.12048    0.019
 6799.00    1.18428   1.12248    0.019
 6800.00    1.15858   1.12444    0.019
 6801.00    1.16035   1.12633    0.019
 6802.00    1.21676   1.12787    0.019
 6803.00    1.25569   1.12867    0.019
 6804.00    1.26435   1.12865    0.019
 6805.00    1.25918   1.12833    0.019
 6806.00    1.23304   1.12805    0.019
 6807.00    1.23093   1.12728    0.018
 6808.00    1.26085   1.12632    0.018
 6809.00    1.23033   1.12595    0.018
 6810.00    1.12888   1.12561    0.018
 6811.00    1.12059   1.12472    0.018
 6812.00    1.20872   1.12402    0.018
 6813.00    1.28587   1.12398    0.018
 6814.00    1.35299   1.12416    0.019
 6815.00    1.36975   1.12385    0.019
 6816.00    1.34597   1.12346    0.019
 6817.00    1.31367   1.12416    0.019
 6818.00    1.27534   1.12571    0.019
 6819.00    1.25228   1.12700    0.019
 6820.00    1.23871   1.12785    0.019
 6821.00    1.24786   1.12892    0.019
 6822.00    1.26934   1.13074    0.019
 6823.00    1.24861   1.13254    0.019
 6824.00    1.20798   1.13333    0.019
 6825.00    1.19519   1.13321    0.019
 6826.00    1.19372   1.13292    0.019
 6827.00    1.17563   1.13247    0.019
 6828.00    1.15178   1.13120    0.019
 6829.00    1.17518   1.12940    0.019
 6830.00    1.21241   1.12852    0.019
 6831.00    1.19688   1.12900    0.019
 6832.00    1.16856   1.12970    0.018
 6833.00    1.22238   1.12968    0.018
 6834.00    1.29227   1.12947    0.018
 6835.00    1.34621   1.12950    0.019
 6836.00    1.39771   1.12863    0.019
 6837.00    1.34021   1.12595    0.020
 6838.00    1.27048   1.12206    0.020
 6839.00    1.19654   1.11787    0.020
 6840.00    1.12227   1.11382    0.020
 6841.00    1.06065   1.11033    0.020
 6842.00    0.99953   1.10797    0.020
 6843.00    1.06968   1.10735    0.020
 6844.00    1.14015   1.10893    0.019
 6845.00    1.18717   1.11213    0.019
 6846.00    1.22955   1.11579    0.019
 6847.00    1.19363   1.11894    0.019
 6848.00    1.16458   1.12168    0.019
 6849.00    1.20740   1.12391    0.019
 6850.00    1.25016   1.12480    0.019
 6851.00    1.29251   1.12389    0.019
 6852.00    1.32465   1.12192    0.019
 6853.00    1.29898   1.11982    0.019
 6854.00    1.27759   1.11735    0.019
 6855.00    1.27550   1.11389    0.018
 6856.00    1.27904   1.11041    0.018
 6857.00    1.30341   1.10824    0.018
 6858.00    1.29000   1.10681    0.019
 6859.00    1.15961   1.10579    0.018
 6860.00    1.05112   1.10606    0.018
 6861.00    1.00029   1.10708    0.019
 6862.00    1.02482   1.10791    0.019
 6863.00    1.21964   1.10934    0.019
 6864.00    1.29489   1.11184    0.020
 6865.00    1.13611   1.11399    0.020
 6866.00    1.06256   1.11483    0.020
 6867.00    1.13445   1.11488    0.020
 6868.00    1.16974   1.11422    0.021
 6869.00    1.15030   1.11306    0.020
 6870.00    1.13155   1.11256    0.020
 6871.00    1.11371   1.11281    0.020
 6872.00    1.12451   1.11272    0.019
 6873.00    1.16844   1.11286    0.019
 6874.00    1.17952   1.11473    0.019
 6875.00    1.15707   1.11768    0.018
 6876.00    1.13736   1.12010    0.018
 6877.00    1.12013   1.12216    0.018
 6878.00    1.14826   1.12416    0.018
 6879.00    1.21237   1.12540    0.018
 6880.00    1.22573   1.12542    0.018
 6881.00    1.20369   1.12476    0.018
 6882.00    1.18396   1.12340    0.018
 6883.00    1.16565   1.12175    0.019
 6884.00    1.16660   1.12130    0.019
 6885.00    1.17786   1.12264    0.019
 6886.00    1.15333   1.12456    0.019
 6887.00    1.11221   1.12673    0.019
 6888.00    1.14724   1.13022    0.019
 6889.00    1.21270   1.13419    0.019
 6890.00    1.24515   1.13725    0.019
 6891.00    1.26635   1.13954    0.019
 6892.00    1.25507   1.14129    0.020
 6893.00    1.23446   1.14190    0.020
 6894.00    1.23396   1.14174    0.019
 6895.00    1.23821   1.14149    0.019
 6896.00    1.16889   1.14068    0.019
 6897.00    1.08554   1.13937    0.019
 6898.00    1.20807   1.13887    0.019
 6899.00    1.36101   1.13935    0.019
 6900.00    1.26701   1.13962    0.019
 6901.00    1.14636   1.13962    0.019
 6902.00    1.19402   1.14075    0.019
 6903.00    1.25357   1.14308    0.019
 6904.00    1.34007   1.14516    0.019
 6905.00    1.42754   1.14663    0.019
 6906.00    1.34087   1.14818    0.019
 6907.00    1.25657   1.14997    0.019
 6908.00    1.27440   1.15103    0.019
 6909.00    1.28457   1.15086    0.020
 6910.00    1.17354   1.14965    0.019
 6911.00    1.07947   1.14752    0.019
 6912.00    1.15522   1.14480    0.019
 6913.00    1.21113   1.14194    0.019
 6914.00    1.12438   1.13895    0.020
 6915.00    1.06185   1.13637    0.020
 6916.00    1.13280   1.13536    0.019
 6917.00    1.18888   1.13561    0.019
 6918.00    1.17940   1.13620    0.019
 6919.00    1.17241   1.13745    0.019
 6920.00    1.17446   1.13888    0.019
 6921.00    1.16534   1.13965    0.019
 6922.00    1.12225   1.13960    0.019
 6923.00    1.10852   1.13914    0.019
 6924.00    1.17067   1.13811    0.019
 6925.00    1.22864   1.13639    0.019
 6926.00    1.27732   1.13510    0.019
 6927.00    1.30925   1.13516    0.019
 6928.00    1.30890   1.13630    0.019
 6929.00    1.28242   1.13741    0.020
 6930.00    1.21204   1.13826    0.019
 6931.00    1.17007   1.13949    0.020
 6932.00    1.16992   1.14083    0.020
 6933.00    1.16857   1.14139    0.020
 6934.00    1.16566   1.14129    0.020
 6935.00    1.16617   1.14202    0.020
 6936.00    1.17059   1.14354    0.020
 6937.00    1.19382   1.14465    0.020
 6938.00    1.23596   1.14540    0.020
 6939.00    1.21894   1.14632    0.020
 6940.00    1.14940   1.14701    0.019
 6941.00    1.18102   1.14667    0.019
 6942.00    1.29172   1.14540    0.019
 6943.00    1.32335   1.14385    0.019
 6944.00    1.30062   1.14223    0.019
 6945.00    1.20771   1.14029    0.020
 6946.00    1.07250   1.13879    0.021
 6947.00    0.99640   1.13875    0.022
 6948.00    0.95142   1.13939    0.023
 6949.00    0.99614   1.13968    0.023
 6950.00    1.08180   1.13995    0.023
 6951.00    1.00212   1.14003    0.023
 6952.00    0.85751   1.13967    0.023
 6953.00    0.99628   1.13965    0.022
 6954.00    1.22984   1.14013    0.020
 6955.00    1.27607   1.14075    0.020
 6956.00    1.26968   1.14231    0.020
 6957.00    1.19298   1.14502    0.020
 6958.00    1.09999   1.14791    0.020
 6959.00    1.06912   1.15030    0.020
 6960.00    1.04977   1.15278    0.020
 6961.00    1.08841   1.15519    0.020
 6962.00    1.13535   1.15694    0.019
 6963.00    1.10769   1.15797    0.019
 6964.00    1.07230   1.15905    0.018
 6965.00    1.13643   1.16025    0.019
 6966.00    1.20719   1.16076    0.019
 6967.00    1.23185   1.16066    0.019
 6968.00    1.25501   1.16093    0.019
 6969.00    1.21274   1.16145    0.019
 6970.00    1.17183   1.16106    0.019
 6971.00    1.17257   1.15913    0.019
 6972.00    1.17565   1.15626    0.019
 6973.00    1.21347   1.15319    0.020
 6974.00    1.23727   1.14897    0.020
 6975.00    1.12648   1.14225    0.020
 6976.00    1.02659   1.13487    0.019
 6977.00    1.00257   1.12929    0.020
 6978.00    0.99580   1.12477    0.020
 6979.00    1.08166   1.12076    0.020
 6980.00    1.15316   1.12007    0.020
 6981.00    1.16288   1.12419    0.020
 6982.00    1.17159   1.13017    0.020
 6983.00    1.17669   1.13625    0.019
 6984.00    1.16133   1.14269    0.019
 6985.00    1.08492   1.14870    0.019
 6986.00    1.03486   1.15276    0.019
 6987.00    1.05174   1.15505    0.019
 6988.00    1.06780   1.15614    0.019
 6989.00    1.08208   1.15612    0.019
 6990.00    1.11347   1.15538    0.019
 6991.00    1.17729   1.15490    0.019
 6992.00    1.20026   1.15499    0.019
 6993.00    1.15562   1.15525    0.019
 6994.00    1.09929   1.15497    0.019
 6995.00    1.02598   1.15419    0.020
 6996.00    1.03190   1.15301    0.020
 6997.00    1.13894   1.15154    0.020
 6998.00    1.19289   1.14978    0.020
 6999.00    1.18712   1.14782    0.020
 7000.00    0.99336   1.14530    0.020
 7001.00    0.61309   1.14302    0.020
 7002.00    0.58589   1.14219    0.020
 7003.00    0.86758   1.14233    0.021
 7004.00    1.02842   1.14197    0.021
 7005.00    1.09612   1.14148    0.021
 7006.00    1.08659   1.14235    0.021
 7007.00    1.02473   1.14405    0.021
 7008.00    0.97898   1.14517    0.021
 7009.00    0.94279   1.14603    0.021
 7010.00    0.97514   1.14737    0.021
 7011.00    1.04298   1.14793    0.021
 7012.00    1.05711   1.14647    0.021
 7013.00    1.04712   1.14391    0.021
 7014.00    0.94798   1.14205    0.021
 7015.00    0.81444   1.14040    0.021
 7016.00    0.83911   1.13764    0.021
 7017.00    0.91572   1.13514    0.022
 7018.00    0.93299   1.13612    0.022
 7019.00    0.93393   1.13940    0.022
 7020.00    1.03892   1.14133    0.022
 7021.00    1.16743   1.14218    0.023
 7022.00    1.08019   1.14404    0.023
 7023.00    0.95396   1.14556    0.022
 7024.00    1.02676   1.14488    0.022
 7025.00    1.12713   1.14391    0.023
 7026.00    1.09318   1.14471    0.022
 7027.00    1.04589   1.14649    0.022
 7028.00    1.01097   1.14802    0.022
 7029.00    0.97682   1.14998    0.022
 7030.00    1.06302   1.15269    0.022
 7031.00    1.15187   1.15518    0.021
 7032.00    1.03959   1.15687    0.021
 7033.00    0.93191   1.15801    0.021
 7034.00    0.95063   1.15832    0.021
 7035.00    0.96967   1.15754    0.021
 7036.00    0.99324   1.15730    0.022
 7037.00    1.02014   1.15864    0.022
 7038.00    1.07774   1.15978    0.022
 7039.00    1.11206   1.16064    0.022
 7040.00    0.98959   1.16412    0.022
 7041.00    0.90766   1.17021    0.022
 7042.00    1.03768   1.17552    0.023
 7043.00    1.13263   1.17981    0.023
 7044.00    1.07989   1.18436    0.023
 7045.00    1.03130   1.18810    0.022
 7046.00    0.99713   1.18981    0.022
 7047.00    0.98473   1.19041    0.022
 7048.00    1.03604   1.18992    0.022
 7049.00    0.97718   1.18722    0.022
 7050.00    0.64332   1.18219   -2.000
 7051.00    0.53765   1.17562   -2.000
 7052.00    0.92281   1.16772   -2.000
 7053.00    1.17103   1.15871   -2.000
 7054.00    1.16353   1.14971   -2.000
 7055.00    1.15394   1.14183   -2.000
 7056.00    1.14093   1.13520   -2.000
 7057.00    1.14976   1.13023   -2.000
 7058.00    1.18980   1.12698   -2.000
 7059.00    1.19835   1.12444   -2.000
 7060.00    1.16727   1.12174   -2.000
 7061.00    1.10087   1.11958   -2.000
 7062.00    0.99530   1.11827   -2.000
 7063.00    0.98437   1.11669   -2.000
 7064.00    1.06598   1.11471   -2.000
 7065.00    1.07192   1.11319   -2.000
 7066.00    1.01259   1.11217   -2.000
 7067.00    1.00530   1.11149   -2.000
 7068.00    1.03757   1.11184   -2.000
 7069.00    1.11454   1.11312   -2.000
 7070.00    1.22134   1.11595   -2.000
 7071.00    1.18276   1.12058   -2.000
 7072.00    1.05915   1.12560   -2.000
 7073.00    1.06864   1.13003   -2.000
 7074.00    1.14600   1.13453   -2.000
 7075.00    1.15481   1.13878   -2.000
 7076.00    1.13335   1.14150   -2.000
 7077.00    1.13396   1.14296   -2.000
 7078.00    1.14294   1.14368   -2.000
 7079.00    1.23852   1.14329   -2.000
 7080.00    1.36200   1.14093   -2.000
 7081.00    1.37578   1.13680   -2.000
 7082.00    1.36001   1.13141   -2.000
 7083.00    1.21441   1.12482   -2.000
 7084.00    1.04014   1.11636   -2.000
 7085.00    1.02594   1.10668   -2.000
 7086.00    1.03988   1.09810   -2.000
 7087.00    1.17083   1.09131   -2.000
 7088.00    1.31745   1.08470   -2.000
 7089.00    1.07908   1.07885   -2.000
 7090.00    0.80412   1.07531   -2.000
 7091.00    0.80837   1.07355   -2.000
 7092.00    0.82900   1.07268   -2.000
 7093.00    0.94697   1.07271   -2.000
 7094.00    1.06679   1.07335   -2.000
 7095.00    1.11022   1.07484   -2.000
 7096.00    1.14789   1.07704   -2.000
 7097.00    1.04238   1.07946   -2.000
 7098.00    0.95131   1.08187   -2.000
 7099.00    1.05199   1.08434   -2.000
 7100.00    1.13336   1.08698   -2.000
 7101.00    1.04355   1.08918   -2.000
 7102.00    0.96993   1.09103   -2.000
 7103.00    1.00199   1.09207   -2.000
 7104.00    1.03779   1.09269   -2.000
 7105.00    1.09262   1.09371   -2.000
 7106.00    1.12238   1.09486   -2.000
 7107.00    1.04893   1.09458   -2.000
 7108.00    1.00156   1.09333   -2.000
 7109.00    1.04310   1.09290   -2.000
 7110.00    1.06871   1.09297   -2.000
 7111.00    1.04855   1.09209   -2.000
 7112.00    1.05034   1.09099   -2.000
 7113.00    1.10598   1.09177   -2.000
 7114.00    1.11673   1.09399   -2.000
 7115.00    1.03247   1.09590   -2.000
 7116.00    1.00576   1.09761   -2.000
 7117.00    1.08487   1.10000   -2.000
 7118.00    1.12498   1.10200   -2.000
 7119.00    1.10241   1.10242   -2.000
 7120.00    1.11877   1.10220   -2.000
 7121.00    1.19001   1.10162   -2.000
 7122.00    1.22945   1.09944   -2.000
 7123.00    1.22945   1.09542   -2.000
 7124.00    1.14412   1.09185   -2.000
 7125.00    0.96550   1.08841   -2.000
 7126.00    0.92746   1.08296   -2.000
 7127.00    1.02498   1.07656   -2.000
 7128.00    1.00346   1.07184   -2.000
 7129.00    0.88071   1.06870   -2.000
 7130.00    0.89591   1.06557   -2.000
 7131.00    1.01442   1.06301   -2.000
 7132.00    0.83703   1.06265   -2.000
 7133.00    0.46496   1.06471   -2.000
 7134.00    0.56261   1.06770   -2.000
 7135.00    0.93083   1.07083   -2.000
 7136.00    1.11364   1.07391   -2.000
 7137.00    1.20341   1.07723   -2.000
 7138.00    1.14861   1.08065   -2.000
 7139.00    1.03103   1.08277   -2.000
 7140.00    1.03833   1.08368   -2.000
 7141.00    1.09216   1.08495   -2.000
 7142.00    1.03060   1.08625   -2.000
 7143.00    0.93259   1.08633   -2.000
 7144.00    0.98557   1.08536   -2.000
 7145.00    1.07837   1.08387   -2.000
 7146.00    1.14997   1.08234   -2.000
 7147.00    1.21700   1.08123   -2.000
 7148.00    1.06704   1.07955   -2.000
 7149.00    0.88000   1.07810   -2.000
 7150.00    0.91557   1.07967   -2.000
 7151.00    0.97997   1.08294   -2.000
 7152.00    1.01015   1.08556   -2.000
 7153.00    1.03722   1.08933   -2.000
 7154.00    1.10729   1.09478   -2.000
 7155.00    1.17970   1.09874   -2.000
 7156.00    1.09482   1.10054   -2.000
 7157.00    1.00898   1.10250   -2.000
 7158.00    1.13599   1.10435   -2.000
 7159.00    1.25172   1.10396   -2.000
 7160.00    1.11125   1.10187   -2.000
 7161.00    0.67352   1.09942   -2.000
 7162.00   -3.50818   1.09710   -2.000
 7163.00   -6.78416   1.09517   -2.000
 7164.00   -2.33324   1.09323   -2.000
 7165.00    1.52870   1.09128   -2.000
 7166.00    1.65776   1.09105   -2.000
 7167.00    1.73229   1.09360   -2.000
 7168.00    1.53605   1.09723   -2.000
 7169.00    1.35865   1.10087   -2.000
 7170.00    1.25712   1.10477   -2.000
 7171.00    1.20291   1.10894   -2.000
 7172.00    1.30682   1.11261   -2.000
 7173.00    1.37651   1.11484   -2.000
 7174.00    1.34969   1.11569   -2.000
 7175.00    1.32042   1.11575   -2.000
 7176.00    1.28526   1.11472   -2.000
 7177.00    1.26748   1.11221   -2.000
 7178.00    1.28593   1.10958   -2.000
 7179.00    1.30677   1.10781   -2.000
 7180.00    1.33193   1.10606   -2.000
 7181.00    1.33367   1.10363   -2.000
 7182.00    1.29834   1.10181   -2.000
 7183.00    1.27663   1.10151   -2.000
 7184.00    1.27384   1.10122   -2.000
 7185.00    1.25641   1.09949   -2.000
 7186.00    1.22106   1.09729   -2.000
 7187.00    1.22772   1.09516   -2.000
 7188.00    1.27966   1.09254   -2.000
 7189.00    1.29477   1.09040   -2.000
 7190.00    1.27485   1.08961   -2.000
 7191.00    1.26856   1.09015   -2.000
 7192.00    1.27370   1.09228   -2.000
 7193.00    1.28772   1.09458   -2.000
 7194.00    1.30827   1.09657   -2.000
 7195.00    1.29589   1.09922   -2.000
 7196.00    1.26215   1.10225   -2.000
 7197.00    1.24045   1.10378   -2.000
 7198.00    1.22557   1.10379   -2.000
 7199.00    1.20776   1.10435   -2.000
 7200.00    1.18851   1.10557   -2.000
 7201.00    1.18269   1.10590   -2.000
 7202.00    1.18262   1.10506   -2.000
 7203.00    1.18876   1.10379   -2.000
 7204.00    1.19718   1.10273   -2.000
 7205.00    1.28880   1.10142   -2.000
 7206.00    1.40618   1.09936   -2.000
 7207.00    1.31808   1.09667   -2.000
 7208.00    1.17695   1.09447   -2.000
 7209.00    1.15039   1.09437   -2.000
 7210.00    1.14792   1.09526   -2.000
 7211.00    0.74313   1.09669   -2.000
 7212.00    0.27153   1.09958   -2.000
 7213.00    0.69213   1.10252   -2.000
 7214.00    1.22421   1.10487   -2.000
 7215.00    1.33487   1.10766   -2.000
 7216.00    1.40902   1.11046   -2.000
 7217.00    1.39971   1.11233   -2.000
 7218.00    1.38617   1.11431   -2.000
