###################################################################
## OUTPUT of StarlightChains_v04.for    [Cid@UFSC - 01/Apr/2007] ##
###################################################################

## Some input info
KUG0210-078._54_27.txt                   [arq_obs]
Base.CB07.vall.4m                        [arq_base]
Masks.EmLines.NEW.gm                     [arq_masks]
StCv04.C11.config                        [arq_config]
   66                                    [N_base]
    0                                    [N_YAV_components = # of components with extra extinction!]
    0                                    [i_FitPowerLaw (1/0 = Yes/No)]
-9.99                                    [alpha_PowerLaw]
CCM                                      [red_law_option]
 1.458241                                [q_norm = A(l_norm)/A(V)]

## (Re)Sampling Parameters
 3741.00                                 [l_ini (A)]
 7218.00                                 [l_fin (A)]
    1.00                                 [dl    (A)]     (OBS: dl_cushion =    50.00 A)

## Normalization info
 4020.00                                 [l_norm (A) - for base]
 4010.00                                 [llow_norm (A) - window for f_obs]
 4060.00                                 [lupp_norm (A) - window for f_obs]
6.521669E-18                             [fobs_norm (in input units)]

## S/N
 3691.00                                 [llow_SN (A) - window for S/N]
 7268.00                                 [lupp_SN (A) - window for S/N]
   2.246                                 [S/N in S/N window]
   3.128                                 [S/N in norm. window]
   0.005                                 [S/N_err in S/N window]
   0.007                                 [S/N_err in norm. window]
  1.0000                                 [fscale_chi2]

## etc...
    -2008003                             [idum_orig]
  2420                                   [NOl_eff]
  2395                                   [Nl_eff]
    25    NSIGMA                         [Ntot_cliped & clip_method]
  2523850                                [Nglobal_steps]
   7                                     [N_chains]
  37                                     [NEX0s_base = N_base in EX0s-fits]
 0   0   1       25   2.0   1.365E+03    [Clip-Bug, RC-Crash & Burn-In warning-flags, n_censored_weights, wei_nsig_threshold & wei_limit]
    35     34.486     33.731      0.755  [idt_all, wdt_TotTime, wdt_UsrTime & wdt_SysTime (sec)]

## Synthesis Results - Best model ##

 1.14600E-05                             [chi2/Nl_eff]
    34.02156                             [adev (%)]

   118.39678                             [sum-of-x (%)]
 4.24413E-18                             [Flux_tot (units of input spectrum!)]
 6.40686E-14                             [Mini_tot (???)]
 3.25966E-14                             [Mcor_tot (???)]

-179.46                                  [v0_min  (km/s)]
 436.23                                  [vd_min  (km/s)]
-0.4456                                  [AV_min  (mag)]
 0.0000                                  [YAV_min (mag)]

# j     x_j(%)      Mini_j(%)     Mcor_j(%)     age_j(yr)     Z_j      (L/M)_j    YAV?  Mstars   component_j        a/Fe...       SSP_chi2r SSP_adev(%)   SSP_AV   SSP_x(%)
  1     21.2308     1.0858E-01    2.1342E-01    1.000000E+06  0.00400  1.094E-02    0   1.0000   age020_m42            0.0000     1.1770E-05    34.4419   1.5690   107.9130
  2      0.0000     0.0000E+00    0.0000E+00    3.160000E+06  0.00400  4.007E-02    0   0.9999   age045_m42            0.0000     1.1936E-05    35.5219   0.7526   116.7443
  3      9.7011     2.1378E-02    3.9867E-02    5.010000E+06  0.00400  2.539E-02    0   0.9488   age055_m42            0.0000     1.1791E-05    34.9631   1.1204   113.0881
  4      0.0000     0.0000E+00    0.0000E+00    6.610000E+06  0.00400  2.620E-02    0   0.9220   age061_m42            0.0000     1.1937E-05    35.4950   0.6874   116.7660
  5      0.0000     0.0000E+00    0.0000E+00    1.000000E+07  0.00400  1.322E-02    0   0.8862   age070_m42            0.0000     1.1789E-05    34.7024   0.5075   116.6603
  6     15.1099     1.0724E-01    1.8067E-01    1.445000E+07  0.00400  7.883E-03    0   0.8571   age078_m42            0.0000     1.1751E-05    34.5471   0.8435   113.6969
  7      0.0000     0.0000E+00    0.0000E+00    2.512000E+07  0.00400  5.251E-03    0   0.8174   age090_m42            0.0000     1.1806E-05    34.6601   0.3874   116.9759
  8      0.0000     0.0000E+00    0.0000E+00    4.000000E+07  0.00400  3.649E-03    0   0.7851   age104_m42            0.0000     1.1874E-05    34.8506   0.1338   118.4983
  9      0.0000     0.0000E+00    0.0000E+00    5.500000E+07  0.00400  3.098E-03    0   0.7629   age110_m42            0.0000     1.2121E-05    35.4610   0.2233   119.9540
 10      0.0000     0.0000E+00    0.0000E+00    1.015200E+08  0.00400  2.228E-03    0   0.7207   age116_m42            0.0000     1.2310E-05    35.9474   0.2003   121.1274
 11      0.0000     0.0000E+00    0.0000E+00    2.861200E+08  0.00400  1.093E-03    0   0.6648   age125_m42            0.0000     1.2345E-05    35.9332  -0.3631   124.1259
 12      0.0000     0.0000E+00    0.0000E+00    5.088000E+08  0.00400  6.597E-04    0   0.6365   age130_m42            0.0000     1.2700E-05    36.6689  -0.4477   126.8556
 13      0.0000     0.0000E+00    0.0000E+00    1.434000E+09  0.00400  2.132E-04    0   0.5798   age139_m42            0.0000     1.3065E-05    34.3944  -1.0000   124.1938
 14      0.0000     0.0000E+00    0.0000E+00    4.250000E+09  0.00400  5.895E-05    0   0.5377   age158_m42            0.0000     1.3900E-05    40.4613  -1.0000   112.6812
 15      0.0000     0.0000E+00    0.0000E+00    7.500000E+09  0.00400  3.510E-05    0   0.5212   age171_m42            0.0000     1.4952E-05    44.4473  -1.0000   108.2491
 16     21.5882     6.0243E+01    5.9606E+01    1.300000E+10  0.00400  2.005E-05    0   0.5034   age193_m42            0.0000     1.6073E-05    48.0645  -1.0000   104.0867
 17      0.0000     0.0000E+00    0.0000E+00    1.800000E+10  0.00400  1.525E-05    0   0.4967   age213_m42            0.0000     1.6096E-05    48.6715  -1.0000   103.1179
 18      1.0418     4.7084E-03    9.2544E-03    1.000000E+06  0.00800  1.238E-02    0   1.0000   age020_m52            0.0000     1.1770E-05    34.4539   1.5639   108.1560
 19      0.0000     0.0000E+00    0.0000E+00    3.160000E+06  0.00800  3.074E-02    0   0.9966   age045_m52            0.0000     1.1754E-05    34.4939   1.4826   109.2372
 20      0.0000     0.0000E+00    0.0000E+00    5.010000E+06  0.00800  2.668E-02    0   0.9443   age055_m52            0.0000     1.1758E-05    34.7826   1.2173   111.8759
 21      0.0000     0.0000E+00    0.0000E+00    6.610000E+06  0.00800  2.136E-02    0   0.9177   age061_m52            0.0000     1.1598E-05    34.3192  -0.0015   118.2410
 22      0.0000     0.0000E+00    0.0000E+00    1.000000E+07  0.00800  1.215E-02    0   0.8827   age070_m52            0.0000     1.1714E-05    34.4171   0.7221   115.6202
 23      0.0000     0.0000E+00    0.0000E+00    1.445000E+07  0.00800  8.717E-03    0   0.8552   age078_m52            0.0000     1.1761E-05    34.5383   0.8057   115.3303
 24      0.5239     5.2419E-03    8.4093E-03    2.512000E+07  0.00800  5.592E-03    0   0.8162   age090_m52            0.0000     1.1844E-05    34.6667   0.4499   118.3735
 25      0.0000     0.0000E+00    0.0000E+00    4.000000E+07  0.00800  3.896E-03    0   0.7841   age104_m52            0.0000     1.1968E-05    35.0249   0.3196   120.1615
 26      4.8086     1.2525E-01    1.7789E-01    1.015200E+08  0.00800  2.148E-03    0   0.7226   age116_m52            0.0000     1.2114E-05    35.6249   0.1924   121.5195
 27      0.0000     0.0000E+00    0.0000E+00    2.861200E+08  0.00800  9.925E-04    0   0.6683   age125_m52            0.0000     1.2771E-05    36.7219  -0.3818   128.0999
 28      0.0000     0.0000E+00    0.0000E+00    9.047900E+08  0.00800  3.141E-04    0   0.6138   age135_m52            0.0000     1.3369E-05    34.5005  -1.0000   132.3136
 29      0.0007     2.1740E-04    2.5010E-04    1.434000E+09  0.00800  1.719E-04    0   0.5853   age139_m52            0.0000     1.3934E-05    38.7672  -1.0000   119.9770
 30      0.0000     0.0000E+00    0.0000E+00    2.500000E+09  0.00800  7.872E-05    0   0.5600   age150_m52            0.0000     1.5343E-05    44.1772  -1.0000   111.7949
 31      0.0000     0.0000E+00    0.0000E+00    4.250000E+09  0.00800  4.336E-05    0   0.5426   age158_m52            0.0000     1.5404E-05    44.4182  -1.0000   110.4454
 32      1.1190     1.9818E+00    2.0719E+00    6.250000E+09  0.00800  3.159E-05    0   0.5319   age166_m52            0.0000     1.7042E-05    48.7325  -1.0000   105.8465
 33      0.0000     0.0000E+00    0.0000E+00    1.300000E+10  0.00800  1.361E-05    0   0.5073   age193_m52            0.0000     2.1219E-05    58.2295  -1.0000    93.0348
 34      5.4653     3.0931E+01    3.0337E+01    1.800000E+10  0.00800  9.886E-06    0   0.4990   age213_m52            0.0000     2.2871E-05    59.7410  -1.0000    89.4119
 35      0.0000     0.0000E+00    0.0000E+00    1.000000E+06  0.02000  1.544E-02    0   1.0000   age020_m62            0.0000     1.1760E-05    34.4318   1.5625   108.3776
 36      1.4381     2.1388E-03    4.1441E-03    3.160000E+06  0.02000  3.762E-02    0   0.9858   age045_m62            0.0000     1.1761E-05    34.4268   1.5004   109.3863
 37      0.0000     0.0000E+00    0.0000E+00    5.010000E+06  0.02000  3.296E-02    0   0.9342   age055_m62            0.0000     1.1855E-05    35.3335   1.0496   115.1864
 38      0.0000     0.0000E+00    0.0000E+00    8.710000E+06  0.02000  1.154E-02    0   0.8861   age067_m62            0.0000     1.1619E-05    34.6063   0.3683   113.9774
 39      0.0000     0.0000E+00    0.0000E+00    1.445000E+07  0.02000  7.663E-03    0   0.8472   age078_m62            0.0000     1.1670E-05    34.2747   0.4217   116.8245
 40      0.6036     7.4522E-03    1.1863E-02    2.512000E+07  0.02000  4.532E-03    0   0.8099   age090_m62            0.0000     1.1697E-05    34.4100   0.4183   116.3294
 41      0.0000     0.0000E+00    0.0000E+00    5.500000E+07  0.02000  2.733E-03    0   0.7595   age110_m62            0.0000     1.1903E-05    34.9423   0.3119   119.1666
 42      3.3088     1.3523E-01    1.8566E-01    1.609000E+08  0.02000  1.369E-03    0   0.6985   age120_m62            0.0000     1.2482E-05    36.6434  -0.0002   125.2982
 43      0.0000     0.0000E+00    0.0000E+00    2.861200E+08  0.02000  9.013E-04    0   0.6714   age125_m62            0.0000     1.3089E-05    37.1037  -0.2868   129.9864
 44      0.0000     0.0000E+00    0.0000E+00    5.088000E+08  0.02000  5.028E-04    0   0.6449   age130_m62            0.0000     1.3689E-05    38.4922  -0.7914   136.3853
 45      0.0000     0.0000E+00    0.0000E+00    9.047900E+08  0.02000  2.428E-04    0   0.6179   age135_m62            0.0000     1.3415E-05    34.1894  -1.0000   131.2024
 46      5.3655     2.3769E+00    2.7601E+00    1.434000E+09  0.02000  1.263E-04    0   0.5908   age139_m62            0.0000     1.4114E-05    37.2044  -1.0000   121.8774
 47      0.0000     0.0000E+00    0.0000E+00    2.500000E+09  0.02000  5.985E-05    0   0.5673   age150_m62            0.0000     1.5998E-05    44.3159  -1.0000   112.8929
 48      0.0000     0.0000E+00    0.0000E+00    4.250000E+09  0.02000  3.271E-05    0   0.5468   age158_m62            0.0000     1.8590E-05    50.6624  -1.0000   104.5738
 49      0.0000     0.0000E+00    0.0000E+00    1.000000E+10  0.02000  1.360E-05    0   0.5167   age181_m62            0.0000     2.2523E-05    56.9851  -1.0000    94.4585
 50      0.0000     0.0000E+00    0.0000E+00    1.800000E+10  0.02000  7.124E-06    0   0.5013   age213_m62            0.0000     2.5386E-05    59.9895  -1.0000    87.4276
 51     17.3659     3.7486E-02    7.3664E-02    1.000000E+06  0.05000  2.592E-02    0   0.9998   age020_m72            0.0000     1.1738E-05    34.3359   1.5639   108.2248
 52      0.9875     1.1404E-03    2.1466E-03    3.160000E+06  0.05000  4.845E-02    0   0.9577   age045_m72            0.0000     1.1781E-05    34.7941   1.3488   111.4939
 53      0.0000     0.0000E+00    0.0000E+00    5.010000E+06  0.05000  3.072E-02    0   0.9147   age055_m72            0.0000     1.1704E-05    34.3098   0.9637   113.6302
 54      5.7960     2.2288E-02    3.8887E-02    6.610000E+06  0.05000  1.455E-02    0   0.8877   age061_m72            0.0000     1.1699E-05    36.0620   0.4703   113.1930
 55      0.0000     0.0000E+00    0.0000E+00    1.000000E+07  0.05000  9.074E-03    0   0.8524   age070_m72            0.0000     1.1759E-05    34.7202   1.1405   113.2650
 56      0.0000     0.0000E+00    0.0000E+00    2.512000E+07  0.05000  4.250E-03    0   0.7902   age090_m72            0.0000     1.1836E-05    34.8661   0.8130   115.9484
 57      0.0000     0.0000E+00    0.0000E+00    4.000000E+07  0.05000  3.087E-03    0   0.7618   age104_m72            0.0000     1.1908E-05    35.0547   0.5809   117.8157
 58      0.0000     0.0000E+00    0.0000E+00    1.015200E+08  0.05000  1.700E-03    0   0.7096   age116_m72            0.0000     1.2341E-05    35.8594   0.2235   123.3960
 59      0.0000     0.0000E+00    0.0000E+00    2.861200E+08  0.05000  7.384E-04    0   0.6633   age125_m72            0.0000     1.3461E-05    37.9473  -0.4865   133.3666
 60      0.0000     0.0000E+00    0.0000E+00    5.088000E+08  0.05000  3.819E-04    0   0.6372   age130_m72            0.0000     1.3419E-05    37.6079  -1.0000   137.2819
 61      0.0000     0.0000E+00    0.0000E+00    9.047900E+08  0.05000  1.676E-04    0   0.6110   age135_m72            0.0000     1.4415E-05    36.0237  -1.0000   125.0080
 62      0.0000     0.0000E+00    0.0000E+00    1.434000E+09  0.05000  8.837E-05    0   0.5874   age139_m72            0.0000     1.6332E-05    44.2670  -1.0000   114.5633
 63      2.9421     3.8887E+00    4.2787E+00    2.500000E+09  0.05000  4.233E-05    0   0.5598   age150_m72            0.0000     1.9049E-05    50.5438  -1.0000   105.4426
 64      0.0000     0.0000E+00    0.0000E+00    6.250000E+09  0.05000  1.435E-05    0   0.5249   age166_m72            0.0000     2.3653E-05    58.6301  -1.0000    91.2905
 65      0.0000     0.0000E+00    0.0000E+00    1.300000E+10  0.05000  6.513E-06    0   0.5036   age193_m72            0.0000     2.7436E-05    62.2741  -1.0000    83.5369
 66      0.0000     0.0000E+00    0.0000E+00    1.800000E+10  0.05000  4.527E-06    0   0.4945   age213_m72            0.0000     2.9731E-05    63.8449  -1.0000    78.3111


## Synthesis Results - Average & Chains ##

# j      x_j: min, <> & last-chain-values for 1 ...  7 chains
  1     21.2308      1.7907      1.7220      0.0000      0.1705      1.8474      3.4207      0.0000      0.5895
  2      0.0000      0.9428      0.0000      0.0000      2.9819      3.5390      0.0000      0.0000      4.0878
  3      9.7011      0.9917      1.5583      1.1397      1.4213      0.0000      2.3203      0.0000      1.5217
  4      0.0000      0.6468      1.6052      1.5345      1.7758      0.5079      0.0000      1.4321      4.5542
  5      0.0000      1.0202      4.5130      0.3765      0.0000      1.6702      0.0000      0.0000      0.5243
  6     15.1099      1.0136      1.2990      4.3251      0.0000      4.9788      1.9154      0.1050      1.7155
  7      0.0000      0.9231      2.7632      0.6510      1.5176      1.3504      0.0000      0.0000      3.3843
  8      0.0000      0.7517      2.0561      5.2759      0.0000      0.0000      0.0000      0.0000      0.9368
  9      0.0000      1.0806      1.1151      3.7413      0.5604      0.0750      0.0000      0.3557      2.1314
 10      0.0000      1.0059      1.8289      2.2932      1.6331      0.0000      0.8386      0.6256      2.6394
 11      0.0000      0.9205      1.6315     10.3569      0.0000      0.0000      2.6950      0.0000      0.0000
 12      0.0000      0.7290      0.5649      2.9640      0.7814      0.0000      4.1985      0.0000      0.0000
 13      0.0000      0.9581      0.4824      0.0000      1.8802      0.5789      1.1791      1.4122      0.3648
 14      0.0000      0.8954      0.0000      0.0000      0.0000      0.0000      1.8120      0.0000      4.3489
 15      0.0000      0.9005      0.0000      1.5263      1.7306      0.0000      0.0000      0.3984      0.0000
 16     21.5882      0.8040      0.0000      6.8335      1.6729      0.0264      1.3360      2.5975      0.0000
 17      0.0000      0.8096      1.6863      1.5625      0.0000      0.0806      0.0000      3.2251      1.5650
 18      1.0418      0.8060      0.0000      0.0000      0.8837      0.0000      4.1594      0.3143      2.3427
 19      0.0000      1.4603      4.4945     10.0503      1.0475      1.6578      0.0000      2.3342      1.6311
 20      0.0000      0.7705      0.0000      0.6961      3.1443      0.6336      0.0000      3.8267      2.3162
 21      0.0000      0.7317      1.6731      1.4822      0.0387      0.1989      3.3067      1.5118      1.0775
 22      0.0000      0.8932      3.5290      0.3476      1.5629      1.8032      4.6054      4.1474      3.4404
 23      0.0000      0.6973      0.0000      0.0000      2.3676      0.0000      0.0000      0.0000      0.0000
 24      0.5239      1.1058      0.5673      0.9264      2.6200      8.5574      1.2271      5.8516      6.4017
 25      0.0000      0.7648      2.4138      0.0000      0.0000      0.0000      0.0000      1.3407      0.0000
 26      4.8086      0.8210      0.3606      0.0000      1.3731      2.4662      1.4841      0.6329      0.0000
 27      0.0000      0.8092      3.0134      0.0000      0.0388      0.0000      0.3711      0.0000      0.1773
 28      0.0000      0.8956      2.7530      0.0000      2.5244      1.6753      0.9912      2.8134      1.0646
 29      0.0007      0.9080      0.0000      0.0000      2.4850      0.0000      1.1337      1.8959      2.7386
 30      0.0000      0.6718      1.9713      1.3966      0.7856      0.9920      0.0000      0.0000      0.8084
 31      0.0000      0.8747      1.5179      1.7359      2.7503      0.6471      0.0000      0.9187      3.4199
 32      1.1190      0.8846      0.7713      0.4141      0.9340      0.0000      2.1689      1.5793      0.3813
 33      0.0000      0.8856      0.0000      0.0000      6.4106      0.5683      0.3933      0.0000      2.8447
 34      5.4653      0.9591      1.0628      1.8883      1.4245      1.1183      3.1977      0.0000      4.5053
 35      0.0000      0.8690      2.4865      4.9981      0.0000      0.4466      0.0000      0.1022      0.3416
 36      1.4381     44.0697     18.5194     16.2112     28.0955     29.7065     27.5192     30.8384     20.3260
 37      0.0000      0.7418      0.4532      0.0000      2.0676      2.0549      0.0000      0.0000      0.0000
 38      0.0000      1.0365      4.5121      0.0000      1.2457      3.2099      1.6147      2.6098      2.9784
 39      0.0000      1.0692      1.3227      8.1791      4.4837      2.1269      2.8628      0.1030      2.0177
 40      0.6036      0.9239      0.0000      0.0000      4.6299      1.4194      1.5600      0.1983      1.4397
 41      0.0000      0.7546      0.5760      0.0000      0.0000      2.9787      0.3360      0.1367      0.0000
 42      3.3088      1.2493      0.0000      3.5771      1.8262      3.5145      5.0737      0.0866      0.5653
 43      0.0000      0.7479      1.8867      0.0000      0.8138      1.3385      0.6140      1.5657      0.0000
 44      0.0000      1.0835      4.3771      0.0000      1.7228      4.2739      0.1168      0.0000      1.8570
 45      0.0000      1.0324      1.2183      0.0000      0.0000      0.0000      2.0771      0.0000      6.2783
 46      5.3655      0.9593      7.6574      4.0679      0.6690      0.0766      4.7106      1.8323      1.1951
 47      0.0000      1.1674      0.0000      0.0000      2.5129      3.0553      1.6848      0.0000      0.0000
 48      0.0000      0.8528      0.0000      1.3064      0.0000      0.4009      0.0000      6.0346      1.5992
 49      0.0000      0.8098      2.6172      0.2375      0.1139      2.2935      3.0973      0.0000      2.2554
 50      0.0000      1.1821      2.6287      6.9099      0.4742      0.2017      0.0000      2.3533      0.0000
 51     17.3659     25.3598     14.0173      6.0170      1.7349     18.8414     14.6416     20.8701     15.8965
 52      0.9875      1.1727      1.8978      0.0000      2.9413      0.6384      3.0272      3.9528      0.0000
 53      0.0000      0.7666      0.0000      1.5335      0.0000      0.0000      0.0000      0.6798      0.0000
 54      5.7960      1.3229      5.5486      1.3210     11.4674      0.6759      0.7397      0.0000      0.0849
 55      0.0000      1.0493      1.7076      1.4222      0.0000      0.0019      2.4482      0.4174      0.8970
 56      0.0000      0.8897      0.0000      0.0000      0.7737      0.8953      0.0000      2.8038      0.3561
 57      0.0000      0.9953      2.0934      1.5606      0.5824      3.1538      0.2121      0.3610      0.2067
 58      0.0000      0.8718      1.0734      0.4671      0.8898      0.0000      0.0000      0.0000      0.5755
 59      0.0000      0.9659      0.0000      0.7772      3.8233      0.8822      0.0000      5.0749      0.0000
 60      0.0000      0.9974      2.3956      1.9662      1.6873      1.1166      0.6815      3.4227      1.9851
 61      0.0000      0.7355      1.1206      0.4254      0.0000      3.0261      5.6084      0.2214      0.0000
 62      0.0000      1.1398      0.7112      2.9000      4.7845      3.4905      1.7963      0.0000      0.1307
 63      2.9421      0.7471      1.2121      1.2725      0.7326      0.4397      2.5427      2.7139      2.6960
 64      0.0000      0.6781      0.2755      0.0000      2.5325      0.0000      0.8966      1.6325      1.2639
 65      0.0000      1.1154      0.0000      1.4779      0.0000      1.8833      0.0000      3.2560      1.4313
 66      0.0000      0.8422      0.4605      1.3914      0.3621      2.6358      0.9513      0.0000      1.7526

# j      m_j: min, <> & last-chain-values for 1 ...  7 chains
  1  2.1342E-01  2.8711E-02  2.6617E-02  0.0000E+00  2.2006E-03  2.3119E-02  4.8069E-02  0.0000E+00  5.2672E-03
  2  0.0000E+00  4.1268E-03  0.0000E+00  0.0000E+00  1.0508E-02  1.2091E-02  0.0000E+00  0.0000E+00  9.9714E-03
  3  3.9867E-02  6.5003E-03  9.8472E-03  3.4322E-03  7.5004E-03  0.0000E+00  1.3330E-02  0.0000E+00  5.5588E-03
  4  0.0000E+00  3.9928E-03  9.5523E-03  4.3519E-03  8.8252E-03  2.4473E-03  0.0000E+00  5.7946E-03  1.5666E-02
  5  0.0000E+00  1.1996E-02  5.1157E-02  2.0341E-03  0.0000E+00  1.5328E-02  0.0000E+00  0.0000E+00  3.4356E-03
  6  1.8067E-01  1.9332E-02  2.3884E-02  3.7897E-02  0.0000E+00  7.4115E-02  3.2016E-02  1.3121E-03  1.8233E-02
  7  0.0000E+00  2.5207E-02  7.2736E-02  8.1663E-03  3.3362E-02  2.8781E-02  0.0000E+00  0.0000E+00  5.1499E-02
  8  0.0000E+00  2.8372E-02  7.4807E-02  9.1480E-02  0.0000E+00  0.0000E+00  0.0000E+00  0.0000E+00  1.9703E-02
  9  0.0000E+00  4.6680E-02  4.6433E-02  7.4249E-02  1.9489E-02  2.5286E-03  0.0000E+00  1.0072E-02  5.1309E-02
 10  0.0000E+00  5.7076E-02  1.0004E-01  5.9781E-02  7.4605E-02  0.0000E+00  4.1705E-02  2.3270E-02  8.3459E-02
 11  0.0000E+00  9.8208E-02  1.6781E-01  5.0766E-01  0.0000E+00  0.0000E+00  2.5200E-01  0.0000E+00  0.0000E+00
 12  0.0000E+00  1.2337E-01  9.2163E-02  2.3046E-01  1.0648E-01  0.0000E+00  6.2275E-01  0.0000E+00  0.0000E+00
 13  0.0000E+00  4.5705E-01  2.2185E-01  0.0000E+00  7.2210E-01  2.1556E-01  4.9295E-01  4.4158E-01  9.6983E-02
 14  0.0000E+00  1.4326E+00  0.0000E+00  0.0000E+00  0.0000E+00  0.0000E+00  2.5409E+00  0.0000E+00  3.8777E+00
 15  0.0000E+00  2.3456E+00  0.0000E+00  1.8265E+00  3.6290E+00  0.0000E+00  0.0000E+00  6.8015E-01  0.0000E+00
 16  5.9606E+01  3.5410E+00  0.0000E+00  1.3827E+01  5.9314E+00  9.0780E-02  5.1566E+00  7.4987E+00  0.0000E+00
 17  0.0000E+00  4.6255E+00  9.2877E+00  4.1012E+00  0.0000E+00  3.5960E-01  0.0000E+00  1.2078E+01  4.9827E+00
 18  9.2544E-03  1.1421E-02  0.0000E+00  0.0000E+00  1.0081E-02  0.0000E+00  5.1651E-02  2.9193E-03  1.8498E-02
 19  0.0000E+00  8.3049E-03  2.4640E-02  2.6258E-02  4.7960E-03  7.3587E-03  0.0000E+00  8.7013E-03  5.1693E-03
 20  0.0000E+00  4.7835E-03  0.0000E+00  1.9856E-03  1.5716E-02  3.0703E-03  0.0000E+00  1.5573E-02  8.0137E-03
 21  0.0000E+00  5.5147E-03  1.2155E-02  5.1318E-03  2.3506E-04  1.1698E-03  2.1841E-02  7.4683E-03  4.5253E-03
 22  0.0000E+00  1.1382E-02  4.3354E-02  2.0351E-03  1.6035E-02  1.7936E-02  5.1436E-02  3.4645E-02  2.4433E-02
 23  0.0000E+00  1.2000E-02  0.0000E+00  0.0000E+00  3.2803E-02  0.0000E+00  0.0000E+00  0.0000E+00  0.0000E+00
 24  8.4093E-03  2.8312E-02  1.4003E-02  1.0897E-02  5.4005E-02  1.7101E-01  2.7535E-02  9.8205E-02  9.1339E-02
 25  0.0000E+00  2.6998E-02  8.2148E-02  0.0000E+00  0.0000E+00  0.0000E+00  0.0000E+00  3.1026E-02  0.0000E+00
 26  1.7789E-01  4.8448E-02  2.0512E-02  0.0000E+00  6.5232E-02  1.1359E-01  7.6752E-02  2.4481E-02  0.0000E+00
 27  0.0000E+00  9.5579E-02  3.4312E-01  0.0000E+00  3.6936E-03  0.0000E+00  3.8420E-02  0.0000E+00  1.1673E-02
 28  0.0000E+00  3.0700E-01  9.0971E-01  0.0000E+00  6.9665E-01  4.4822E-01  2.9779E-01  6.3216E-01  2.0337E-01
 29  2.5010E-04  5.4232E-01  0.0000E+00  0.0000E+00  1.1949E+00  0.0000E+00  5.9343E-01  7.4225E-01  9.1150E-01
 30  0.0000E+00  8.3831E-01  2.3714E+00  8.0067E-01  7.8919E-01  9.6622E-01  0.0000E+00  0.0000E+00  5.6217E-01
 31  0.0000E+00  1.9200E+00  3.2121E+00  1.7506E+00  4.8604E+00  1.1088E+00  0.0000E+00  1.3219E+00  4.1835E+00
 32  2.0719E+00  2.6127E+00  2.1960E+00  5.6188E-01  2.2209E+00  0.0000E+00  5.6142E+00  3.0575E+00  6.2755E-01
 33  0.0000E+00  5.7905E+00  0.0000E+00  0.0000E+00  3.3745E+01  2.9003E+00  2.2535E+00  0.0000E+00  1.0365E+01
 34  3.0337E+01  8.4921E+00  9.0710E+00  7.6812E+00  1.0154E+01  7.7281E+00  2.4813E+01  0.0000E+00  2.2230E+01
 35  0.0000E+00  9.8723E-03  2.7232E-02  2.6087E-02  0.0000E+00  3.9598E-03  0.0000E+00  7.6127E-04  2.1629E-03
 36  4.1441E-03  2.0257E-01  8.2061E-02  3.4234E-02  1.0397E-01  1.0658E-01  1.1086E-01  9.2917E-02  5.2066E-02
 37  0.0000E+00  3.6881E-03  2.1723E-03  0.0000E+00  8.2759E-03  7.9743E-03  0.0000E+00  0.0000E+00  0.0000E+00
 38  0.0000E+00  1.3960E-02  5.8586E-02  0.0000E+00  1.3508E-02  3.3745E-02  1.9061E-02  2.3042E-02  2.2356E-02
 39  0.0000E+00  2.0736E-02  2.4728E-02  7.2873E-02  7.0005E-02  3.2195E-02  4.8657E-02  1.3098E-03  2.1806E-02
 40  1.1863E-02  2.8961E-02  0.0000E+00  0.0000E+00  1.1685E-01  3.4729E-02  4.2857E-02  4.0743E-03  2.5151E-02
 41  0.0000E+00  3.6787E-02  2.7068E-02  0.0000E+00  0.0000E+00  1.1333E-01  1.4355E-02  4.3692E-03  0.0000E+00
 42  1.8566E-01  1.1181E-01  0.0000E+00  1.4709E-01  1.3159E-01  2.4551E-01  3.9798E-01  5.0796E-03  2.8195E-02
 43  0.0000E+00  9.7723E-02  2.3766E-01  0.0000E+00  8.5609E-02  1.3651E-01  7.0320E-02  1.3411E-01  0.0000E+00
 44  0.0000E+00  2.4377E-01  9.4935E-01  0.0000E+00  3.1206E-01  7.5053E-01  2.3032E-02  0.0000E+00  2.3283E-01
 45  0.0000E+00  4.6087E-01  5.2429E-01  0.0000E+00  0.0000E+00  0.0000E+00  8.1265E-01  0.0000E+00  1.5619E+00
 46  2.7601E+00  7.8713E-01  6.0570E+00  1.5335E+00  4.4194E-01  4.9067E-02  3.3876E+00  9.8551E-01  5.4649E-01
 47  0.0000E+00  1.9410E+00  0.0000E+00  0.0000E+00  3.3638E+00  3.9651E+00  2.4550E+00  0.0000E+00  0.0000E+00
 48  0.0000E+00  2.5007E+00  0.0000E+00  1.7600E+00  0.0000E+00  9.1763E-01  0.0000E+00  1.1599E+01  2.6132E+00
 49  0.0000E+00  5.3971E+00  1.6814E+01  7.2707E-01  6.1095E-01  1.1930E+01  1.8090E+01  0.0000E+00  8.3762E+00
 50  0.0000E+00  1.4592E+01  3.1279E+01  3.9185E+01  4.7125E+00  1.9433E+00  0.0000E+00  1.9041E+01  0.0000E+00
 51  7.3664E-02  1.7159E-01  9.1429E-02  1.8704E-02  9.4507E-03  9.9503E-02  8.6823E-02  9.2562E-02  5.9939E-02
 52  2.1466E-03  4.0662E-03  6.3434E-03  0.0000E+00  8.2108E-03  1.7277E-03  9.1992E-03  8.9841E-03  0.0000E+00
 53  0.0000E+00  4.0040E-03  0.0000E+00  3.6798E-03  0.0000E+00  0.0000E+00  0.0000E+00  2.3274E-03  0.0000E+00
 54  3.8887E-02  1.4158E-02  5.7244E-02  6.4950E-03  9.8803E-02  5.6455E-03  6.9380E-03  0.0000E+00  5.0624E-04
 55  0.0000E+00  1.7290E-02  2.7124E-02  1.0767E-02  0.0000E+00  2.4942E-05  3.5356E-02  4.5083E-03  8.2374E-03
 56  0.0000E+00  2.9017E-02  0.0000E+00  0.0000E+00  2.0316E-02  2.2791E-02  0.0000E+00  5.9941E-02  6.4721E-03
 57  0.0000E+00  4.3085E-02  8.7356E-02  3.1035E-02  2.0295E-02  1.0656E-01  8.0456E-03  1.0242E-02  4.9854E-03
 58  0.0000E+00  6.3834E-02  7.5768E-02  1.5711E-02  5.2449E-02  0.0000E+00  0.0000E+00  0.0000E+00  2.3482E-02
 59  0.0000E+00  1.5219E-01  0.0000E+00  5.6265E-02  4.8502E-01  1.0849E-01  0.0000E+00  5.2418E-01  0.0000E+00
 60  0.0000E+00  2.9192E-01  6.7589E-01  2.6438E-01  3.9758E-01  2.5508E-01  1.7482E-01  6.5664E-01  3.2377E-01
 61  0.0000E+00  4.7032E-01  6.9081E-01  1.2499E-01  0.0000E+00  1.5104E+00  3.1432E+00  9.2807E-02  0.0000E+00
 62  0.0000E+00  1.3289E+00  7.9937E-01  1.5535E+00  4.4913E+00  3.1766E+00  1.8356E+00  0.0000E+00  8.4958E-02
 63  4.2787E+00  1.7331E+00  2.7106E+00  1.3562E+00  1.3682E+00  7.9608E-01  5.1694E+00  4.1268E+00  3.4853E+00
 64  0.0000E+00  4.3511E+00  1.7041E+00  0.0000E+00  1.3082E+01  0.0000E+00  5.0417E+00  6.8661E+00  4.5192E+00
 65  0.0000E+00  1.5128E+01  0.0000E+00  9.2094E+00  0.0000E+00  1.9937E+01  0.0000E+00  2.8948E+01  1.0819E+01
 66  0.0000E+00  1.6138E+01  8.5056E+00  1.2249E+01  5.5861E+00  3.9419E+01  1.5976E+01  0.0000E+00  1.8714E+01

# AV, chi2 & Mass for <> & i_chain = 1 ...  7 solutions
AV      -0.4456      0.1478     -0.3408     -0.8119     -0.4073     -0.3064     -0.4896     -0.5160     -0.7452
chi2 1.1460E-05  1.2429E-05  1.1824E-05  1.1825E-05  1.1829E-05  1.2047E-05  1.1782E-05  1.1860E-05  1.1846E-05
Mass 3.2597E-14  4.5342E-14  2.4402E-14  2.7195E-14  2.6724E-14  3.1566E-14  2.1979E-14  2.8363E-14  2.4521E-14
-179.46                                  [v0_min (km/s) before EX0s...]
 436.23                                  [vd_min (km/s) before EX0s...]


## Synthetic spectrum (Best Model) ##l_obs f_obs f_syn wei
 3478    [Nl_obs]
 3741.00    1.88649   1.03582    0.000
 3742.00    2.06154   1.03233    0.000
 3743.00    2.31251   1.02798    0.000
 3744.00    2.40804   1.02326    0.000
 3745.00    2.41301   1.01989   -1.000
 3746.00    2.48527   1.01676   -1.000
 3747.00    2.59170   1.01681   -1.000
 3748.00    2.38846   1.01803   -1.000
 3749.00    2.04905   1.02233   -1.000
 3750.00    1.18631   1.02876   -1.000
 3751.00    0.12599   1.03753   -1.000
 3752.00   -0.42234   1.04756    0.000
 3753.00   -0.80657   1.05747    0.000
 3754.00    0.20914   1.06739   -1.000
 3755.00    1.60000   1.07530   -1.000
 3756.00    2.17137   1.08173   -1.000
 3757.00    2.56286   1.08547   -1.000
 3758.00    2.20404   1.08676   -1.000
 3759.00    1.71423   1.08586   -1.000
 3760.00    1.10000   1.08270    0.063
 3761.00    0.46924   1.07835    0.030
 3762.00    0.33735   1.07219    0.022
 3763.00    0.25234   1.06578    0.018
 3764.00    0.53514   1.05889    0.018
 3765.00    0.83915   1.05354    0.018
 3766.00    0.33914   1.04919    0.018
 3767.00   -0.17126   1.04730    0.000
 3768.00    0.37289   1.04848    0.018
 3769.00    0.89055   1.05260    0.018
 3770.00    0.76475   1.05984    0.017
 3771.00    0.64758   1.07013    0.017
 3772.00    0.64365   1.08357    0.017
 3773.00    0.69434   1.09833    0.017
 3774.00    1.22447   1.11392    0.017
 3775.00    1.62124   1.12910    0.017
 3776.00    1.15334   1.14326    0.016
 3777.00    0.75519   1.15547    0.016
 3778.00    0.71010   1.16545    0.016
 3779.00    0.75648   1.17238    0.016
 3780.00    1.17731   1.17662    0.016
 3781.00    1.32981   1.17699    0.017
 3782.00    0.57221   1.17434    0.017
 3783.00   -0.06238   1.16818    0.000
 3784.00   -0.34514   1.15898    0.000
 3785.00   -0.29071   1.14686    0.000
 3786.00    0.58756   1.13176    0.017
 3787.00    1.09419   1.11541    0.017
 3788.00    0.81752   1.09730    0.018
 3789.00    0.71966   1.07928    0.018
 3790.00    0.94932   1.06158    0.017
 3791.00    1.54970   1.04552    0.017
 3792.00    2.74351   1.03169    0.018
 3793.00    2.76793   1.02034    0.018
 3794.00    1.14982   1.01293    0.017
 3795.00    0.17495   1.00914    0.017
 3796.00   -0.00484   1.01007    0.000
 3797.00   -0.08003   1.01469    0.000
 3798.00   -0.04126   1.02364    0.000
 3799.00    0.35714   1.03677    0.017
 3800.00    1.10113   1.05246    0.017
 3801.00    1.42655   1.06994    0.017
 3802.00    1.39730   1.08703    0.017
 3803.00    1.18631   1.10404    0.017
 3804.00    0.83972   1.11885    0.017
 3805.00    0.90688   1.13192    0.017
 3806.00    1.24527   1.14232    0.017
 3807.00    1.73193   1.15012    0.017
 3808.00    2.30368   1.15569    0.017
 3809.00    2.53959   1.15836    0.017
 3810.00    2.60763   1.15838    0.017
 3811.00    2.05055   1.15591    0.016
 3812.00    1.22313   1.15236    0.016
 3813.00    1.18563   1.14670    0.016
 3814.00    1.44108   1.14054    0.017
 3815.00    1.52176   1.13286    0.016
 3816.00    1.54750   1.12505    0.016
 3817.00    0.95772   1.11680    0.016
 3818.00    0.20647   1.10801    0.015
 3819.00    0.06383   1.09816    0.015
 3820.00    0.05159   1.08737    0.015
 3821.00    0.58787   1.07721    0.016
 3822.00    1.21724   1.06504    0.016
 3823.00    1.45547   1.05205    0.016
 3824.00    1.64352   1.03669    0.016
 3825.00    1.18084   1.02049    0.016
 3826.00    0.65975   1.00337    0.016
 3827.00    0.58713   0.98676    0.016
 3828.00    0.53861   0.97104    0.017
 3829.00    0.70192   0.95640    0.017
 3830.00    0.86681   0.94465    0.016
 3831.00    0.80709   0.93539    0.017
 3832.00    0.77221   0.92993    0.017
 3833.00    1.28916   0.92878    0.017
 3834.00    1.75357   0.93217    0.017
 3835.00    1.56469   0.93993    0.017
 3836.00    1.38077   0.95244    0.017
 3837.00    1.23881   0.96876    0.017
 3838.00    1.10601   0.98745    0.017
 3839.00    1.03074   1.00805    0.017
 3840.00    0.98211   1.02903    0.017
 3841.00    1.06494   1.04943    0.017
 3842.00    1.20784   1.06964    0.017
 3843.00    1.59117   1.08778    0.017
 3844.00    1.83156   1.10399    0.017
 3845.00    1.59676   1.11786    0.017
 3846.00    1.32875   1.12907    0.017
 3847.00    0.96750   1.13825    0.000
 3848.00    0.98296   1.14521    0.000
 3849.00    1.90321   1.15009    0.000
 3850.00    2.59411   1.15312    0.000
 3851.00    2.80934   1.15519    0.000
 3852.00    2.72335   1.15656    0.000
 3853.00    2.09407   1.15698    0.000
 3854.00    1.47510   1.15699    0.000
 3855.00    0.87242   1.15672    0.000
 3856.00    0.62113   1.15589    0.000
 3857.00    0.85631   1.15572    0.000
 3858.00    1.04841   1.15496    0.000
 3859.00    1.18804   1.15437    0.000
 3860.00    1.34624   1.15364    0.000
 3861.00    1.52441   1.15303    0.000
 3862.00    1.72402   1.15211    0.000
 3863.00    1.94395   1.15018    0.000
 3864.00    1.67588   1.14818    0.000
 3865.00    1.00014   1.14506    0.000
 3866.00    0.49787   1.14200    0.000
 3867.00    0.12317   1.13803    0.000
 3868.00    0.05343   1.13352    0.000
 3869.00    0.18066   1.12842    0.000
 3870.00    0.61506   1.12230    0.000
 3871.00    1.22306   1.11546    0.000
 3872.00    1.23743   1.10731    0.000
 3873.00    0.95980   1.09877    0.000
 3874.00    0.65897   1.08894    0.000
 3875.00    0.34828   1.07799    0.000
 3876.00    0.50349   1.06502    0.000
 3877.00    0.82840   1.05080    0.000
 3878.00    1.06695   1.03490    0.000
 3879.00    1.27888   1.01822    0.000
 3880.00    1.14084   1.00171    0.000
 3881.00    0.91296   0.98528    0.015
 3882.00    1.10142   0.97016    0.015
 3883.00    1.37692   0.95755    0.016
 3884.00    0.86529   0.94793    0.016
 3885.00    0.22386   0.94107    0.016
 3886.00    0.61199   0.93728    0.016
 3887.00    1.12761   0.93788    0.016
 3888.00    0.88130   0.94233    0.016
 3889.00    0.56977   0.95031    0.016
 3890.00    0.50396   0.96320    0.016
 3891.00    0.45039   0.97814    0.016
 3892.00    1.23969   0.99527    0.015
 3893.00    2.02947   1.01263    0.015
 3894.00    1.95898   1.03016    0.015
 3895.00    1.86804   1.04700    0.015
 3896.00    1.35903   1.06249    0.015
 3897.00    0.88267   1.07791    0.014
 3898.00    0.79240   1.09065    0.014
 3899.00    0.73541   1.10270    0.014
 3900.00    0.94941   1.11336    0.014
 3901.00    1.11141   1.12289    0.013
 3902.00    0.95574   1.13105    0.013
 3903.00    0.78358   1.13748    0.013
 3904.00    0.53208   1.14366    0.013
 3905.00    0.39794   1.14821    0.013
 3906.00    0.72346   1.15204    0.013
 3907.00    0.97698   1.15508    0.013
 3908.00    0.99582   1.15748    0.013
 3909.00    0.93733   1.15822    0.013
 3910.00    0.66561   1.15809    0.014
 3911.00    0.51117   1.15633    0.014
 3912.00    0.63368   1.15346    0.014
 3913.00    0.68892   1.14939    0.014
 3914.00    0.60685   1.14390    0.015
 3915.00    0.37083   1.13843    0.015
 3916.00   -0.13862   1.13089    0.000
 3917.00    0.00694   1.12330    0.015
 3918.00    1.17023   1.11440    0.016
 3919.00    1.92101   1.10434    0.016
 3920.00    2.10892   1.09421    0.016
 3921.00    1.92011   1.08325    0.016
 3922.00    1.27879   1.07266    0.016
 3923.00    0.74701   1.06141    0.016
 3924.00    0.33124   1.05036    0.015
 3925.00    0.39981   1.03963    0.015
 3926.00    0.92084   1.02894    0.016
 3927.00    1.01652   1.01999    0.015
 3928.00    0.76190   1.01258    0.015
 3929.00    0.51316   1.00701    0.015
 3930.00    0.26867   1.00375    0.015
 3931.00    0.57477   1.00242    0.015
 3932.00    1.23126   1.00338    0.015
 3933.00    1.20802   1.00645    0.015
 3934.00    0.80649   1.01145    0.015
 3935.00    0.87889   1.01857    0.015
 3936.00    1.18072   1.02710    0.015
 3937.00    0.94304   1.03642    0.015
 3938.00    0.47980   1.04656    0.015
 3939.00    0.47167   1.05682    0.015
 3940.00    0.62633   1.06660    0.015
 3941.00    1.10935   1.07540    0.015
 3942.00    1.69164   1.08363    0.015
 3943.00    1.51691   1.09109    0.015
 3944.00    1.15206   1.09717    0.015
 3945.00    1.03442   1.10204    0.015
 3946.00    0.96720   1.10577    0.015
 3947.00    1.18421   1.10778    0.015
 3948.00    1.44674   1.10781    0.015
 3949.00    0.99178   1.10578    0.015
 3950.00    0.45116   1.10203    0.015
 3951.00    0.33043   1.09638    0.015
 3952.00    0.24389   1.08794    0.015
 3953.00    0.95302   1.07705    0.015
 3954.00    1.69872   1.06308    0.016
 3955.00    1.95856   1.04671    0.015
 3956.00    2.20675   1.02797    0.015
 3957.00    2.16943   1.00676    0.015
 3958.00    2.12912   0.98422    0.015
 3959.00    2.03198   0.96011    0.015
 3960.00    1.89845   0.93515    0.000
 3961.00    1.35486   0.90965    0.000
 3962.00    0.91038   0.88550    0.000
 3963.00    1.24493   0.86458    0.000
 3964.00    1.48053   0.84750    0.000
 3965.00    1.12900   0.83520    0.000
 3966.00    0.88116   0.82764    0.000
 3967.00    1.12018   0.82503    0.000
 3968.00    1.25305   0.82800    0.000
 3969.00    0.97914   0.83608    0.000
 3970.00    0.89884   0.84966    0.000
 3971.00    1.43738   0.86853    0.000
 3972.00    1.79758   0.89099    0.000
 3973.00    1.67474   0.91546    0.000
 3974.00    1.48649   0.94088    0.000
 3975.00    1.14631   0.96608    0.000
 3976.00    0.87191   0.99067    0.000
 3977.00    0.72958   1.01424    0.000
 3978.00    0.92198   1.03629    0.000
 3979.00    1.69985   1.05640    0.000
 3980.00    2.05220   1.07368    0.000
 3981.00    1.75311   1.08947    0.015
 3982.00    1.57418   1.10190    0.015
 3983.00    1.55683   1.11277    0.015
 3984.00    1.54153   1.12241    0.015
 3985.00    1.52865   1.13016    0.015
 3986.00    1.62078   1.13719    0.015
 3987.00    1.82258   1.14175    0.015
 3988.00    1.75237   1.14645    0.015
 3989.00    1.43163   1.14944    0.014
 3990.00    1.01865   1.15143    0.014
 3991.00    0.53078   1.15348    0.014
 3992.00    0.67972   1.15492    0.014
 3993.00    1.28366   1.15641    0.014
 3994.00    1.51407   1.15652    0.014
 3995.00    1.51029   1.15683    0.014
 3996.00    1.44734   1.15690    0.014
 3997.00    1.35197   1.15628    0.014
 3998.00    1.22085   1.15526    0.014
 3999.00    1.07269   1.15500    0.014
 4000.00    0.90075   1.15490    0.014
 4001.00    0.71904   1.15433    0.014
 4002.00    0.93425   1.15385    0.014
 4003.00    1.28887   1.15370    0.014
 4004.00    1.59157   1.15376    0.014
 4005.00    1.87889   1.15319    0.014
 4006.00    1.85000   1.15401    0.014
 4007.00    1.74343   1.15507    0.015
 4008.00    1.84600   1.15623    0.015
 4009.00    1.99015   1.15719    0.015
 4010.00    1.55192   1.15763    0.015
 4011.00    1.02318   1.15851    0.015
 4012.00    1.33454   1.15826    0.015
 4013.00    1.74249   1.15791    0.015
 4014.00    1.17791   1.15680    0.015
 4015.00    0.53814   1.15513    0.014
 4016.00    1.00000   1.15290    0.015
 4017.00    1.50825   1.14908    0.015
 4018.00    0.98988   1.14509    0.015
 4019.00    0.49075   1.14090    0.015
 4020.00    1.24459   1.13722    0.015
 4021.00    1.94843   1.13369    0.015
 4022.00    1.77072   1.13077    0.015
 4023.00    1.62274   1.12814    0.015
 4024.00    1.79456   1.12546    0.015
 4025.00    1.90495   1.12383    0.015
 4026.00    1.54901   1.12304    0.015
 4027.00    1.17325   1.12457    0.015
 4028.00    0.68325   1.12666    0.015
 4029.00    0.30760   1.12925    0.015
 4030.00    0.45602   1.13191    0.014
 4031.00    0.69003   1.13424    0.014
 4032.00    1.24511   1.13737    0.014
 4033.00    1.54472   1.13962    0.014
 4034.00    1.04342   1.14225    0.014
 4035.00    0.65256   1.14491    0.014
 4036.00    0.55547   1.14657    0.014
 4037.00    0.52405   1.14765    0.014
 4038.00    0.64254   1.14724    0.014
 4039.00    0.76177   1.14647    0.014
 4040.00    0.88245   1.14578    0.014
 4041.00    1.00149   1.14469    0.014
 4042.00    1.11769   1.14457    0.014
 4043.00    1.05405   1.14404    0.014
 4044.00    0.71911   1.14282    0.014
 4045.00    0.53564   1.14133    0.014
 4046.00    0.55297   1.14026    0.014
 4047.00    0.64070   1.14043    0.014
 4048.00    0.81063   1.14023    0.014
 4049.00    0.84730   1.13975    0.014
 4050.00    0.74678   1.13881    0.014
 4051.00    0.77413   1.13736    0.014
 4052.00    0.91757   1.13542    0.014
 4053.00    0.97084   1.13381    0.014
 4054.00    0.95192   1.13234    0.014
 4055.00    1.08798   1.13009    0.014
 4056.00    1.33315   1.12757    0.014
 4057.00    1.33815   1.12461    0.014
 4058.00    1.19479   1.12192    0.014
 4059.00    1.04729   1.11924    0.014
 4060.00    0.89754   1.11723    0.014
 4061.00    0.89216   1.11544    0.014
 4062.00    0.95443   1.11297    0.014
 4063.00    1.15855   1.11033    0.014
 4064.00    1.41998   1.10785    0.014
 4065.00    1.50984   1.10650    0.014
 4066.00    1.54055   1.10513    0.014
 4067.00    1.34516   1.10342    0.014
 4068.00    1.08413   1.10269    0.014
 4069.00    0.98906   1.10186    0.014
 4070.00    0.93385   1.10014    0.014
 4071.00    1.21736   1.09857    0.014
 4072.00    1.56649   1.09758    0.014
 4073.00    1.58672   1.09830    0.015
 4074.00    1.55738   1.09894    0.015
 4075.00    1.49711   1.09897    0.014
 4076.00    1.43341   1.09926    0.014
 4077.00    1.01789   1.09879    0.014
 4078.00    0.57661   1.09890    0.014
 4079.00    0.36127   1.09929    0.014
 4080.00    0.15459   1.09955    0.014
 4081.00    0.31751   1.09934    0.014
 4082.00    0.49361   1.09746    0.014
 4083.00    1.08926   1.09405    0.014
 4084.00    1.66770   1.08931    0.014
 4085.00    1.96227   1.08331    0.014
 4086.00    2.19093   1.07637    0.014
 4087.00    1.74141   1.06745    0.014
 4088.00    1.37460   1.05610    0.014
 4089.00    1.61480   1.04240    0.014
 4090.00    1.72701   1.02702    0.014
 4091.00    1.12121   1.01135    0.014
 4092.00    0.58371   0.99465    0.000
 4093.00    0.35186   0.97816    0.000
 4094.00    0.27259   0.96183    0.000
 4095.00    0.75368   0.94585    0.000
 4096.00    1.23237   0.93170    0.000
 4097.00    1.70371   0.92096    0.000
 4098.00    1.92614   0.91496    0.000
 4099.00    1.49804   0.91176    0.000
 4100.00    1.11242   0.91151    0.000
 4101.00    0.82221   0.91389    0.000
 4102.00    0.77003   0.92004    0.000
 4103.00    1.18103   0.93067    0.000
 4104.00    1.42462   0.94312    0.000
 4105.00    1.38418   0.95697    0.000
 4106.00    1.32479   0.97110    0.000
 4107.00    1.23725   0.98508    0.000
 4108.00    1.33376   0.99876    0.000
 4109.00    1.67077   1.01168    0.000
 4110.00    1.59905   1.02377    0.000
 4111.00    1.05685   1.03414    0.000
 4112.00    0.80279   1.04344    0.000
 4113.00    0.84123   1.05096    0.013
 4114.00    1.07898   1.05695    0.013
 4115.00    1.49519   1.06206    0.013
 4116.00    1.39329   1.06578    0.013
 4117.00    0.88260   1.06947    0.013
 4118.00    0.98302   1.07180    0.013
 4119.00    1.50752   1.07343    0.013
 4120.00    1.52269   1.07503    0.013
 4121.00    1.22793   1.07566    0.013
 4122.00    1.09324   1.07622    0.013
 4123.00    1.04359   1.07650    0.013
 4124.00    1.24234   1.07700    0.020
 4125.00    1.55562   1.07698    0.089
 4126.00    1.81660   1.07673   -1.000
 4127.00    2.05680   1.07564   -1.000
 4128.00    1.52635   1.07538   -1.000
 4129.00    0.73506   1.07562   -1.000
 4130.00    0.46877   1.07514   -1.000
 4131.00    0.35185   1.07530   -1.000
 4132.00    0.95555   1.07349    0.032
 4133.00    1.72843   1.07315    0.014
 4134.00    1.63576   1.07272    0.013
 4135.00    1.37973   1.07187    0.013
 4136.00    0.84383   1.07168    0.013
 4137.00    0.26706   1.06903    0.013
 4138.00    0.98604   1.06715    0.013
 4139.00    1.84271   1.06566    0.014
 4140.00    1.15687   1.06536    0.014
 4141.00    0.36432   1.06531    0.013
 4142.00    0.43481   1.06366    0.013
 4143.00    0.53507   1.06229    0.013
 4144.00    0.85301   1.06147    0.013
 4145.00    1.16481   1.06261    0.014
 4146.00    1.25945   1.06414    0.013
 4147.00    1.34937   1.06469    0.013
 4148.00    1.36610   1.06566    0.013
 4149.00    1.36969   1.06609    0.013
 4150.00    1.24374   1.06732    0.013
 4151.00    1.12978   1.06916    0.014
 4152.00    1.10092   1.07047    0.013
 4153.00    1.03084   1.07229    0.013
 4154.00    0.73572   1.07315    0.013
 4155.00    0.47974   1.07416    0.013
 4156.00    0.39482   1.07494    0.013
 4157.00    0.32746   1.07537    0.013
 4158.00    0.32324   1.07627    0.013
 4159.00    0.44841   1.07593    0.013
 4160.00    0.96407   1.07512    0.013
 4161.00    1.27336   1.07383    0.013
 4162.00    1.05269   1.07172    0.013
 4163.00    0.79610   1.06983    0.013
 4164.00    0.46016   1.06769    0.013
 4165.00    0.33054   1.06503    0.013
 4166.00    0.59618   1.06228    0.013
 4167.00    0.83351   1.05835    0.013
 4168.00    1.02353   1.05523    0.013
 4169.00    0.92259   1.05358    0.012
 4170.00    0.39542   1.05171    0.012
 4171.00    0.14455   1.05013    0.012
 4172.00    0.24953   1.04756    0.012
 4173.00    0.43984   1.04613    0.013
 4174.00    0.72696   1.04634    0.013
 4175.00    0.75716   1.04660    0.013
 4176.00    0.53022   1.04687    0.012
 4177.00    0.63654   1.04591    0.012
 4178.00    1.03702   1.04621    0.013
 4179.00    1.16996   1.04695    0.012
 4180.00    1.09482   1.04780    0.012
 4181.00    0.94230   1.04806    0.012
 4182.00    0.73686   1.04666    0.012
 4183.00    0.76940   1.04701    0.012
 4184.00    0.94461   1.04703    0.012
 4185.00    1.02826   1.04661    0.012
 4186.00    1.06403   1.04542    0.012
 4187.00    1.05261   1.04318    0.012
 4188.00    1.01977   1.04235    0.012
 4189.00    1.04044   1.04078    0.012
 4190.00    1.08199   1.03843    0.012
 4191.00    0.98960   1.03571    0.012
 4192.00    0.85272   1.03317    0.012
 4193.00    0.81760   1.03118    0.012
 4194.00    0.81085   1.02884    0.012
 4195.00    0.93201   1.02694    0.012
 4196.00    1.08252   1.02543    0.012
 4197.00    1.09864   1.02448    0.012
 4198.00    1.09007   1.02454    0.012
 4199.00    1.08154   1.02480    0.012
 4200.00    1.07300   1.02560    0.012
 4201.00    1.31821   1.02743    0.012
 4202.00    1.58928   1.02930    0.012
 4203.00    0.93846   1.03191    0.012
 4204.00    0.22757   1.03424    0.012
 4205.00    0.27423   1.03551    0.012
 4206.00    0.34432   1.03777    0.012
 4207.00    0.51830   1.03998    0.012
 4208.00    0.69995   1.04148    0.012
 4209.00    1.10732   1.04245    0.012
 4210.00    1.48433   1.04147    0.013
 4211.00    1.41947   1.04098    0.012
 4212.00    1.30670   1.04119    0.012
 4213.00    0.74081   1.04014    0.012
 4214.00    0.28312   1.03845    0.012
 4215.00    0.56920   1.03521    0.012
 4216.00    0.84819   1.03199    0.012
 4217.00    1.08956   1.02914    0.012
 4218.00    1.23498   1.02633    0.012
 4219.00    0.97062   1.02326    0.012
 4220.00    0.67917   1.01920    0.012
 4221.00    0.29230   1.01511    0.012
 4222.00    0.14701   1.01139    0.012
 4223.00    0.71716   1.01002    0.012
 4224.00    1.05960   1.00930    0.012
 4225.00    0.82743   1.00769    0.012
 4226.00    0.71113   1.00645    0.012
 4227.00    0.84666   1.00574    0.012
 4228.00    0.88707   1.00664    0.012
 4229.00    0.74811   1.00891    0.012
 4230.00    0.59624   1.01043    0.012
 4231.00    0.42313   1.01125    0.012
 4232.00    0.36314   1.01270    0.012
 4233.00    0.46646   1.01414    0.012
 4234.00    0.64144   1.01648    0.012
 4235.00    0.90742   1.01823    0.011
 4236.00    1.13181   1.01910    0.011
 4237.00    1.30967   1.01998    0.011
 4238.00    1.41483   1.02016    0.011
 4239.00    1.44825   1.02135    0.012
 4240.00    1.27024   1.02139    0.012
 4241.00    0.90823   1.02082    0.011
 4242.00    0.85317   1.02029    0.012
 4243.00    1.03343   1.01867    0.012
 4244.00    1.12152   1.01797    0.012
 4245.00    1.14751   1.01586    0.012
 4246.00    1.23192   1.01418    0.012
 4247.00    1.35083   1.01386    0.012
 4248.00    1.25029   1.01155    0.012
 4249.00    1.03677   1.00975    0.012
 4250.00    1.02758   1.00758    0.012
 4251.00    1.10954   1.00646    0.012
 4252.00    1.03732   1.00770    0.012
 4253.00    0.90597   1.00654    0.012
 4254.00    0.41851   1.00521    0.012
 4255.00   -0.18499   1.00419    0.000
 4256.00   -0.01792   1.00364    0.000
 4257.00    0.35949   1.00487    0.012
 4258.00    0.81650   1.00464    0.012
 4259.00    1.29134   1.00342    0.012
 4260.00    0.95366   1.00216    0.012
 4261.00    0.47066   1.00049    0.012
 4262.00    0.40772   0.99920    0.012
 4263.00    0.40225   0.99834    0.012
 4264.00    0.54449   0.99609    0.012
 4265.00    0.70116   0.99329    0.012
 4266.00    0.54911   0.99054    0.011
 4267.00    0.37818   0.98765    0.011
 4268.00    0.50597   0.98699    0.011
 4269.00    0.64157   0.98515    0.011
 4270.00    0.72825   0.98242    0.011
 4271.00    0.80469   0.98140    0.011
 4272.00    0.61041   0.98016    0.011
 4273.00    0.44863   0.98105    0.011
 4274.00    0.73358   0.98092    0.011
 4275.00    1.01422   0.97867    0.011
 4276.00    1.25565   0.97892    0.011
 4277.00    1.44633   0.97867    0.012
 4278.00    1.29908   0.97875    0.011
 4279.00    1.17352   0.97790    0.011
 4280.00    1.16022   0.97429    0.011
 4281.00    1.13817   0.97277    0.012
 4282.00    1.07954   0.97143   -2.000
 4283.00    1.03490   0.96953   -2.000
 4284.00    1.03849   0.96622   -2.000
 4285.00    1.04470   0.96155   -2.000
 4286.00    1.05856   0.95857   -2.000
 4287.00    1.03115   0.95600   -2.000
 4288.00    0.90137   0.95340   -2.000
 4289.00    0.85445   0.94810   -2.000
 4290.00    0.98468   0.94289   -2.000
 4291.00    0.98968   0.93968   -2.000
 4292.00    0.76216   0.93547   -2.000
 4293.00    0.59811   0.93185   -2.000
 4294.00    0.53699   0.92577   -2.000
 4295.00    0.57476   0.91990   -2.000
 4296.00    0.75320   0.91711   -2.000
 4297.00    0.82232   0.91254   -2.000
 4298.00    0.75460   0.90859    0.012
 4299.00    0.63456   0.90493    0.012
 4300.00    0.45679   0.90136    0.012
 4301.00    0.55154   0.90128    0.011
 4302.00    0.91143   0.90054    0.012
 4303.00    0.97258   0.89995    0.012
 4304.00    0.77741   0.90177    0.011
 4305.00    0.79126   0.90414    0.011
 4306.00    0.96307   0.90893    0.011
 4307.00    0.70197   0.91389    0.012
 4308.00    0.15340   0.91838    0.012
 4309.00    0.18406   0.92453    0.011
 4310.00    0.55157   0.93086    0.011
 4311.00    0.57436   0.93805    0.011
 4312.00    0.42246   0.94455    0.012
 4313.00    0.34114   0.94913    0.011
 4314.00    0.29080   0.95362    0.011
 4315.00    0.57671   0.95685    0.011
 4316.00    0.98929   0.95964    0.011
 4317.00    1.02030   0.96188    0.011
 4318.00    0.92933   0.96112    0.011
 4319.00    0.78419   0.95985    0.011
 4320.00    0.62457   0.95713    0.012
 4321.00    0.65743   0.95360    0.011
 4322.00    0.73240   0.95125    0.011
 4323.00    0.72700   0.94641    0.011
 4324.00    0.70762   0.94060    0.012
 4325.00    0.93974   0.93361    0.012
 4326.00    1.20512   0.92583    0.012
 4327.00    0.95291   0.91901    0.012
 4328.00    0.65232   0.91054    0.011
 4329.00    0.65947   0.90054    0.011
 4330.00    0.68421   0.88913    0.000
 4331.00    0.89603   0.87819    0.000
 4332.00    1.10843   0.86782    0.000
 4333.00    0.88778   0.85750    0.000
 4334.00    0.67698   0.84809    0.000
 4335.00    0.70264   0.83850    0.000
 4336.00    0.73865   0.83218    0.000
 4337.00    0.90936   0.82882    0.000
 4338.00    1.05793   0.82676    0.000
 4339.00    1.01299   0.82778    0.000
 4340.00    0.96326   0.83016    0.000
 4341.00    0.88260   0.83525    0.000
 4342.00    0.80517   0.84377    0.000
 4343.00    0.74406   0.85275    0.000
 4344.00    0.70595   0.86273    0.000
 4345.00    0.76172   0.87334    0.000
 4346.00    0.78789   0.88329    0.000
 4347.00    0.71387   0.89410    0.000
 4348.00    0.78167   0.90521    0.000
 4349.00    1.25411   0.91526    0.000
 4350.00    1.43121   0.92434    0.000
 4351.00    0.88826   0.93184    0.011
 4352.00    0.46222   0.93903    0.011
 4353.00    0.28207   0.94672    0.011
 4354.00    0.34252   0.95325    0.011
 4355.00    0.84282   0.95844    0.011
 4356.00    1.08738   0.96293    0.011
 4357.00    0.92333   0.96708    0.011
 4358.00    0.87715   0.97048    0.011
 4359.00    0.99622   0.97300    0.011
 4360.00    0.96602   0.97506    0.014
 4361.00    0.75164   0.97657    0.042
 4362.00    0.63116   0.97713   -1.000
 4363.00    0.61280   0.97653   -1.000
 4364.00    0.54959   0.97583   -1.000
 4365.00    0.44337   0.97501   -1.000
 4366.00    0.47411   0.97339   -1.000
 4367.00    0.62072   0.97110   -1.000
 4368.00    0.74722   0.96860    0.037
 4369.00    0.85874   0.96621    0.014
 4370.00    0.84908   0.96307    0.011
 4371.00    0.76014   0.95997    0.011
 4372.00    0.71505   0.95720    0.011
 4373.00    0.69508   0.95407    0.011
 4374.00    0.88530   0.95025    0.011
 4375.00    1.18035   0.94571    0.011
 4376.00    1.28210   0.94288    0.011
 4377.00    1.30043   0.94039    0.011
 4378.00    1.02626   0.93667    0.011
 4379.00    0.64386   0.93291    0.011
 4380.00    0.57388   0.92971    0.011
 4381.00    0.60187   0.92917    0.011
 4382.00    0.44315   0.92820    0.011
 4383.00    0.23557   0.92596    0.011
 4384.00    0.21742   0.92587    0.011
 4385.00    0.23972   0.92676    0.011
 4386.00    0.69964   0.92930    0.011
 4387.00    1.23357   0.93120    0.011
 4388.00    0.92101   0.93205    0.011
 4389.00    0.50031   0.93527    0.011
 4390.00    0.72648   0.93770    0.011
 4391.00    1.01037   0.94014    0.011
 4392.00    0.99435   0.94312    0.011
 4393.00    0.96236   0.94480    0.011
 4394.00    0.66119   0.94674    0.011
 4395.00    0.36057   0.94686    0.011
 4396.00    0.53326   0.94697    0.011
 4397.00    0.70036   0.94918    0.011
 4398.00    0.74445   0.94978    0.011
 4399.00    0.78761   0.94890    0.011
 4400.00    0.81922   0.94765    0.011
 4401.00    0.84788   0.94752    0.010
 4402.00    0.85158   0.94937    0.010
 4403.00    0.81743   0.94997    0.011
 4404.00    0.54598   0.94870    0.011
 4405.00    0.32342   0.94879    0.011
 4406.00    0.34133   0.95059    0.011
 4407.00    0.37797   0.95218    0.010
 4408.00    0.48942   0.95325    0.010
 4409.00    0.55553   0.95309    0.010
 4410.00    0.47127   0.95405    0.010
 4411.00    0.44004   0.95649    0.010
 4412.00    0.55735   0.95720    0.010
 4413.00    0.66845   0.95825    0.010
 4414.00    0.76464   0.95861    0.010
 4415.00    0.86173   0.95850    0.010
 4416.00    0.96068   0.96026    0.010
 4417.00    1.11983   0.95997    0.010
 4418.00    1.38735   0.96009    0.011
 4419.00    1.42660   0.96090    0.011
 4420.00    1.10651   0.96007    0.010
 4421.00    0.79555   0.96023    0.010
 4422.00    0.49721   0.95853    0.010
 4423.00    0.48221   0.95781    0.010
 4424.00    0.81184   0.95880    0.010
 4425.00    0.99254   0.95704    0.010
 4426.00    1.01356   0.95618    0.010
 4427.00    1.01584   0.95481    0.010
 4428.00    1.00040   0.95388    0.010
 4429.00    1.05887   0.95451    0.010
 4430.00    1.17898   0.95239    0.010
 4431.00    1.11079   0.95196    0.010
 4432.00    0.90435   0.95290    0.011
 4433.00    0.73314   0.95241    0.011
 4434.00    0.58462   0.95250    0.010
 4435.00    0.74468   0.95181    0.011
 4436.00    1.07879   0.95214    0.011
 4437.00    0.83573   0.95364    0.011
 4438.00    0.30931   0.95384    0.011
 4439.00    0.22082   0.95392    0.010
 4440.00    0.31816   0.95443    0.010
 4441.00    0.61990   0.95446    0.011
 4442.00    0.99591   0.95366    0.011
 4443.00    1.06488   0.95346    0.011
 4444.00    1.03943   0.95322    0.011
 4445.00    0.99453   0.95248    0.011
 4446.00    0.94465   0.95127    0.011
 4447.00    0.94364   0.94845    0.011
 4448.00    0.95281   0.94670    0.011
 4449.00    1.23810   0.94528    0.011
 4450.00    1.56877   0.94225    0.011
 4451.00    1.15017   0.93985    0.010
 4452.00    0.63921   0.93778    0.010
 4453.00    0.53389   0.93531    0.010
 4454.00    0.46307   0.93279    0.010
 4455.00    0.83119   0.93059    0.010
 4456.00    1.22097   0.92904    0.010
 4457.00    1.34069   0.92807    0.010
 4458.00    1.45328   0.92696    0.011
 4459.00    1.38831   0.92559    0.011
 4460.00    1.31450   0.92569    0.011
 4461.00    1.06163   0.92547    0.000
 4462.00    0.80088   0.92499    0.000
 4463.00    0.44741   0.92571    0.000
 4464.00    0.16299   0.92645    0.000
 4465.00    0.43861   0.92797    0.000
 4466.00    0.67781   0.92896    0.000
 4467.00    0.69530   0.92976    0.000
 4468.00    0.70603   0.93182    0.000
 4469.00    0.68428   0.93391    0.000
 4470.00    0.66863   0.93621    0.000
 4471.00    0.67675   0.93774    0.000
 4472.00    0.69239   0.93928    0.000
 4473.00    0.73246   0.94206    0.000
 4474.00    0.75337   0.94423    0.000
 4475.00    0.72157   0.94565    0.000
 4476.00    0.70976   0.94677    0.000
 4477.00    0.74506   0.94813    0.000
 4478.00    0.83899   0.94993    0.000
 4479.00    1.05234   0.95102    0.000
 4480.00    1.22335   0.95097    0.000
 4481.00    1.31930   0.95075    0.000
 4482.00    1.19767   0.95136    0.010
 4483.00    0.73861   0.95232    0.010
 4484.00    0.55146   0.95281    0.010
 4485.00    0.73465   0.95260    0.010
 4486.00    0.68970   0.95214    0.010
 4487.00    0.37118   0.95266    0.010
 4488.00    0.33863   0.95281    0.010
 4489.00    0.60840   0.95259    0.010
 4490.00    0.78167   0.95339    0.010
 4491.00    0.86495   0.95420    0.010
 4492.00    0.78293   0.95558    0.010
 4493.00    0.56501   0.95630    0.010
 4494.00    0.47187   0.95667    0.010
 4495.00    0.46901   0.95903    0.010
 4496.00    0.65589   0.96062    0.010
 4497.00    0.96330   0.96220    0.010
 4498.00    1.04687   0.96429    0.010
 4499.00    1.00610   0.96542    0.010
 4500.00    0.98963   0.96738    0.010
 4501.00    0.98490   0.96798    0.010
 4502.00    1.08282   0.96835    0.010
 4503.00    1.22358   0.97011    0.010
 4504.00    1.07317   0.96980    0.010
 4505.00    0.81885   0.96939    0.010
 4506.00    0.77814   0.96866    0.010
 4507.00    0.80184   0.96676    0.010
 4508.00    0.73410   0.96642    0.010
 4509.00    0.64346   0.96434    0.010
 4510.00    0.76686   0.96154    0.010
 4511.00    0.93378   0.96023    0.010
 4512.00    0.98446   0.95707    0.010
 4513.00    1.01661   0.95487    0.010
 4514.00    0.82093   0.95192    0.010
 4515.00    0.59817   0.94748    0.010
 4516.00    0.69410   0.94610    0.010
 4517.00    0.81581   0.94259    0.010
 4518.00    0.95605   0.93805    0.010
 4519.00    1.09714   0.93544    0.010
 4520.00    1.18284   0.93107    0.010
 4521.00    1.26311   0.92852    0.010
 4522.00    1.10168   0.92526    0.010
 4523.00    0.94242   0.92040    0.010
 4524.00    0.82398   0.91925    0.010
 4525.00    0.69687   0.91639    0.010
 4526.00    0.47259   0.91324    0.010
 4527.00    0.31861   0.91192    0.010
 4528.00    0.71480   0.90957    0.010
 4529.00    1.04001   0.91018    0.010
 4530.00    0.94557   0.91006    0.010
 4531.00    0.85910   0.90872    0.010
 4532.00    0.80992   0.91007    0.010
 4533.00    0.78346   0.90957    0.010
 4534.00    0.84384   0.91030    0.010
 4535.00    0.90372   0.91211    0.010
 4536.00    0.96202   0.91155    0.010
 4537.00    1.00070   0.91328    0.010
 4538.00    0.98633   0.91435    0.010
 4539.00    0.94465   0.91415    0.010
 4540.00    0.83970   0.91544    0.010
 4541.00    0.75442   0.91417    0.010
 4542.00    0.70859   0.91449    0.010
 4543.00    0.65810   0.91695    0.010
 4544.00    0.59948   0.91569    0.010
 4545.00    0.60837   0.91566    0.010
 4546.00    0.72044   0.91666    0.010
 4547.00    0.66017   0.91636    0.010
 4548.00    0.36857   0.91806    0.010
 4549.00    0.22928   0.91827    0.010
 4550.00    0.27003   0.91854    0.000
 4551.00    0.58008   0.92154    0.000
 4552.00    1.17083   0.92196    0.000
 4553.00    1.30513   0.92283    0.000
 4554.00    1.01974   0.92535    0.000
 4555.00    0.81634   0.92556    0.000
 4556.00    0.67940   0.92709    0.000
 4557.00    0.67738   0.92905    0.000
 4558.00    0.77157   0.92937    0.000
 4559.00    0.74278   0.93125    0.000
 4560.00    0.63704   0.93144    0.000
 4561.00    0.74330   0.93133    0.000
 4562.00    0.96552   0.93329    0.000
 4563.00    0.86063   0.93197    0.000
 4564.00    0.60025   0.93134    0.000
 4565.00    0.53199   0.93275    0.000
 4566.00    0.54254   0.93177    0.000
 4567.00    0.64172   0.93170    0.000
 4568.00    0.77195   0.93107    0.000
 4569.00    0.77641   0.92957    0.000
 4570.00    0.74370   0.93008    0.000
 4571.00    0.77113   0.92826    0.000
 4572.00    0.81329   0.92598    0.000
 4573.00    0.73614   0.92625    0.000
 4574.00    0.63533   0.92527    0.000
 4575.00    0.75597   0.92326    0.000
 4576.00    0.91089   0.92207    0.000
 4577.00    0.85510   0.92094    0.000
 4578.00    0.77520   0.91971    0.000
 4579.00    0.71841   0.91876    0.000
 4580.00    0.66340   0.91748    0.000
 4581.00    0.98463   0.91653    0.000
 4582.00    1.32152   0.91666    0.000
 4583.00    0.91111   0.91568    0.000
 4584.00    0.50068   0.91453    0.000
 4585.00    0.36742   0.91486    0.000
 4586.00    0.25549   0.91424    0.000
 4587.00    0.51634   0.91359    0.000
 4588.00    0.74046   0.91389    0.000
 4589.00    0.57155   0.91314    0.000
 4590.00    0.44042   0.91292    0.000
 4591.00    0.59490   0.91323    0.000
 4592.00    0.67471   0.91208    0.000
 4593.00    0.32532   0.91234    0.000
 4594.00    0.11487   0.91292    0.000
 4595.00    0.53925   0.91229    0.000
 4596.00    0.91357   0.91327    0.000
 4597.00    1.10065   0.91361    0.000
 4598.00    1.21772   0.91381    0.000
 4599.00    1.11588   0.91542    0.000
 4600.00    1.00796   0.91566    0.000
 4601.00    0.88393   0.91679    0.000
 4602.00    0.85113   0.91823    0.000
 4603.00    1.02623   0.91875    0.000
 4604.00    1.07593   0.92059    0.000
 4605.00    0.87818   0.92115    0.000
 4606.00    0.65059   0.92207    0.000
 4607.00    0.37167   0.92377    0.000
 4608.00    0.37883   0.92348    0.000
 4609.00    0.81674   0.92480    0.000
 4610.00    1.05714   0.92563    0.000
 4611.00    1.03620   0.92463    0.000
 4612.00    0.89899   0.92589    0.000
 4613.00    0.62627   0.92576    0.000
 4614.00    0.56025   0.92503    0.000
 4615.00    0.70666   0.92598    0.000
 4616.00    0.67062   0.92488    0.000
 4617.00    0.46919   0.92450    0.000
 4618.00    0.47257   0.92478    0.000
 4619.00    0.63959   0.92303    0.000
 4620.00    0.52009   0.92273    0.000
 4621.00    0.19920   0.92244    0.000
 4622.00    0.25029   0.92060    0.000
 4623.00    0.53074   0.91989    0.000
 4624.00    0.69728   0.91890    0.000
 4625.00    0.80248   0.91723    0.000
 4626.00    0.89747   0.91551    0.000
 4627.00    0.98769   0.91378    0.000
 4628.00    0.89859   0.91263    0.000
 4629.00    0.73720   0.91035    0.000
 4630.00    0.78253   0.90801    0.000
 4631.00    0.89898   0.90691    0.000
 4632.00    1.01269   0.90461    0.000
 4633.00    1.12562   0.90241    0.000
 4634.00    1.15656   0.90064    0.000
 4635.00    1.16786   0.89807    0.000
 4636.00    1.05082   0.89660    0.000
 4637.00    0.90898   0.89455    0.000
 4638.00    0.74378   0.89206    0.000
 4639.00    0.57508   0.89121    0.000
 4640.00    0.56486   0.88915    0.000
 4641.00    0.57208   0.88757    0.000
 4642.00    0.81937   0.88756    0.000
 4643.00    1.08411   0.88542    0.000
 4644.00    0.88188   0.88455    0.000
 4645.00    0.66199   0.88524    0.000
 4646.00    0.80055   0.88384    0.000
 4647.00    0.93304   0.88408    0.000
 4648.00    0.77326   0.88493    0.000
 4649.00    0.62389   0.88496    0.000
 4650.00    0.64460   0.88648    0.000
 4651.00    0.64225   0.88665    0.000
 4652.00    0.40386   0.88681    0.000
 4653.00    0.22793   0.88841    0.000
 4654.00    0.50843   0.88817    0.000
 4655.00    0.72295   0.88798    0.000
 4656.00    0.56858   0.88811    0.000
 4657.00    0.46524   0.88768    0.000
 4658.00    0.58952   0.88743    0.000
 4659.00    0.72843   0.88634    0.000
 4660.00    0.92093   0.88540    0.000
 4661.00    1.03203   0.88427    0.000
 4662.00    0.89339   0.88272    0.000
 4663.00    0.82435   0.88161    0.000
 4664.00    0.93681   0.87990    0.000
 4665.00    0.97643   0.87935    0.000
 4666.00    0.85282   0.87906    0.000
 4667.00    0.79615   0.87720    0.000
 4668.00    0.86952   0.87706    0.000
 4669.00    0.94774   0.87733    0.000
 4670.00    1.03417   0.87640    0.000
 4671.00    1.00948   0.87641    0.000
 4672.00    0.81990   0.87641    0.000
 4673.00    0.70567   0.87602    0.000
 4674.00    0.68972   0.87557    0.000
 4675.00    0.60030   0.87487    0.000
 4676.00    0.42648   0.87471    0.000
 4677.00    0.44057   0.87439    0.000
 4678.00    0.64507   0.87376    0.000
 4679.00    0.75461   0.87309    0.000
 4680.00    0.77926   0.87271    0.000
 4681.00    0.75644   0.87280    0.000
 4682.00    0.69623   0.87207    0.000
 4683.00    0.67575   0.87212    0.000
 4684.00    0.68279   0.87299    0.000
 4685.00    0.78062   0.87254    0.000
 4686.00    0.93361   0.87292    0.000
 4687.00    0.96075   0.87351    0.000
 4688.00    0.92116   0.87315    0.000
 4689.00    0.95880   0.87400    0.000
 4690.00    1.03199   0.87421    0.000
 4691.00    1.06012   0.87342    0.000
 4692.00    1.07040   0.87344    0.000
 4693.00    1.07936   0.87309    0.000
 4694.00    1.08787   0.87250    0.000
 4695.00    1.13112   0.87141    0.000
 4696.00    1.18422   0.87011    0.000
 4697.00    1.02262   0.86973    0.000
 4698.00    0.81076   0.86807    0.000
 4699.00    0.73368   0.86631    0.000
 4700.00    0.68197   0.86614    0.000
 4701.00    0.72686   0.86514    0.000
 4702.00    0.78580   0.86423    0.000
 4703.00    0.83282   0.86373    0.000
 4704.00    0.87858   0.86312    0.000
 4705.00    0.74092   0.86397    0.000
 4706.00    0.59066   0.86420    0.000
 4707.00    0.46247   0.86381    0.000
 4708.00    0.33503   0.86563    0.000
 4709.00    0.46241   0.86661    0.000
 4710.00    0.59533   0.86699    0.000
 4711.00    0.89607   0.86912    0.000
 4712.00    1.17550   0.87038    0.000
 4713.00    1.12780   0.87132    0.000
 4714.00    1.07538   0.87292    0.000
 4715.00    0.97670   0.87383    0.000
 4716.00    0.88601   0.87466    0.000
 4717.00    0.85189   0.87551    0.000
 4718.00    0.83642   0.87579    0.000
 4719.00    0.92234   0.87565    0.000
 4720.00    0.97514   0.87541    0.000
 4721.00    0.88360   0.87527    0.000
 4722.00    0.81899   0.87409    0.000
 4723.00    0.85101   0.87308    0.000
 4724.00    0.90872   0.87268    0.000
 4725.00    1.04378   0.87099    0.000
 4726.00    1.03307   0.87012    0.000
 4727.00    0.64887   0.86967    0.000
 4728.00    0.47354   0.86786    0.000
 4729.00    0.75867   0.86797    0.000
 4730.00    0.92390   0.86799    0.000
 4731.00    0.85994   0.86653    0.000
 4732.00    0.81070   0.86785    0.000
 4733.00    0.78603   0.86811    0.000
 4734.00    0.79920   0.86693    0.000
 4735.00    0.86772   0.86900    0.000
 4736.00    0.93715   0.86944    0.000
 4737.00    1.00774   0.86867    0.000
 4738.00    0.89977   0.87044    0.000
 4739.00    0.58954   0.87078    0.000
 4740.00    0.49397   0.87079    0.000
 4741.00    0.61285   0.87169    0.000
 4742.00    0.80537   0.87112    0.000
 4743.00    1.06277   0.87145    0.000
 4744.00    0.93091   0.87185    0.000
 4745.00    0.49685   0.87036    0.000
 4746.00    0.40519   0.87008    0.000
 4747.00    0.54725   0.86986    0.000
 4748.00    0.73283   0.86794    0.000
 4749.00    0.94445   0.86678    0.000
 4750.00    0.93062   0.86574    0.000
 4751.00    0.79911   0.86361    0.000
 4752.00    0.80666   0.86202    0.000
 4753.00    0.87717   0.86027    0.000
 4754.00    0.88447   0.85811    0.000
 4755.00    0.86715   0.85667    0.000
 4756.00    0.77800   0.85474    0.000
 4757.00    0.66504   0.85293    0.000
 4758.00    0.68684   0.85184    0.000
 4759.00    0.74610   0.85002    0.000
 4760.00    0.59990   0.84901    0.000
 4761.00    0.40669   0.84876    0.008
 4762.00    0.64549   0.84731    0.008
 4763.00    0.96341   0.84699    0.008
 4764.00    0.89260   0.84774    0.008
 4765.00    0.76705   0.84712    0.009
 4766.00    0.68096   0.84738    0.008
 4767.00    0.59887   0.84862    0.008
 4768.00    0.70683   0.84865    0.008
 4769.00    0.82707   0.84891    0.009
 4770.00    0.77193   0.84989    0.009
 4771.00    0.71178   0.85042    0.008
 4772.00    0.80262   0.85021    0.008
 4773.00    0.88846   0.85024    0.008
 4774.00    0.82958   0.85080    0.008
 4775.00    0.78008   0.85039    0.008
 4776.00    0.86602   0.84979    0.008
 4777.00    0.93851   0.84953    0.008
 4778.00    0.88453   0.84892    0.008
 4779.00    0.83366   0.84872    0.008
 4780.00    0.80414   0.84759    0.008
 4781.00    0.78960   0.84702    0.008
 4782.00    0.85435   0.84792    0.008
 4783.00    0.90055   0.84627    0.008
 4784.00    0.86772   0.84591    0.008
 4785.00    0.82936   0.84779    0.008
 4786.00    0.77156   0.84641    0.008
 4787.00    0.72958   0.84649    0.008
 4788.00    0.73431   0.84845    0.008
 4789.00    0.70157   0.84768    0.008
 4790.00    0.57447   0.84810    0.008
 4791.00    0.53482   0.84935    0.008
 4792.00    0.68484   0.84904    0.008
 4793.00    0.73870   0.84941    0.008
 4794.00    0.61158   0.84967    0.008
 4795.00    0.58742   0.84946    0.008
 4796.00    0.73246   0.84940    0.008
 4797.00    0.79766   0.84894    0.008
 4798.00    0.74783   0.84863    0.008
 4799.00    0.70880   0.84817    0.008
 4800.00    0.68346   0.84766    0.008
 4801.00    0.70581   0.84734    0.008
 4802.00    0.78142   0.84656    0.008
 4803.00    0.82979   0.84637    0.008
 4804.00    0.85134   0.84618    0.008
 4805.00    0.85088   0.84523    0.008
 4806.00    0.83131   0.84522    0.008
 4807.00    0.84438   0.84535    0.008
 4808.00    0.88240   0.84480    0.008
 4809.00    0.96307   0.84463    0.008
 4810.00    1.07242   0.84476    0.008
 4811.00    1.03076   0.84456    0.008
 4812.00    0.90011   0.84404    0.008
 4813.00    0.78039   0.84402    0.008
 4814.00    0.66628   0.84362    0.008
 4815.00    0.80188   0.84259    0.008
 4816.00    1.04866   0.84252    0.008
 4817.00    1.12438   0.84143    0.008
 4818.00    1.13467   0.83995    0.008
 4819.00    1.09638   0.83998    0.008
 4820.00    1.04230   0.83804    0.008
 4821.00    0.92464   0.83631    0.008
 4822.00    0.78966   0.83643    0.008
 4823.00    0.71596   0.83420    0.008
 4824.00    0.65596   0.83266    0.008
 4825.00    0.67151   0.83247    0.008
 4826.00    0.70052   0.83024    0.008
 4827.00    0.73509   0.82939    0.008
 4828.00    0.77042   0.82878    0.008
 4829.00    0.77008   0.82630    0.008
 4830.00    0.76626   0.82580    0.008
 4831.00    0.83049   0.82506    0.008
 4832.00    0.89884   0.82265    0.008
 4833.00    0.92886   0.82182    0.008
 4834.00    0.95703   0.82058    0.009
 4835.00    0.83444   0.81846    0.008
 4836.00    0.71430   0.81706    0.008
 4837.00    0.65838   0.81459    0.008
 4838.00    0.60678   0.81226    0.008
 4839.00    0.61429   0.81031    0.008
 4840.00    0.61800   0.80632    0.008
 4841.00    0.58736   0.80290    0.008
 4842.00    0.56935   0.79984    0.008
 4843.00    0.63509   0.79423    0.008
 4844.00    0.71105   0.78897    0.008
 4845.00    0.83972   0.78381    0.008
 4846.00    0.94314   0.77642    0.008
 4847.00    0.94145   0.76955    0.008
 4848.00    0.89805   0.76241    0.000
 4849.00    0.71105   0.75307    0.000
 4850.00    0.58913   0.74516    0.000
 4851.00    0.65596   0.73769    0.000
 4852.00    0.69745   0.72757    0.000
 4853.00    0.67623   0.71994    0.000
 4854.00    0.67274   0.71435    0.000
 4855.00    0.70706   0.70576    0.000
 4856.00    0.76442   0.70062    0.000
 4857.00    0.86447   0.69878    0.000
 4858.00    0.95392   0.69356    0.000
 4859.00    1.02620   0.69267    0.000
 4860.00    1.00553   0.69592    0.000
 4861.00    0.85287   0.69535    0.000
 4862.00    0.86031   0.69842    0.000
 4863.00    1.06776   0.70565    0.000
 4864.00    1.11264   0.70963    0.000
 4865.00    0.97852   0.71510    0.000
 4866.00    0.88250   0.72323    0.000
 4867.00    0.82350   0.72966    0.000
 4868.00    0.91933   0.73588    0.000
 4869.00    1.14779   0.74284    0.000
 4870.00    1.05086   0.74979    0.000
 4871.00    0.70850   0.75582    0.000
 4872.00    0.62848   0.76043    0.000
 4873.00    0.72236   0.76622    0.000
 4874.00    0.92887   0.77155    0.000
 4875.00    1.20074   0.77394    0.009
 4876.00    1.10717   0.77780    0.009
 4877.00    0.82876   0.78196    0.008
 4878.00    0.67361   0.78304    0.008
 4879.00    0.57243   0.78503    0.008
 4880.00    0.55914   0.78808    0.008
 4881.00    0.57888   0.78914    0.008
 4882.00    0.72723   0.78981    0.008
 4883.00    0.91659   0.79206    0.008
 4884.00    0.94756   0.79395    0.008
 4885.00    0.93632   0.79425    0.008
 4886.00    0.94361   0.79647    0.009
 4887.00    0.95495   0.79906    0.009
 4888.00    0.90072   0.79916    0.009
 4889.00    0.83511   0.80191    0.008
 4890.00    0.72297   0.80493    0.008
 4891.00    0.60470   0.80483    0.008
 4892.00    0.71595   0.80774    0.008
 4893.00    0.84853   0.81027    0.008
 4894.00    0.94672   0.80986    0.009
 4895.00    1.04296   0.81229    0.009
 4896.00    0.92367   0.81361    0.009
 4897.00    0.80091   0.81248    0.008
 4898.00    0.83548   0.81393    0.008
 4899.00    0.86130   0.81429    0.008
 4900.00    0.67919   0.81264    0.009
 4901.00    0.52559   0.81256    0.009
 4902.00    0.74052   0.81213    0.008
 4903.00    0.90730   0.81061    0.008
 4904.00    0.65550   0.80906    0.008
 4905.00    0.45185   0.80765    0.008
 4906.00    0.55805   0.80628    0.008
 4907.00    0.63956   0.80377    0.008
 4908.00    0.59693   0.80160    0.008
 4909.00    0.56609   0.80024    0.008
 4910.00    0.58326   0.79748    0.009
 4911.00    0.60467   0.79511    0.009
 4912.00    0.64039   0.79364    0.008
 4913.00    0.71613   0.79128    0.008
 4914.00    0.90580   0.78956    0.008
 4915.00    0.99994   0.78800    0.008
 4916.00    0.86163   0.78639    0.008
 4917.00    0.71423   0.78614    0.008
 4918.00    0.54773   0.78508    0.008
 4919.00    0.51249   0.78453    0.008
 4920.00    0.71673   0.78621    0.008
 4921.00    0.78527   0.78594    0.008
 4922.00    0.63738   0.78590    0.008
 4923.00    0.57024   0.78905    0.008
 4924.00    0.61614   0.78934    0.008
 4925.00    0.64205   0.78914    0.008
 4926.00    0.64336   0.79268    0.008
 4927.00    0.55873   0.79284    0.008
 4928.00    0.38080   0.79229    0.008
 4929.00    0.40130   0.79561    0.008
 4930.00    0.61182   0.79517    0.008
 4931.00    0.68843   0.79427    0.008
 4932.00    0.65197   0.79736    0.008
 4933.00    0.69303   0.79684    0.008
 4934.00    0.79172   0.79618    0.008
 4935.00    0.83083   0.79888    0.008
 4936.00    0.83101   0.79835    0.008
 4937.00    0.80466   0.79847    0.008
 4938.00    0.76313   0.80126    0.008
 4939.00    0.83978   0.80072    0.008
 4940.00    0.97526   0.80094    0.000
 4941.00    0.89532   0.80354    0.000
 4942.00    0.72261   0.80304    0.000
 4943.00    0.71021   0.80258    0.000
 4944.00    0.75700   0.80424    0.000
 4945.00    0.85383   0.80353    0.000
 4946.00    0.96631   0.80219    0.000
 4947.00    0.87762   0.80264    0.000
 4948.00    0.73645   0.80124    0.000
 4949.00    0.77261   0.79919    0.000
 4950.00    0.84654   0.79891    0.000
 4951.00    0.90389   0.79662    0.000
 4952.00    0.95844   0.79430    0.000
 4953.00    0.88085   0.79418    0.000
 4954.00    0.78645   0.79136    0.000
 4955.00    0.80546   0.78903    0.000
 4956.00    0.83454   0.78949    0.000
 4957.00    0.80141   0.78757    0.000
 4958.00    0.76501   0.78575    0.000
 4959.00    0.86692   0.78586    0.000
 4960.00    0.96996   0.78504    0.000
 4961.00    0.95391   0.78415    0.000
 4962.00    0.93371   0.78372    0.000
 4963.00    0.82308   0.78344    0.000
 4964.00    0.73084   0.78304    0.000
 4965.00    0.86447   0.78240    0.000
 4966.00    0.98058   0.78229    0.000
 4967.00    0.95004   0.78152    0.000
 4968.00    0.91901   0.78077    0.000
 4969.00    0.88495   0.78043    0.000
 4970.00    0.85947   0.77879    0.000
 4971.00    0.87609   0.77792    0.000
 4972.00    0.89241   0.77711    0.000
 4973.00    0.90749   0.77459    0.000
 4974.00    0.90108   0.77362    0.000
 4975.00    0.82352   0.77259    0.000
 4976.00    0.75580   0.76960    0.000
 4977.00    0.71556   0.76874    0.000
 4978.00    0.64349   0.76820    0.000
 4979.00    0.49531   0.76524    0.000
 4980.00    0.48058   0.76463    0.000
 4981.00    0.74149   0.76504    0.000
 4982.00    0.95405   0.76273    0.000
 4983.00    1.07973   0.76271    0.000
 4984.00    1.06226   0.76375    0.000
 4985.00    0.81988   0.76181    0.000
 4986.00    0.69752   0.76245    0.000
 4987.00    0.74073   0.76338    0.000
 4988.00    0.73270   0.76114    0.000
 4989.00    0.66248   0.76231    0.000
 4990.00    0.79160   0.76267    0.000
 4991.00    1.13408   0.75979    0.000
 4992.00    1.15750   0.76085    0.000
 4993.00    0.87970   0.76035    0.000
 4994.00    0.71852   0.75702    0.000
 4995.00    0.65442   0.75755    0.000
 4996.00    0.58101   0.75620    0.000
 4997.00    0.50079   0.75265    0.000
 4998.00    0.57044   0.75259    0.000
 4999.00    0.73654   0.75099    0.000
 5000.00    0.85584   0.74754    0.000
 5001.00    0.94879   0.74706    0.000
 5002.00    0.90983   0.74567    0.000
 5003.00    0.80624   0.74227    0.000
 5004.00    0.86850   0.74153    0.000
 5005.00    1.00100   0.74090    0.000
 5006.00    0.94410   0.73803    0.000
 5007.00    0.81851   0.73725    0.000
 5008.00    0.74207   0.73716    0.000
 5009.00    0.68070   0.73490    0.000
 5010.00    0.82736   0.73450    0.000
 5011.00    1.02714   0.73516    0.000
 5012.00    0.86828   0.73379    0.000
 5013.00    0.63490   0.73394    0.000
 5014.00    0.59921   0.73561    0.000
 5015.00    0.59588   0.73526    0.000
 5016.00    0.57543   0.73550    0.000
 5017.00    0.55288   0.73809    0.000
 5018.00    0.60958   0.73872    0.000
 5019.00    0.67297   0.73880    0.000
 5020.00    0.69284   0.74167    0.000
 5021.00    0.71059   0.74267    0.000
 5022.00    0.62746   0.74267    0.000
 5023.00    0.54429   0.74521    0.000
 5024.00    0.55321   0.74566    0.000
 5025.00    0.56647   0.74546    0.000
 5026.00    0.66676   0.74705    0.000
 5027.00    0.76472   0.74669    0.000
 5028.00    0.83534   0.74650    0.000
 5029.00    0.88410   0.74651    0.008
 5030.00    0.75629   0.74528    0.008
 5031.00    0.66295   0.74553    0.008
 5032.00    0.77865   0.74416    0.008
 5033.00    0.87053   0.74239    0.008
 5034.00    0.84844   0.74335    0.008
 5035.00    0.80032   0.74143    0.008
 5036.00    0.65080   0.74000    0.008
 5037.00    0.54479   0.74174    0.008
 5038.00    0.57985   0.73993    0.008
 5039.00    0.62316   0.73929    0.008
 5040.00    0.68913   0.74184    0.008
 5041.00    0.71642   0.74096    0.008
 5042.00    0.65273   0.74095    0.008
 5043.00    0.61396   0.74355    0.008
 5044.00    0.62585   0.74376    0.008
 5045.00    0.64677   0.74425    0.008
 5046.00    0.68369   0.74641    0.008
 5047.00    0.71889   0.74729    0.008
 5048.00    0.75142   0.74816    0.008
 5049.00    0.72657   0.74974    0.008
 5050.00    0.62372   0.75051    0.008
 5051.00    0.58654   0.75143    0.008
 5052.00    0.62795   0.75244    0.008
 5053.00    0.64162   0.75245    0.008
 5054.00    0.62603   0.75308    0.008
 5055.00    0.60255   0.75351    0.008
 5056.00    0.57173   0.75248    0.008
 5057.00    0.61044   0.75267    0.008
 5058.00    0.70623   0.75247    0.008
 5059.00    0.71087   0.75040    0.008
 5060.00    0.64967   0.75007    0.008
 5061.00    0.67113   0.74955    0.008
 5062.00    0.74500   0.74690    0.008
 5063.00    0.70422   0.74591    0.008
 5064.00    0.59988   0.74528    0.008
 5065.00    0.72129   0.74279    0.008
 5066.00    0.95154   0.74124    0.008
 5067.00    0.82749   0.74035    0.008
 5068.00    0.55594   0.73849    0.008
 5069.00    0.62547   0.73695    0.008
 5070.00    0.81644   0.73568    0.008
 5071.00    0.75639   0.73439    0.008
 5072.00    0.62083   0.73353    0.008
 5073.00    0.61164   0.73211    0.008
 5074.00    0.63402   0.73111    0.008
 5075.00    0.71719   0.73117    0.008
 5076.00    0.81267   0.73031    0.008
 5077.00    0.77530   0.72967    0.008
 5078.00    0.71681   0.73043    0.008
 5079.00    0.68212   0.73035    0.008
 5080.00    0.65024   0.73024    0.008
 5081.00    0.75155   0.73133    0.008
 5082.00    0.86357   0.73185    0.008
 5083.00    0.72677   0.73209    0.008
 5084.00    0.57878   0.73305    0.007
 5085.00    0.71302   0.73379    0.007
 5086.00    0.84562   0.73399    0.007
 5087.00    0.72965   0.73430    0.007
 5088.00    0.62173   0.73488    0.007
 5089.00    0.66367   0.73466    0.007
 5090.00    0.71049   0.73407    0.007
 5091.00    0.81155   0.73432    0.007
 5092.00    0.89527   0.73358    0.008
 5093.00    0.84389   0.73230    0.008
 5094.00    0.79540   0.73237    0.008
 5095.00    0.76392   0.73112    0.008
 5096.00    0.73044   0.72968    0.008
 5097.00    0.68766   0.72993    0.008
 5098.00    0.63759   0.72826    0.008
 5099.00    0.55976   0.72717    0.008
 5100.00    0.48390   0.72798    0.007
 5101.00    0.41432   0.72609    0.007
 5102.00    0.38715   0.72565    0.007
 5103.00    0.47432   0.72708    0.007
 5104.00    0.54635   0.72515    0.007
 5105.00    0.58341   0.72531    0.008
 5106.00    0.64696   0.72713    0.008
 5107.00    0.76352   0.72530    0.008
 5108.00    0.78500   0.72570    0.008
 5109.00    0.64080   0.72735    0.008
 5110.00    0.54619   0.72569    0.008
 5111.00    0.52724   0.72584    0.008
 5112.00    0.54359   0.72671    0.008
 5113.00    0.60724   0.72522    0.008
 5114.00    0.64386   0.72478    0.008
 5115.00    0.64859   0.72446    0.008
 5116.00    0.70746   0.72318    0.008
 5117.00    0.82268   0.72224    0.008
 5118.00    0.89584   0.72073    0.008
 5119.00    0.93041   0.71978    0.008
 5120.00    0.76403   0.71881    0.008
 5121.00    0.43509   0.71646    0.008
 5122.00    0.38581   0.71593    0.008
 5123.00    0.53562   0.71556    0.008
 5124.00    0.57681   0.71275    0.008
 5125.00    0.55015   0.71258    0.008
 5126.00    0.56257   0.71325    0.008
 5127.00    0.59633   0.71013    0.008
 5128.00    0.75227   0.71004    0.008
 5129.00    0.96619   0.71183    0.008
 5130.00    0.90004   0.70834    0.008
 5131.00    0.71928   0.70798    0.008
 5132.00    0.70009   0.71065    0.008
 5133.00    0.73739   0.70673    0.008
 5134.00    0.74586   0.70593    0.008
 5135.00    0.74584   0.70913    0.008
 5136.00    0.78286   0.70496    0.008
 5137.00    0.82893   0.70383    0.008
 5138.00    0.87037   0.70717    0.008
 5139.00    0.91090   0.70319    0.008
 5140.00    0.75346   0.70207    0.008
 5141.00    0.56549   0.70521    0.008
 5142.00    0.62616   0.70188    0.008
 5143.00    0.71514   0.70116    0.008
 5144.00    0.79285   0.70377    0.008
 5145.00    0.86970   0.70132    0.008
 5146.00    0.73904   0.70114    0.008
 5147.00    0.59983   0.70289    0.008
 5148.00    0.65987   0.70115    0.008
 5149.00    0.71783   0.70129    0.007
 5150.00    0.61882   0.70175    0.008
 5151.00    0.52987   0.70014    0.008
 5152.00    0.61507   0.70007    0.008
 5153.00    0.69936   0.69884    0.008
 5154.00    0.77397   0.69661    0.008
 5155.00    0.83225   0.69575    0.008
 5156.00    0.76771   0.69275    0.008
 5157.00    0.72477   0.68937    0.008
 5158.00    0.80556   0.68749    0.008
 5159.00    0.87512   0.68329    0.008
 5160.00    0.89349   0.67889    0.008
 5161.00    0.89865   0.67635    0.008
 5162.00    0.85449   0.67212    0.008
 5163.00    0.85205   0.66752    0.008
 5164.00    0.97979   0.66505    0.008
 5165.00    1.04270   0.66209    0.008
 5166.00    0.93394   0.65840    0.008
 5167.00    0.76366   0.65667    0.008
 5168.00    0.45349   0.65557    0.008
 5169.00    0.30180   0.65359    0.007
 5170.00    0.46215   0.65291    0.008
 5171.00    0.60465   0.65331    0.008
 5172.00    0.71650   0.65315    0.008
 5173.00    0.75696   0.65343    0.008
 5174.00    0.69013   0.65436    0.008
 5175.00    0.63305   0.65564    0.008
 5176.00    0.58885   0.65674    0.008
 5177.00    0.63479   0.65735    0.008
 5178.00    0.78559   0.65960    0.008
 5179.00    0.81740   0.66144    0.007
 5180.00    0.72713   0.66142    0.007
 5181.00    0.64536   0.66436    0.007
 5182.00    0.57126   0.66689    0.007
 5183.00    0.59756   0.66628    0.007
 5184.00    0.70392   0.66971    0.007
 5185.00    0.71334   0.67278    0.007
 5186.00    0.65475   0.67166    0.007
 5187.00    0.69123   0.67518    0.007
 5188.00    0.78623   0.67854    0.007
 5189.00    0.78502   0.67689    0.007
 5190.00    0.73211   0.67982    0.000
 5191.00    0.73256   0.68316    0.000
 5192.00    0.75793   0.68109    0.000
 5193.00    0.75571   0.68271    0.000
 5194.00    0.74238   0.68573    0.000
 5195.00    0.82416   0.68363    0.000
 5196.00    0.93858   0.68358    0.000
 5197.00    0.91520   0.68611    0.000
 5198.00    0.85201   0.68459    0.000
 5199.00    0.82616   0.68315    0.000
 5200.00    0.80923   0.68519    0.000
 5201.00    0.70561   0.68484    0.000
 5202.00    0.58530   0.68283    0.000
 5203.00    0.57429   0.68453    0.000
 5204.00    0.57961   0.68560    0.000
 5205.00    0.50172   0.68389    0.000
 5206.00    0.41471   0.68545    0.000
 5207.00    0.57319   0.68765    0.000
 5208.00    0.74940   0.68670    0.000
 5209.00    0.85452   0.68811    0.000
 5210.00    0.95698   0.69075    0.000
 5211.00    0.83897   0.69035    0.008
 5212.00    0.72742   0.69139    0.008
 5213.00    0.88881   0.69382    0.008
 5214.00    1.03747   0.69345    0.007
 5215.00    0.97971   0.69381    0.008
 5216.00    0.91531   0.69581    0.008
 5217.00    0.78327   0.69514    0.008
 5218.00    0.65717   0.69464    0.008
 5219.00    0.57439   0.69647    0.008
 5220.00    0.52138   0.69565    0.008
 5221.00    0.63428   0.69437    0.008
 5222.00    0.73098   0.69652    0.008
 5223.00    0.75567   0.69609    0.008
 5224.00    0.78732   0.69437    0.007
 5225.00    0.84438   0.69710    0.007
 5226.00    0.88494   0.69756    0.007
 5227.00    0.87505   0.69582    0.008
 5228.00    0.84229   0.69885    0.008
 5229.00    0.75002   0.70026    0.008
 5230.00    0.62799   0.69886    0.008
 5231.00    0.43944   0.70154    0.008
 5232.00    0.41769   0.70338    0.008
 5233.00    0.71924   0.70251    0.008
 5234.00    0.94033   0.70420    0.008
 5235.00    1.02540   0.70573    0.008
 5236.00    1.04936   0.70544    0.008
 5237.00    0.98284   0.70579    0.008
 5238.00    0.93798   0.70622    0.008
 5239.00    0.92132   0.70641    0.008
 5240.00    0.88948   0.70571    0.008
 5241.00    0.84023   0.70480    0.008
 5242.00    0.84350   0.70528    0.008
 5243.00    0.89990   0.70412    0.007
 5244.00    0.87781   0.70207    0.007
 5245.00    0.78568   0.70250    0.007
 5246.00    0.83404   0.70136    0.007
 5247.00    0.99284   0.69862    0.008
 5248.00    0.96533   0.69868    0.008
 5249.00    0.80901   0.69769    0.008
 5250.00    0.74325   0.69460    0.008
 5251.00    0.73239   0.69387    0.008
 5252.00    0.65459   0.69288    0.008
 5253.00    0.54136   0.68973    0.008
 5254.00    0.59076   0.68780    0.008
 5255.00    0.71484   0.68665    0.008
 5256.00    0.95223   0.68385    0.008
 5257.00    1.23442   0.68069    0.008
 5258.00    1.16673   0.67946    0.008
 5259.00    0.98118   0.67764    0.008
 5260.00    1.07588   0.67369    0.008
 5261.00    1.24991   0.67279    0.008
 5262.00    1.10798   0.67288    0.008
 5263.00    0.89229   0.66892    0.008
 5264.00    0.77813   0.66857    0.008
 5265.00    0.68301   0.67126    0.008
 5266.00    0.63920   0.66833    0.008
 5267.00    0.60283   0.66842    0.008
 5268.00    0.71056   0.67352    0.008
 5269.00    0.83345   0.67240    0.008
 5270.00    0.84174   0.67268    0.008
 5271.00    0.84221   0.67912    0.008
 5272.00    0.75347   0.67985    0.008
 5273.00    0.66175   0.68010    0.008
 5274.00    0.70739   0.68633    0.008
 5275.00    0.75285   0.68843    0.008
 5276.00    0.78738   0.68892    0.008
 5277.00    0.81748   0.69376    0.008
 5278.00    0.77995   0.69597    0.008
 5279.00    0.73999   0.69676    0.008
 5280.00    0.67632   0.70009    0.008
 5281.00    0.60469   0.70164    0.008
 5282.00    0.47696   0.70243    0.008
 5283.00    0.40349   0.70434    0.008
 5284.00    0.62420   0.70492    0.008
 5285.00    0.80397   0.70532    0.008
 5286.00    0.80585   0.70615    0.008
 5287.00    0.81906   0.70603    0.008
 5288.00    0.87283   0.70584    0.008
 5289.00    0.90417   0.70589    0.008
 5290.00    0.86814   0.70565    0.008
 5291.00    0.85406   0.70500    0.008
 5292.00    0.89614   0.70439    0.008
 5293.00    0.95213   0.70451    0.008
 5294.00    1.03871   0.70409    0.008
 5295.00    1.01740   0.70323    0.008
 5296.00    0.79023   0.70385    0.008
 5297.00    0.62847   0.70406    0.008
 5298.00    0.57561   0.70329    0.008
 5299.00    0.51375   0.70436    0.008
 5300.00    0.43875   0.70516    0.008
 5301.00    0.44775   0.70441    0.008
 5302.00    0.56457   0.70554    0.008
 5303.00    0.69100   0.70679    0.008
 5304.00    0.82829   0.70600    0.008
 5305.00    0.83995   0.70643    0.007
 5306.00    0.72632   0.70738    0.007
 5307.00    0.68425   0.70638    0.007
 5308.00    0.70513   0.70595    0.007
 5309.00    0.68237   0.70616    0.007
 5310.00    0.62578   0.70458    0.008
 5311.00    0.66432   0.70320    0.008
 5312.00    0.76767   0.70257    0.007
 5313.00    0.74002   0.70063    0.007
 5314.00    0.63412   0.69861    0.008
 5315.00    0.61193   0.69705    0.007
 5316.00    0.63335   0.69483    0.007
 5317.00    0.68599   0.69286    0.007
 5318.00    0.75272   0.69076    0.007
 5319.00    0.72680   0.68847    0.007
 5320.00    0.66487   0.68719    0.007
 5321.00    0.72562   0.68512    0.007
 5322.00    0.82693   0.68302    0.007
 5323.00    0.76506   0.68291    0.007
 5324.00    0.65793   0.68142    0.007
 5325.00    0.68091   0.67959    0.007
 5326.00    0.73356   0.68069    0.007
 5327.00    0.61425   0.68020    0.007
 5328.00    0.46354   0.67867    0.007
 5329.00    0.58088   0.68055    0.007
 5330.00    0.73580   0.68112    0.007
 5331.00    0.75804   0.67992    0.007
 5332.00    0.76690   0.68186    0.007
 5333.00    0.77847   0.68306    0.007
 5334.00    0.79021   0.68249    0.007
 5335.00    0.87409   0.68443    0.007
 5336.00    0.96009   0.68553    0.007
 5337.00    1.03807   0.68490    0.007
 5338.00    1.10293   0.68704    0.007
 5339.00    0.79311   0.68849    0.007
 5340.00    0.51688   0.68760    0.007
 5341.00    0.72267   0.68969    0.007
 5342.00    0.90888   0.69172    0.007
 5343.00    0.91185   0.69089    0.007
 5344.00    0.92297   0.69275    0.007
 5345.00    0.98972   0.69511    0.007
 5346.00    1.02306   0.69460    0.007
 5347.00    0.88006   0.69614    0.007
 5348.00    0.74760   0.69831    0.007
 5349.00    0.65996   0.69782    0.007
 5350.00    0.62019   0.69863    0.007
 5351.00    0.74828   0.70044    0.007
 5352.00    0.84213   0.69984    0.007
 5353.00    0.83511   0.69951    0.007
 5354.00    0.81511   0.70055    0.007
 5355.00    0.76248   0.69969    0.007
 5356.00    0.71050   0.69836    0.007
 5357.00    0.65993   0.69850    0.007
 5358.00    0.64098   0.69715    0.007
 5359.00    0.68140   0.69527    0.007
 5360.00    0.65217   0.69504    0.007
 5361.00    0.50869   0.69334    0.007
 5362.00    0.51616   0.69125    0.007
 5363.00    0.74072   0.69130    0.007
 5364.00    0.88229   0.68985    0.007
 5365.00    0.91888   0.68782    0.007
 5366.00    0.87349   0.68847    0.007
 5367.00    0.73672   0.68780    0.007
 5368.00    0.74729   0.68607   -2.000
 5369.00    0.90276   0.68726   -2.000
 5370.00    1.00762   0.68743   -2.000
 5371.00    1.06860   0.68588   -2.000
 5372.00    1.16102   0.68728   -2.000
 5373.00    1.27747   0.68815   -2.000
 5374.00    1.16571   0.68650   -2.000
 5375.00    0.90073   0.68753   -2.000
 5376.00    0.83374   0.68874   -2.000
 5377.00    0.88322   0.68692   -2.000
 5378.00    0.83858   0.68701   -2.000
 5379.00    0.74567   0.68797   -2.000
 5380.00    0.69927   0.68593   -2.000
 5381.00    0.67354   0.68483   -2.000
 5382.00    0.72567   0.68540   -2.000
 5383.00    0.80754   0.68348    0.007
 5384.00    0.83080   0.68120    0.007
 5385.00    0.83507   0.68112    0.007
 5386.00    0.80346   0.67968    0.007
 5387.00    0.76212   0.67671    0.007
 5388.00    0.76723   0.67569    0.007
 5389.00    0.78269   0.67503    0.007
 5390.00    0.64110   0.67206    0.007
 5391.00    0.47162   0.66986    0.007
 5392.00    0.51180   0.66987    0.007
 5393.00    0.58044   0.66774    0.007
 5394.00    0.57244   0.66466    0.007
 5395.00    0.55704   0.66498    0.007
 5396.00    0.76553   0.66413    0.007
 5397.00    0.98750   0.66076    0.007
 5398.00    0.85827   0.66097    0.007
 5399.00    0.72035   0.66151    0.007
 5400.00    0.65902   0.65882    0.007
 5401.00    0.60229   0.65868    0.007
 5402.00    0.66427   0.66014    0.007
 5403.00    0.72048   0.65899    0.007
 5404.00    0.69858   0.65879    0.007
 5405.00    0.68760   0.66040    0.007
 5406.00    0.77494   0.66067    0.007
 5407.00    0.83305   0.66105    0.007
 5408.00    0.69792   0.66271    0.007
 5409.00    0.59062   0.66384    0.007
 5410.00    0.62654   0.66459    0.007
 5411.00    0.67042   0.66611    0.007
 5412.00    0.74740   0.66768    0.007
 5413.00    0.81073   0.66846    0.007
 5414.00    0.82720   0.66925    0.007
 5415.00    0.82693   0.67061    0.007
 5416.00    0.77820   0.67144    0.007
 5417.00    0.73018   0.67139    0.007
 5418.00    0.68391   0.67199    0.007
 5419.00    0.64022   0.67262    0.007
 5420.00    0.60204   0.67179    0.007
 5421.00    0.56103   0.67176    0.007
 5422.00    0.51480   0.67245    0.007
 5423.00    0.52286   0.67100    0.007
 5424.00    0.61866   0.67046    0.007
 5425.00    0.67243   0.67153    0.007
 5426.00    0.66666   0.66996    0.007
 5427.00    0.67115   0.66923    0.007
 5428.00    0.68845   0.67074    0.007
 5429.00    0.69956   0.66939    0.007
 5430.00    0.70385   0.66847    0.007
 5431.00    0.76768   0.67022    0.007
 5432.00    0.88925   0.66973    0.007
 5433.00    0.90516   0.66869    0.007
 5434.00    0.83076   0.66984    0.007
 5435.00    0.80564   0.67026    0.007
 5436.00    0.81763   0.66939    0.007
 5437.00    0.87345   0.66942    0.007
 5438.00    0.95828   0.67006    0.007
 5439.00    0.90807   0.66938    0.007
 5440.00    0.77965   0.66846    0.007
 5441.00    0.78329   0.66878    0.007
 5442.00    0.85361   0.66835    0.007
 5443.00    0.80185   0.66682    0.007
 5444.00    0.69675   0.66641    0.007
 5445.00    0.61231   0.66633    0.007
 5446.00    0.53562   0.66458    0.007
 5447.00    0.56783   0.66348    0.007
 5448.00    0.63468   0.66398    0.007
 5449.00    0.63152   0.66272    0.007
 5450.00    0.60974   0.66126    0.007
 5451.00    0.65703   0.66191    0.007
 5452.00    0.71935   0.66137    0.007
 5453.00    0.67239   0.66001    0.007
 5454.00    0.60655   0.66033    0.007
 5455.00    0.59470   0.66027    0.007
 5456.00    0.58993   0.65927    0.007
 5457.00    0.56609   0.65898    0.007
 5458.00    0.54049   0.65948    0.007
 5459.00    0.65371   0.65923    0.007
 5460.00    0.77472   0.65775    0.007
 5461.00    0.75769   0.65804    0.007
 5462.00    0.73665   0.65892    0.007
 5463.00    0.61925   0.65675    0.007
 5464.00    0.51414   0.65593    0.007
 5465.00    0.69730   0.65750    0.007
 5466.00    0.86179   0.65592    0.007
 5467.00    0.78636   0.65382    0.007
 5468.00    0.71213   0.65515    0.007
 5469.00    0.64827   0.65515    0.007
 5470.00    0.59476   0.65242    0.007
 5471.00    0.60756   0.65254    0.007
 5472.00    0.62679   0.65417    0.007
 5473.00    0.67822   0.65214    0.007
 5474.00    0.70249   0.65090    0.007
 5475.00    0.61649   0.65324    0.007
 5476.00    0.55786   0.65295    0.007
 5477.00    0.59137   0.65097    0.007
 5478.00    0.61535   0.65269   -2.000
 5479.00    0.61225   0.65443   -2.000
 5480.00    0.62451   0.65296   -2.000
 5481.00    0.67403   0.65285   -2.000
 5482.00    0.73786   0.65543   -2.000
 5483.00    0.83164   0.65554   -2.000
 5484.00    1.07336   0.65394   -2.000
 5485.00    1.58448   0.65580   -2.000
 5486.00    2.34738   0.65738   -2.000
 5487.00    3.51107   0.65522   -2.000
 5488.00    3.98594   0.65555   -2.000
 5489.00    3.49855   0.65788   -2.000
 5490.00    2.70000   0.65594   -2.000
 5491.00    1.51890   0.65474   -2.000
 5492.00    0.48129   0.65706   -2.000
 5493.00   -0.40081   0.65588   -2.000
 5494.00   -0.61380   0.65357   -2.000
 5495.00   -0.18719   0.65516   -2.000
 5496.00    0.19301   0.65501   -2.000
 5497.00    0.53410   0.65231   -2.000
 5498.00    0.67617   0.65270   -2.000
 5499.00    0.67053   0.65337   -2.000
 5500.00    0.66415   0.65119   -2.000
 5501.00    0.65729   0.65064   -2.000
 5502.00    0.58202   0.65160    0.007
 5503.00    0.46773   0.65020    0.007
 5504.00    0.47827   0.64951    0.007
 5505.00    0.55083   0.65068    0.007
 5506.00    0.68646   0.64969    0.007
 5507.00    0.84920   0.64911    0.007
 5508.00    0.88890   0.65060    0.007
 5509.00    0.88329   0.65014    0.007
 5510.00    0.85488   0.64971    0.007
 5511.00    0.81936   0.65104    0.007
 5512.00    0.75812   0.65101    0.007
 5513.00    0.69019   0.65085    0.007
 5514.00    0.68386   0.65173    0.007
 5515.00    0.69060   0.65180    0.007
 5516.00    0.66284   0.65187    0.007
 5517.00    0.62928   0.65257    0.007
 5518.00    0.64250   0.65263    0.007
 5519.00    0.66165   0.65243    0.007
 5520.00    0.67842   0.65299    0.007
 5521.00    0.69498   0.65297    0.007
 5522.00    0.63783   0.65216    0.007
 5523.00    0.57683   0.65281    0.007
 5524.00    0.63641   0.65322    0.007
 5525.00    0.69712   0.65193    0.007
 5526.00    0.67352   0.65240    0.007
 5527.00    0.65391   0.65342    0.007
 5528.00    0.72007   0.65225    0.007
 5529.00    0.77805   0.65233    0.007
 5530.00    0.73624   0.65374    0.007
 5531.00    0.69322   0.65340    0.007
 5532.00    0.64021   0.65309    0.007
 5533.00    0.58829   0.65428    0.007
 5534.00    0.54310   0.65479    0.007
 5535.00    0.53719   0.65442    0.007
 5536.00    0.72326   0.65512    0.007
 5537.00    0.85508   0.65594    0.007
 5538.00    0.77151   0.65583    0.007
 5539.00    0.69056   0.65615    0.007
 5540.00    0.61826   0.65661    0.007
 5541.00    0.59046   0.65670    0.007
 5542.00    0.68676   0.65691    0.007
 5543.00    0.75947   0.65672    0.007
 5544.00    0.77586   0.65661    0.007
 5545.00    0.76022   0.65690    0.007
 5546.00    0.67856   0.65633    0.007
 5547.00    0.61013   0.65572    0.006
 5548.00    0.56544   0.65592    0.007
 5549.00    0.57801   0.65533    0.007
 5550.00    0.68038   0.65412    0.007
 5551.00    0.73867   0.65396    0.007
 5552.00    0.73627   0.65351    0.007
 5553.00    0.75221   0.65191    0.007
 5554.00    0.79037   0.65127    0.007
 5555.00    0.79332   0.65111    0.007
 5556.00    0.75867   0.64935    0.007
 5557.00    0.78837   0.64829    0.007
 5558.00    0.87874   0.64869    0.007
 5559.00    0.87324   0.64691    0.007
 5560.00    0.78808   0.64523    0.007
 5561.00    0.74841   0.64636    0.007
 5562.00    0.74201   0.64509    0.007
 5563.00    0.72690   0.64258    0.007
 5564.00    0.70619   0.64401    0.007
 5565.00    0.73448   0.64388    0.007
 5566.00    0.79030   0.64087    0.007
 5567.00    0.73769   0.64178    0.007
 5568.00    0.63206   0.64293    0.007
 5569.00    0.62373   0.63994    0.007
 5570.00    0.65651   0.63963    0.006
 5571.00    0.71829   0.64164    0.007
 5572.00    0.79056   0.63928    0.007
 5573.00    0.74150   0.63747    0.007
 5574.00    0.65532   0.63930    0.006
 5575.00    0.67939   0.63795    0.006
 5576.00    0.73155   0.63524    0.007
 5577.00    0.72187   0.63615    0.007
 5578.00    0.69939   0.63544    0.007
 5579.00    0.80226   0.63271    0.007
 5580.00    0.92557   0.63281    0.006
 5581.00    0.84617   0.63228    0.006
 5582.00    0.74201   0.62989    0.006
 5583.00    0.69849   0.62969    0.006
 5584.00    0.66008   0.62933    0.006
 5585.00    0.74643   0.62737    0.006
 5586.00    0.83881   0.62716    0.006
 5587.00    0.80667   0.62727    0.006
 5588.00    0.77154   0.62579    0.006
 5589.00    0.66935   0.62552    0.006
 5590.00    0.57592   0.62653    0.006
 5591.00    0.65671   0.62598    0.006
 5592.00    0.73917   0.62556    0.007
 5593.00    0.84105   0.62709    0.007
 5594.00    0.93002   0.62750    0.007
 5595.00    0.91531   0.62704    0.007
 5596.00    0.90997   0.62878    0.007
 5597.00    0.96123   0.63003    0.007
 5598.00    0.98155   0.62944    0.007
 5599.00    0.85435   0.63047    0.007
 5600.00    0.74252   0.63235    0.007
 5601.00    0.69035   0.63236    0.007
 5602.00    0.65163   0.63214    0.007
 5603.00    0.65644   0.63372    0.007
 5604.00    0.65067   0.63472    0.007
 5605.00    0.61590   0.63366    0.007
 5606.00    0.60854   0.63422    0.007
 5607.00    0.66549   0.63562    0.007
 5608.00    0.70753   0.63457    0.007
 5609.00    0.71932   0.63408    0.007
 5610.00    0.66190   0.63513    0.007
 5611.00    0.48227   0.63430    0.007
 5612.00    0.45266   0.63308    0.006
 5613.00    0.65486   0.63402    0.007
 5614.00    0.70975   0.63362    0.007
 5615.00    0.56474   0.63158    0.006
 5616.00    0.49702   0.63229    0.006
 5617.00    0.52166   0.63301    0.006
 5618.00    0.57620   0.63134    0.006
 5619.00    0.66223   0.63155    0.006
 5620.00    0.75500   0.63247    0.006
 5621.00    0.85403   0.63137    0.006
 5622.00    0.84229   0.63140    0.006
 5623.00    0.73981   0.63242    0.006
 5624.00    0.67649   0.63143    0.006
 5625.00    0.64140   0.63095    0.006
 5626.00    0.64628   0.63228    0.006
 5627.00    0.67646   0.63180    0.006
 5628.00    0.66350   0.63070    0.006
 5629.00    0.62667   0.63181    0.006
 5630.00    0.64141   0.63193    0.006
 5631.00    0.68097   0.63054    0.006
 5632.00    0.75981   0.63101    0.006
 5633.00    0.85498   0.63146    0.006
 5634.00    0.83371   0.63020    0.006
 5635.00    0.77108   0.62998    0.006
 5636.00    0.78243   0.63063    0.006
 5637.00    0.81597   0.62983    0.006
 5638.00    0.79531   0.62887    0.006
 5639.00    0.76114   0.62955    0.006
 5640.00    0.74565   0.62957    0.006
 5641.00    0.73393   0.62813    0.006
 5642.00    0.74573   0.62823    0.006
 5643.00    0.76126   0.62902    0.006
 5644.00    0.72243   0.62775    0.006
 5645.00    0.67720   0.62656    0.006
 5646.00    0.72006   0.62751    0.006
 5647.00    0.76997   0.62736    0.006
 5648.00    0.69810   0.62493    0.006
 5649.00    0.62080   0.62480    0.006
 5650.00    0.64477   0.62611    0.006
 5651.00    0.67099   0.62421    0.006
 5652.00    0.75078   0.62259    0.006
 5653.00    0.82439   0.62410    0.006
 5654.00    0.78415   0.62356    0.006
 5655.00    0.75166   0.62122    0.006
 5656.00    0.80503   0.62233    0.006
 5657.00    0.84150   0.62333    0.006
 5658.00    0.74691   0.62092    0.006
 5659.00    0.67347   0.62089    0.006
 5660.00    0.72423   0.62331    0.006
 5661.00    0.77178   0.62254    0.006
 5662.00    0.80436   0.62145    0.006
 5663.00    0.81859   0.62353    0.006
 5664.00    0.76305   0.62446    0.006
 5665.00    0.70031   0.62336    0.006
 5666.00    0.61469   0.62439    0.006
 5667.00    0.57075   0.62598    0.006
 5668.00    0.63896   0.62532    0.006
 5669.00    0.72562   0.62529    0.006
 5670.00    0.85487   0.62689    0.006
 5671.00    0.91433   0.62698    0.006
 5672.00    0.83446   0.62608    0.006
 5673.00    0.76928   0.62692    0.006
 5674.00    0.72964   0.62759    0.006
 5675.00    0.72917   0.62661    0.006
 5676.00    0.78835   0.62647    0.006
 5677.00    0.86382   0.62709    0.006
 5678.00    0.96110   0.62635    0.006
 5679.00    0.97962   0.62561    0.006
 5680.00    0.90540   0.62607    0.006
 5681.00    0.82025   0.62579    0.006
 5682.00    0.72375   0.62487    0.006
 5683.00    0.65306   0.62499    0.006
 5684.00    0.60603   0.62484    0.006
 5685.00    0.54668   0.62403    0.006
 5686.00    0.47738   0.62403    0.006
 5687.00    0.47565   0.62391    0.006
 5688.00    0.52193   0.62266    0.006
 5689.00    0.56881   0.62240    0.006
 5690.00    0.61608   0.62276    0.006
 5691.00    0.65536   0.62131    0.006
 5692.00    0.69028   0.62023    0.006
 5693.00    0.78866   0.62073    0.006
 5694.00    0.91708   0.61984    0.006
 5695.00    0.95346   0.61795    0.006
 5696.00    0.95225   0.61782    0.006
 5697.00    0.91479   0.61787    0.006
 5698.00    0.86469   0.61566    0.006
 5699.00    0.83119   0.61461    0.006
 5700.00    0.80258   0.61561    0.006
 5701.00    0.75861   0.61426    0.006
 5702.00    0.71089   0.61251    0.006
 5703.00    0.72718   0.61381    0.006
 5704.00    0.75608   0.61420    0.006
 5705.00    0.67980   0.61265    0.006
 5706.00    0.58735   0.61334    0.006
 5707.00    0.58740   0.61489    0.006
 5708.00    0.59793   0.61422    0.006
 5709.00    0.68565   0.61447    0.006
 5710.00    0.77922   0.61659    0.006
 5711.00    0.73387   0.61697    0.006
 5712.00    0.68288   0.61713    0.006
 5713.00    0.61219   0.61924    0.006
 5714.00    0.54379   0.62023    0.006
 5715.00    0.57600   0.62051    0.006
 5716.00    0.60903   0.62205    0.006
 5717.00    0.65615   0.62278    0.006
 5718.00    0.69428   0.62301    0.006
 5719.00    0.63739   0.62436    0.006
 5720.00    0.59139   0.62494    0.006
 5721.00    0.62696   0.62465    0.006
 5722.00    0.66432   0.62562    0.006
 5723.00    0.71186   0.62641    0.006
 5724.00    0.75383   0.62574    0.006
 5725.00    0.77054   0.62612    0.006
 5726.00    0.77231   0.62692    0.006
 5727.00    0.71848   0.62613    0.006
 5728.00    0.68408   0.62592    0.006
 5729.00    0.71012   0.62682    0.006
 5730.00    0.73590   0.62652    0.006
 5731.00    0.76098   0.62569    0.006
 5732.00    0.74901   0.62614    0.006
 5733.00    0.65297   0.62638    0.006
 5734.00    0.58883   0.62559    0.006
 5735.00    0.58737   0.62563    0.006
 5736.00    0.58744   0.62587    0.006
 5737.00    0.59011   0.62511    0.006
 5738.00    0.60436   0.62472    0.006
 5739.00    0.63599   0.62504    0.006
 5740.00    0.65981   0.62466    0.000
 5741.00    0.67335   0.62390    0.000
 5742.00    0.70831   0.62387    0.000
 5743.00    0.76817   0.62364    0.000
 5744.00    0.76857   0.62288    0.000
 5745.00    0.70809   0.62266    0.000
 5746.00    0.71517   0.62261    0.000
 5747.00    0.78328   0.62198    0.000
 5748.00    0.85128   0.62150    0.000
 5749.00    0.91920   0.62149    0.000
 5750.00    0.90194   0.62131    0.000
 5751.00    0.82502   0.62098    0.000
 5752.00    0.80442   0.62059    0.000
 5753.00    0.81839   0.62021    0.000
 5754.00    0.77893   0.62021    0.000
 5755.00    0.71081   0.62013    0.000
 5756.00    0.66828   0.61984    0.000
 5757.00    0.63768   0.62000    0.000
 5758.00    0.63239   0.62012    0.000
 5759.00    0.63727   0.61970    0.000
 5760.00    0.62512   0.61958    0.000
 5761.00    0.60715   0.61977    0.000
 5762.00    0.60077   0.61925    0.000
 5763.00    0.59774   0.61871    0.000
 5764.00    0.64128   0.61873    0.000
 5765.00    0.69592   0.61842    0.000
 5766.00    0.74004   0.61798    0.000
 5767.00    0.78215   0.61747    0.000
 5768.00    0.76068   0.61673    0.000
 5769.00    0.72975   0.61630    0.000
 5770.00    0.72649   0.61563    0.000
 5771.00    0.72624   0.61428    0.000
 5772.00    0.74214   0.61369    0.000
 5773.00    0.75921   0.61340    0.000
 5774.00    0.78036   0.61178    0.000
 5775.00    0.80167   0.61077    0.000
 5776.00    0.85124   0.61123    0.000
 5777.00    0.89851   0.61029    0.000
 5778.00    0.85945   0.60879    0.000
 5779.00    0.81690   0.60948    0.000
 5780.00    0.71812   0.60945    0.000
 5781.00    0.62621   0.60776    0.000
 5782.00    0.60392   0.60847    0.000
 5783.00    0.59019   0.60965    0.000
 5784.00    0.63848   0.60861    0.000
 5785.00    0.67334   0.60884    0.000
 5786.00    0.63361   0.61073    0.000
 5787.00    0.57859   0.61063    0.000
 5788.00    0.45571   0.61035    0.000
 5789.00    0.38985   0.61254    0.000
 5790.00    0.53178   0.61304    0.000
 5791.00    0.67453   0.61206   -2.000
 5792.00    0.81977   0.61396   -2.000
 5793.00    0.90475   0.61556   -2.000
 5794.00    0.83326   0.61468   -2.000
 5795.00    0.79651   0.61531   -2.000
 5796.00    0.83728   0.61722   -2.000
 5797.00    0.85346   0.61677   -2.000
 5798.00    0.82208   0.61610   -2.000
 5799.00    0.78396   0.61768   -2.000
 5800.00    0.73448   0.61827   -2.000
 5801.00    0.70302   0.61732   -2.000
 5802.00    0.69820   0.61778   -2.000
 5803.00    0.68262   0.61877   -2.000
 5804.00    0.65308   0.61830   -2.000
 5805.00    0.64037   0.61781   -2.000
 5806.00    0.64695   0.61834   -2.000
 5807.00    0.61666   0.61868   -2.000
 5808.00    0.54912   0.61827   -2.000
 5809.00    0.53558   0.61810   -2.000
 5810.00    0.57014   0.61865   -2.000
 5811.00    0.65128   0.61896    0.000
 5812.00    0.76899   0.61866    0.000
 5813.00    0.78255   0.61871    0.000
 5814.00    0.72424   0.61926    0.000
 5815.00    0.68793   0.61933    0.000
 5816.00    0.66493   0.61899    0.000
 5817.00    0.68155   0.61931    0.000
 5818.00    0.71911   0.61998    0.000
 5819.00    0.72524   0.61997    0.000
 5820.00    0.71697   0.61982    0.000
 5821.00    0.70739   0.62011    0.000
 5822.00    0.69729   0.62044    0.000
 5823.00    0.73275   0.62028    0.000
 5824.00    0.78353   0.62003    0.000
 5825.00    0.80921   0.62029    0.000
 5826.00    0.82781   0.62047    0.000
 5827.00    0.77898   0.61999    0.000
 5828.00    0.71447   0.61961    0.000
 5829.00    0.75132   0.61989    0.000
 5830.00    0.80712   0.61969    0.000
 5831.00    0.83260   0.61878    0.000
 5832.00    0.85372   0.61848    0.000
 5833.00    0.76154   0.61846    0.000
 5834.00    0.65751   0.61768    0.000
 5835.00    0.66929   0.61676    0.000
 5836.00    0.68890   0.61640    0.000
 5837.00    0.74215   0.61575    0.000
 5838.00    0.79651   0.61463    0.000
 5839.00    0.74839   0.61363    0.000
 5840.00    0.70171   0.61265    0.000
 5841.00    0.70252   0.61181    0.000
 5842.00    0.70145   0.61069    0.000
 5843.00    0.67215   0.60920    0.000
 5844.00    0.64279   0.60822    0.000
 5845.00    0.61283   0.60734    0.000
 5846.00    0.59733   0.60557    0.000
 5847.00    0.68332   0.60409    0.000
 5848.00    0.76210   0.60376    0.000
 5849.00    0.80192   0.60268    0.000
 5850.00    0.82321   0.60073    0.000
 5851.00    0.76419   0.60021    0.000
 5852.00    0.70024   0.59994    0.000
 5853.00    0.61864   0.59842    0.000
 5854.00    0.56368   0.59781    0.000
 5855.00    0.58848   0.59795    0.000
 5856.00    0.62506   0.59713    0.000
 5857.00    0.69166   0.59626    0.000
 5858.00    0.72603   0.59640    0.000
 5859.00    0.68965   0.59616    0.000
 5860.00    0.66550   0.59540    0.000
 5861.00    0.66465   0.59568    0.000
 5862.00    0.66089   0.59541    0.000
 5863.00    0.65229   0.59468    0.000
 5864.00    0.64170   0.59485    0.000
 5865.00    0.62819   0.59435    0.000
 5866.00    0.62169   0.59323    0.000
 5867.00    0.62414   0.59273    0.000
 5868.00    0.63674   0.59233    0.000
 5869.00    0.66079   0.59059    0.000
 5870.00    0.66140   0.58957    0.000
 5871.00    0.63867   0.58950    0.000
 5872.00    0.64941   0.58689    0.000
 5873.00    0.68954   0.58461    0.000
 5874.00    0.72106   0.58404    0.000
 5875.00    0.74592   0.58155    0.000
 5876.00    0.72606   0.57773    0.000
 5877.00    0.67580   0.57671    0.000
 5878.00    0.64934   0.57545    0.000
 5879.00    0.63708   0.57070    0.000
 5880.00    0.66273   0.56861    0.000
 5881.00    0.70810   0.56810    0.000
 5882.00    0.70187   0.56287    0.000
 5883.00    0.67238   0.55863    0.000
 5884.00    0.65611   0.55997    0.000
 5885.00    0.64495   0.55814    0.000
 5886.00    0.64140   0.55348    0.000
 5887.00    0.64035   0.55472    0.000
 5888.00    0.59059   0.55494    0.000
 5889.00    0.52737   0.54951    0.000
 5890.00    0.55629   0.54956    0.000
 5891.00    0.60616   0.55427    0.000
 5892.00    0.69961   0.55279    0.000
 5893.00    0.80099   0.55137    0.000
 5894.00    0.75291   0.55650    0.000
 5895.00    0.68394   0.55793    0.000
 5896.00    0.63084   0.55549    0.000
 5897.00    0.57932   0.55939    0.000
 5898.00    0.60748   0.56431    0.000
 5899.00    0.64070   0.56349    0.000
 5900.00    0.64046   0.56466    0.000
 5901.00    0.63936   0.56982    0.006
 5902.00    0.67775   0.57108    0.006
 5903.00    0.71330   0.57063    0.006
 5904.00    0.66881   0.57397    0.006
 5905.00    0.63240   0.57662    0.006
 5906.00    0.71106   0.57611    0.006
 5907.00    0.78110   0.57693    0.006
 5908.00    0.77079   0.57948    0.006
 5909.00    0.74566   0.57992    0.006
 5910.00    0.61986   0.57987    0.006
 5911.00    0.51352   0.58121    0.006
 5912.00    0.50953   0.58202    0.006
 5913.00    0.51366   0.58186    0.006
 5914.00    0.55221   0.58200    0.006
 5915.00    0.58435   0.58262    0.006
 5916.00    0.59409   0.58267    0.006
 5917.00    0.59632   0.58283    0.006
 5918.00    0.57649   0.58337    0.006
 5919.00    0.56561   0.58348    0.006
 5920.00    0.57718   0.58332    0.006
 5921.00    0.57345   0.58346    0.006
 5922.00    0.53670   0.58372    0.006
 5923.00    0.51795   0.58330    0.006
 5924.00    0.53296   0.58335    0.005
 5925.00    0.54850   0.58421    0.005
 5926.00    0.56493   0.58415    0.005
 5927.00    0.58853   0.58316    0.005
 5928.00    0.62243   0.58333    0.005
 5929.00    0.64247   0.58424    0.005
 5930.00    0.64500   0.58345    0.006
 5931.00    0.61888   0.58281    0.006
 5932.00    0.56087   0.58397    0.006
 5933.00    0.47846   0.58416    0.006
 5934.00    0.37209   0.58244    0.006
 5935.00    0.36085   0.58226    0.006
 5936.00    0.43195   0.58366    0.006
 5937.00    0.56139   0.58308    0.006
 5938.00    0.73530   0.58172    0.006
 5939.00    0.80710   0.58245    0.006
 5940.00    0.81047   0.58324    0.006
 5941.00    0.80617   0.58170    0.006
 5942.00    0.79736   0.58068    0.006
 5943.00    0.78999   0.58197    0.006
 5944.00    0.78335   0.58229    0.006
 5945.00    0.70693   0.58069    0.006
 5946.00    0.59957   0.58059    0.006
 5947.00    0.54994   0.58202    0.006
 5948.00    0.52230   0.58149    0.006
 5949.00    0.52000   0.58010    0.006
 5950.00    0.52589   0.58101    0.006
 5951.00    0.51751   0.58205    0.006
 5952.00    0.50528   0.58101    0.006
 5953.00    0.52738   0.58084    0.006
 5954.00    0.55711   0.58225    0.006
 5955.00    0.58739   0.58239    0.006
 5956.00    0.61776   0.58159    0.006
 5957.00    0.60381   0.58225    0.005
 5958.00    0.58388   0.58298    0.005
 5959.00    0.58348   0.58251    0.005
 5960.00    0.58497   0.58273    0.005
 5961.00    0.59952   0.58338    0.005
 5962.00    0.61485   0.58320    0.005
 5963.00    0.64631   0.58288    0.005
 5964.00    0.67794   0.58319    0.005
 5965.00    0.67324   0.58309    0.006
 5966.00    0.66724   0.58257    0.006
 5967.00    0.62830   0.58269    0.006
 5968.00    0.59167   0.58264    0.006
 5969.00    0.58624   0.58190    0.006
 5970.00    0.58418   0.58122    0.006
 5971.00    0.61214   0.58121    0.006
 5972.00    0.63227   0.58101    0.006
 5973.00    0.60083   0.58023    0.006
 5974.00    0.57465   0.57984    0.006
 5975.00    0.57545   0.57998    0.006
 5976.00    0.57024   0.57940    0.006
 5977.00    0.54013   0.57815    0.006
 5978.00    0.52093   0.57819    0.006
 5979.00    0.53904   0.57884    0.006
 5980.00    0.56376   0.57814    0.006
 5981.00    0.60758   0.57735    0.006
 5982.00    0.64423   0.57808    0.006
 5983.00    0.66322   0.57826    0.006
 5984.00    0.66019   0.57686    0.006
 5985.00    0.61040   0.57683    0.005
 5986.00    0.58259   0.57809    0.005
 5987.00    0.59537   0.57774    0.005
 5988.00    0.60586   0.57666    0.005
 5989.00    0.61267   0.57723    0.005
 5990.00    0.63292   0.57777    0.005
 5991.00    0.67219   0.57660    0.005
 5992.00    0.69281   0.57607    0.005
 5993.00    0.69022   0.57692    0.005
 5994.00    0.67932   0.57667    0.005
 5995.00    0.65930   0.57541    0.005
 5996.00    0.63291   0.57537    0.005
 5997.00    0.60037   0.57577    0.005
 5998.00    0.57560   0.57479    0.005
 5999.00    0.55746   0.57383    0.005
 6000.00    0.53501   0.57425    0.006
 6001.00    0.50934   0.57397    0.006
 6002.00    0.50844   0.57262    0.006
 6003.00    0.52391   0.57250    0.006
 6004.00    0.59337   0.57317    0.006
 6005.00    0.69405   0.57225    0.006
 6006.00    0.74723   0.57101    0.006
 6007.00    0.77647   0.57176    0.006
 6008.00    0.78352   0.57203    0.006
 6009.00    0.78088   0.57056    0.006
 6010.00    0.76278   0.57045    0.006
 6011.00    0.73890   0.57203    0.006
 6012.00    0.68691   0.57159    0.006
 6013.00    0.62601   0.57000    0.006
 6014.00    0.62191   0.57115    0.006
 6015.00    0.63286   0.57259    0.006
 6016.00    0.61422   0.57140    0.006
 6017.00    0.58916   0.57100    0.006
 6018.00    0.54292   0.57323    0.006
 6019.00    0.49303   0.57380    0.006
 6020.00    0.52732   0.57233    0.006
 6021.00    0.57259   0.57336    0.005
 6022.00    0.60555   0.57550    0.005
 6023.00    0.63738   0.57511    0.005
 6024.00    0.60655   0.57456    0.005
 6025.00    0.57223   0.57645    0.005
 6026.00    0.56962   0.57765    0.005
 6027.00    0.56791   0.57681    0.005
 6028.00    0.58778   0.57727    0.005
 6029.00    0.60718   0.57899    0.005
 6030.00    0.61570   0.57923    0.006
 6031.00    0.62383   0.57871    0.006
 6032.00    0.62685   0.57958    0.006
 6033.00    0.63809   0.58062    0.006
 6034.00    0.72014   0.58033    0.006
 6035.00    0.78372   0.58010    0.006
 6036.00    0.72937   0.58098    0.006
 6037.00    0.66927   0.58140    0.006
 6038.00    0.58043   0.58084    0.006
 6039.00    0.52495   0.58084    0.006
 6040.00    0.60446   0.58145    0.006
 6041.00    0.65905   0.58130    0.006
 6042.00    0.63001   0.58059    0.006
 6043.00    0.60076   0.58085    0.006
 6044.00    0.57096   0.58109    0.006
 6045.00    0.57562   0.58044    0.006
 6046.00    0.66375   0.58001    0.006
 6047.00    0.72182   0.58011    0.006
 6048.00    0.71701   0.57983    0.006
 6049.00    0.71766   0.57913    0.005
 6050.00    0.72823   0.57901    0.005
 6051.00    0.74056   0.57873    0.005
 6052.00    0.75570   0.57831    0.005
 6053.00    0.74955   0.57812    0.005
 6054.00    0.71373   0.57772    0.005
 6055.00    0.71074   0.57730    0.005
 6056.00    0.74804   0.57728    0.005
 6057.00    0.78498   0.57720    0.005
 6058.00    0.82153   0.57638    0.006
 6059.00    0.82888   0.57642    0.006
 6060.00    0.80836   0.57692    0.005
 6061.00    0.74751   0.57640    0.005
 6062.00    0.65272   0.57596    0.006
 6063.00    0.58451   0.57643    0.006
 6064.00    0.53600   0.57639    0.006
 6065.00    0.49714   0.57546    0.006
 6066.00    0.46458   0.57570    0.006
 6067.00    0.45817   0.57609    0.006
 6068.00    0.46665   0.57542    0.006
 6069.00    0.48871   0.57515    0.006
 6070.00    0.51748   0.57543    0.006
 6071.00    0.56359   0.57457    0.006
 6072.00    0.61714   0.57364    0.006
 6073.00    0.66231   0.57414    0.006
 6074.00    0.70440   0.57380    0.006
 6075.00    0.70268   0.57241    0.006
 6076.00    0.68732   0.57234    0.006
 6077.00    0.66255   0.57276    0.005
 6078.00    0.63534   0.57120    0.005
 6079.00    0.66282   0.57000    0.005
 6080.00    0.70187   0.57088    0.005
 6081.00    0.72502   0.57072    0.005
 6082.00    0.74550   0.56898    0.005
 6083.00    0.73054   0.56875    0.005
 6084.00    0.71111   0.56954    0.005
 6085.00    0.68355   0.56843    0.005
 6086.00    0.65526   0.56730    0.005
 6087.00    0.61141   0.56804    0.005
 6088.00    0.56676   0.56826    0.005
 6089.00    0.59236   0.56701    0.005
 6090.00    0.61901   0.56671    0.005
 6091.00    0.62929   0.56713    0.005
 6092.00    0.63988   0.56652    0.006
 6093.00    0.65714   0.56611    0.006
 6094.00    0.67007   0.56659    0.006
 6095.00    0.63053   0.56634    0.006
 6096.00    0.59045   0.56547    0.006
 6097.00    0.54590   0.56564    0.006
 6098.00    0.51878   0.56583    0.006
 6099.00    0.59970   0.56534    0.006
 6100.00    0.66125   0.56532    0.006
 6101.00    0.62839   0.56566    0.006
 6102.00    0.59129   0.56525    0.006
 6103.00    0.53741   0.56462    0.006
 6104.00    0.48138   0.56473    0.006
 6105.00    0.41828   0.56495    0.006
 6106.00    0.38760   0.56505    0.007
 6107.00    0.44718   0.56476    0.007
 6108.00    0.51792   0.56418    0.007
 6109.00    0.61524   0.56407    0.006
 6110.00    0.68649   0.56406    0.006
 6111.00    0.70412   0.56323    0.006
 6112.00    0.69058   0.56279    0.005
 6113.00    0.62127   0.56352    0.005
 6114.00    0.58567   0.56302    0.005
 6115.00    0.60285   0.56121    0.005
 6116.00    0.62465   0.56119    0.005
 6117.00    0.65280   0.56197    0.005
 6118.00    0.65336   0.56049    0.005
 6119.00    0.62057   0.55902    0.005
 6120.00    0.59165   0.55994    0.005
 6121.00    0.56685   0.55997    0.005
 6122.00    0.52960   0.55773    0.005
 6123.00    0.48062   0.55711    0.005
 6124.00    0.48084   0.55835    0.005
 6125.00    0.52189   0.55753    0.006
 6126.00    0.58879   0.55549    0.006
 6127.00    0.67457   0.55575    0.005
 6128.00    0.73464   0.55669    0.005
 6129.00    0.77823   0.55528    0.006
 6130.00    0.73884   0.55360    0.006
 6131.00    0.65292   0.55447    0.005
 6132.00    0.61688   0.55532    0.005
 6133.00    0.60518   0.55392    0.005
 6134.00    0.61722   0.55295    0.006
 6135.00    0.63926   0.55416    0.006
 6136.00    0.61451   0.55435    0.006
 6137.00    0.57288   0.55237    0.005
 6138.00    0.59436   0.55233    0.005
 6139.00    0.63510   0.55402    0.005
 6140.00    0.66347   0.55369    0.005
 6141.00    0.68869   0.55207    0.005
 6142.00    0.66924   0.55235    0.005
 6143.00    0.64057   0.55255    0.005
 6144.00    0.58975   0.55089    0.005
 6145.00    0.53533   0.55041    0.005
 6146.00    0.53848   0.55100    0.005
 6147.00    0.54863   0.54972    0.005
 6148.00    0.53325   0.54778    0.005
 6149.00    0.51574   0.54775    0.005
 6150.00    0.53167   0.54665    0.005
 6151.00    0.54920   0.54377    0.005
 6152.00    0.53153   0.54309    0.005
 6153.00    0.51390   0.54369    0.005
 6154.00    0.52858   0.54108    0.005
 6155.00    0.54371   0.53790    0.005
 6156.00    0.56756   0.53862    0.005
 6157.00    0.58782   0.53851    0.005
 6158.00    0.56670   0.53476    0.006
 6159.00    0.55238   0.53331    0.006
 6160.00    0.59259   0.53570    0.006
 6161.00    0.63190   0.53462    0.006
 6162.00    0.66581   0.53056    0.006
 6163.00    0.68904   0.53136    0.005
 6164.00    0.66146   0.53421    0.005
 6165.00    0.61687   0.53233    0.005
 6166.00    0.50634   0.53002    0.005
 6167.00    0.41741   0.53301    0.005
 6168.00    0.39820   0.53474    0.005
 6169.00    0.38299   0.53157    0.005
 6170.00    0.37874   0.53136    0.005
 6171.00    0.37738   0.53529    0.005
 6172.00    0.38278   0.53562    0.005
 6173.00    0.38005   0.53295    0.005
 6174.00    0.36086   0.53460    0.005
 6175.00    0.35049   0.53723    0.005
 6176.00    0.35564   0.53545    0.005
 6177.00    0.37073   0.53404    0.005
 6178.00    0.40116   0.53673    0.005
 6179.00    0.45856   0.53775    0.005
 6180.00    0.55250   0.53496    0.005
 6181.00    0.62028   0.53479    0.006
 6182.00    0.65687   0.53723    0.005
 6183.00    0.67698   0.53672    0.005
 6184.00    0.67976   0.53442    0.006
 6185.00    0.68274   0.53531    0.006
 6186.00    0.68591   0.53693    0.006
 6187.00    0.65090   0.53538    0.006
 6188.00    0.58468   0.53391    0.006
 6189.00    0.52776   0.53544    0.006
 6190.00    0.47752   0.53651    0.006
 6191.00    0.46850   0.53476    0.005
 6192.00    0.48550   0.53416    0.005
 6193.00    0.57431   0.53581    0.005
 6194.00    0.70278   0.53615    0.005
 6195.00    1.05716   0.53480    0.006
 6196.00    1.52002   0.53485   -2.000
 6197.00    1.94379   0.53600   -2.000
 6198.00    2.35135   0.53560   -2.000
 6199.00    2.16612   0.53447   -2.000
 6200.00    1.77077   0.53465   -2.000
 6201.00    1.07800   0.53516   -2.000
 6202.00    0.29623   0.53431   -2.000
 6203.00   -0.02306   0.53348   -2.000
 6204.00   -0.22747   0.53330   -2.000
 6205.00   -0.07484   0.53281   -2.000
 6206.00    0.14967   0.53198   -2.000
 6207.00    0.36423   0.53144   -2.000
 6208.00    0.57722   0.53059    0.006
 6209.00    0.59408   0.52943    0.006
 6210.00    0.58795   0.52895    0.006
 6211.00    0.58420   0.52847    0.006
 6212.00    0.58063   0.52722    0.005
 6213.00    0.59641   0.52616    0.005
 6214.00    0.61304   0.52607    0.005
 6215.00    0.64264   0.52516    0.005
 6216.00    0.67130   0.52373    0.005
 6217.00    0.64870   0.52379    0.005
 6218.00    0.62454   0.52390    0.005
 6219.00    0.57189   0.52229    0.005
 6220.00    0.52281   0.52113    0.005
 6221.00    0.51297   0.52171    0.005
 6222.00    0.50134   0.52148    0.005
 6223.00    0.47592   0.52036    0.005
 6224.00    0.45677   0.52021    0.005
 6225.00    0.47430   0.52043    0.005
 6226.00    0.49680   0.51963    0.005
 6227.00    0.54234   0.51890    0.005
 6228.00    0.58153   0.51912    0.005
 6229.00    0.59671   0.51888    0.005
 6230.00    0.61134   0.51838    0.005
 6231.00    0.62425   0.51805    0.005
 6232.00    0.63304   0.51762    0.005
 6233.00    0.63075   0.51746    0.005
 6234.00    0.61494   0.51758    0.005
 6235.00    0.56802   0.51704    0.005
 6236.00    0.53102   0.51624    0.005
 6237.00    0.51378   0.51649    0.005
 6238.00    0.49368   0.51648    0.005
 6239.00    0.46862   0.51542    0.005
 6240.00    0.46659   0.51500    0.005
 6241.00    0.49954   0.51554    0.005
 6242.00    0.52467   0.51500    0.005
 6243.00    0.53935   0.51370    0.005
 6244.00    0.54476   0.51423    0.005
 6245.00    0.53927   0.51483    0.005
 6246.00    0.55627   0.51360    0.005
 6247.00    0.59659   0.51272    0.005
 6248.00    0.61306   0.51378    0.005
 6249.00    0.60773   0.51428    0.005
 6250.00    0.59062   0.51299    0.005
 6251.00    0.56403   0.51310    0.005
 6252.00    0.56643   0.51452    0.005
 6253.00    0.58938   0.51440    0.005
 6254.00    0.61807   0.51318    0.005
 6255.00    0.65032   0.51434    0.005
 6256.00    0.68175   0.51631    0.005
 6257.00    0.71274   0.51576    0.005
 6258.00    0.82123   0.51492    0.005
 6259.00    0.96634   0.51666    0.006
 6260.00    1.05391   0.51840    0.006
 6261.00    1.11804   0.51758    0.007
 6262.00    0.95996   0.51769    0.007
 6263.00    0.72455   0.51981    0.007
 6264.00    0.48329   0.52057    0.007
 6265.00    0.24033   0.51952    0.007
 6266.00    0.23041   0.52019    0.006
 6267.00    0.27712   0.52221    0.006
 6268.00    0.34904   0.52237    0.006
 6269.00    0.42590   0.52158    0.006
 6270.00    0.47790   0.52228    0.005
 6271.00    0.52610   0.52356    0.005
 6272.00    0.61471   0.52351    0.005
 6273.00    0.70789   0.52332    0.005
 6274.00    0.72356   0.52388    0.005
 6275.00    0.73341   0.52443    0.005
 6276.00    0.70527   0.52422    0.005
 6277.00    0.67561   0.52421    0.005
 6278.00    0.62179   0.52476    0.005
 6279.00    0.56800   0.52502    0.005
 6280.00    0.52237   0.52479    0.000
 6281.00    0.48184   0.52460    0.000
 6282.00    0.52823   0.52476    0.000
 6283.00    0.57552   0.52502    0.000
 6284.00    0.63223   0.52519    0.000
 6285.00    0.68198   0.52480    0.000
 6286.00    0.67988   0.52433    0.000
 6287.00    0.67334   0.52441    0.000
 6288.00    0.64148   0.52474    0.000
 6289.00    0.60879   0.52440    0.000
 6290.00    0.57238   0.52374    0.000
 6291.00    0.55520   0.52377    0.000
 6292.00    0.60942   0.52393    0.000
 6293.00    0.64364   0.52335    0.000
 6294.00    0.61576   0.52299    0.000
 6295.00    0.59192   0.52343    0.000
 6296.00    0.57873   0.52337    0.000
 6297.00    0.56405   0.52257    0.000
 6298.00    0.54599   0.52250    0.000
 6299.00    0.54101   0.52307    0.000
 6300.00    0.56170   0.52288    0.000
 6301.00    0.57449   0.52244    0.000
 6302.00    0.57374   0.52269    0.000
 6303.00    0.57157   0.52276    0.000
 6304.00    0.56729   0.52242    0.000
 6305.00    0.57243   0.52288    0.000
 6306.00    0.59000   0.52325    0.000
 6307.00    0.60631   0.52248    0.000
 6308.00    0.62116   0.52240    0.000
 6309.00    0.60848   0.52362    0.000
 6310.00    0.56764   0.52356    0.000
 6311.00    0.54945   0.52237    0.000
 6312.00    0.55167   0.52299    0.000
 6313.00    0.57527   0.52446    0.000
 6314.00    0.61584   0.52372    0.000
 6315.00    0.62036   0.52277    0.000
 6316.00    0.59967   0.52413    0.000
 6317.00    0.56840   0.52518    0.000
 6318.00    0.53066   0.52417    0.000
 6319.00    0.51708   0.52389    0.000
 6320.00    0.51642   0.52517    0.000
 6321.00    0.54499   0.52551    0.005
 6322.00    0.58713   0.52501    0.005
 6323.00    0.58471   0.52518    0.005
 6324.00    0.56445   0.52565    0.005
 6325.00    0.55262   0.52560    0.005
 6326.00    0.54367   0.52570    0.005
 6327.00    0.52727   0.52574    0.005
 6328.00    0.50873   0.52544    0.005
 6329.00    0.48978   0.52557    0.005
 6330.00    0.47074   0.52603    0.005
 6331.00    0.52281   0.52541    0.005
 6332.00    0.58847   0.52456    0.005
 6333.00    0.59809   0.52517    0.005
 6334.00    0.59940   0.52587    0.005
 6335.00    0.58819   0.52455    0.005
 6336.00    0.57563   0.52347    0.005
 6337.00    0.63298   0.52455    0.005
 6338.00    0.69531   0.52509    0.005
 6339.00    0.70400   0.52338    0.005
 6340.00    0.71074   0.52244    0.005
 6341.00    0.64236   0.52382    0.005
 6342.00    0.57326   0.52392    0.005
 6343.00    0.48895   0.52179    0.005
 6344.00    0.40717   0.52110    0.005
 6345.00    0.36567   0.52271    0.005
 6346.00    0.33454   0.52224    0.005
 6347.00    0.40791   0.51988    0.005
 6348.00    0.48354   0.51988    0.005
 6349.00    0.57547   0.52141    0.005
 6350.00    0.65556   0.52028    0.005
 6351.00    0.67016   0.51811    0.005
 6352.00    0.67164   0.51892    0.005
 6353.00    0.61514   0.52027    0.005
 6354.00    0.55457   0.51863    0.005
 6355.00    0.47915   0.51694    0.005
 6356.00    0.42764   0.51847    0.005
 6357.00    0.44894   0.51967    0.005
 6358.00    0.47002   0.51809    0.005
 6359.00    0.49051   0.51732    0.005
 6360.00    0.51236   0.51909    0.005
 6361.00    0.53725   0.51996    0.005
 6362.00    0.59406   0.51886    0.005
 6363.00    0.71250   0.51890    0.005
 6364.00    0.81793   0.52059    0.006
 6365.00    0.90144   0.52114    0.006
 6366.00    0.91258   0.52035    0.006
 6367.00    0.81696   0.52082    0.006
 6368.00    0.73168   0.52239    0.006
 6369.00    0.65983   0.52262    0.006
 6370.00    0.61312   0.52186    0.006
 6371.00    0.59516   0.52235    0.006
 6372.00    0.59880   0.52361    0.006
 6373.00    0.62422   0.52351    0.005
 6374.00    0.63589   0.52268    0.005
 6375.00    0.63536   0.52313    0.005
 6376.00    0.61315   0.52404    0.005
 6377.00    0.57397   0.52338    0.005
 6378.00    0.53509   0.52243    0.005
 6379.00    0.49642   0.52312    0.005
 6380.00    0.47078   0.52360    0.005
 6381.00    0.45300   0.52225    0.005
 6382.00    0.47407   0.52173    0.005
 6383.00    0.51561   0.52299    0.005
 6384.00    0.53515   0.52259    0.005
 6385.00    0.54464   0.52046    0.005
 6386.00    0.49469   0.52078    0.005
 6387.00    0.42135   0.52257    0.005
 6388.00    0.42406   0.52136    0.005
 6389.00    0.45226   0.51912    0.005
 6390.00    0.51182   0.52033    0.005
 6391.00    0.58023   0.52201    0.005
 6392.00    0.59683   0.51992    0.005
 6393.00    0.60141   0.51835    0.005
 6394.00    0.54336   0.52069    0.005
 6395.00    0.47364   0.52150    0.005
 6396.00    0.47697   0.51855    0.006
 6397.00    0.49079   0.51841    0.006
 6398.00    0.51966   0.52141    0.006
 6399.00    0.55010   0.52092    0.005
 6400.00    0.56495   0.51791    0.005
 6401.00    0.57875   0.51892    0.005
 6402.00    0.53751   0.52154    0.005
 6403.00    0.49447   0.52022    0.005
 6404.00    0.41596   0.51813    0.005
 6405.00    0.34057   0.51963    0.005
 6406.00    0.36248   0.52111    0.005
 6407.00    0.38655   0.51943    0.005
 6408.00    0.44301   0.51848    0.005
 6409.00    0.49423   0.52009    0.005
 6410.00    0.49481   0.52064    0.005
 6411.00    0.49755   0.51914    0.005
 6412.00    0.51541   0.51890    0.005
 6413.00    0.53061   0.52003    0.005
 6414.00    0.53155   0.52026    0.005
 6415.00    0.53309   0.51949    0.005
 6416.00    0.53726   0.51924    0.005
 6417.00    0.53626   0.51975    0.005
 6418.00    0.51689   0.52015    0.005
 6419.00    0.50296   0.51990    0.005
 6420.00    0.50529   0.51951    0.005
 6421.00    0.51161   0.51992    0.005
 6422.00    0.52809   0.52039    0.005
 6423.00    0.52817   0.51996    0.005
 6424.00    0.49232   0.51971    0.005
 6425.00    0.46444   0.52064    0.005
 6426.00    0.45172   0.52074    0.005
 6427.00    0.44825   0.51960    0.005
 6428.00    0.46016   0.51995    0.005
 6429.00    0.47848   0.52149    0.005
 6430.00    0.50612   0.52084    0.005
 6431.00    0.54187   0.51912    0.005
 6432.00    0.58799   0.52024    0.005
 6433.00    0.59900   0.52203    0.005
 6434.00    0.57044   0.52057    0.005
 6435.00    0.55220   0.51878    0.005
 6436.00    0.54423   0.52046    0.005
 6437.00    0.54028   0.52185    0.005
 6438.00    0.53986   0.51991    0.005
 6439.00    0.55201   0.51867    0.005
 6440.00    0.57386   0.52037    0.005
 6441.00    0.58116   0.52083    0.005
 6442.00    0.57858   0.51893    0.005
 6443.00    0.56283   0.51851    0.005
 6444.00    0.53925   0.51987    0.005
 6445.00    0.52871   0.51956    0.005
 6446.00    0.52494   0.51786    0.005
 6447.00    0.52009   0.51784    0.005
 6448.00    0.51476   0.51892    0.005
 6449.00    0.54598   0.51866    0.005
 6450.00    0.59134   0.51730    0.005
 6451.00    0.59364   0.51705    0.005
 6452.00    0.58178   0.51778    0.005
 6453.00    0.56677   0.51816    0.005
 6454.00    0.55088   0.51728    0.005
 6455.00    0.57346   0.51653    0.005
 6456.00    0.60474   0.51712    0.005
 6457.00    0.62237   0.51786    0.005
 6458.00    0.63752   0.51686    0.005
 6459.00    0.62030   0.51588    0.005
 6460.00    0.59859   0.51681    0.005
 6461.00    0.54792   0.51758    0.005
 6462.00    0.49436   0.51630    0.005
 6463.00    0.44348   0.51508    0.005
 6464.00    0.39277   0.51601    0.005
 6465.00    0.39322   0.51676    0.005
 6466.00    0.39533   0.51552    0.005
 6467.00    0.45550   0.51400    0.005
 6468.00    0.51388   0.51454    0.005
 6469.00    0.52242   0.51528    0.005
 6470.00    0.53165   0.51385    0.005
 6471.00    0.55080   0.51195    0.005
 6472.00    0.56680   0.51230    0.006
 6473.00    0.55369   0.51292    0.005
 6474.00    0.53721   0.51103    0.005
 6475.00    0.49796   0.50900    0.005
 6476.00    0.46663   0.50935    0.005
 6477.00    0.47689   0.50944    0.005
 6478.00    0.48628   0.50701    0.005
 6479.00    0.49198   0.50522    0.005
 6480.00    0.49191   0.50565    0.005
 6481.00    0.47168   0.50522    0.005
 6482.00    0.45104   0.50256    0.005
 6483.00    0.42914   0.50107    0.005
 6484.00    0.41069   0.50153    0.005
 6485.00    0.40086   0.50084    0.005
 6486.00    0.40810   0.49844    0.005
 6487.00    0.45211   0.49743    0.005
 6488.00    0.50507   0.49801    0.005
 6489.00    0.57477   0.49737    0.005
 6490.00    0.60560   0.49558    0.005
 6491.00    0.57291   0.49517    0.005
 6492.00    0.54929   0.49592    0.005
 6493.00    0.53867   0.49574    0.005
 6494.00    0.53912   0.49509    0.005
 6495.00    0.55353   0.49518    0.005
 6496.00    0.55763   0.49588    0.005
 6497.00    0.55026   0.49630    0.005
 6498.00    0.54292   0.49676    0.005
 6499.00    0.53561   0.49716    0.005
 6500.00    0.53496   0.49764    0.005
 6501.00    0.54007   0.49846    0.005
 6502.00    0.55063   0.49946    0.005
 6503.00    0.56534   0.49982    0.005
 6504.00    0.58815   0.49996    0.005
 6505.00    0.61637   0.50093    0.005
 6506.00    0.67134   0.50199    0.005
 6507.00    0.74198   0.50199    0.005
 6508.00    0.74199   0.50193    0.005
 6509.00    0.70591   0.50298    0.005
 6510.00    0.64349   0.50364    0.005
 6511.00    0.56940   0.50316    0.005
 6512.00    0.54260   0.50318    0.005
 6513.00    0.53377   0.50432    0.005
 6514.00    0.54560   0.50440    0.005
 6515.00    0.56410   0.50354    0.005
 6516.00    0.55718   0.50388    0.005
 6517.00    0.54339   0.50500    0.005
 6518.00    0.57372   0.50461    0.005
 6519.00    0.61382   0.50359    0.005
 6520.00    0.60135   0.50418    0.005
 6521.00    0.57960   0.50516    0.005
 6522.00    0.56407   0.50446    0.005
 6523.00    0.54939   0.50341    0.005
 6524.00    0.57967   0.50401    0.005
 6525.00    0.61426   0.50468    0.005
 6526.00    0.60835   0.50382    0.005
 6527.00    0.60004   0.50283    0.005
 6528.00    0.58448   0.50319    0.000
 6529.00    0.56869   0.50331    0.000
 6530.00    0.54420   0.50220    0.000
 6531.00    0.51701   0.50119    0.000
 6532.00    0.42190   0.50119    0.000
 6533.00    0.33494   0.50070    0.000
 6534.00    0.35706   0.49907    0.000
 6535.00    0.38290   0.49763    0.000
 6536.00    0.44189   0.49722    0.000
 6537.00    0.49544   0.49637    0.000
 6538.00    0.51329   0.49399    0.000
 6539.00    0.53560   0.49149    0.000
 6540.00    0.58069   0.49053    0.000
 6541.00    0.62235   0.48963    0.000
 6542.00    0.64986   0.48644    0.000
 6543.00    0.67448   0.48269    0.000
 6544.00    0.68922   0.48138    0.000
 6545.00    0.69918   0.48069    0.000
 6546.00    0.69537   0.47668    0.000
 6547.00    0.68438   0.47173    0.000
 6548.00    0.65571   0.47061    0.000
 6549.00    0.62122   0.47060    0.000
 6550.00    0.57437   0.46588    0.000
 6551.00    0.54171   0.46028    0.000
 6552.00    0.53519   0.46044    0.000
 6553.00    0.54232   0.46156    0.000
 6554.00    0.57142   0.45626    0.000
 6555.00    0.59158   0.45109    0.000
 6556.00    0.59911   0.45372    0.000
 6557.00    0.65978   0.45616    0.000
 6558.00    0.78646   0.45058    0.000
 6559.00    0.95199   0.44681    0.000
 6560.00    1.16007   0.45208    0.000
 6561.00    1.31933   0.45557    0.000
 6562.00    1.43144   0.45128    0.000
 6563.00    1.40980   0.45006    0.000
 6564.00    1.27422   0.45619    0.000
 6565.00    1.13453   0.45935    0.000
 6566.00    0.99175   0.45726    0.000
 6567.00    0.87994   0.45868    0.000
 6568.00    0.78855   0.46424    0.000
 6569.00    0.70394   0.46639    0.000
 6570.00    0.62323   0.46589    0.000
 6571.00    0.56632   0.46869    0.000
 6572.00    0.52138   0.47318    0.000
 6573.00    0.50016   0.47444    0.000
 6574.00    0.48927   0.47470    0.000
 6575.00    0.50011   0.47769    0.000
 6576.00    0.51905   0.48081    0.000
 6577.00    0.55583   0.48117    0.000
 6578.00    0.59825   0.48157    0.000
 6579.00    0.64785   0.48425    0.000
 6580.00    0.69935   0.48616    0.000
 6581.00    0.72450   0.48571    0.000
 6582.00    0.74394   0.48590    0.000
 6583.00    0.74602   0.48816    0.000
 6584.00    0.74513   0.48925    0.000
 6585.00    0.72453   0.48822    0.000
 6586.00    0.70138   0.48830    0.000
 6587.00    0.68912   0.49029    0.000
 6588.00    0.67786   0.49076    0.000
 6589.00    0.66601   0.48928    0.000
 6590.00    0.65414   0.48933    0.000
 6591.00    0.57614   0.49126    0.000
 6592.00    0.49764   0.49159    0.000
 6593.00    0.50577   0.49010    0.000
 6594.00    0.51170   0.49003    0.000
 6595.00    0.46704   0.49172    0.000
 6596.00    0.42574   0.49209    0.000
 6597.00    0.42692   0.49083    0.000
 6598.00    0.43100   0.49079    0.000
 6599.00    0.45986   0.49233    0.000
 6600.00    0.48685   0.49258    0.000
 6601.00    0.50193   0.49133    0.000
 6602.00    0.52048   0.49145    0.000
 6603.00    0.55633   0.49308    0.000
 6604.00    0.58140   0.49317    0.000
 6605.00    0.56298   0.49175    0.000
 6606.00    0.52807   0.49196    0.000
 6607.00    0.43794   0.49371    0.000
 6608.00    0.36698   0.49369    0.000
 6609.00    0.35023   0.49217    0.005
 6610.00    0.36423   0.49232    0.005
 6611.00    0.45254   0.49389    0.005
 6612.00    0.53789   0.49369    0.005
 6613.00    0.61705   0.49228    0.005
 6614.00    0.63814   0.49241    0.005
 6615.00    0.55390   0.49352    0.005
 6616.00    0.47959   0.49306    0.005
 6617.00    0.42103   0.49182    0.005
 6618.00    0.39776   0.49203    0.005
 6619.00    0.42361   0.49267    0.005
 6620.00    0.42806   0.49190    0.005
 6621.00    0.40631   0.49084    0.005
 6622.00    0.38668   0.49113    0.005
 6623.00    0.36934   0.49142    0.005
 6624.00    0.37958   0.49054    0.005
 6625.00    0.41609   0.48977    0.005
 6626.00    0.45956   0.49005    0.005
 6627.00    0.50889   0.49003    0.005
 6628.00    0.51383   0.48917    0.005
 6629.00    0.48597   0.48881    0.005
 6630.00    0.46050   0.48913    0.005
 6631.00    0.43659   0.48873    0.005
 6632.00    0.44229   0.48790    0.005
 6633.00    0.46483   0.48817    0.005
 6634.00    0.47923   0.48864    0.005
 6635.00    0.48961   0.48769    0.005
 6636.00    0.46082   0.48676    0.005
 6637.00    0.41527   0.48768    0.005
 6638.00    0.39782   0.48831    0.005
 6639.00    0.39068   0.48681    0.005
 6640.00    0.45354   0.48582    0.005
 6641.00    0.53814   0.48712    0.005
 6642.00    0.56976   0.48772    0.005
 6643.00    0.58766   0.48603    0.005
 6644.00    0.54402   0.48511    0.005
 6645.00    0.48739   0.48640    0.005
 6646.00    0.46608   0.48679    0.005
 6647.00    0.45067   0.48512    0.005
 6648.00    0.44557   0.48434    0.005
 6649.00    0.44177   0.48545    0.005
 6650.00    0.46658   0.48559    0.005
 6651.00    0.49388   0.48402    0.005
 6652.00    0.54404   0.48342    0.005
 6653.00    0.59538   0.48436    0.005
 6654.00    0.58089   0.48427    0.005
 6655.00    0.56436   0.48275    0.005
 6656.00    0.48645   0.48240    0.005
 6657.00    0.41038   0.48327    0.005
 6658.00    0.37308   0.48289    0.005
 6659.00    0.34161   0.48144    0.005
 6660.00    0.38035   0.48143    0.005
 6661.00    0.41197   0.48215    0.005
 6662.00    0.38485   0.48142    0.005
 6663.00    0.36546   0.48037    0.005
 6664.00    0.39386   0.48074    0.005
 6665.00    0.42801   0.48099    0.005
 6666.00    0.49014   0.47989    0.005
 6667.00    0.53255   0.47947    0.005
 6668.00    0.49709   0.48026    0.005
 6669.00    0.47239   0.47987    0.005
 6670.00    0.48303   0.47844    0.005
 6671.00    0.48346   0.47871    0.005
 6672.00    0.45557   0.47989    0.005
 6673.00    0.43572   0.47894    0.005
 6674.00    0.43495   0.47735    0.005
 6675.00    0.44169   0.47810    0.005
 6676.00    0.46388   0.47939    0.005
 6677.00    0.48911   0.47839    0.005
 6678.00    0.51980   0.47713    0.005
 6679.00    0.50800   0.47794    0.005
 6680.00    0.42983   0.47884    0.005
 6681.00    0.35999   0.47809    0.005
 6682.00    0.30158   0.47739    0.005
 6683.00    0.30600   0.47800    0.005
 6684.00    0.38630   0.47835    0.005
 6685.00    0.44753   0.47795    0.005
 6686.00    0.48847   0.47775    0.005
 6687.00    0.51898   0.47802    0.005
 6688.00    0.53970   0.47792    0.005
 6689.00    0.52883   0.47779    0.005
 6690.00    0.49180   0.47785    0.005
 6691.00    0.48575   0.47775    0.005
 6692.00    0.50228   0.47739    0.005
 6693.00    0.52508   0.47738    0.005
 6694.00    0.55189   0.47743    0.005
 6695.00    0.58293   0.47708    0.005
 6696.00    0.61635   0.47672    0.000
 6697.00    0.55644   0.47665    0.000
 6698.00    0.45107   0.47643    0.000
 6699.00    0.39012   0.47603    0.000
 6700.00    0.34787   0.47576    0.000
 6701.00    0.39493   0.47541    0.000
 6702.00    0.47415   0.47486    0.000
 6703.00    0.52937   0.47466    0.000
 6704.00    0.57728   0.47462    0.000
 6705.00    0.55444   0.47384    0.000
 6706.00    0.51369   0.47293    0.000
 6707.00    0.46776   0.47312    0.000
 6708.00    0.42076   0.47338    0.000
 6709.00    0.39100   0.47217    0.000
 6710.00    0.36403   0.47107    0.000
 6711.00    0.39699   0.47174    0.000
 6712.00    0.43720   0.47225    0.000
 6713.00    0.50902   0.47080    0.000
 6714.00    0.58345   0.46969    0.000
 6715.00    0.68242   0.47075    0.000
 6716.00    0.78256   0.47146    0.000
 6717.00    0.82573   0.47008    0.000
 6718.00    0.86480   0.46909    0.000
 6719.00    0.71809   0.47018    0.000
 6720.00    0.57165   0.47096    0.000
 6721.00    0.43052   0.46989    0.000
 6722.00    0.30267   0.46904    0.000
 6723.00    0.32707   0.46986    0.000
 6724.00    0.35196   0.47060    0.000
 6725.00    0.38079   0.46990    0.000
 6726.00    0.41203   0.46914    0.000
 6727.00    0.45766   0.46949    0.000
 6728.00    0.50882   0.47014    0.000
 6729.00    0.58621   0.46980    0.000
 6730.00    0.63851   0.46899    0.000
 6731.00    0.59390   0.46885    0.000
 6732.00    0.56267   0.46945    0.000
 6733.00    0.57451   0.46940    0.000
 6734.00    0.56569   0.46849    0.000
 6735.00    0.50053   0.46804    0.000
 6736.00    0.45161   0.46863    0.000
 6737.00    0.44067   0.46873    0.000
 6738.00    0.45561   0.46782    0.000
 6739.00    0.52288   0.46738    0.000
 6740.00    0.57410   0.46800    0.000
 6741.00    0.59713   0.46806    0.000
 6742.00    0.58655   0.46727    0.000
 6743.00    0.52423   0.46710    0.000
 6744.00    0.49794   0.46775    0.000
 6745.00    0.52038   0.46773    0.000
 6746.00    0.52068   0.46715    0.000
 6747.00    0.49462   0.46726    0.000
 6748.00    0.47472   0.46792    0.000
 6749.00    0.46129   0.46793    0.000
 6750.00    0.47062   0.46753    0.000
 6751.00    0.50104   0.46771    0.000
 6752.00    0.52075   0.46834    0.000
 6753.00    0.53171   0.46852    0.006
 6754.00    0.53823   0.46818    0.006
 6755.00    0.54158   0.46819    0.006
 6756.00    0.49474   0.46878    0.006
 6757.00    0.41627   0.46920    0.006
 6758.00    0.36578   0.46884    0.006
 6759.00    0.33072   0.46853    0.006
 6760.00    0.39998   0.46904    0.006
 6761.00    0.51923   0.46968    0.006
 6762.00    0.56763   0.46927    0.006
 6763.00    0.58672   0.46868    0.006
 6764.00    0.63963   0.46910    0.006
 6765.00    0.70450   0.46980    0.006
 6766.00    0.72447   0.46934    0.006
 6767.00    0.73104   0.46866    0.006
 6768.00    0.66653   0.46897    0.006
 6769.00    0.58442   0.46952    0.006
 6770.00    0.52982   0.46899    0.006
 6771.00    0.48074   0.46837    0.006
 6772.00    0.43195   0.46858    0.006
 6773.00    0.38321   0.46889    0.006
 6774.00    0.31299   0.46828    0.006
 6775.00    0.24027   0.46778    0.006
 6776.00    0.29633   0.46794    0.006
 6777.00    0.36254   0.46798    0.006
 6778.00    0.34505   0.46732    0.006
 6779.00    0.32391   0.46699    0.006
 6780.00    0.35029   0.46718    0.006
 6781.00    0.37797   0.46704    0.006
 6782.00    0.44257   0.46636    0.006
 6783.00    0.50353   0.46621    0.006
 6784.00    0.49839   0.46647    0.006
 6785.00    0.48858   0.46631    0.006
 6786.00    0.42779   0.46567    0.006
 6787.00    0.38872   0.46563    0.006
 6788.00    0.51668   0.46597    0.006
 6789.00    0.62417   0.46594    0.006
 6790.00    0.61234   0.46538    0.006
 6791.00    0.57819   0.46532    0.006
 6792.00    0.44081   0.46573    0.006
 6793.00    0.35206   0.46590    0.006
 6794.00    0.44717   0.46539    0.006
 6795.00    0.51039   0.46521    0.006
 6796.00    0.47296   0.46566    0.006
 6797.00    0.45265   0.46604    0.006
 6798.00    0.47820   0.46553    0.006
 6799.00    0.50834   0.46516    0.006
 6800.00    0.54900   0.46561    0.006
 6801.00    0.56805   0.46617    0.006
 6802.00    0.54411   0.46569    0.006
 6803.00    0.53822   0.46511    0.006
 6804.00    0.56360   0.46549    0.006
 6805.00    0.52344   0.46619    0.006
 6806.00    0.38385   0.46583    0.006
 6807.00    0.33920   0.46512    0.006
 6808.00    0.42108   0.46532    0.006
 6809.00    0.46023   0.46606    0.006
 6810.00    0.44925   0.46596    0.006
 6811.00    0.42620   0.46523    0.006
 6812.00    0.39066   0.46512    0.006
 6813.00    0.40502   0.46580    0.006
 6814.00    0.46495   0.46603    0.006
 6815.00    0.48137   0.46538    0.006
 6816.00    0.46278   0.46492    0.006
 6817.00    0.46401   0.46540    0.006
 6818.00    0.47926   0.46593    0.006
 6819.00    0.45718   0.46543    0.006
 6820.00    0.41192   0.46468    0.006
 6821.00    0.40060   0.46485    0.006
 6822.00    0.40770   0.46552    0.006
 6823.00    0.44384   0.46521    0.006
 6824.00    0.49367   0.46430    0.006
 6825.00    0.57261   0.46415    0.006
 6826.00    0.66339   0.46474    0.006
 6827.00    0.66919   0.46458    0.006
 6828.00    0.64549   0.46375    0.006
 6829.00    0.58569   0.46335    0.006
 6830.00    0.51533   0.46366    0.006
 6831.00    0.48749   0.46358    0.006
 6832.00    0.46994   0.46302    0.006
 6833.00    0.55335   0.46253    0.006
 6834.00    0.65651   0.46247    0.006
 6835.00    0.63799   0.46237    0.006
 6836.00    0.60092   0.46220    0.006
 6837.00    0.59714   0.46177    0.006
 6838.00    0.59709   0.46134    0.006
 6839.00    0.58718   0.46117    0.006
 6840.00    0.57653   0.46136    0.007
 6841.00    0.45657   0.46108    0.006
 6842.00    0.33226   0.46038    0.006
 6843.00    0.33340   0.46011    0.006
 6844.00    0.33838   0.46055    0.006
 6845.00    0.46199   0.46042    0.006
 6846.00    0.57473   0.45960    0.006
 6847.00    0.50378   0.45928    0.006
 6848.00    0.44061   0.45981    0.006
 6849.00    0.45877   0.45977    0.006
 6850.00    0.46487   0.45899    0.006
 6851.00    0.38140   0.45868    0.006
 6852.00    0.32525   0.45916    0.006
 6853.00    0.42400   0.45917    0.006
 6854.00    0.51331   0.45860    0.006
 6855.00    0.56000   0.45836    0.006
 6856.00    0.57395   0.45868    0.006
 6857.00    0.46668   0.45875    0.006
 6858.00    0.38335   0.45849    0.006
 6859.00    0.37419   0.45830    0.006
 6860.00    0.38520   0.45843    0.006
 6861.00    0.44926   0.45859    0.006
 6862.00    0.48066   0.45866    0.006
 6863.00    0.43823   0.45850    0.006
 6864.00    0.41486   0.45847    0.006
 6865.00    0.42878   0.45874    0.006
 6866.00    0.43554   0.45903    0.006
 6867.00    0.43012   0.45888    0.006
 6868.00    0.46246   0.45881    0.006
 6869.00    0.55126   0.45916    0.006
 6870.00    0.58894   0.45949    0.006
 6871.00    0.55947   0.45938    0.006
 6872.00    0.56956   0.45941    0.006
 6873.00    0.62544   0.45977    0.006
 6874.00    0.65104   0.46001    0.006
 6875.00    0.64574   0.45996    0.006
 6876.00    0.59177   0.46016    0.006
 6877.00    0.49399   0.46048    0.006
 6878.00    0.44811   0.46059    0.006
 6879.00    0.44339   0.46063    0.006
 6880.00    0.41687   0.46093    0.006
 6881.00    0.37512   0.46119    0.006
 6882.00    0.36181   0.46126    0.006
 6883.00    0.36590   0.46139    0.006
 6884.00    0.40159   0.46162    0.006
 6885.00    0.45416   0.46178    0.006
 6886.00    0.46269   0.46200    0.006
 6887.00    0.45079   0.46222    0.006
 6888.00    0.45367   0.46218    0.006
 6889.00    0.46245   0.46222    0.006
 6890.00    0.44002   0.46270    0.006
 6891.00    0.40694   0.46300    0.006
 6892.00    0.40473   0.46263    0.006
 6893.00    0.41138   0.46248    0.006
 6894.00    0.42639   0.46318    0.006
 6895.00    0.44337   0.46358    0.006
 6896.00    0.45630   0.46294    0.006
 6897.00    0.46847   0.46257    0.006
 6898.00    0.49521   0.46334    0.006
 6899.00    0.52412   0.46381    0.006
 6900.00    0.46929   0.46306    0.006
 6901.00    0.40543   0.46249    0.006
 6902.00    0.44352   0.46313    0.006
 6903.00    0.48882   0.46363    0.006
 6904.00    0.43128   0.46293    0.006
 6905.00    0.37005   0.46221    0.006
 6906.00    0.44046   0.46264    0.006
 6907.00    0.50770   0.46311    0.006
 6908.00    0.44990   0.46252    0.006
 6909.00    0.39469   0.46177    0.006
 6910.00    0.38034   0.46202    0.006
 6911.00    0.37020   0.46244    0.006
 6912.00    0.40213   0.46194    0.006
 6913.00    0.43130   0.46122    0.006
 6914.00    0.44056   0.46142    0.006
 6915.00    0.43811   0.46183    0.006
 6916.00    0.37099   0.46135    0.006
 6917.00    0.31532   0.46067    0.006
 6918.00    0.31014   0.46093    0.006
 6919.00    0.32060   0.46140    0.006
 6920.00    0.38777   0.46089    0.006
 6921.00    0.45196   0.46021    0.006
 6922.00    0.50711   0.46057    0.006
 6923.00    0.52071   0.46115    0.006
 6924.00    0.42689   0.46061    0.006
 6925.00    0.39127   0.45988    0.006
 6926.00    0.48499   0.46030    0.006
 6927.00    0.54183   0.46100    0.006
 6928.00    0.52757   0.46047    0.006
 6929.00    0.48220   0.45967    0.006
 6930.00    0.38452   0.46009    0.006
 6931.00    0.36288   0.46086    0.006
 6932.00    0.45324   0.46038    0.006
 6933.00    0.50683   0.45954    0.006
 6934.00    0.51280   0.45990    0.006
 6935.00    0.48906   0.46070    0.006
 6936.00    0.43145   0.46030    0.006
 6937.00    0.38101   0.45948    0.006
 6938.00    0.33778   0.45976    0.006
 6939.00    0.34335   0.46053    0.006
 6940.00    0.39221   0.46028    0.006
 6941.00    0.36999   0.45955    0.006
 6942.00    0.29218   0.45973    0.006
 6943.00    0.28834   0.46045    0.006
 6944.00    0.33537   0.46040    0.006
 6945.00    0.36877   0.45982    0.006
 6946.00    0.39395   0.45987    0.006
 6947.00    0.38847   0.46051    0.006
 6948.00    0.36686   0.46070    0.006
 6949.00    0.39157   0.46029    0.006
 6950.00    0.43742   0.46015    0.006
 6951.00    0.39878   0.46067    0.006
 6952.00    0.32695   0.46110    0.006
 6953.00    0.38622   0.46083    0.006
 6954.00    0.48935   0.46044    0.006
 6955.00    0.51286   0.46080    0.006
 6956.00    0.51401   0.46142    0.006
 6957.00    0.46655   0.46124    0.006
 6958.00    0.40783   0.46053    0.006
 6959.00    0.40241   0.46066    0.006
 6960.00    0.40688   0.46144    0.006
 6961.00    0.41034   0.46132    0.006
 6962.00    0.41367   0.46028    0.006
 6963.00    0.46108   0.46013    0.006
 6964.00    0.51307   0.46104    0.006
 6965.00    0.56997   0.46102    0.006
 6966.00    0.62720   0.45974    0.006
 6967.00    0.58329   0.45933    0.006
 6968.00    0.53613   0.46032    0.006
 6969.00    0.44559   0.46048    0.006
 6970.00    0.35764   0.45912    0.006
 6971.00    0.34886   0.45854    0.006
 6972.00    0.34182   0.45958    0.006
 6973.00    0.36079   0.45996    0.006
 6974.00    0.38317   0.45870    0.006
 6975.00    0.43814   0.45806    0.006
 6976.00    0.49224   0.45908    0.006
 6977.00    0.54020   0.45963    0.006
 6978.00    0.57474   0.45859    0.006
 6979.00    0.53717   0.45798    0.006
 6980.00    0.50815   0.45889    0.006
 6981.00    0.51598   0.45948    0.006
 6982.00    0.51447   0.45870    0.006
 6983.00    0.47976   0.45812    0.006
 6984.00    0.45107   0.45881    0.006
 6985.00    0.44030   0.45938    0.006
 6986.00    0.44770   0.45881    0.006
 6987.00    0.50125   0.45818    0.006
 6988.00    0.54631   0.45857    0.006
 6989.00    0.57280   0.45913    0.006
 6990.00    0.58611   0.45878    0.006
 6991.00    0.57444   0.45800    0.006
 6992.00    0.54182   0.45799    0.006
 6993.00    0.47449   0.45863    0.006
 6994.00    0.43307   0.45853    0.006
 6995.00    0.42923   0.45751    0.006
 6996.00    0.44985   0.45713    0.006
 6997.00    0.50169   0.45795    0.006
 6998.00    0.47421   0.45815    0.006
 6999.00    0.35751   0.45689    0.006
 7000.00    0.29367   0.45614    0.006
 7001.00    0.28227   0.45717    0.006
 7002.00    0.29119   0.45776    0.006
 7003.00    0.31790   0.45636    0.006
 7004.00    0.39760   0.45524    0.006
 7005.00    0.51815   0.45642    0.006
 7006.00    0.49591   0.45746    0.006
 7007.00    0.37690   0.45608    0.006
 7008.00    0.32098   0.45465    0.006
 7009.00    0.30253   0.45586    0.006
 7010.00    0.30653   0.45731    0.006
 7011.00    0.32217   0.45613    0.006
 7012.00    0.39470   0.45451    0.006
 7013.00    0.49279   0.45560    0.006
 7014.00    0.50236   0.45735    0.006
 7015.00    0.47778   0.45653    0.006
 7016.00    0.49673   0.45491    0.006
 7017.00    0.52996   0.45573    0.006
 7018.00    0.55075   0.45758    0.006
 7019.00    0.56813   0.45726    0.006
 7020.00    0.54123   0.45586    0.006
 7021.00    0.50432   0.45631    0.006
 7022.00    0.50458   0.45794    0.006
 7023.00    0.51155   0.45816    0.006
 7024.00    0.53877   0.45728    0.006
 7025.00    0.56879   0.45738    0.006
 7026.00    0.53107   0.45844    0.006
 7027.00    0.48662   0.45900    0.006
 7028.00    0.46363   0.45879    0.006
 7029.00    0.44198   0.45864    0.006
 7030.00    0.40384   0.45898    0.006
 7031.00    0.36547   0.45965    0.006
 7032.00    0.38910   0.46001    0.006
 7033.00    0.41309   0.45971    0.006
 7034.00    0.44683   0.45932    0.006
 7035.00    0.47398   0.45980    0.006
 7036.00    0.40866   0.46046    0.006
 7037.00    0.34396   0.46005    0.006
 7038.00    0.28500   0.45907    0.006
 7039.00    0.23907   0.45912    0.006
 7040.00    0.28094   0.45972    0.006
 7041.00    0.34073   0.45921    0.006
 7042.00    0.49415   0.45788    0.006
 7043.00    0.61853   0.45738    0.006
 7044.00    0.62061   0.45763    0.006
 7045.00    0.58216   0.45705    0.006
 7046.00    0.40274   0.45569    0.006
 7047.00    0.30428   0.45474    0.006
 7048.00    0.44280   0.45446    0.006
 7049.00    0.52757   0.45391    0.006
 7050.00    0.47813   0.45272   -2.000
 7051.00    0.42655   0.45148   -2.000
 7052.00    0.37035   0.45087   -2.000
 7053.00    0.34602   0.45052   -2.000
 7054.00    0.38123   0.44967   -2.000
 7055.00    0.38328   0.44832   -2.000
 7056.00    0.33124   0.44752   -2.000
 7057.00    0.31064   0.44747   -2.000
 7058.00    0.33502   0.44706   -2.000
 7059.00    0.37652   0.44579   -2.000
 7060.00    0.43957   0.44493   -2.000
 7061.00    0.53850   0.44514   -2.000
 7062.00    0.67722   0.44512   -2.000
 7063.00    0.63392   0.44405   -2.000
 7064.00    0.41259   0.44309   -2.000
 7065.00    0.35462   0.44332   -2.000
 7066.00    0.43756   0.44353   -2.000
 7067.00    0.52865   0.44262   -2.000
 7068.00    0.62592   0.44154   -2.000
 7069.00    0.58323   0.44161   -2.000
 7070.00    0.44709   0.44185   -2.000
 7071.00    0.38249   0.44095   -2.000
 7072.00    0.35973   0.43959   -2.000
 7073.00    0.42531   0.43937   -2.000
 7074.00    0.53593   0.43962   -2.000
 7075.00    0.53566   0.43868   -2.000
 7076.00    0.48642   0.43707   -2.000
 7077.00    0.22558   0.43652   -2.000
 7078.00   -0.11550   0.43670   -2.000
 7079.00    0.00464   0.43581   -2.000
 7080.00    0.27329   0.43413   -2.000
 7081.00    0.38930   0.43326   -2.000
 7082.00    0.46421   0.43342   -2.000
 7083.00    0.36749   0.43286   -2.000
 7084.00    0.23289   0.43137   -2.000
 7085.00    0.32970   0.43031   -2.000
 7086.00    0.46719   0.43041   -2.000
 7087.00    0.49486   0.43034   -2.000
 7088.00    0.50781   0.42939   -2.000
 7089.00    0.46911   0.42832   -2.000
 7090.00    0.42550   0.42824   -2.000
 7091.00    0.34767   0.42863   -2.000
 7092.00    0.26782   0.42847   -2.000
 7093.00    0.46886   0.42767   -2.000
 7094.00    0.67441   0.42723   -2.000
 7095.00    0.55155   0.42781   -2.000
 7096.00    0.42750   0.42837   -2.000
 7097.00    0.27402   0.42801   -2.000
 7098.00    0.14423   0.42731   -2.000
 7099.00    0.32926   0.42777   -2.000
 7100.00    0.48496   0.42865   -2.000
 7101.00    0.38081   0.42875   -2.000
 7102.00    0.31180   0.42795   -2.000
 7103.00    0.47238   0.42811   -2.000
 7104.00    0.60765   0.42901   -2.000
 7105.00    0.61408   0.42937   -2.000
 7106.00    0.60340   0.42860   -2.000
 7107.00    0.52230   0.42840   -2.000
 7108.00    0.45126   0.42914   -2.000
 7109.00    0.41451   0.42948   -2.000
 7110.00    0.39938   0.42873   -2.000
 7111.00    0.44637   0.42842   -2.000
 7112.00    0.45831   0.42903   -2.000
 7113.00    0.38427   0.42906   -2.000
 7114.00    0.28766   0.42813   -2.000
 7115.00    0.14332   0.42793   -2.000
 7116.00    0.10131   0.42864   -2.000
 7117.00    0.24748   0.42835   -2.000
 7118.00    0.40401   0.42706   -2.000
 7119.00    0.57719   0.42697   -2.000
 7120.00    0.58374   0.42805   -2.000
 7121.00    0.35537   0.42771   -2.000
 7122.00    0.29935   0.42603   -2.000
 7123.00    0.45711   0.42586   -2.000
 7124.00    0.42205   0.42735   -2.000
 7125.00    0.17618   0.42740   -2.000
 7126.00    0.15674   0.42559   -2.000
 7127.00    0.35569   0.42510   -2.000
 7128.00    0.51642   0.42683   -2.000
 7129.00    0.64466   0.42756   -2.000
 7130.00    0.73438   0.42604   -2.000
 7131.00    0.79525   0.42514   -2.000
 7132.00    0.62889   0.42675   -2.000
 7133.00    0.31302   0.42820   -2.000
 7134.00    0.32629   0.42722   -2.000
 7135.00    0.52914   0.42603   -2.000
 7136.00    0.58343   0.42729   -2.000
 7137.00    0.56317   0.42924   -2.000
 7138.00    0.51415   0.42877   -2.000
 7139.00    0.45262   0.42744   -2.000
 7140.00    0.32671   0.42824   -2.000
 7141.00    0.17681   0.43048   -2.000
 7142.00    0.19437   0.43031   -2.000
 7143.00    0.26482   0.42879   -2.000
 7144.00    0.36758   0.42910   -2.000
 7145.00    0.47888   0.43140   -2.000
 7146.00    0.41728   0.43152   -2.000
 7147.00    0.31843   0.42973   -2.000
 7148.00    0.34110   0.42943   -2.000
 7149.00    0.38455   0.43163   -2.000
 7150.00    0.36207   0.43202   -2.000
 7151.00    0.33106   0.42980   -2.000
 7152.00    0.42068   0.42887   -2.000
 7153.00    0.52125   0.43087   -2.000
 7154.00    0.41214   0.43153   -2.000
 7155.00    0.29156   0.42892   -2.000
 7156.00    0.32960   0.42748   -2.000
 7157.00    0.37335   0.42906   -2.000
 7158.00    0.63559   0.43007   -2.000
 7159.00    0.86816   0.42738   -2.000
 7160.00    0.42722   0.42545   -2.000
 7161.00    0.04470   0.42640   -2.000
 7162.00    0.39800   0.42782   -2.000
 7163.00    0.70653   0.42552   -2.000
 7164.00    0.63308   0.42335   -2.000
 7165.00    0.58585   0.42361   -2.000
 7166.00    0.70476   0.42508   -2.000
 7167.00    0.75717   0.42355   -2.000
 7168.00    0.47944   0.42149   -2.000
 7169.00    0.24650   0.42128   -2.000
 7170.00    0.19383   0.42246   -2.000
 7171.00    0.20327   0.42173   -2.000
 7172.00    0.42016   0.41989   -2.000
 7173.00    0.54218   0.41948   -2.000
 7174.00    0.39657   0.42052   -2.000
 7175.00    0.25367   0.42023   -2.000
 7176.00    0.11733   0.41846   -2.000
 7177.00    0.04544   0.41794   -2.000
 7178.00    0.10778   0.41907   -2.000
 7179.00    0.23277   0.41919   -2.000
 7180.00    0.47121   0.41746   -2.000
 7181.00    0.57113   0.41665   -2.000
 7182.00    0.45176   0.41782   -2.000
 7183.00    0.39554   0.41848   -2.000
 7184.00    0.42706   0.41704   -2.000
 7185.00    0.44182   0.41584   -2.000
 7186.00    0.43609   0.41674   -2.000
 7187.00    0.36785   0.41789   -2.000
 7188.00    0.23222   0.41700   -2.000
 7189.00    0.27407   0.41552   -2.000
 7190.00    0.48468   0.41594   -2.000
 7191.00    0.51859   0.41742   -2.000
 7192.00    0.40436   0.41718   -2.000
 7193.00    0.31372   0.41561   -2.000
 7194.00    0.24048   0.41547   -2.000
 7195.00    0.33125   0.41704   -2.000
 7196.00    0.52835   0.41754   -2.000
 7197.00    0.56354   0.41624   -2.000
 7198.00    0.50689   0.41553   -2.000
 7199.00    0.41416   0.41669   -2.000
 7200.00    0.30362   0.41782   -2.000
 7201.00    0.32789   0.41729   -2.000
 7202.00    0.40973   0.41629   -2.000
 7203.00    0.45589   0.41676   -2.000
 7204.00    0.48901   0.41815   -2.000
 7205.00    0.42822   0.41852   -2.000
 7206.00    0.33834   0.41770   -2.000
 7207.00    0.29878   0.41755   -2.000
 7208.00    0.27220   0.41874   -2.000
 7209.00    0.31463   0.41973   -2.000
 7210.00    0.37157   0.41951   -2.000
 7211.00    0.45488   0.41913   -2.000
 7212.00    0.54258   0.41983   -2.000
 7213.00    0.48071   0.42099   -2.000
 7214.00    0.40014   0.42137   -2.000
 7215.00    0.40265   0.42104   -2.000
 7216.00    0.41234   0.42133   -2.000
 7217.00    0.42534   0.42248   -2.000
 7218.00    0.43852   0.42320   -2.000
