###################################################################
## OUTPUT of StarlightChains_v04.for    [Cid@UFSC - 01/Apr/2007] ##
###################################################################

## Some input info
KUG0210-078._27_26.txt                   [arq_obs]
Base.CB07.vall.4m                        [arq_base]
Masks.EmLines.NEW.gm                     [arq_masks]
StCv04.C11.config                        [arq_config]
   66                                    [N_base]
    0                                    [N_YAV_components = # of components with extra extinction!]
    0                                    [i_FitPowerLaw (1/0 = Yes/No)]
-9.99                                    [alpha_PowerLaw]
CCM                                      [red_law_option]
 1.458241                                [q_norm = A(l_norm)/A(V)]

## (Re)Sampling Parameters
 3741.00                                 [l_ini (A)]
 7218.00                                 [l_fin (A)]
    1.00                                 [dl    (A)]     (OBS: dl_cushion =    50.00 A)

## Normalization info
 4020.00                                 [l_norm (A) - for base]
 4010.00                                 [llow_norm (A) - window for f_obs]
 4060.00                                 [lupp_norm (A) - window for f_obs]
1.577117E-17                             [fobs_norm (in input units)]

## S/N
 3691.00                                 [llow_SN (A) - window for S/N]
 7268.00                                 [lupp_SN (A) - window for S/N]
   5.362                                 [S/N in S/N window]
   5.146                                 [S/N in norm. window]
   0.020                                 [S/N_err in S/N window]
   0.019                                 [S/N_err in norm. window]
  1.0000                                 [fscale_chi2]

## etc...
    -2007346                             [idum_orig]
  2398                                   [NOl_eff]
  2381                                   [Nl_eff]
    17    NSIGMA                         [Ntot_cliped & clip_method]
  2176790                                [Nglobal_steps]
   7                                     [N_chains]
   7                                     [NEX0s_base = N_base in EX0s-fits]
 0   0   1       17   2.0   2.715E+03    [Clip-Bug, RC-Crash & Burn-In warning-flags, n_censored_weights, wei_nsig_threshold & wei_limit]
   133    132.101    131.468      0.633  [idt_all, wdt_TotTime, wdt_UsrTime & wdt_SysTime (sec)]

## Synthesis Results - Best model ##

 6.42045E-05                             [chi2/Nl_eff]
    13.74906                             [adev (%)]

    94.27679                             [sum-of-x (%)]
 1.59400E-16                             [Flux_tot (units of input spectrum!)]
 2.15872E-13                             [Mini_tot (???)]
 1.43188E-13                             [Mcor_tot (???)]

  25.76                                  [v0_min  (km/s)]
  14.93                                  [vd_min  (km/s)]
 1.7662                                  [AV_min  (mag)]
 0.0000                                  [YAV_min (mag)]

# j     x_j(%)      Mini_j(%)     Mcor_j(%)     age_j(yr)     Z_j      (L/M)_j    YAV?  Mstars   component_j        a/Fe...       SSP_chi2r SSP_adev(%)   SSP_AV   SSP_x(%)
  1      0.0000     0.0000E+00    0.0000E+00    1.000000E+06  0.00400  1.094E-02    0   1.0000   age020_m42            0.0000     1.5806E-04    21.8178   4.0000    54.5502
  2      0.0000     0.0000E+00    0.0000E+00    3.160000E+06  0.00400  4.007E-02    0   0.9999   age045_m42            0.0000     1.0319E-04    16.9042   3.4021    65.6956
  3      0.0000     0.0000E+00    0.0000E+00    5.010000E+06  0.00400  2.539E-02    0   0.9488   age055_m42            0.0000     1.0963E-04    17.7809   3.7967    61.8690
  4      0.0000     0.0000E+00    0.0000E+00    6.610000E+06  0.00400  2.620E-02    0   0.9220   age061_m42            0.0000     9.2873E-05    16.1771   3.2118    69.4986
  5      0.0000     0.0000E+00    0.0000E+00    1.000000E+07  0.00400  1.322E-02    0   0.8862   age070_m42            0.0000     1.0093E-04    17.6410   3.0362    67.3171
  6      0.0000     0.0000E+00    0.0000E+00    1.445000E+07  0.00400  7.883E-03    0   0.8571   age078_m42            0.0000     1.0697E-04    18.1965   3.4249    63.7116
  7      0.0000     0.0000E+00    0.0000E+00    2.512000E+07  0.00400  5.251E-03    0   0.8174   age090_m42            0.0000     9.8903E-05    17.6210   2.8840    68.3633
  8      0.0000     0.0000E+00    0.0000E+00    4.000000E+07  0.00400  3.649E-03    0   0.7851   age104_m42            0.0000     9.5763E-05    17.1618   2.6215    70.1310
  9      0.0000     0.0000E+00    0.0000E+00    5.500000E+07  0.00400  3.098E-03    0   0.7629   age110_m42            0.0000     8.7189E-05    15.9642   2.6644    73.9334
 10      0.0000     0.0000E+00    0.0000E+00    1.015200E+08  0.00400  2.228E-03    0   0.7207   age116_m42            0.0000     7.8342E-05    15.0356   2.5625    78.3022
 11      0.0000     0.0000E+00    0.0000E+00    2.861200E+08  0.00400  1.093E-03    0   0.6648   age125_m42            0.0000     7.3016E-05    14.6690   1.9230    82.8917
 12      0.0000     0.0000E+00    0.0000E+00    5.088000E+08  0.00400  6.597E-04    0   0.6365   age130_m42            0.0000     6.8711E-05    14.0491   1.8316    86.7303
 13      0.0000     0.0000E+00    0.0000E+00    1.434000E+09  0.00400  2.132E-04    0   0.5798   age139_m42            0.0000     8.3018E-05    14.3132   1.0702    80.8807
 14      0.0000     0.0000E+00    0.0000E+00    4.250000E+09  0.00400  5.895E-05    0   0.5377   age158_m42            0.0000     1.0708E-04    16.0889   0.9217    68.1732
 15      0.0000     0.0000E+00    0.0000E+00    7.500000E+09  0.00400  3.510E-05    0   0.5212   age171_m42            0.0000     1.1619E-04    16.7766   0.8291    64.7920
 16      0.0000     0.0000E+00    0.0000E+00    1.300000E+10  0.00400  2.005E-05    0   0.5034   age193_m42            0.0000     1.2586E-04    17.5387   0.7627    61.4544
 17      0.0000     0.0000E+00    0.0000E+00    1.800000E+10  0.00400  1.525E-05    0   0.4967   age213_m42            0.0000     1.2535E-04    17.5758   0.7371    61.2636
 18      0.0000     0.0000E+00    0.0000E+00    1.000000E+06  0.00800  1.238E-02    0   1.0000   age020_m52            0.0000     1.5722E-04    21.6227   4.0000    54.7316
 19      0.0000     0.0000E+00    0.0000E+00    3.160000E+06  0.00800  3.074E-02    0   0.9966   age045_m52            0.0000     1.3508E-04    17.3664   4.0000    57.6069
 20      0.0000     0.0000E+00    0.0000E+00    5.010000E+06  0.00800  2.668E-02    0   0.9443   age055_m52            0.0000     1.1323E-04    18.2165   3.9187    60.1576
 21      0.0000     0.0000E+00    0.0000E+00    6.610000E+06  0.00800  2.136E-02    0   0.9177   age061_m52            0.0000     1.1859E-04    19.1819   2.7384    61.8390
 22      0.0000     0.0000E+00    0.0000E+00    1.000000E+07  0.00800  1.215E-02    0   0.8827   age070_m52            0.0000     1.0812E-04    18.5024   3.2860    64.6976
 23      0.0000     0.0000E+00    0.0000E+00    1.445000E+07  0.00800  8.717E-03    0   0.8552   age078_m52            0.0000     1.0394E-04    17.9216   3.3591    65.5661
 24      0.0000     0.0000E+00    0.0000E+00    2.512000E+07  0.00800  5.592E-03    0   0.8162   age090_m52            0.0000     9.6883E-05    17.4583   2.9238    69.8969
 25      0.0000     0.0000E+00    0.0000E+00    4.000000E+07  0.00800  3.896E-03    0   0.7841   age104_m52            0.0000     9.0232E-05    16.5603   2.7553    73.1538
 26      0.0000     0.0000E+00    0.0000E+00    1.015200E+08  0.00800  2.148E-03    0   0.7226   age116_m52            0.0000     7.8307E-05    15.1909   2.5424    78.4109
 27      0.0000     0.0000E+00    0.0000E+00    2.861200E+08  0.00800  9.925E-04    0   0.6683   age125_m52            0.0000     6.9977E-05    14.1733   1.9134    86.8745
 28      0.0000     0.0000E+00    0.0000E+00    9.047900E+08  0.00800  3.141E-04    0   0.6138   age135_m52            0.0000     7.9237E-05    13.5852   1.2246    86.2926
 29      0.0000     0.0000E+00    0.0000E+00    1.434000E+09  0.00800  1.719E-04    0   0.5853   age139_m52            0.0000     9.4430E-05    14.7887   0.8550    76.9199
 30      0.0000     0.0000E+00    0.0000E+00    2.500000E+09  0.00800  7.872E-05    0   0.5600   age150_m52            0.0000     1.0751E-04    15.5929   0.7348    70.2736
 31      0.0000     0.0000E+00    0.0000E+00    4.250000E+09  0.00800  4.336E-05    0   0.5426   age158_m52            0.0000     1.1248E-04    16.0621   0.7737    67.8651
 32      0.0000     0.0000E+00    0.0000E+00    6.250000E+09  0.00800  3.159E-05    0   0.5319   age166_m52            0.0000     1.1966E-04    16.4320   0.6349    65.9474
 33      0.0000     0.0000E+00    0.0000E+00    1.300000E+10  0.00800  1.361E-05    0   0.5073   age193_m52            0.0000     1.3185E-04    17.3913   0.2860    62.0255
 34      0.0000     0.0000E+00    0.0000E+00    1.800000E+10  0.00800  9.886E-06    0   0.4990   age213_m52            0.0000     1.3587E-04    17.4335   0.2034    61.0934
 35      0.0000     0.0000E+00    0.0000E+00    1.000000E+06  0.02000  1.544E-02    0   1.0000   age020_m62            0.0000     1.5315E-04    20.8626   4.0000    55.4199
 36      0.0000     0.0000E+00    0.0000E+00    3.160000E+06  0.02000  3.762E-02    0   0.9858   age045_m62            0.0000     1.3458E-04    17.4376   4.0000    57.9697
 37      0.0000     0.0000E+00    0.0000E+00    5.010000E+06  0.02000  3.296E-02    0   0.9342   age055_m62            0.0000     9.9218E-05    16.8029   3.6401    66.2480
 38      0.0000     0.0000E+00    0.0000E+00    8.710000E+06  0.02000  1.154E-02    0   0.8861   age067_m62            0.0000     1.3179E-04    22.7661   2.9549    58.8277
 39      0.0000     0.0000E+00    0.0000E+00    1.445000E+07  0.02000  7.663E-03    0   0.8472   age078_m62            0.0000     1.1422E-04    19.5626   2.9941    63.8993
 40      0.0000     0.0000E+00    0.0000E+00    2.512000E+07  0.02000  4.532E-03    0   0.8099   age090_m62            0.0000     1.0628E-04    18.9286   2.8973    66.4428
 41      0.0000     0.0000E+00    0.0000E+00    5.500000E+07  0.02000  2.733E-03    0   0.7595   age110_m62            0.0000     8.7042E-05    16.3644   2.7059    73.7668
 42      0.0000     0.0000E+00    0.0000E+00    1.609000E+08  0.02000  1.369E-03    0   0.6985   age120_m62            0.0000     6.8081E-05    14.4742   2.2706    85.7774
 43      0.0000     0.0000E+00    0.0000E+00    2.861200E+08  0.02000  9.013E-04    0   0.6714   age125_m62            0.0000     6.4082E-05    14.0605   1.9225    92.0363
 44      0.0000     0.0000E+00    0.0000E+00    5.088000E+08  0.02000  5.028E-04    0   0.6449   age130_m62            0.0000     6.7260E-05    13.4560   1.5603    93.8528
 45      0.0000     0.0000E+00    0.0000E+00    9.047900E+08  0.02000  2.428E-04    0   0.6179   age135_m62            0.0000     8.1401E-05    13.4247   1.1989    84.7493
 46      0.0000     0.0000E+00    0.0000E+00    1.434000E+09  0.02000  1.263E-04    0   0.5908   age139_m62            0.0000     9.6231E-05    14.4933   0.9477    76.6917
 47      0.0000     0.0000E+00    0.0000E+00    2.500000E+09  0.02000  5.985E-05    0   0.5673   age150_m62            0.0000     1.1003E-04    15.4787   0.7277    70.8765
 48      0.0000     0.0000E+00    0.0000E+00    4.250000E+09  0.02000  3.271E-05    0   0.5468   age158_m62            0.0000     1.2293E-04    16.3871   0.5482    66.4442
 49      0.0000     0.0000E+00    0.0000E+00    1.000000E+10  0.02000  1.360E-05    0   0.5167   age181_m62            0.0000     1.3281E-04    16.7931   0.2693    64.1218
 50      0.0000     0.0000E+00    0.0000E+00    1.800000E+10  0.02000  7.124E-06    0   0.5013   age213_m62            0.0000     1.3892E-04    16.9933   0.0999    62.5347
 51      0.0000     0.0000E+00    0.0000E+00    1.000000E+06  0.05000  2.592E-02    0   0.9998   age020_m72            0.0000     1.4998E-04    20.2656   4.0000    55.7943
 52      0.0000     0.0000E+00    0.0000E+00    3.160000E+06  0.05000  4.845E-02    0   0.9577   age045_m72            0.0000     1.1210E-04    17.3656   4.0000    60.8262
 53      0.0000     0.0000E+00    0.0000E+00    5.010000E+06  0.05000  3.072E-02    0   0.9147   age055_m72            0.0000     1.1418E-04    18.8118   3.5647    61.9110
 54      0.0000     0.0000E+00    0.0000E+00    6.610000E+06  0.05000  1.455E-02    0   0.8877   age061_m72            0.0000     1.4025E-04    24.5334   2.9941    57.9303
 55      0.0000     0.0000E+00    0.0000E+00    1.000000E+07  0.05000  9.074E-03    0   0.8524   age070_m72            0.0000     1.1612E-04    18.7640   3.7236    61.7022
 56      0.0000     0.0000E+00    0.0000E+00    2.512000E+07  0.05000  4.250E-03    0   0.7902   age090_m72            0.0000     9.4873E-05    17.1344   3.2278    69.6981
 57      0.0000     0.0000E+00    0.0000E+00    4.000000E+07  0.05000  3.087E-03    0   0.7618   age104_m72            0.0000     8.7120E-05    16.6911   2.9165    73.7331
 58      0.0000     0.0000E+00    0.0000E+00    1.015200E+08  0.05000  1.700E-03    0   0.7096   age116_m72            0.0000     6.8883E-05    14.8047   2.4287    84.6927
 59     94.2768     1.0000E+02    1.0000E+02    2.861200E+08  0.05000  7.384E-04    0   0.6633   age125_m72            0.0000     6.4203E-05    13.7454   1.7649    94.2872
 60      0.0000     0.0000E+00    0.0000E+00    5.088000E+08  0.05000  3.819E-04    0   0.6372   age130_m72            0.0000     7.1235E-05    13.1968   1.3858    91.4945
 61      0.0000     0.0000E+00    0.0000E+00    9.047900E+08  0.05000  1.676E-04    0   0.6110   age135_m72            0.0000     9.3547E-05    13.9691   0.9815    79.3531
 62      0.0000     0.0000E+00    0.0000E+00    1.434000E+09  0.05000  8.837E-05    0   0.5874   age139_m72            0.0000     1.0898E-04    15.3316   0.7020    72.7503
 63      0.0000     0.0000E+00    0.0000E+00    2.500000E+09  0.05000  4.233E-05    0   0.5598   age150_m72            0.0000     1.2194E-04    16.0705   0.5152    68.0385
 64      0.0000     0.0000E+00    0.0000E+00    6.250000E+09  0.05000  1.435E-05    0   0.5249   age166_m72            0.0000     1.3601E-04    17.0086   0.1995    63.1053
 65      0.0000     0.0000E+00    0.0000E+00    1.300000E+10  0.05000  6.513E-06    0   0.5036   age193_m72            0.0000     1.4278E-04    17.2431  -0.0400    62.5984
 66      0.0000     0.0000E+00    0.0000E+00    1.800000E+10  0.05000  4.527E-06    0   0.4945   age213_m72            0.0000     1.4265E-04    16.8848  -0.2380    63.5486


## Synthesis Results - Average & Chains ##

# j      x_j: min, <> & last-chain-values for 1 ...  7 chains
  1      0.0000      0.7605      0.0000      0.0000      0.0000      0.0021      0.0000      0.0000      0.0000
  2      0.0000      0.6414      0.0000      0.0000      0.0000      0.0118      0.0000      0.0139      0.0000
  3      0.0000      0.5983      0.0000      0.0000      0.0000      0.0000      0.0000      0.0143      0.0000
  4      0.0000      0.7052      0.0000      0.0000      0.0035      0.0111      0.0000      0.0000      0.0000
  5      0.0000      0.7371      0.0000      0.0000      0.0000      0.0405      0.0000      0.0000      0.0000
  6      0.0000      0.6196      0.0000      0.0000      0.0214      0.0102      0.0000      0.0065      0.0000
  7      0.0000      0.7467      0.0000      0.0000      0.0055      0.0000      0.0000      0.0072      0.0000
  8      0.0000      0.9718      0.0000      0.0000      0.0266      0.0120      0.0000      0.0000      0.0000
  9      0.0000      0.8539      0.0000      0.0000      0.0003      0.0322      0.0000      0.0262      0.0000
 10      0.0000      0.6863      0.0000      0.0000      0.0156      0.3393      0.0000      0.0125      0.0000
 11      0.0000      0.7277      0.0000      0.0000      0.0229      0.0000      0.0000      0.0280      0.0000
 12      0.0000      0.7827      0.0000      0.0000      0.0150      0.0099      0.0002      0.0000      0.0002
 13      0.0000      0.6799      0.0001      0.0000      0.9310      0.3589      0.0000      0.0166      0.0000
 14      0.0000      0.7221      0.0000      0.0000      0.0000      0.0139      0.0000      0.0074      0.0000
 15      0.0000      0.5358      0.0000      0.0000      0.0117      0.0000      0.0002      0.0357      0.0000
 16      0.0000      0.5573      0.0000      0.0000      0.0287      0.3001      0.0000      0.0000      0.0000
 17      0.0000      0.5079      0.0000      0.0000      0.0000      0.0042      0.0000      0.0084      0.0000
 18      0.0000      0.7242      0.0000      0.0702      0.0079      0.0121      0.0000      0.0000      0.0000
 19      0.0000      0.9519      0.0000      0.0000      0.0000      0.0058      0.0000      0.0080      0.0000
 20      0.0000      0.5042      0.0000      0.0000      0.0000      0.0005      0.0000      0.0000      0.0000
 21      0.0000      0.5946      0.0000      0.0000      0.0016      0.0553      0.0000      0.0139      0.0000
 22      0.0000      0.9581      0.0000      0.0000      0.0050      0.0000      0.0000      0.0502      0.0000
 23      0.0000      0.8721      0.0000      0.0000      0.0075      0.0180      0.0000      0.0236      0.0000
 24      0.0000      0.7122      0.0000      0.0000      0.0000      0.0002      0.0000      0.0126      0.0000
 25      0.0000      0.5486      0.0000      0.0000      0.0000      0.2868      0.0314      0.0011      0.0000
 26      0.0000      0.9957      0.0000      0.0000      0.0000      0.6808      0.0000      0.0075      0.0000
 27      0.0000      0.6742      0.0000      0.0000      0.0348      0.0000      0.0000      0.0481      0.0000
 28      0.0000      0.7764      0.0000      0.0000      0.0000      0.0000      0.0000      0.0000      0.0000
 29      0.0000      0.7942      0.0000      0.0000      0.0053      0.0174      0.0000      0.0138      0.0000
 30      0.0000      0.5826      0.0000      0.0000      0.0122      0.0892      0.0000      0.0183      0.0000
 31      0.0000      0.4692      0.0000      0.0000      0.0114      0.0000      0.0000      0.0180      0.0000
 32      0.0000      0.7645      0.0000      0.0000      0.0118      0.0000      0.0002      0.0000      0.0000
 33      0.0000      0.7410      0.0000      0.0000      0.0252      0.0138      0.0000      0.0179      0.0000
 34      0.0000      0.6882      0.0000      0.0000      0.0153      0.0099      0.0000      0.1218      0.0000
 35      0.0000      0.7242      0.0000      0.0000      0.0357      0.0000      0.0000      0.0000      0.0000
 36      0.0000      0.6485      0.0000      0.0000      0.0381      0.0166      0.0000      0.0000      0.0000
 37      0.0000      0.5379      0.0000      0.0000      0.0192      0.0100      0.0000      0.0000      0.0000
 38      0.0000      0.8585      0.0000      0.0000      0.0059      0.2753      0.0000      0.0239      0.0000
 39      0.0000      0.3856      0.0000      0.0000      0.0224      0.0202      0.0000      0.0000      0.0000
 40      0.0000      0.6913      0.0000      0.0457      0.0079      0.1970      0.0000      0.0219      0.0000
 41      0.0000      0.7317      0.0000      0.0000      0.0014      0.0024      0.0000      0.0000      0.0000
 42      0.0000      0.5780      0.0001      0.0000      0.3438      0.0160      0.0000      0.0390      0.0000
 43      0.0000      0.4435      0.0131      0.0181      0.0169      0.0000      0.0000      0.3733      0.0051
 44      0.0000      5.9440     13.0065     13.0706     11.4939     11.7248     12.9200     13.4173     12.9765
 45      0.0000      0.6706      0.0003      0.0000      0.0074      0.3804      0.0000      0.0088      0.0001
 46      0.0000      0.6884      0.0000      0.0000      0.2825      0.1412      0.0000      0.5024      0.0000
 47      0.0000      0.7186      0.0000      0.0000      0.0068      0.0018      0.0000      0.0000      0.0000
 48      0.0000      0.6379      0.0000      0.0000      0.0170      0.0071      0.0000      0.0085      0.0000
 49      0.0000      0.7014      0.0000      0.0000      0.0031      0.0024      0.0002      0.0024      0.0000
 50      0.0000      2.3931      2.8098      3.8709      4.1857      4.2632      4.6696      4.1982      4.4890
 51      0.0000      0.6125      0.0000      0.0000      0.0000      0.0000      0.0000      0.0000      0.0000
 52      0.0000      0.6912      0.0000      0.0001      0.0012      0.0000      0.0000      0.0016      0.0000
 53      0.0000      0.6445      0.0000      0.0000      0.0000      0.0000      0.0000      0.0000      0.0000
 54      0.0000      0.5357      0.0000      0.0000      0.0000      0.0023      0.0000      0.0000      0.0000
 55      0.0000      0.9092      0.0000      0.0000      0.0275      0.0000      0.0000      0.0009      0.0000
 56      0.0000      0.5336      0.0000      0.0000      0.0649      0.0143      0.0000      0.0123      0.0000
 57      0.0000      0.6717      0.0000      0.0000      0.0157      0.0351      0.0000      0.0283      0.0000
 58      0.0000      0.6482      0.0000      0.0000      0.0495      0.0133      0.0000      0.0185      0.0000
 59     94.2768     10.8157     22.6767     22.9393     23.5661     22.7313     22.8696     22.3642     22.8342
 60      0.0000     10.1487     21.8146     21.9386     21.3160     20.0477     21.8051     21.2088     21.8140
 61      0.0000      0.7074      0.0006      0.0000      0.0222      0.0037      0.0000      0.0000      0.0027
 62      0.0000      0.6737      0.0000      0.0000      0.0300      0.1805      0.0000      0.0248      0.0000
 63      0.0000      0.9106      0.0000      0.0000      0.0061      0.0000      0.0000      0.0304      0.0001
 64      0.0000      0.8218      0.0000      0.0006      0.0080      0.0000      0.0000      0.0000      0.0000
 65      0.0000      0.9325      0.0005      1.4007      1.1101      1.3116      1.1523      1.1040      1.0324
 66      0.0000      7.7003     19.1780     16.1416     15.5502     15.3034     16.0486     15.5572     16.3480

# j      m_j: min, <> & last-chain-values for 1 ...  7 chains
  1  0.0000E+00  5.1271E-03  0.0000E+00  0.0000E+00  0.0000E+00  8.7806E-06  0.0000E+00  0.0000E+00  0.0000E+00
  2  0.0000E+00  1.1804E-03  0.0000E+00  0.0000E+00  0.0000E+00  1.3707E-05  0.0000E+00  1.6016E-05  0.0000E+00
  3  0.0000E+00  1.6489E-03  0.0000E+00  0.0000E+00  0.0000E+00  0.0000E+00  0.0000E+00  2.4750E-05  0.0000E+00
  4  0.0000E+00  1.8304E-03  0.0000E+00  0.0000E+00  5.6439E-06  1.8048E-05  0.0000E+00  0.0000E+00  0.0000E+00
  5  0.0000E+00  3.6442E-03  0.0000E+00  0.0000E+00  0.0000E+00  1.2591E-04  0.0000E+00  0.0000E+00  0.0000E+00
  6  0.0000E+00  4.9684E-03  0.0000E+00  0.0000E+00  1.0792E-04  5.1345E-05  0.0000E+00  3.2869E-05  0.0000E+00
  7  0.0000E+00  8.5724E-03  0.0000E+00  0.0000E+00  3.9725E-05  0.0000E+00  0.0000E+00  5.1465E-05  0.0000E+00
  8  0.0000E+00  1.5422E-02  0.0000E+00  0.0000E+00  2.6488E-04  1.1976E-04  0.0000E+00  0.0000E+00  0.0000E+00
  9  0.0000E+00  1.5509E-02  0.0000E+00  0.0000E+00  2.9605E-06  3.6754E-04  0.0000E+00  2.9783E-04  0.0000E+00
 10  0.0000E+00  1.6374E-02  0.0000E+00  0.0000E+00  2.3333E-04  5.0909E-03  0.0000E+00  1.8730E-04  0.0000E+00
 11  0.0000E+00  3.2645E-02  0.0000E+00  0.0000E+00  6.4556E-04  0.0000E+00  0.0000E+00  7.8635E-04  0.0000E+00
 12  0.0000E+00  5.5701E-02  0.0000E+00  0.0000E+00  6.6908E-04  4.4199E-04  7.4412E-06  0.0000E+00  7.2743E-06
 13  0.0000E+00  1.3638E-01  8.5131E-06  0.0000E+00  1.1728E-01  4.5267E-02  0.0000E+00  2.0842E-03  0.0000E+00
 14  0.0000E+00  4.8576E-01  0.0000E+00  0.0000E+00  0.0000E+00  5.8892E-03  0.0000E+00  3.1358E-03  0.0000E+00
 15  0.0000E+00  5.8683E-01  0.0000E+00  0.0000E+00  8.0718E-03  0.0000E+00  1.5938E-04  2.4493E-02  0.0000E+00
 16  0.0000E+00  1.0320E+00  0.0000E+00  0.0000E+00  3.3382E-02  3.4950E-01  0.0000E+00  0.0000E+00  0.0000E+00
 17  0.0000E+00  1.2200E+00  0.0000E+00  0.0000E+00  0.0000E+00  6.4176E-03  0.0000E+00  1.2605E-02  0.0000E+00
 18  0.0000E+00  4.3142E-03  0.0000E+00  2.5561E-04  2.9445E-05  4.5154E-05  0.0000E+00  0.0000E+00  0.0000E+00
 19  0.0000E+00  2.2761E-03  0.0000E+00  0.0000E+00  0.0000E+00  8.6752E-06  0.0000E+00  1.1917E-05  0.0000E+00
 20  0.0000E+00  1.3161E-03  0.0000E+00  0.0000E+00  0.0000E+00  8.4911E-07  0.0000E+00  0.0000E+00  0.0000E+00
 21  0.0000E+00  1.8840E-03  0.0000E+00  0.0000E+00  3.0943E-06  1.1015E-04  0.0000E+00  2.7519E-05  0.0000E+00
 22  0.0000E+00  5.1340E-03  0.0000E+00  0.0000E+00  1.6949E-05  0.0000E+00  0.0000E+00  1.6833E-04  0.0000E+00
 23  0.0000E+00  6.3105E-03  0.0000E+00  0.0000E+00  3.4101E-05  8.2009E-05  0.0000E+00  1.0677E-04  0.0000E+00
 24  0.0000E+00  7.6672E-03  0.0000E+00  0.0000E+00  0.0000E+00  1.4056E-06  0.0000E+00  8.4916E-05  0.0000E+00
 25  0.0000E+00  8.1437E-03  0.0000E+00  0.0000E+00  0.0000E+00  2.6769E-03  2.8152E-04  1.0635E-05  0.0000E+00
 26  0.0000E+00  2.4704E-02  0.0000E+00  0.0000E+00  0.0000E+00  1.0623E-02  0.0000E+00  1.1619E-04  0.0000E+00
 27  0.0000E+00  3.3484E-02  0.0000E+00  0.0000E+00  1.0864E-03  0.0000E+00  0.0000E+00  1.4971E-03  0.0000E+00
 28  0.0000E+00  1.1190E-01  0.0000E+00  0.0000E+00  0.0000E+00  0.0000E+00  4.0691E-06  0.0000E+00  0.0000E+00
 29  0.0000E+00  1.9943E-01  0.0000E+00  0.0000E+00  8.2895E-04  2.7430E-03  0.0000E+00  2.1707E-03  0.0000E+00
 30  0.0000E+00  3.0569E-01  0.0000E+00  0.0000E+00  4.0305E-03  2.9434E-02  0.0000E+00  6.0235E-03  0.0000E+00
 31  0.0000E+00  4.3308E-01  0.0000E+00  0.0000E+00  6.5940E-03  0.0000E+00  0.0000E+00  1.0400E-02  0.0000E+00
 32  0.0000E+00  9.4934E-01  0.0000E+00  0.0000E+00  9.1913E-03  0.0000E+00  1.5521E-04  0.0000E+00  0.0000E+00
 33  0.0000E+00  2.0371E+00  0.0000E+00  0.0000E+00  4.3549E-02  2.3819E-02  0.0000E+00  3.0856E-02  0.0000E+00
 34  0.0000E+00  2.5621E+00  0.0000E+00  0.0000E+00  3.5874E-02  2.3190E-02  0.0000E+00  2.8413E-01  0.0000E+00
 35  0.0000E+00  3.4595E-03  0.0000E+00  0.0000E+00  1.0722E-04  0.0000E+00  0.0000E+00  0.0000E+00  0.0000E+00
 36  0.0000E+00  1.2534E-03  0.0000E+00  0.0000E+00  4.6203E-05  2.0131E-05  0.0000E+00  0.0000E+00  0.0000E+00
 37  0.0000E+00  1.1245E-03  0.0000E+00  0.0000E+00  2.5222E-05  1.3147E-05  0.0000E+00  0.0000E+00  0.0000E+00
 38  0.0000E+00  4.8619E-03  0.0000E+00  0.0000E+00  2.0930E-05  9.8050E-04  0.0000E+00  8.4665E-05  0.0000E+00
 39  0.0000E+00  3.1440E-03  0.0000E+00  0.0000E+00  1.1466E-04  1.0379E-04  0.0000E+00  0.0000E+00  1.9778E-07
 40  0.0000E+00  9.1120E-03  0.0000E+00  3.6832E-04  6.5095E-05  1.6332E-03  0.0000E+00  1.8064E-04  0.0000E+00
 41  0.0000E+00  1.4997E-02  0.0000E+00  0.0000E+00  1.8647E-05  3.1170E-05  0.0000E+00  0.0000E+00  0.0000E+00
 42  0.0000E+00  2.1752E-02  3.1266E-06  0.0000E+00  8.1265E-03  3.7890E-04  0.0000E+00  9.1962E-04  0.0000E+00
 43  0.0000E+00  2.4364E-02  4.1328E-04  6.0744E-04  5.8320E-04  0.0000E+00  0.0000E+00  1.2846E-02  1.6985E-04
 44  0.0000E+00  5.6229E-01  7.0505E-01  7.5587E-01  6.8289E-01  6.9751E-01  7.3839E-01  7.9505E-01  7.3808E-01
 45  0.0000E+00  1.2587E-01  2.7857E-05  0.0000E+00  8.7812E-04  4.4903E-02  0.0000E+00  1.0364E-03  1.0171E-05
 46  0.0000E+00  2.3751E-01  0.0000E+00  0.0000E+00  6.1213E-02  3.0625E-02  0.0000E+00  1.0857E-01  0.0000E+00
 47  0.0000E+00  5.0237E-01  0.0000E+00  0.0000E+00  3.0059E-03  8.0182E-04  0.0000E+00  0.0000E+00  0.0000E+00
 48  0.0000E+00  7.8649E-01  0.0000E+00  0.0000E+00  1.3153E-02  5.5042E-03  0.0000E+00  6.5565E-03  0.0000E+00
 49  0.0000E+00  1.9653E+00  0.0000E+00  0.0000E+00  5.5212E-03  4.1937E-03  3.7654E-04  4.2664E-03  0.0000E+00
 50  0.0000E+00  1.2420E+01  8.3563E+00  1.2281E+01  1.3644E+01  1.3914E+01  1.4641E+01  1.3648E+01  1.4008E+01
 51  0.0000E+00  1.7424E-03  0.0000E+00  0.0000E+00  0.0000E+00  0.0000E+00  0.0000E+00  0.0000E+00  0.0000E+00
 52  0.0000E+00  1.0077E-03  0.0000E+00  4.4980E-08  1.1294E-06  0.0000E+00  0.0000E+00  1.4788E-06  0.0000E+00
 53  0.0000E+00  1.4154E-03  0.0000E+00  0.0000E+00  0.0000E+00  0.0000E+00  0.0000E+00  0.0000E+00  0.0000E+00
 54  0.0000E+00  2.4107E-03  0.0000E+00  0.0000E+00  0.0000E+00  6.5205E-06  0.0000E+00  0.0000E+00  0.0000E+00
 55  0.0000E+00  6.2991E-03  0.0000E+00  0.0000E+00  1.1975E-04  0.0000E+00  0.0000E+00  4.0102E-06  0.0000E+00
 56  0.0000E+00  7.3173E-03  0.0000E+00  0.0000E+00  5.5890E-04  1.2365E-04  0.0000E+00  1.0526E-04  0.0000E+00
 57  0.0000E+00  1.2226E-02  0.0000E+00  0.0000E+00  1.7945E-04  4.0135E-04  0.0000E+00  3.2276E-04  0.0000E+00
 58  0.0000E+00  1.9955E-02  0.0000E+00  0.0000E+00  9.5723E-04  2.5804E-04  0.0000E+00  3.5618E-04  0.0000E+00
 59  1.0000E+02  7.1658E-01  8.6092E-01  9.2908E-01  9.8060E-01  9.4709E-01  9.1538E-01  9.2812E-01  9.0960E-01
 60  0.0000E+00  1.2489E+00  1.5383E+00  1.6504E+00  1.6475E+00  1.5514E+00  1.6211E+00  1.6348E+00  1.6140E+00
 61  0.0000E+00  1.9021E-01  8.7434E-05  0.0000E+00  3.7442E-03  6.3282E-04  0.0000E+00  0.0000E+00  4.3847E-04
 62  0.0000E+00  3.3029E-01  0.0000E+00  0.0000E+00  9.2402E-03  5.5662E-02  0.0000E+00  7.6180E-03  0.0000E+00
 63  0.0000E+00  8.8821E-01  0.0000E+00  0.0000E+00  3.7207E-03  0.0000E+00  0.0000E+00  1.8578E-02  8.3353E-05
 64  0.0000E+00  2.2171E+00  0.0000E+00  1.0352E-03  1.3500E-02  0.0000E+00  0.0000E+00  0.0000E+00  0.0000E+00
 65  0.0000E+00  5.3181E+00  1.6818E-03  4.8832E+00  3.9760E+00  4.7038E+00  3.9701E+00  3.9438E+00  3.5399E+00
 66  0.0000E+00  6.2037E+01  8.8537E+01  7.9498E+01  7.8683E+01  7.7534E+01  7.8113E+01  7.8509E+01  7.9190E+01

# AV, chi2 & Mass for <> & i_chain = 1 ...  7 solutions
AV       1.7662      0.8421      0.7960      0.8344      0.8489      0.8599      0.8201      0.8478      0.8185
chi2 6.4205E-05  1.0782E-04  8.6321E-05  8.5931E-05  8.5792E-05  8.6568E-05  8.6144E-05  8.5802E-05  8.6145E-05
Mass 1.4319E-13  6.6266E-13  1.0870E-12  1.0728E-12  1.0648E-12  1.0791E-12  1.0649E-12  1.0660E-12  1.0677E-12
  25.76                                  [v0_min (km/s) before EX0s...]
  14.93                                  [vd_min (km/s) before EX0s...]


## Synthetic spectrum (Best Model) ##l_obs f_obs f_syn wei
 3478    [Nl_obs]
 3741.00    0.00000   0.44703    0.000
 3742.00    0.00000   0.44701    0.000
 3743.00    0.00000   0.43663    0.000
 3744.00    0.00000   0.42369    0.000
 3745.00    0.00000   0.40334    0.000
 3746.00    0.00000   0.37320    0.000
 3747.00    0.00000   0.33932    0.000
 3748.00    0.00000   0.29913    0.000
 3749.00    0.00000   0.25474    0.000
 3750.00    0.00000   0.22769    0.000
 3751.00    0.00000   0.23948    0.000
 3752.00    0.00000   0.28333    0.000
 3753.00    0.00000   0.33594    0.000
 3754.00    0.00000   0.38465    0.000
 3755.00    0.00000   0.42814    0.000
 3756.00    0.00000   0.45918    0.000
 3757.00    0.00000   0.46526    0.000
 3758.00    0.00000   0.45463    0.000
 3759.00    0.00000   0.45237    0.000
 3760.00    0.00000   0.46445    0.000
 3761.00    0.00000   0.47620    0.000
 3762.00    0.00000   0.48098    0.000
 3763.00    0.00000   0.47958    0.000
 3764.00    0.00000   0.46894    0.000
 3765.00    0.00000   0.45320    0.000
 3766.00    0.00000   0.42758    0.000
 3767.00    0.00000   0.38934    0.000
 3768.00    0.00000   0.34945    0.000
 3769.00    0.00342   0.30983   -1.000
 3770.00    0.08984   0.26990   -1.000
 3771.00    0.17962   0.25263    1.647
 3772.00    0.31345   0.27639    0.109
 3773.00    0.41784   0.32336    0.059
 3774.00    0.26368   0.36808    0.060
 3775.00    0.17785   0.40561    0.060
 3776.00    0.53511   0.44306    0.061
 3777.00    1.01554   0.48308    0.062
 3778.00    2.11937   0.51975    0.065
 3779.00    2.80991   0.55247    0.066
 3780.00    1.80884   0.58357    0.065
 3781.00    0.98718   0.60703    0.064
 3782.00    0.77401   0.61895    0.064
 3783.00    0.58103   0.62568    0.064
 3784.00    0.44576   0.63403    0.064
 3785.00    0.39556   0.63364    0.064
 3786.00    0.55317   0.61175    0.064
 3787.00    0.42049   0.58259    0.063
 3788.00   -0.32402   0.56238    0.000
 3789.00   -0.40622   0.54794    0.000
 3790.00    0.72473   0.53319    0.062
 3791.00    1.41587   0.51705    0.061
 3792.00    1.40297   0.49466    0.060
 3793.00    1.18443   0.45935    0.059
 3794.00    0.67705   0.41316    0.058
 3795.00    0.50269   0.36509    0.058
 3796.00    0.73996   0.31921    0.058
 3797.00    0.82940   0.27356    0.058
 3798.00    0.75776   0.24180    0.058
 3799.00    0.66813   0.24826    0.057
 3800.00    0.56120   0.29204    0.058
 3801.00    0.34654   0.34874    0.057
 3802.00    0.04060   0.40343    0.057
 3803.00    0.10178   0.45391    0.057
 3804.00    0.43690   0.49536    0.057
 3805.00    0.60409   0.52331    0.058
 3806.00    0.66119   0.54042    0.059
 3807.00    0.68648   0.55782    0.059
 3808.00    0.69352   0.58833    0.060
 3809.00    0.74922   0.62793    0.059
 3810.00    0.82925   0.66393    0.059
 3811.00    0.44613   0.68626    0.059
 3812.00   -0.13728   0.68633    0.000
 3813.00    0.10018   0.66470    0.060
 3814.00    0.64206   0.64147    0.060
 3815.00    0.88275   0.63521    0.060
 3816.00    1.02875   0.64796    0.060
 3817.00    0.91270   0.67421    0.059
 3818.00    0.72792   0.69583    0.058
 3819.00    0.71488   0.69202    0.058
 3820.00    0.73863   0.66632    0.059
 3821.00    0.74538   0.64762    0.058
 3822.00    0.74924   0.65176    0.058
 3823.00    0.73043   0.65309    0.058
 3824.00    0.70872   0.62479    0.058
 3825.00    0.77609   0.58434    0.056
 3826.00    0.85146   0.55539    0.055
 3827.00    0.28432   0.53389    0.055
 3828.00   -0.31736   0.50982    0.000
 3829.00    0.31313   0.48232    0.055
 3830.00    0.95685   0.45493    0.056
 3831.00    0.63267   0.42246    0.055
 3832.00    0.30606   0.37635    0.054
 3833.00   -0.07450   0.32479    0.000
 3834.00   -0.37757   0.27868    0.000
 3835.00    0.28298   0.24512    0.054
 3836.00    0.84599   0.23875    0.054
 3837.00    0.58448   0.26311    0.054
 3838.00    0.37049   0.30089    0.054
 3839.00    0.45552   0.34095    0.054
 3840.00    0.59006   0.38162    0.055
 3841.00    0.96892   0.42575    0.056
 3842.00    1.33598   0.47623    0.057
 3843.00    1.65583   0.52414    0.057
 3844.00    1.79300   0.56057    0.057
 3845.00    1.32283   0.58758    0.057
 3846.00    0.73167   0.61107    0.056
 3847.00   -0.19924   0.63699    0.000
 3848.00   -0.56388   0.66177    0.000
 3849.00    0.43163   0.67195    0.000
 3850.00    1.09953   0.67504    0.000
 3851.00    1.08801   0.69616    0.000
 3852.00    0.99929   0.72870    0.000
 3853.00    0.77134   0.74423    0.000
 3854.00    0.50015   0.74259    0.000
 3855.00    0.16077   0.73330    0.000
 3856.00    0.32678   0.72423    0.000
 3857.00    1.19243   0.73332    0.000
 3858.00    1.47431   0.74978    0.000
 3859.00    1.04490   0.74916    0.000
 3860.00    0.71694   0.74722    0.000
 3861.00    0.49795   0.76269    0.000
 3862.00    0.37982   0.77594    0.000
 3863.00    0.35724   0.77585    0.000
 3864.00    0.27250   0.77526    0.000
 3865.00    0.13584   0.77351    0.000
 3866.00    0.15350   0.76842    0.000
 3867.00    0.28467   0.77192    0.000
 3868.00    0.48385   0.78600    0.000
 3869.00    0.72696   0.79640    0.000
 3870.00    0.87390   0.79077    0.000
 3871.00    0.96650   0.76706    0.000
 3872.00    0.80667   0.73152    0.000
 3873.00    0.52267   0.70504    0.000
 3874.00    0.34552   0.70398    0.000
 3875.00    0.21381   0.71457    0.000
 3876.00    0.38300   0.71298    0.000
 3877.00    0.66178   0.68488    0.000
 3878.00    0.87286   0.63580    0.000
 3879.00    1.06306   0.60169    0.000
 3880.00    0.93374   0.59798    0.000
 3881.00    0.72238   0.59127    0.048
 3882.00    0.54096   0.56099    0.049
 3883.00    0.36581   0.52337    0.049
 3884.00    0.57638   0.48834    0.050
 3885.00    0.85056   0.44577    0.051
 3886.00    0.72601   0.39231    0.051
 3887.00    0.55209   0.33885    0.051
 3888.00    0.67284   0.29165    0.052
 3889.00    0.81880   0.26043    0.053
 3890.00    0.87882   0.26531    0.053
 3891.00    0.93455   0.30730    0.053
 3892.00    1.24161   0.36303    0.053
 3893.00    1.53552   0.41263    0.053
 3894.00    0.71466   0.45074    0.053
 3895.00   -0.05275   0.48240    0.000
 3896.00    0.27339   0.51563    0.052
 3897.00    0.57074   0.55137    0.051
 3898.00    0.52756   0.58049    0.050
 3899.00    0.49556   0.59840    0.049
 3900.00    0.55451   0.61589    0.048
 3901.00    0.58104   0.64859    0.046
 3902.00    0.40949   0.68382    0.044
 3903.00    0.24709   0.69962    0.042
 3904.00    0.12874   0.70815    0.041
 3905.00    0.10989   0.71352    0.040
 3906.00    0.48067   0.71378    0.041
 3907.00    0.78428   0.73175    0.042
 3908.00    0.86896   0.77044    0.044
 3909.00    0.88889   0.80620    0.044
 3910.00    0.73025   0.82747    0.044
 3911.00    0.69801   0.83700    0.043
 3912.00    0.96424   0.83682    0.045
 3913.00    1.12188   0.82235    0.045
 3914.00    1.05790   0.80399    0.045
 3915.00    0.89402   0.80331    0.045
 3916.00    0.55269   0.81034    0.045
 3917.00    0.29466   0.81131    0.046
 3918.00    0.16607   0.81105    0.047
 3919.00    0.08241   0.80919    0.047
 3920.00    0.06007   0.80641    0.047
 3921.00    0.21239   0.81018    0.047
 3922.00    0.57451   0.82005    0.047
 3923.00    0.79848   0.82978    0.047
 3924.00    0.87614   0.83890    0.049
 3925.00    0.82306   0.84059    0.049
 3926.00    0.64786   0.82958    0.049
 3927.00    0.63875   0.81255    0.049
 3928.00    0.76643   0.79209    0.049
 3929.00    0.61927   0.76590    0.048
 3930.00    0.27287   0.73374    0.047
 3931.00    0.23919   0.69519    0.048
 3932.00    0.40452   0.63244    0.050
 3933.00    0.36945   0.53587    0.049
 3934.00    0.22283   0.47183    0.048
 3935.00    0.20005   0.51179    0.048
 3936.00    0.23722   0.61649    0.048
 3937.00   -0.07595   0.70248    0.000
 3938.00   -0.53559   0.74478    0.000
 3939.00   -0.06110   0.77018    0.000
 3940.00    0.74752   0.79621    0.049
 3941.00    1.03636   0.81045    0.049
 3942.00    1.16809   0.80820    0.049
 3943.00    1.38529   0.79544    0.049
 3944.00    1.62396   0.78051    0.049
 3945.00    1.36737   0.78297    0.049
 3946.00    1.00980   0.80448    0.049
 3947.00    0.79495   0.81510    0.049
 3948.00    0.60296   0.80191    0.049
 3949.00    0.72394   0.78569    0.048
 3950.00    0.88229   0.78238    0.048
 3951.00    0.52233   0.78088    0.047
 3952.00    0.12016   0.77030    0.046
 3953.00    0.57039   0.76377    0.047
 3954.00    1.05980   0.76837    0.047
 3955.00    0.96637   0.76322    0.046
 3956.00    0.85926   0.73451    0.045
 3957.00    0.42521   0.70319    0.045
 3958.00    0.03398   0.69016    0.046
 3959.00    0.45379   0.68676    0.045
 3960.00    0.84134   0.66909    0.000
 3961.00    0.86535   0.62850    0.000
 3962.00    0.85794   0.58285    0.000
 3963.00    0.60361   0.54716    0.000
 3964.00    0.38128   0.51482    0.000
 3965.00    0.34881   0.47511    0.000
 3966.00    0.39245   0.42344    0.000
 3967.00    0.79349   0.36019    0.000
 3968.00    1.04299   0.29172    0.000
 3969.00    0.71176   0.23666    0.000
 3970.00    0.34844   0.21625    0.000
 3971.00   -0.11747   0.23687    0.000
 3972.00   -0.28162   0.28651    0.000
 3973.00    0.37152   0.34367    0.000
 3974.00    0.76551   0.39712    0.000
 3975.00    0.55776   0.44852    0.000
 3976.00    0.43016   0.49599    0.000
 3977.00    0.46353   0.53728    0.000
 3978.00    0.64654   0.57804    0.000
 3979.00    1.09131   0.61943    0.000
 3980.00    1.16955   0.65571    0.000
 3981.00    0.68665   0.67835    0.050
 3982.00    0.50226   0.68894    0.050
 3983.00    0.71931   0.70211    0.050
 3984.00    0.76981   0.72461    0.049
 3985.00    0.62307   0.75065    0.049
 3986.00    0.47967   0.77210    0.049
 3987.00    0.33973   0.78943    0.048
 3988.00    0.46651   0.80727    0.047
 3989.00    0.83896   0.81962    0.047
 3990.00    0.94263   0.82380    0.046
 3991.00    0.82806   0.82966    0.045
 3992.00    0.97381   0.84408    0.044
 3993.00    1.30556   0.86142    0.045
 3994.00    1.47295   0.86968    0.045
 3995.00    1.53731   0.86584    0.045
 3996.00    1.38681   0.85380    0.045
 3997.00    1.11857   0.83970    0.045
 3998.00    1.28031   0.83698    0.044
 3999.00    1.64686   0.85462    0.044
 4000.00    1.60508   0.87961    0.044
 4001.00    1.39546   0.88952    0.044
 4002.00    1.23095   0.88351    0.044
 4003.00    1.08229   0.87838    0.044
 4004.00    1.08476   0.86995    0.044
 4005.00    1.13202   0.84722    0.044
 4006.00    1.11356   0.83653    0.043
 4007.00    1.07896   0.85954    0.043
 4008.00    0.95551   0.89409    0.043
 4009.00    0.81439   0.91312    0.042
 4010.00    0.80932   0.91712    0.042
 4011.00    0.82539   0.91316    0.042
 4012.00    0.92437   0.90043    0.043
 4013.00    1.03290   0.89194    0.044
 4014.00    0.95730   0.89618    0.043
 4015.00    0.86747   0.90345    0.043
 4016.00    1.13347   0.90632    0.043
 4017.00    1.41446   0.90442    0.044
 4018.00    1.24798   0.90672    0.044
 4019.00    1.08012   0.92207    0.044
 4020.00    1.03116   0.93803    0.044
 4021.00    1.00000   0.93796    0.043
 4022.00    1.28289   0.92541    0.044
 4023.00    1.52909   0.91044    0.045
 4024.00    1.38035   0.89309    0.046
 4025.00    1.22436   0.88365    0.046
 4026.00    1.01334   0.89769    0.045
 4027.00    0.86764   0.92023    0.044
 4028.00    1.09867   0.92646    0.045
 4029.00    1.21448   0.91349    0.046
 4030.00    0.80221   0.88674    0.045
 4031.00    0.53285   0.86129    0.044
 4032.00    0.79958   0.85282    0.045
 4033.00    1.00134   0.85839    0.045
 4034.00    0.99943   0.87272    0.044
 4035.00    0.98689   0.89075    0.044
 4036.00    0.94612   0.91057    0.044
 4037.00    1.05302   0.93027    0.044
 4038.00    1.49713   0.94316    0.044
 4039.00    1.68099   0.94495    0.044
 4040.00    1.35034   0.93751    0.044
 4041.00    1.14250   0.92926    0.043
 4042.00    1.14623   0.92946    0.043
 4043.00    1.05067   0.93115    0.043
 4044.00    0.80535   0.91168    0.042
 4045.00    0.73928   0.86906    0.042
 4046.00    0.91082   0.84332    0.042
 4047.00    0.93085   0.86669    0.042
 4048.00    0.77398   0.90304    0.042
 4049.00    0.81097   0.91433    0.042
 4050.00    1.04754   0.91736    0.042
 4051.00    1.19190   0.92312    0.042
 4052.00    1.25253   0.91798    0.042
 4053.00    1.13590   0.90169    0.041
 4054.00    0.87739   0.88612    0.041
 4055.00    0.78106   0.88260    0.041
 4056.00    0.79895   0.89032    0.041
 4057.00    0.78987   0.89250    0.041
 4058.00    0.76413   0.88828    0.041
 4059.00    0.83734   0.89544    0.041
 4060.00    0.96394   0.91079    0.040
 4061.00    0.93256   0.91387    0.040
 4062.00    0.82714   0.89223    0.040
 4063.00    0.58676   0.85544    0.040
 4064.00    0.29185   0.83913    0.040
 4065.00    0.32156   0.85897    0.040
 4066.00    0.46320   0.87640    0.040
 4067.00    0.75726   0.86904    0.041
 4068.00    1.09556   0.86882    0.041
 4069.00    1.24830   0.88856    0.041
 4070.00    1.35646   0.89279    0.042
 4071.00    1.10915   0.86677    0.041
 4072.00    0.79296   0.84455    0.041
 4073.00    0.67982   0.85396    0.041
 4074.00    0.59729   0.87395    0.041
 4075.00    0.80772   0.87024    0.040
 4076.00    1.05054   0.83544    0.040
 4077.00    0.93943   0.79023    0.040
 4078.00    0.80240   0.77141    0.041
 4079.00    0.72578   0.79512    0.040
 4080.00    0.65147   0.83455    0.040
 4081.00    0.80441   0.85939    0.041
 4082.00    0.95852   0.86108    0.041
 4083.00    1.10913   0.84526    0.041
 4084.00    1.24941   0.82272    0.042
 4085.00    1.21929   0.80185    0.042
 4086.00    1.19152   0.78979    0.042
 4087.00    1.18784   0.78892    0.041
 4088.00    1.17724   0.79101    0.041
 4089.00    1.11591   0.78457    0.041
 4090.00    1.06833   0.76671    0.042
 4091.00    1.09786   0.74345    0.042
 4092.00    1.14287   0.71864    0.000
 4093.00    1.25710   0.69306    0.000
 4094.00    1.27552   0.66631    0.000
 4095.00    0.94205   0.63190    0.000
 4096.00    0.63764   0.58835    0.000
 4097.00    0.42258   0.54315    0.000
 4098.00    0.32089   0.49970    0.000
 4099.00    0.51554   0.45526    0.000
 4100.00    0.70136   0.40238    0.000
 4101.00    0.86736   0.34303    0.000
 4102.00    0.97828   0.30821    0.000
 4103.00    0.98202   0.32542    0.000
 4104.00    0.95648   0.37915    0.000
 4105.00    0.88128   0.44011    0.000
 4106.00    0.77136   0.49430    0.000
 4107.00    0.60984   0.53843    0.000
 4108.00    0.55433   0.57358    0.000
 4109.00    0.63732   0.60106    0.000
 4110.00    0.68091   0.62315    0.000
 4111.00    0.67914   0.64557    0.000
 4112.00    0.68785   0.67324    0.000
 4113.00    0.70721   0.70680    0.038
 4114.00    0.71613   0.74216    0.038
 4115.00    0.71572   0.77394    0.037
 4116.00    0.65867   0.79951    0.037
 4117.00    0.55692   0.81298    0.037
 4118.00    0.49296   0.80884    0.037
 4119.00    0.45521   0.80157    0.037
 4120.00    0.55565   0.81181    0.037
 4121.00    0.74018   0.83046    0.037
 4122.00    1.03517   0.83554    0.037
 4123.00    1.38885   0.83562    0.038
 4124.00    1.35872   0.84968    0.038
 4125.00    1.15164   0.86953    0.039
 4126.00    1.09744   0.87431    0.039
 4127.00    1.10397   0.85621    0.039
 4128.00    1.13405   0.82856    0.039
 4129.00    1.17210   0.81755    0.038
 4130.00    1.02753   0.82167    0.038
 4131.00    0.83100   0.81953    0.038
 4132.00    0.92382   0.81526    0.038
 4133.00    1.08457   0.82856    0.038
 4134.00    1.08111   0.85682    0.038
 4135.00    1.04666   0.88528    0.038
 4136.00    1.02690   0.90584    0.038
 4137.00    1.00928   0.91255    0.039
 4138.00    0.70364   0.91694    0.038
 4139.00    0.36740   0.92870    0.037
 4140.00    0.43670   0.93997    0.038
 4141.00    0.53406   0.93906    0.039
 4142.00    0.74660   0.91785    0.039
 4143.00    0.96311   0.87978    0.039
 4144.00    0.79929   0.85597    0.039
 4145.00    0.65001   0.86895    0.038
 4146.00    1.00589   0.89640    0.039
 4147.00    1.33369   0.91469    0.040
 4148.00    1.22737   0.91895    0.039
 4149.00    1.12447   0.90976    0.039
 4150.00    1.05539   0.89905    0.040
 4151.00    0.98761   0.89984    0.040
 4152.00    0.92904   0.90615    0.039
 4153.00    0.86552   0.90533    0.039
 4154.00    0.77492   0.89412    0.038
 4155.00    0.69972   0.88577    0.038
 4156.00    0.69180   0.88703    0.038
 4157.00    0.69601   0.89204    0.038
 4158.00    0.74382   0.90260    0.038
 4159.00    0.83228   0.91684    0.038
 4160.00    1.04336   0.92271    0.038
 4161.00    1.12910   0.91681    0.038
 4162.00    0.89295   0.91426    0.038
 4163.00    0.77464   0.92225    0.038
 4164.00    0.91663   0.93167    0.038
 4165.00    0.92588   0.93984    0.038
 4166.00    0.68085   0.94077    0.037
 4167.00    0.55291   0.93311    0.037
 4168.00    0.62066   0.93136    0.038
 4169.00    0.78021   0.93871    0.038
 4170.00    1.07422   0.93434    0.038
 4171.00    1.12453   0.90443    0.038
 4172.00    0.86097   0.86150    0.037
 4173.00    0.70241   0.83341    0.037
 4174.00    0.66302   0.83953    0.036
 4175.00    0.68581   0.87002    0.036
 4176.00    0.77085   0.89196    0.037
 4177.00    0.93321   0.88486    0.037
 4178.00    1.16380   0.86236    0.037
 4179.00    1.12600   0.85711    0.036
 4180.00    0.87945   0.88092    0.035
 4181.00    0.80919   0.90529    0.035
 4182.00    0.85950   0.90930    0.036
 4183.00    0.83776   0.90749    0.036
 4184.00    0.77283   0.91139    0.036
 4185.00    0.76448   0.92257    0.036
 4186.00    0.78573   0.92658    0.036
 4187.00    0.85345   0.90755    0.035
 4188.00    0.94223   0.89216    0.034
 4189.00    0.81295   0.90729    0.034
 4190.00    0.59857   0.92833    0.033
 4191.00    0.68565   0.92957    0.033
 4192.00    0.87285   0.93015    0.034
 4193.00    0.96246   0.94807    0.034
 4194.00    1.02488   0.96125    0.034
 4195.00    0.90675   0.94786    0.035
 4196.00    0.74719   0.92349    0.035
 4197.00    0.76888   0.90469    0.035
 4198.00    0.82387   0.88408    0.035
 4199.00    0.76617   0.87332    0.034
 4200.00    0.69253   0.88742    0.033
 4201.00    0.72877   0.90040    0.033
 4202.00    0.77620   0.89503    0.033
 4203.00    0.73655   0.89330    0.033
 4204.00    0.69122   0.89931    0.034
 4205.00    0.81219   0.90199    0.034
 4206.00    0.93824   0.91171    0.034
 4207.00    1.04379   0.92897    0.034
 4208.00    1.14540   0.93809    0.034
 4209.00    1.13130   0.93462    0.034
 4210.00    1.10354   0.92889    0.034
 4211.00    0.87686   0.93374    0.034
 4212.00    0.67802   0.94871    0.035
 4213.00    0.74240   0.95761    0.034
 4214.00    0.80766   0.94455    0.034
 4215.00    0.87890   0.90891    0.034
 4216.00    0.92564   0.88520    0.034
 4217.00    0.84212   0.90327    0.034
 4218.00    0.83854   0.93964    0.034
 4219.00    1.17640   0.95932    0.034
 4220.00    1.41910   0.96230    0.035
 4221.00    1.32653   0.96468    0.034
 4222.00    1.20112   0.96181    0.034
 4223.00    0.97851   0.94589    0.034
 4224.00    0.81745   0.91833    0.034
 4225.00    0.81174   0.88318    0.034
 4226.00    0.77093   0.84779    0.034
 4227.00    0.65384   0.83086    0.033
 4228.00    0.59503   0.85935    0.033
 4229.00    0.64611   0.91650    0.033
 4230.00    0.84379   0.95930    0.033
 4231.00    1.28283   0.97366    0.034
 4232.00    1.41440   0.95342    0.034
 4233.00    1.10213   0.90910    0.033
 4234.00    1.02473   0.88885    0.033
 4235.00    1.24556   0.90205    0.033
 4236.00    1.29447   0.91346    0.033
 4237.00    1.15105   0.92067    0.032
 4238.00    1.08890   0.92651    0.032
 4239.00    1.10694   0.92530    0.033
 4240.00    1.04339   0.93039    0.033
 4241.00    0.90883   0.94490    0.033
 4242.00    0.96579   0.95010    0.032
 4243.00    1.16958   0.95129    0.033
 4244.00    1.17120   0.96418    0.033
 4245.00    1.03658   0.97122    0.033
 4246.00    0.94891   0.95259    0.033
 4247.00    0.88897   0.92656    0.034
 4248.00    0.83073   0.92233    0.034
 4249.00    0.77339   0.92966    0.033
 4250.00    0.73459   0.91698    0.033
 4251.00    0.70407   0.90095    0.033
 4252.00    0.79438   0.91039    0.033
 4253.00    0.93103   0.92449    0.034
 4254.00    1.06046   0.92193    0.034
 4255.00    1.18755   0.92189    0.033
 4256.00    1.04154   0.94062    0.033
 4257.00    0.82099   0.95853    0.032
 4258.00    0.70042   0.95138    0.032
 4259.00    0.60225   0.92863    0.031
 4260.00    0.81925   0.90564    0.032
 4261.00    1.09262   0.89457    0.033
 4262.00    1.02865   0.91091    0.033
 4263.00    0.91854   0.94579    0.033
 4264.00    0.95852   0.97485    0.033
 4265.00    1.01317   0.99165    0.032
 4266.00    1.00003   0.99857    0.032
 4267.00    0.98274   0.99218    0.032
 4268.00    1.01525   0.97400    0.031
 4269.00    1.04896   0.95206    0.031
 4270.00    1.05551   0.92738    0.031
 4271.00    1.06227   0.89332    0.031
 4272.00    1.07451   0.86829    0.031
 4273.00    1.07802   0.87529    0.031
 4274.00    0.96148   0.89272    0.031
 4275.00    0.85208   0.90175    0.032
 4276.00    0.80756   0.91906    0.031
 4277.00    0.77476   0.94639    0.031
 4278.00    0.82012   0.96364    0.031
 4279.00    0.85084   0.96632    0.032
 4280.00    0.80582   0.95970    0.032
 4281.00    0.76159   0.95041    0.032
 4282.00    0.72071   0.94224   -2.000
 4283.00    0.69807   0.93655   -2.000
 4284.00    0.73843   0.93648   -2.000
 4285.00    0.78387   0.93902   -2.000
 4286.00    0.84410   0.94083   -2.000
 4287.00    0.81397   0.93877   -2.000
 4288.00    0.55974   0.92523   -2.000
 4289.00    0.43670   0.89178   -2.000
 4290.00    0.59417   0.85780   -2.000
 4291.00    0.84650   0.86486   -2.000
 4292.00    1.27499   0.90718   -2.000
 4293.00    1.53791   0.93475   -2.000
 4294.00    1.53231   0.92739   -2.000
 4295.00    1.31159   0.91204   -2.000
 4296.00    0.78483   0.90582   -2.000
 4297.00    0.55775   0.90399   -2.000
 4298.00    0.70574   0.89620    0.032
 4299.00    0.77127   0.86600    0.032
 4300.00    0.74584   0.83047    0.032
 4301.00    0.78698   0.82248    0.032
 4302.00    0.89291   0.82773    0.032
 4303.00    0.92226   0.83169    0.032
 4304.00    0.88590   0.84943    0.032
 4305.00    0.78328   0.87008    0.032
 4306.00    0.63059   0.87291    0.032
 4307.00    0.62538   0.85537    0.032
 4308.00    0.71811   0.82979    0.032
 4309.00    0.78962   0.82412    0.032
 4310.00    0.84880   0.84981    0.031
 4311.00    0.86283   0.88444    0.031
 4312.00    0.85399   0.89686    0.032
 4313.00    0.81228   0.87950    0.032
 4314.00    0.75616   0.85143    0.032
 4315.00    0.77340   0.84381    0.031
 4316.00    0.81828   0.87431    0.031
 4317.00    0.80003   0.91482    0.032
 4318.00    0.76159   0.93014    0.032
 4319.00    0.70848   0.92089    0.032
 4320.00    0.65145   0.89943    0.032
 4321.00    0.92434   0.87780    0.032
 4322.00    1.26942   0.87262    0.032
 4323.00    1.07257   0.87106    0.032
 4324.00    0.78145   0.84186    0.032
 4325.00    0.66030   0.78545    0.032
 4326.00    0.56164   0.74319    0.031
 4327.00    0.62753   0.75000    0.031
 4328.00    0.70880   0.78564    0.031
 4329.00    1.05031   0.80257    0.032
 4330.00    1.40670   0.78290    0.000
 4331.00    1.36139   0.74957    0.000
 4332.00    1.30618   0.72646    0.000
 4333.00    1.18773   0.70826    0.000
 4334.00    1.07286   0.68635    0.000
 4335.00    1.04408   0.66067    0.000
 4336.00    1.02868   0.62158    0.000
 4337.00    1.18747   0.55883    0.000
 4338.00    1.29780   0.48672    0.000
 4339.00    0.98464   0.42257    0.000
 4340.00    0.71417   0.36944    0.000
 4341.00    0.71948   0.35201    0.000
 4342.00    0.72345   0.39192    0.000
 4343.00    0.72064   0.45726    0.000
 4344.00    0.75581   0.51110    0.000
 4345.00    0.94598   0.55839    0.000
 4346.00    1.07884   0.60579    0.000
 4347.00    1.01780   0.64647    0.000
 4348.00    0.99313   0.68571    0.000
 4349.00    1.07225   0.72556    0.000
 4350.00    1.12387   0.74568    0.000
 4351.00    1.10847   0.73094    0.032
 4352.00    1.09594   0.71184    0.031
 4353.00    1.08945   0.73252    0.031
 4354.00    1.07640   0.78166    0.031
 4355.00    1.05137   0.82463    0.032
 4356.00    1.05445   0.85622    0.032
 4357.00    1.10241   0.87718    0.031
 4358.00    1.09554   0.88192    0.031
 4359.00    1.01177   0.87741    0.031
 4360.00    0.93789   0.88267    0.031
 4361.00    0.87618   0.90350    0.031
 4362.00    0.87982   0.92522    0.031
 4363.00    0.95452   0.93944    0.030
 4364.00    1.05352   0.95525    0.030
 4365.00    1.17583   0.97338    0.030
 4366.00    1.20472   0.97717    0.030
 4367.00    1.15460   0.95703    0.030
 4368.00    1.05961   0.93012    0.030
 4369.00    0.93121   0.92126    0.031
 4370.00    0.95075   0.93125    0.031
 4371.00    1.06710   0.94911    0.031
 4372.00    1.07877   0.96566    0.031
 4373.00    1.03047   0.96527    0.031
 4374.00    0.90768   0.93704    0.030
 4375.00    0.74773   0.90787    0.030
 4376.00    0.65409   0.91680    0.030
 4377.00    0.58907   0.95764    0.030
 4378.00    0.54778   0.99294    0.030
 4379.00    0.51526   1.00203    0.030
 4380.00    0.73322   0.99317    0.030
 4381.00    1.02973   0.98170    0.029
 4382.00    0.85675   0.95820    0.029
 4383.00    0.56093   0.90251    0.029
 4384.00    0.58623   0.84174    0.029
 4385.00    0.68013   0.83068    0.029
 4386.00    0.74870   0.87339    0.028
 4387.00    0.81298   0.92174    0.028
 4388.00    0.84205   0.94742    0.028
 4389.00    0.86661   0.95658    0.029
 4390.00    0.82126   0.95179    0.029
 4391.00    0.76968   0.94378    0.029
 4392.00    0.91206   0.95466    0.029
 4393.00    1.06476   0.97022    0.029
 4394.00    1.03499   0.95799    0.029
 4395.00    1.00115   0.93299    0.029
 4396.00    0.92640   0.94110    0.028
 4397.00    0.85758   0.97904    0.028
 4398.00    0.91919   1.00084    0.028
 4399.00    0.95985   0.98779    0.028
 4400.00    0.74150   0.95833    0.028
 4401.00    0.56599   0.94715    0.028
 4402.00    0.75088   0.96687    0.028
 4403.00    0.91513   0.98184    0.028
 4404.00    0.95006   0.96097    0.029
 4405.00    0.95688   0.93472    0.029
 4406.00    0.82550   0.94231    0.029
 4407.00    0.74770   0.96212    0.028
 4408.00    0.88379   0.96458    0.028
 4409.00    0.99720   0.96514    0.028
 4410.00    1.03533   0.98016    0.029
 4411.00    1.07696   0.99852    0.029
 4412.00    1.12838   1.01149    0.028
 4413.00    1.12377   1.01342    0.028
 4414.00    0.98489   0.98907    0.028
 4415.00    0.92481   0.94809    0.028
 4416.00    1.02781   0.92326    0.028
 4417.00    1.12615   0.92150    0.029
 4418.00    1.21607   0.93722    0.029
 4419.00    1.17948   0.97241    0.029
 4420.00    0.94376   1.00838    0.029
 4421.00    0.80818   1.01522    0.029
 4422.00    0.81098   0.99203    0.029
 4423.00    0.83726   0.97172    0.029
 4424.00    0.89208   0.97842    0.029
 4425.00    0.93004   0.99748    0.028
 4426.00    0.94992   1.00432    0.029
 4427.00    0.96626   0.99756    0.029
 4428.00    0.97925   0.99458    0.029
 4429.00    0.90865   0.99614    0.029
 4430.00    0.76835   0.98871    0.029
 4431.00    0.72640   0.98366    0.029
 4432.00    0.75665   0.99019    0.029
 4433.00    0.75874   0.98736    0.029
 4434.00    0.74268   0.96592    0.029
 4435.00    0.79236   0.94549    0.029
 4436.00    0.87911   0.95025    0.029
 4437.00    0.89146   0.98219    0.029
 4438.00    0.86728   1.01872    0.029
 4439.00    0.92733   1.04093    0.029
 4440.00    1.02312   1.04003    0.030
 4441.00    0.95538   1.01465    0.030
 4442.00    0.82822   0.97406    0.030
 4443.00    0.91845   0.93592    0.030
 4444.00    1.07555   0.92745    0.030
 4445.00    1.01793   0.96260    0.030
 4446.00    0.90535   1.00652    0.030
 4447.00    0.86407   1.02203    0.029
 4448.00    0.83765   1.02087    0.028
 4449.00    0.76233   1.01780    0.029
 4450.00    0.67898   1.00359    0.030
 4451.00    0.71301   0.99148    0.029
 4452.00    0.76152   0.99937    0.029
 4453.00    0.87111   1.00794    0.029
 4454.00    0.98589   0.99020    0.030
 4455.00    0.99950   0.95778    0.029
 4456.00    1.00812   0.94775    0.029
 4457.00    0.91815   0.96150    0.029
 4458.00    0.82644   0.96890    0.029
 4459.00    0.72466   0.96465    0.029
 4460.00    0.63177   0.96152    0.029
 4461.00    0.71887   0.95446    0.000
 4462.00    0.80194   0.94971    0.000
 4463.00    0.83776   0.96601    0.000
 4464.00    0.88203   0.98652    0.000
 4465.00    0.99476   0.98931    0.000
 4466.00    1.08618   0.98356    0.000
 4467.00    1.04796   0.97703    0.000
 4468.00    0.98704   0.96467    0.000
 4469.00    0.81725   0.95190    0.000
 4470.00    0.71233   0.95509    0.000
 4471.00    0.86080   0.97088    0.000
 4472.00    0.98172   0.98730    0.000
 4473.00    1.01306   1.00476    0.000
 4474.00    1.06325   1.02231    0.000
 4475.00    1.16529   1.02872    0.000
 4476.00    1.23287   1.02816    0.000
 4477.00    1.21927   1.03781    0.000
 4478.00    1.19044   1.04816    0.000
 4479.00    1.13057   1.03085    0.000
 4480.00    1.08786   0.97128    0.000
 4481.00    1.07557   0.89471    0.000
 4482.00    1.00265   0.87191    0.029
 4483.00    0.83571   0.92448    0.029
 4484.00    0.78333   0.99192    0.029
 4485.00    0.88699   1.03139    0.029
 4486.00    1.01951   1.04764    0.029
 4487.00    1.18663   1.04364    0.029
 4488.00    1.26227   1.01549    0.029
 4489.00    1.24119   0.98084    0.029
 4490.00    1.17577   0.96669    0.029
 4491.00    1.06901   0.97654    0.029
 4492.00    1.07093   0.99937    0.028
 4493.00    1.16220   1.01691    0.028
 4494.00    1.15487   1.01078    0.028
 4495.00    1.07619   0.99556    0.028
 4496.00    0.96340   0.99555    0.029
 4497.00    0.82894   1.01006    0.029
 4498.00    0.90050   1.02959    0.029
 4499.00    1.08649   1.04277    0.029
 4500.00    1.13577   1.03479    0.029
 4501.00    1.11902   1.00959    0.029
 4502.00    1.04553   1.00537    0.029
 4503.00    0.94837   1.03877    0.029
 4504.00    0.99853   1.07542    0.029
 4505.00    1.10126   1.08675    0.029
 4506.00    1.09569   1.07588    0.029
 4507.00    1.05747   1.05217    0.029
 4508.00    1.21695   1.02799    0.029
 4509.00    1.42594   1.02455    0.029
 4510.00    1.34725   1.04505    0.029
 4511.00    1.21007   1.06357    0.029
 4512.00    1.11549   1.06287    0.029
 4513.00    1.02770   1.05017    0.028
 4514.00    1.05513   1.02899    0.028
 4515.00    1.09626   1.00588    0.029
 4516.00    1.13284   1.00449    0.028
 4517.00    1.16906   1.02305    0.028
 4518.00    1.19313   1.03469    0.029
 4519.00    1.21665   1.03181    0.029
 4520.00    1.13581   1.02561    0.029
 4521.00    1.05588   1.02390    0.028
 4522.00    1.08803   1.01358    0.028
 4523.00    1.11165   0.99651    0.028
 4524.00    0.97509   0.99702    0.027
 4525.00    0.86096   1.00426    0.027
 4526.00    0.99802   0.99997    0.027
 4527.00    1.12492   0.98762    0.028
 4528.00    1.17232   0.97140    0.028
 4529.00    1.17655   0.95976    0.028
 4530.00    0.92558   0.96497    0.027
 4531.00    0.75262   0.98280    0.027
 4532.00    0.94478   0.99811    0.027
 4533.00    1.09307   0.98931    0.028
 4534.00    1.07366   0.96034    0.028
 4535.00    1.04491   0.95283    0.028
 4536.00    0.98639   0.98608    0.028
 4537.00    0.96479   1.03528    0.028
 4538.00    1.04296   1.06384    0.028
 4539.00    1.14641   1.05655    0.028
 4540.00    1.30845   1.02928    0.028
 4541.00    1.37985   1.00755    0.028
 4542.00    1.26958   1.01138    0.027
 4543.00    1.14595   1.03440    0.027
 4544.00    0.99898   1.04404    0.028
 4545.00    0.93838   1.03371    0.028
 4546.00    1.00978   1.02811    0.028
 4547.00    1.06707   1.03160    0.028
 4548.00    1.10542   1.01587    0.028
 4549.00    1.09562   0.96642    0.028
 4550.00    1.02891   0.93543    0.000
 4551.00    0.97124   0.96723    0.000
 4552.00    0.92298   1.01270    0.000
 4553.00    0.98517   1.01802    0.000
 4554.00    1.14891   0.98945    0.000
 4555.00    1.19447   0.95802    0.000
 4556.00    1.14426   0.95768    0.000
 4557.00    1.14578   0.99038    0.000
 4558.00    1.18420   1.01555    0.000
 4559.00    1.12574   1.02319    0.000
 4560.00    1.00664   1.03739    0.000
 4561.00    1.08457   1.05660    0.000
 4562.00    1.27026   1.06189    0.000
 4563.00    1.28512   1.03991    0.000
 4564.00    1.21876   1.00604    0.000
 4565.00    1.15074   0.99338    0.000
 4566.00    1.08204   1.01041    0.000
 4567.00    1.16112   1.04331    0.000
 4568.00    1.29200   1.07054    0.000
 4569.00    1.26605   1.07844    0.000
 4570.00    1.19375   1.06719    0.000
 4571.00    1.09874   1.03391    0.000
 4572.00    0.99816   1.00148    0.000
 4573.00    1.06275   1.01151    0.000
 4574.00    1.16007   1.04567    0.000
 4575.00    1.10271   1.05719    0.000
 4576.00    1.02140   1.04732    0.000
 4577.00    1.03363   1.04363    0.000
 4578.00    1.05656   1.04788    0.000
 4579.00    1.08160   1.03944    0.000
 4580.00    1.10680   1.01881    0.000
 4581.00    1.14309   1.00593    0.000
 4582.00    1.17985   0.99870    0.000
 4583.00    1.16024   0.98211    0.000
 4584.00    1.14306   0.97232    0.000
 4585.00    1.25085   0.99056    0.000
 4586.00    1.34333   1.01747    0.000
 4587.00    1.16841   1.02570    0.000
 4588.00    1.02424   1.02117    0.000
 4589.00    1.20901   1.02292    0.000
 4590.00    1.36948   1.02983    0.000
 4591.00    1.34621   1.02612    0.000
 4592.00    1.30549   1.01361    0.000
 4593.00    1.16451   1.01256    0.000
 4594.00    1.08590   1.02422    0.000
 4595.00    1.29224   1.02912    0.000
 4596.00    1.40970   1.02687    0.000
 4597.00    1.19459   1.02955    0.000
 4598.00    1.03773   1.03702    0.000
 4599.00    1.06302   1.04352    0.000
 4600.00    1.11230   1.04046    0.000
 4601.00    1.22523   1.03195    0.000
 4602.00    1.31274   1.03374    0.000
 4603.00    1.34234   1.04180    0.000
 4604.00    1.30621   1.04319    0.000
 4605.00    1.14038   1.03722    0.000
 4606.00    1.02328   1.03663    0.000
 4607.00    0.98996   1.05016    0.000
 4608.00    1.02772   1.07286    0.000
 4609.00    1.17251   1.09158    0.000
 4610.00    1.25627   1.09352    0.000
 4611.00    1.25931   1.07978    0.000
 4612.00    1.23144   1.06637    0.000
 4613.00    1.16756   1.06028    0.000
 4614.00    1.18847   1.06042    0.000
 4615.00    1.29653   1.06295    0.000
 4616.00    1.31345   1.05747    0.000
 4617.00    1.24774   1.05140    0.000
 4618.00    1.14689   1.04657    0.000
 4619.00    1.01797   1.03214    0.000
 4620.00    1.06899   1.02646    0.000
 4621.00    1.24647   1.04303    0.000
 4622.00    1.26957   1.06319    0.000
 4623.00    1.19749   1.07507    0.000
 4624.00    1.12632   1.07872    0.000
 4625.00    1.05562   1.07114    0.000
 4626.00    1.16316   1.06061    0.000
 4627.00    1.35406   1.05905    0.000
 4628.00    1.33403   1.05511    0.000
 4629.00    1.22896   1.03858    0.000
 4630.00    1.22914   1.03567    0.000
 4631.00    1.26552   1.06003    0.000
 4632.00    1.23523   1.07754    0.000
 4633.00    1.18563   1.06320    0.000
 4634.00    1.15112   1.03564    0.000
 4635.00    1.12023   1.02564    0.000
 4636.00    1.03480   1.03590    0.000
 4637.00    0.93884   1.04439    0.000
 4638.00    1.02384   1.04240    0.000
 4639.00    1.13599   1.04008    0.000
 4640.00    1.06608   1.04117    0.000
 4641.00    0.97612   1.04863    0.000
 4642.00    1.09913   1.06184    0.000
 4643.00    1.23763   1.06666    0.000
 4644.00    1.04723   1.06049    0.000
 4645.00    0.84440   1.04751    0.000
 4646.00    0.95364   1.02468    0.000
 4647.00    1.06478   1.00285    0.000
 4648.00    1.18755   0.99930    0.000
 4649.00    1.30457   1.01448    0.000
 4650.00    1.32768   1.03850    0.000
 4651.00    1.33600   1.05674    0.000
 4652.00    1.19297   1.06534    0.000
 4653.00    1.08238   1.06853    0.000
 4654.00    1.20883   1.05924    0.000
 4655.00    1.29717   1.04125    0.000
 4656.00    1.17248   1.02720    0.000
 4657.00    1.08731   1.02581    0.000
 4658.00    1.17841   1.04770    0.000
 4659.00    1.24364   1.08224    0.000
 4660.00    1.21409   1.10337    0.000
 4661.00    1.21777   1.09986    0.000
 4662.00    1.32338   1.07722    0.000
 4663.00    1.35132   1.04960    0.000
 4664.00    1.17671   1.03541    0.000
 4665.00    1.08212   1.03206    0.000
 4666.00    1.16689   1.01207    0.000
 4667.00    1.17670   0.97693    0.000
 4668.00    1.04095   0.96314    0.000
 4669.00    0.94009   0.98019    0.000
 4670.00    0.89835   1.00859    0.000
 4671.00    0.96273   1.03451    0.000
 4672.00    1.18458   1.04910    0.000
 4673.00    1.30046   1.05000    0.000
 4674.00    1.27813   1.04923    0.000
 4675.00    1.28661   1.05731    0.000
 4676.00    1.33048   1.07175    0.000
 4677.00    1.33903   1.07769    0.000
 4678.00    1.31177   1.06480    0.000
 4679.00    1.30397   1.04573    0.000
 4680.00    1.31357   1.03724    0.000
 4681.00    1.34302   1.03726    0.000
 4682.00    1.38811   1.04202    0.000
 4683.00    1.34075   1.05317    0.000
 4684.00    1.22935   1.06354    0.000
 4685.00    1.23807   1.06654    0.000
 4686.00    1.31974   1.06664    0.000
 4687.00    1.26024   1.06503    0.000
 4688.00    1.12587   1.06041    0.000
 4689.00    1.13685   1.05730    0.000
 4690.00    1.21471   1.05687    0.000
 4691.00    1.21852   1.05342    0.000
 4692.00    1.19299   1.05036    0.000
 4693.00    1.28653   1.05350    0.000
 4694.00    1.42029   1.06078    0.000
 4695.00    1.37843   1.07046    0.000
 4696.00    1.28673   1.07881    0.000
 4697.00    1.20791   1.07506    0.000
 4698.00    1.13210   1.05458    0.000
 4699.00    1.12060   1.03445    0.000
 4700.00    1.12120   1.03194    0.000
 4701.00    1.19103   1.03751    0.000
 4702.00    1.27094   1.03243    0.000
 4703.00    1.09856   1.02133    0.000
 4704.00    0.89951   1.02590    0.000
 4705.00    1.08848   1.04493    0.000
 4706.00    1.30409   1.05517    0.000
 4707.00    1.11193   1.04636    0.000
 4708.00    0.90590   1.03173    0.000
 4709.00    1.13314   1.02742    0.000
 4710.00    1.35190   1.03820    0.000
 4711.00    1.27373   1.05742    0.000
 4712.00    1.20097   1.06870    0.000
 4713.00    1.21147   1.06119    0.000
 4714.00    1.21103   1.04239    0.000
 4715.00    1.10329   1.03438    0.000
 4716.00    1.01810   1.04908    0.000
 4717.00    1.09239   1.07039    0.000
 4718.00    1.17159   1.08180    0.000
 4719.00    1.27753   1.08898    0.000
 4720.00    1.34876   1.09677    0.000
 4721.00    1.26869   1.09865    0.000
 4722.00    1.21370   1.09129    0.000
 4723.00    1.24865   1.08301    0.000
 4724.00    1.27348   1.08726    0.000
 4725.00    1.26783   1.09909    0.000
 4726.00    1.23046   1.09742    0.000
 4727.00    1.11181   1.07390    0.000
 4728.00    1.02420   1.04563    0.000
 4729.00    1.00501   1.03203    0.000
 4730.00    1.02365   1.02806    0.000
 4731.00    1.11458   1.02392    0.000
 4732.00    1.19031   1.03096    0.000
 4733.00    1.24070   1.05196    0.000
 4734.00    1.22992   1.06923    0.000
 4735.00    1.12971   1.07542    0.000
 4736.00    1.12056   1.06754    0.000
 4737.00    1.22850   1.05423    0.000
 4738.00    1.24914   1.05983    0.000
 4739.00    1.17090   1.07696    0.000
 4740.00    1.16573   1.08072    0.000
 4741.00    1.23356   1.07499    0.000
 4742.00    1.22666   1.07475    0.000
 4743.00    1.15390   1.08041    0.000
 4744.00    1.18162   1.08292    0.000
 4745.00    1.28735   1.08024    0.000
 4746.00    1.25644   1.08282    0.000
 4747.00    1.13228   1.08911    0.000
 4748.00    1.12604   1.08792    0.000
 4749.00    1.19035   1.08527    0.000
 4750.00    1.24801   1.09022    0.000
 4751.00    1.30220   1.09297    0.000
 4752.00    1.35223   1.08455    0.000
 4753.00    1.40037   1.07344    0.000
 4754.00    1.34477   1.06584    0.000
 4755.00    1.24879   1.05894    0.000
 4756.00    1.23224   1.05500    0.000
 4757.00    1.24200   1.05963    0.000
 4758.00    1.20992   1.07052    0.000
 4759.00    1.16620   1.08071    0.000
 4760.00    1.16923   1.08565    0.000
 4761.00    1.18296   1.07866    0.024
 4762.00    1.14527   1.05902    0.024
 4763.00    1.09816   1.04118    0.024
 4764.00    1.11349   1.03110    0.024
 4765.00    1.13762   1.02416    0.024
 4766.00    1.07655   1.02323    0.024
 4767.00    1.00683   1.03328    0.024
 4768.00    0.97896   1.05109    0.024
 4769.00    0.95379   1.06968    0.024
 4770.00    1.07471   1.08066    0.024
 4771.00    1.19985   1.07555    0.024
 4772.00    1.22656   1.06443    0.024
 4773.00    1.24942   1.06706    0.024
 4774.00    1.16120   1.08266    0.024
 4775.00    1.08384   1.09369    0.024
 4776.00    1.16354   1.09448    0.024
 4777.00    1.24031   1.09771    0.024
 4778.00    1.28944   1.10305    0.023
 4779.00    1.33075   1.09696    0.023
 4780.00    1.31843   1.08599    0.023
 4781.00    1.30943   1.08503    0.023
 4782.00    1.31798   1.08535    0.023
 4783.00    1.32089   1.07538    0.022
 4784.00    1.29975   1.06916    0.022
 4785.00    1.26980   1.07323    0.022
 4786.00    1.20890   1.06992    0.023
 4787.00    1.17709   1.06252    0.023
 4788.00    1.23121   1.06576    0.023
 4789.00    1.23810   1.06913    0.023
 4790.00    1.12600   1.06800    0.022
 4791.00    1.06989   1.07146    0.022
 4792.00    1.13518   1.07888    0.023
 4793.00    1.21051   1.09093    0.023
 4794.00    1.30475   1.10887    0.023
 4795.00    1.38479   1.12050    0.023
 4796.00    1.44151   1.11638    0.023
 4797.00    1.41315   1.10313    0.023
 4798.00    1.26217   1.08872    0.023
 4799.00    1.19372   1.07424    0.023
 4800.00    1.22987   1.06536    0.023
 4801.00    1.26975   1.07221    0.023
 4802.00    1.31380   1.09113    0.023
 4803.00    1.27425   1.10297    0.023
 4804.00    1.15236   1.09347    0.022
 4805.00    1.08986   1.07073    0.022
 4806.00    1.07896   1.06033    0.023
 4807.00    1.12701   1.06608    0.023
 4808.00    1.22016   1.07173    0.023
 4809.00    1.28152   1.07419    0.023
 4810.00    1.32147   1.07736    0.023
 4811.00    1.30975   1.07844    0.023
 4812.00    1.26758   1.07634    0.023
 4813.00    1.26385   1.07729    0.023
 4814.00    1.27987   1.08246    0.022
 4815.00    1.34252   1.08678    0.022
 4816.00    1.42593   1.09013    0.023
 4817.00    1.40016   1.09478    0.023
 4818.00    1.33262   1.10077    0.023
 4819.00    1.28044   1.10645    0.023
 4820.00    1.23326   1.10765    0.023
 4821.00    1.22715   1.10126    0.023
 4822.00    1.23222   1.08382    0.023
 4823.00    1.25250   1.04813    0.023
 4824.00    1.27618   1.01418    0.023
 4825.00    1.24476   1.01785    0.022
 4826.00    1.20351   1.04786    0.022
 4827.00    1.30089   1.06655    0.022
 4828.00    1.41716   1.06402    0.023
 4829.00    1.38825   1.05461    0.023
 4830.00    1.34524   1.05197    0.023
 4831.00    1.25548   1.05011    0.023
 4832.00    1.16288   1.03999    0.023
 4833.00    1.19985   1.03379    0.022
 4834.00    1.23985   1.03998    0.022
 4835.00    1.20900   1.04324    0.022
 4836.00    1.17979   1.03521    0.022
 4837.00    1.19329   1.02943    0.022
 4838.00    1.21154   1.02744    0.023
 4839.00    1.29445   1.01619    0.023
 4840.00    1.36071   1.00055    0.023
 4841.00    1.27646   0.99541    0.022
 4842.00    1.19821   0.99558    0.022
 4843.00    1.15974   0.98731    0.022
 4844.00    1.13047   0.97692    0.022
 4845.00    1.14867   0.97579    0.022
 4846.00    1.15262   0.97421    0.022
 4847.00    1.09723   0.95487    0.022
 4848.00    1.05377   0.91956    0.000
 4849.00    1.05143   0.89276    0.000
 4850.00    1.06665   0.88856    0.000
 4851.00    1.13280   0.88836    0.000
 4852.00    1.17431   0.87494    0.000
 4853.00    1.15486   0.85161    0.000
 4854.00    1.13790   0.81571    0.000
 4855.00    1.12627   0.76587    0.000
 4856.00    1.12169   0.72408    0.000
 4857.00    1.13016   0.70435    0.000
 4858.00    1.10870   0.68457    0.000
 4859.00    1.03876   0.63843    0.000
 4860.00    1.02514   0.56267    0.000
 4861.00    1.09152   0.48689    0.000
 4862.00    1.11756   0.46813    0.000
 4863.00    1.09320   0.52053    0.000
 4864.00    1.07341   0.59130    0.000
 4865.00    1.05865   0.64741    0.000
 4866.00    1.03663   0.69685    0.000
 4867.00    1.00756   0.74107    0.000
 4868.00    0.95976   0.77542    0.000
 4869.00    0.89591   0.80291    0.000
 4870.00    0.94567   0.81743    0.000
 4871.00    1.08112   0.81103    0.000
 4872.00    1.06368   0.80830    0.000
 4873.00    0.94491   0.83609    0.000
 4874.00    0.92952   0.87690    0.000
 4875.00    0.97415   0.90184   -1.000
 4876.00    1.02899   0.91264   -1.000
 4877.00    1.08900   0.92709   -1.000
 4878.00    1.09189   0.95203   -1.000
 4879.00    1.06978   0.98448   -1.000
 4880.00    1.00419   1.01024   -1.000
 4881.00    0.92226   1.01208   -1.000
 4882.00    0.98109   1.00169   -1.000
 4883.00    1.08481   0.99804   -1.000
 4884.00    1.13292   0.99542    0.059
 4885.00    1.16620   0.98832    0.026
 4886.00    1.09444   0.98485    0.023
 4887.00    0.99976   0.99300    0.023
 4888.00    1.00709   1.00929    0.023
 4889.00    1.03210   1.01963    0.023
 4890.00    1.01455   1.00767    0.023
 4891.00    0.99138   0.98126    0.023
 4892.00    1.09679   0.98411    0.023
 4893.00    1.21413   1.02685    0.023
 4894.00    1.20369   1.07174    0.023
 4895.00    1.18600   1.10008    0.023
 4896.00    1.12382   1.11389    0.024
 4897.00    1.06183   1.11659    0.024
 4898.00    1.13190   1.11251    0.023
 4899.00    1.20302   1.09801    0.023
 4900.00    1.29872   1.07675    0.023
 4901.00    1.38187   1.07030    0.023
 4902.00    1.30267   1.07759    0.023
 4903.00    1.22831   1.07698    0.023
 4904.00    1.19602   1.07381    0.023
 4905.00    1.17262   1.08725    0.023
 4906.00    1.20641   1.11114    0.023
 4907.00    1.23463   1.12121    0.023
 4908.00    1.23486   1.10919    0.023
 4909.00    1.23188   1.08465    0.023
 4910.00    1.21582   1.05686    0.023
 4911.00    1.20070   1.04067    0.023
 4912.00    1.18873   1.04918    0.023
 4913.00    1.18298   1.07148    0.023
 4914.00    1.19498   1.09284    0.023
 4915.00    1.22125   1.11164    0.023
 4916.00    1.28225   1.12233    0.023
 4917.00    1.30238   1.11163    0.023
 4918.00    1.23671   1.07421    0.023
 4919.00    1.16714   1.02387    0.023
 4920.00    1.09044   0.98652    0.022
 4921.00    1.03208   0.98333    0.022
 4922.00    1.00296   1.00937    0.022
 4923.00    0.97877   1.02516    0.022
 4924.00    0.96146   1.01731    0.022
 4925.00    0.97334   1.02657    0.022
 4926.00    1.02117   1.06740    0.022
 4927.00    1.10060   1.10338    0.022
 4928.00    1.21433   1.11970    0.022
 4929.00    1.30696   1.13167    0.022
 4930.00    1.37939   1.13956    0.022
 4931.00    1.35721   1.13816    0.022
 4932.00    1.25516   1.12650    0.022
 4933.00    1.19405   1.09633    0.022
 4934.00    1.16338   1.06541    0.022
 4935.00    1.15416   1.06837    0.022
 4936.00    1.15894   1.08915    0.022
 4937.00    1.13725   1.08764    0.021
 4938.00    1.10041   1.06205    0.021
 4939.00    1.07808   1.04286    0.021
 4940.00    1.06298   1.05629    0.000
 4941.00    1.10238   1.09252    0.000
 4942.00    1.16525   1.11960    0.000
 4943.00    1.18270   1.12969    0.000
 4944.00    1.18338   1.13412    0.000
 4945.00    1.21027   1.13058    0.000
 4946.00    1.24535   1.12083    0.000
 4947.00    1.31296   1.11913    0.000
 4948.00    1.38905   1.12593    0.000
 4949.00    1.36284   1.13075    0.000
 4950.00    1.31484   1.13318    0.000
 4951.00    1.26357   1.13523    0.000
 4952.00    1.21175   1.13155    0.000
 4953.00    1.19508   1.12236    0.000
 4954.00    1.18287   1.11783    0.000
 4955.00    1.18378   1.11918    0.000
 4956.00    1.18585   1.10248    0.000
 4957.00    1.09351   1.05042    0.000
 4958.00    0.99619   1.01332    0.000
 4959.00    1.07239   1.04407    0.000
 4960.00    1.15146   1.10372    0.000
 4961.00    1.19515   1.13498    0.000
 4962.00    1.23707   1.13811    0.000
 4963.00    1.24067   1.13780    0.000
 4964.00    1.24279   1.13614    0.000
 4965.00    1.22672   1.12087    0.000
 4966.00    1.20368   1.10012    0.000
 4967.00    1.12232   1.09102    0.000
 4968.00    1.05790   1.09171    0.000
 4969.00    1.09925   1.09432    0.000
 4970.00    1.14158   1.09840    0.000
 4971.00    1.18877   1.10562    0.000
 4972.00    1.21007   1.11713    0.000
 4973.00    1.12827   1.12885    0.000
 4974.00    1.07632   1.13792    0.000
 4975.00    1.12311   1.14183    0.000
 4976.00    1.16762   1.13651    0.000
 4977.00    1.20577   1.12561    0.000
 4978.00    1.23026   1.11407    0.000
 4979.00    1.22207   1.10459    0.000
 4980.00    1.19875   1.09815    0.000
 4981.00    1.14419   1.08420    0.000
 4982.00    1.09970   1.05135    0.000
 4983.00    1.07331   1.01528    0.000
 4984.00    1.08760   1.00569    0.000
 4985.00    1.16581   1.02479    0.000
 4986.00    1.18957   1.05630    0.000
 4987.00    1.13825   1.08962    0.000
 4988.00    1.09746   1.11167    0.000
 4989.00    1.06947   1.11409    0.000
 4990.00    1.03482   1.10248    0.000
 4991.00    0.99303   1.08872    0.000
 4992.00    0.97707   1.08687    0.000
 4993.00    0.98550   1.09169    0.000
 4994.00    1.03408   1.09295    0.000
 4995.00    1.11608   1.10064    0.000
 4996.00    1.16139   1.11411    0.000
 4997.00    1.17979   1.12077    0.000
 4998.00    1.21026   1.11682    0.000
 4999.00    1.24848   1.10064    0.000
 5000.00    1.21440   1.07548    0.000
 5001.00    1.13961   1.05045    0.000
 5002.00    1.06201   1.03921    0.000
 5003.00    0.98303   1.04823    0.000
 5004.00    1.01232   1.05730    0.000
 5005.00    1.08745   1.04437    0.000
 5006.00    1.08920   1.02075    0.000
 5007.00    1.06434   1.01960    0.000
 5008.00    1.03284   1.05184    0.000
 5009.00    0.99931   1.08670    0.000
 5010.00    1.00321   1.09696    0.000
 5011.00    1.01667   1.08796    0.000
 5012.00    1.04704   1.06817    0.000
 5013.00    1.08093   1.04465    0.000
 5014.00    1.08736   1.02973    0.000
 5015.00    1.08930   1.03183    0.000
 5016.00    1.04506   1.04514    0.000
 5017.00    0.99516   1.03987    0.000
 5018.00    1.02099   1.00648    0.000
 5019.00    1.05322   0.98984    0.000
 5020.00    1.03645   1.01520    0.000
 5021.00    1.01728   1.04501    0.000
 5022.00    1.03928   1.05118    0.000
 5023.00    1.06046   1.05448    0.000
 5024.00    0.99225   1.07377    0.000
 5025.00    0.93090   1.09403    0.000
 5026.00    1.00688   1.09710    0.000
 5027.00    1.07810   1.08154    0.000
 5028.00    1.09381   1.06730    0.000
 5029.00    1.11771   1.07449    0.021
 5030.00    1.20780   1.08909    0.021
 5031.00    1.27401   1.09557    0.021
 5032.00    1.19536   1.10506    0.021
 5033.00    1.12628   1.12244    0.021
 5034.00    1.10297   1.12921    0.021
 5035.00    1.07648   1.10783    0.021
 5036.00    1.03757   1.07565    0.021
 5037.00    1.02294   1.06877    0.021
 5038.00    1.08708   1.08040    0.021
 5039.00    1.13653   1.07340    0.021
 5040.00    1.14564   1.03571    0.021
 5041.00    1.11099   0.99405    0.020
 5042.00    0.97344   0.99569    0.020
 5043.00    0.91953   1.04503    0.020
 5044.00    1.03562   1.09394    0.020
 5045.00    1.10602   1.12111    0.020
 5046.00    1.09557   1.13627    0.020
 5047.00    1.09679   1.13410    0.020
 5048.00    1.11608   1.10836    0.020
 5049.00    1.12536   1.07825    0.020
 5050.00    1.12106   1.06481    0.020
 5051.00    1.10926   1.06480    0.020
 5052.00    1.08850   1.06896    0.020
 5053.00    1.08601   1.08108    0.020
 5054.00    1.10281   1.09799    0.020
 5055.00    1.12646   1.10028    0.021
 5056.00    1.15647   1.08808    0.021
 5057.00    1.18752   1.08882    0.020
 5058.00    1.21940   1.10968    0.020
 5059.00    1.17729   1.12745    0.020
 5060.00    1.08173   1.13338    0.020
 5061.00    1.07306   1.13801    0.020
 5062.00    1.11947   1.14320    0.021
 5063.00    1.12388   1.13816    0.020
 5064.00    1.10501   1.11248    0.020
 5065.00    1.11246   1.07994    0.020
 5066.00    1.13262   1.07028    0.021
 5067.00    1.15396   1.07876    0.021
 5068.00    1.17579   1.08086    0.020
 5069.00    1.12211   1.08126    0.020
 5070.00    1.04154   1.09143    0.020
 5071.00    1.05018   1.09568    0.021
 5072.00    1.08566   1.08265    0.021
 5073.00    1.09191   1.07345    0.021
 5074.00    1.09086   1.07860    0.020
 5075.00    1.09484   1.08090    0.020
 5076.00    1.09985   1.08016    0.021
 5077.00    1.12698   1.08901    0.021
 5078.00    1.15764   1.09118    0.021
 5079.00    1.08956   1.06453    0.021
 5080.00    1.00981   1.03138    0.020
 5081.00    0.98268   1.02721    0.020
 5082.00    0.95977   1.04676    0.020
 5083.00    1.04559   1.06226    0.021
 5084.00    1.13631   1.06953    0.021
 5085.00    1.10128   1.08059    0.020
 5086.00    1.06652   1.09122    0.020
 5087.00    1.11920   1.09233    0.020
 5088.00    1.17083   1.09223    0.020
 5089.00    1.20286   1.09896    0.020
 5090.00    1.23086   1.10460    0.020
 5091.00    1.21402   1.10582    0.020
 5092.00    1.19100   1.11060    0.020
 5093.00    1.11987   1.12042    0.020
 5094.00    1.06104   1.12745    0.020
 5095.00    1.07471   1.12440    0.020
 5096.00    1.08730   1.10791    0.020
 5097.00    1.09480   1.08170    0.020
 5098.00    1.11487   1.05567    0.020
 5099.00    1.18285   1.03742    0.020
 5100.00    1.22349   1.03516    0.020
 5101.00    1.17718   1.05481    0.020
 5102.00    1.12829   1.08374    0.020
 5103.00    1.07242   1.10153    0.020
 5104.00    1.03862   1.10395    0.020
 5105.00    1.05583   1.10010    0.020
 5106.00    1.06284   1.09402    0.021
 5107.00    1.04947   1.08317    0.020
 5108.00    1.03357   1.07318    0.020
 5109.00    1.01324   1.07039    0.021
 5110.00    1.00582   1.07010    0.021
 5111.00    1.01807   1.07634    0.020
 5112.00    1.02556   1.09133    0.020
 5113.00    1.02667   1.10265    0.020
 5114.00    1.03487   1.10776    0.021
 5115.00    1.05145   1.11134    0.021
 5116.00    1.06499   1.11491    0.021
 5117.00    1.07536   1.12239    0.020
 5118.00    1.06438   1.13100    0.020
 5119.00    1.03379   1.13109    0.020
 5120.00    1.06058   1.12126    0.020
 5121.00    1.13381   1.10774    0.020
 5122.00    1.15001   1.09282    0.020
 5123.00    1.12560   1.07298    0.020
 5124.00    1.06257   1.05362    0.020
 5125.00    0.97541   1.04785    0.020
 5126.00    0.95400   1.05422    0.020
 5127.00    0.96848   1.05922    0.020
 5128.00    1.01027   1.05710    0.020
 5129.00    1.06502   1.05332    0.020
 5130.00    1.06079   1.05795    0.020
 5131.00    1.03243   1.07269    0.020
 5132.00    1.04463   1.08424    0.020
 5133.00    1.07100   1.08412    0.020
 5134.00    1.10032   1.08519    0.020
 5135.00    1.13050   1.09899    0.020
 5136.00    1.03903   1.10679    0.020
 5137.00    0.91783   1.09323    0.019
 5138.00    0.96918   1.07134    0.020
 5139.00    1.05462   1.05372    0.020
 5140.00    1.05353   1.05422    0.020
 5141.00    1.03911   1.07110    0.020
 5142.00    1.05935   1.07196    0.020
 5143.00    1.08354   1.05888    0.020
 5144.00    1.10878   1.06235    0.020
 5145.00    1.13409   1.07169    0.020
 5146.00    1.08305   1.06641    0.020
 5147.00    1.02888   1.05560    0.020
 5148.00    0.99447   1.05166    0.020
 5149.00    0.96191   1.05721    0.020
 5150.00    1.00029   1.06599    0.020
 5151.00    1.03751   1.06809    0.020
 5152.00    1.05458   1.06285    0.020
 5153.00    1.06358   1.05227    0.020
 5154.00    0.98677   1.04293    0.020
 5155.00    0.92354   1.04978    0.020
 5156.00    0.96259   1.07204    0.020
 5157.00    1.00481   1.09495    0.020
 5158.00    1.06526   1.11105    0.020
 5159.00    1.09897   1.11648    0.020
 5160.00    1.01091   1.11273    0.020
 5161.00    0.95567   1.10395    0.020
 5162.00    1.02286   1.09059    0.021
 5163.00    1.06654   1.08230    0.020
 5164.00    1.03689   1.08146    0.020
 5165.00    1.00332   1.06545    0.020
 5166.00    0.95940   1.01825    0.020
 5167.00    0.91686   0.95297    0.020
 5168.00    0.87749   0.90514    0.020
 5169.00    0.83690   0.90951    0.020
 5170.00    0.79389   0.95946    0.020
 5171.00    0.76404   0.99136    0.020
 5172.00    0.75676   0.96458    0.020
 5173.00    0.73427   0.93672    0.020
 5174.00    0.68891   0.97297    0.020
 5175.00    0.69835   1.04125    0.020
 5176.00    0.78015   1.07887    0.020
 5177.00    0.84003   1.08521    0.020
 5178.00    0.87441   1.08906    0.020
 5179.00    0.88545   1.09362    0.020
 5180.00    0.87257   1.09055    0.020
 5181.00    0.89958   1.07864    0.019
 5182.00    0.96269   1.04564    0.019
 5183.00    0.97074   0.98149    0.019
 5184.00    0.93488   0.93308    0.019
 5185.00    0.91353   0.95505    0.019
 5186.00    0.90236   1.01883    0.019
 5187.00    0.89638   1.06332    0.019
 5188.00    0.89360   1.07207    0.019
 5189.00    0.89063   1.07203    0.019
 5190.00    0.88756   1.08152    0.000
 5191.00    0.91466   1.07124    0.000
 5192.00    0.95584   1.03369    0.000
 5193.00    1.00624   1.01815    0.000
 5194.00    1.06034   1.03669    0.000
 5195.00    1.02561   1.04910    0.000
 5196.00    0.96039   1.04570    0.000
 5197.00    1.03041   1.04555    0.000
 5198.00    1.13949   1.05577    0.000
 5199.00    1.18062   1.07460    0.000
 5200.00    1.20552   1.09211    0.000
 5201.00    1.14019   1.09863    0.000
 5202.00    1.05749   1.09522    0.000
 5203.00    1.07426   1.08571    0.000
 5204.00    1.10591   1.06465    0.000
 5205.00    1.07899   1.03032    0.000
 5206.00    1.04565   1.00734    0.000
 5207.00    0.98594   1.01012    0.000
 5208.00    0.92433   1.01362    0.000
 5209.00    0.95869   1.01321    0.000
 5210.00    0.99662   1.02893    0.000
 5211.00    0.99884   1.05588    0.020
 5212.00    1.00188   1.08375    0.020
 5213.00    1.04085   1.10594    0.020
 5214.00    1.07965   1.10837    0.020
 5215.00    1.11555   1.08675    0.020
 5216.00    1.14408   1.06030    0.020
 5217.00    1.09760   1.05508    0.020
 5218.00    1.05571   1.07593    0.020
 5219.00    1.04716   1.10488    0.020
 5220.00    1.04926   1.12382    0.020
 5221.00    1.11075   1.13116    0.020
 5222.00    1.14083   1.13100    0.020
 5223.00    1.03124   1.12030    0.020
 5224.00    0.95205   1.09556    0.020
 5225.00    0.98393   1.05526    0.020
 5226.00    0.99494   0.99953    0.020
 5227.00    0.94209   0.95782    0.020
 5228.00    0.91204   0.97698    0.020
 5229.00    0.94131   1.04321    0.020
 5230.00    0.95347   1.09638    0.020
 5231.00    0.92736   1.11374    0.020
 5232.00    0.94814   1.09938    0.020
 5233.00    1.05982   1.06386    0.020
 5234.00    1.11596   1.03664    0.020
 5235.00    1.07823   1.03927    0.020
 5236.00    1.07791   1.06403    0.020
 5237.00    1.13304   1.08923    0.020
 5238.00    1.16414   1.10529    0.020
 5239.00    1.16399   1.11520    0.020
 5240.00    1.16182   1.12110    0.020
 5241.00    1.15732   1.12453    0.020
 5242.00    1.17561   1.12421    0.020
 5243.00    1.21695   1.12078    0.020
 5244.00    1.21516   1.12593    0.020
 5245.00    1.17489   1.13806    0.020
 5246.00    1.14510   1.13068    0.020
 5247.00    1.12354   1.10000    0.020
 5248.00    1.06385   1.08040    0.020
 5249.00    0.97780   1.08256    0.020
 5250.00    0.94776   1.08037    0.019
 5251.00    0.95166   1.07341    0.019
 5252.00    1.03542   1.08224    0.019
 5253.00    1.16145   1.09796    0.019
 5254.00    1.15519   1.09632    0.019
 5255.00    1.08819   1.08117    0.019
 5256.00    1.07019   1.08190    0.019
 5257.00    1.07158   1.10753    0.019
 5258.00    1.10285   1.13539    0.019
 5259.00    1.14420   1.14520    0.019
 5260.00    1.15909   1.13405    0.019
 5261.00    1.16649   1.10998    0.020
 5262.00    1.12211   1.07938    0.020
 5263.00    1.06565   1.04220    0.020
 5264.00    1.04854   1.00302    0.020
 5265.00    1.03880   0.97535    0.020
 5266.00    0.96076   0.97154    0.020
 5267.00    0.87283   0.99758    0.020
 5268.00    0.83294   1.02583    0.020
 5269.00    0.79811   1.00881    0.020
 5270.00    0.90653   0.97032    0.020
 5271.00    1.02473   0.97984    0.020
 5272.00    1.06783   1.02997    0.020
 5273.00    1.10841   1.06205    0.021
 5274.00    1.05853   1.05789    0.020
 5275.00    1.01183   1.03277    0.020
 5276.00    1.06986   1.02298    0.020
 5277.00    1.12506   1.05843    0.020
 5278.00    1.13711   1.10852    0.020
 5279.00    1.15051   1.12585    0.020
 5280.00    1.17714   1.11276    0.020
 5281.00    1.20634   1.09642    0.020
 5282.00    1.25365   1.08439    0.020
 5283.00    1.27876   1.06681    0.020
 5284.00    1.18343   1.05138    0.020
 5285.00    1.12104   1.06949    0.020
 5286.00    1.20186   1.11905    0.020
 5287.00    1.25237   1.15618    0.020
 5288.00    1.19450   1.16188    0.020
 5289.00    1.15610   1.15684    0.020
 5290.00    1.17619   1.15883    0.020
 5291.00    1.19775   1.16301    0.020
 5292.00    1.22310   1.15950    0.020
 5293.00    1.21805   1.14870    0.020
 5294.00    1.14616   1.14108    0.020
 5295.00    1.09101   1.13843    0.020
 5296.00    1.06779   1.12298    0.020
 5297.00    1.06849   1.08553    0.020
 5298.00    1.10900   1.05232    0.020
 5299.00    1.16108   1.05718    0.020
 5300.00    1.23004   1.08834    0.020
 5301.00    1.23364   1.10501    0.020
 5302.00    1.15334   1.10115    0.020
 5303.00    1.12275   1.10569    0.019
 5304.00    1.14837   1.12798    0.020
 5305.00    1.17933   1.14681    0.020
 5306.00    1.21561   1.14773    0.020
 5307.00    1.23679   1.13779    0.019
 5308.00    1.24470   1.13238    0.020
 5309.00    1.24555   1.14058    0.019
 5310.00    1.24093   1.15415    0.019
 5311.00    1.23625   1.15999    0.019
 5312.00    1.23152   1.15552    0.019
 5313.00    1.19819   1.14340    0.019
 5314.00    1.14778   1.13227    0.019
 5315.00    1.15751   1.11920    0.019
 5316.00    1.19857   1.09043    0.019
 5317.00    1.19360   1.06904    0.019
 5318.00    1.16782   1.08566    0.019
 5319.00    1.15643   1.11868    0.019
 5320.00    1.15062   1.13622    0.019
 5321.00    1.11479   1.13996    0.019
 5322.00    1.06904   1.13769    0.019
 5323.00    1.07115   1.12280    0.019
 5324.00    1.08654   1.09387    0.019
 5325.00    1.05633   1.07515    0.019
 5326.00    1.01572   1.07880    0.019
 5327.00    1.04531   1.06522    0.019
 5328.00    1.08771   1.01308    0.019
 5329.00    1.07558   0.98117    0.019
 5330.00    1.05579   1.01618    0.019
 5331.00    1.05549   1.07869    0.019
 5332.00    1.05714   1.11398    0.020
 5333.00    1.05340   1.11843    0.019
 5334.00    1.04930   1.11838    0.019
 5335.00    1.04623   1.12529    0.019
 5336.00    1.04332   1.12769    0.019
 5337.00    1.09449   1.11890    0.019
 5338.00    1.14523   1.10926    0.019
 5339.00    1.18352   1.09768    0.019
 5340.00    1.22145   1.07635    0.019
 5341.00    1.25418   1.06651    0.019
 5342.00    1.27715   1.08875    0.019
 5343.00    1.20858   1.12189    0.019
 5344.00    1.14807   1.13744    0.019
 5345.00    1.14259   1.12982    0.020
 5346.00    1.12819   1.11228    0.020
 5347.00    1.06677   1.10693    0.019
 5348.00    1.03640   1.11100    0.019
 5349.00    1.13787   1.10825    0.019
 5350.00    1.20265   1.10831    0.019
 5351.00    1.13884   1.12454    0.020
 5352.00    1.11020   1.14448    0.020
 5353.00    1.18522   1.15242    0.020
 5354.00    1.22697   1.15662    0.020
 5355.00    1.18515   1.16846    0.020
 5356.00    1.17284   1.17992    0.020
 5357.00    1.22441   1.18314    0.020
 5358.00    1.26039   1.18175    0.020
 5359.00    1.26708   1.18044    0.020
 5360.00    1.26860   1.17826    0.019
 5361.00    1.26164   1.16598    0.019
 5362.00    1.23468   1.13937    0.019
 5363.00    1.17893   1.11684    0.019
 5364.00    1.14008   1.11164    0.019
 5365.00    1.12263   1.11187    0.019
 5366.00    1.10660   1.11079    0.019
 5367.00    1.09217   1.11084    0.019
 5368.00    1.05485   1.10923   -2.000
 5369.00    0.99502   1.09771   -2.000
 5370.00    1.00916   1.07005   -2.000
 5371.00    1.08747   1.04336   -2.000
 5372.00    1.01429   1.04882   -2.000
 5373.00    0.82539   1.08913   -2.000
 5374.00    0.79240   1.13274   -2.000
 5375.00    0.86410   1.15653   -2.000
 5376.00    1.07963   1.16174   -2.000
 5377.00    1.37976   1.15644   -2.000
 5378.00    1.39606   1.15255   -2.000
 5379.00    1.26679   1.15305   -2.000
 5380.00    1.16385   1.14763   -2.000
 5381.00    1.07260   1.13645   -2.000
 5382.00    1.11597   1.12746   -2.000
 5383.00    1.21073   1.12015    0.019
 5384.00    1.25859   1.12161    0.019
 5385.00    1.29124   1.13720    0.019
 5386.00    1.24165   1.14911    0.019
 5387.00    1.16972   1.14821    0.019
 5388.00    1.14135   1.14263    0.019
 5389.00    1.12267   1.13293    0.019
 5390.00    1.07998   1.11786    0.019
 5391.00    1.03302   1.10785    0.019
 5392.00    1.03877   1.10658    0.019
 5393.00    1.05167   1.10693    0.019
 5394.00    0.99893   1.10764    0.019
 5395.00    0.93984   1.10645    0.018
 5396.00    0.95355   1.09048    0.019
 5397.00    0.97165   1.06258    0.019
 5398.00    1.06632   1.05731    0.019
 5399.00    1.16208   1.08408    0.019
 5400.00    1.10546   1.10578    0.019
 5401.00    1.05172   1.10768    0.019
 5402.00    1.07200   1.10833    0.019
 5403.00    1.09034   1.10426    0.019
 5404.00    1.08247   1.07871    0.019
 5405.00    1.07191   1.04461    0.019
 5406.00    1.03716   1.03161    0.019
 5407.00    1.01316   1.04881    0.019
 5408.00    1.06024   1.07429    0.019
 5409.00    1.09552   1.07868    0.019
 5410.00    1.07012   1.06460    0.019
 5411.00    1.03428   1.06708    0.019
 5412.00    0.95508   1.09648    0.018
 5413.00    0.91185   1.12097    0.018
 5414.00    0.99218   1.11887    0.018
 5415.00    1.07685   1.10976    0.019
 5416.00    1.17403   1.12074    0.019
 5417.00    1.22125   1.14450    0.019
 5418.00    1.14506   1.15477    0.019
 5419.00    1.11893   1.14657    0.019
 5420.00    1.19939   1.13199    0.019
 5421.00    1.23164   1.12465    0.019
 5422.00    1.17474   1.13000    0.019
 5423.00    1.12487   1.12822    0.019
 5424.00    1.08636   1.10540    0.019
 5425.00    1.08173   1.09200    0.019
 5426.00    1.12509   1.11317    0.019
 5427.00    1.13296   1.14334    0.019
 5428.00    1.09656   1.14451    0.018
 5429.00    1.08276   1.10853    0.018
 5430.00    1.09382   1.07630    0.019
 5431.00    1.09151   1.08701    0.019
 5432.00    1.07624   1.10890    0.019
 5433.00    1.06343   1.10311    0.019
 5434.00    1.05273   1.08568    0.019
 5435.00    1.07340   1.07933    0.018
 5436.00    1.11768   1.08754    0.018
 5437.00    1.13922   1.10730    0.019
 5438.00    1.14572   1.13376    0.019
 5439.00    1.16629   1.15742    0.019
 5440.00    1.19502   1.17010    0.018
 5441.00    1.15210   1.17281    0.018
 5442.00    1.07301   1.17108    0.018
 5443.00    1.06591   1.16838    0.018
 5444.00    1.09027   1.15741    0.019
 5445.00    1.14052   1.13005    0.019
 5446.00    1.20048   1.09159    0.019
 5447.00    1.16359   1.06582    0.019
 5448.00    1.09589   1.07842    0.019
 5449.00    1.12383   1.11719    0.019
 5450.00    1.17720   1.14697    0.019
 5451.00    1.09016   1.15643    0.019
 5452.00    0.97259   1.15440    0.018
 5453.00    0.96899   1.14565    0.018
 5454.00    0.98509   1.12384    0.018
 5455.00    1.05648   1.08738    0.018
 5456.00    1.13513   1.06535    0.018
 5457.00    1.09337   1.08558    0.018
 5458.00    1.04049   1.12681    0.018
 5459.00    1.07544   1.15304    0.018
 5460.00    1.11533   1.15552    0.018
 5461.00    1.13372   1.14332    0.018
 5462.00    1.15039   1.12237    0.018
 5463.00    1.03793   1.09920    0.018
 5464.00    0.93331   1.09414    0.018
 5465.00    1.01273   1.10998    0.018
 5466.00    1.08589   1.12067    0.018
 5467.00    1.07878   1.12171    0.018
 5468.00    1.07259   1.12935    0.018
 5469.00    1.07440   1.13819    0.018
 5470.00    1.08148   1.13556    0.018
 5471.00    1.12242   1.12823    0.018
 5472.00    1.15279   1.12356    0.018
 5473.00    1.13023   1.11546    0.018
 5474.00    1.09795   1.10683    0.018
 5475.00    1.02619   1.10033    0.018
 5476.00    0.97607   1.07820    0.018
 5477.00    0.99881   1.04845    0.018
 5478.00    1.01766   1.05293   -2.000
 5479.00    1.02549   1.09092   -2.000
 5480.00    1.02771   1.11409   -2.000
 5481.00    1.01632   1.10350   -2.000
 5482.00    1.04243   1.09000   -2.000
 5483.00    1.14713   1.09949   -2.000
 5484.00    1.11807   1.12343   -2.000
 5485.00    0.84540   1.14465   -2.000
 5486.00    0.36588   1.14830   -2.000
 5487.00   -0.44293   1.12911   -2.000
 5488.00   -0.74508   1.10934   -2.000
 5489.00   -0.33944   1.11114   -2.000
 5490.00    0.27534   1.12271   -2.000
 5491.00    1.14724   1.12884   -2.000
 5492.00    1.80930   1.13090   -2.000
 5493.00    2.24397   1.12718   -2.000
 5494.00    2.17805   1.12273   -2.000
 5495.00    1.63360   1.12848   -2.000
 5496.00    1.32151   1.13238   -2.000
 5497.00    1.20525   1.12108   -2.000
 5498.00    1.13630   1.11369   -2.000
 5499.00    1.10247   1.12920   -2.000
 5500.00    1.08015   1.14327   -2.000
 5501.00    1.06533   1.12865   -2.000
 5502.00    1.04825   1.10218   -1.000
 5503.00    1.02987   1.09361   -1.000
 5504.00    1.03394   1.10421   -1.000
 5505.00    1.04916   1.11034   -1.000
 5506.00    1.04372   1.09839   -1.000
 5507.00    1.02941   1.08793   -1.000
 5508.00    1.05638   1.09877    0.049
 5509.00    1.09856   1.11409    0.021
 5510.00    1.11436   1.11533    0.018
 5511.00    1.12194   1.10825    0.018
 5512.00    1.08145   1.09900    0.018
 5513.00    1.02846   1.09301    0.017
 5514.00    1.02331   1.09675    0.018
 5515.00    1.02832   1.10660    0.018
 5516.00    1.02639   1.11684    0.018
 5517.00    1.02330   1.12688    0.018
 5518.00    1.06464   1.13997    0.018
 5519.00    1.11161   1.15275    0.018
 5520.00    1.05928   1.15551    0.018
 5521.00    0.99819   1.15007    0.018
 5522.00    1.02227   1.14655    0.018
 5523.00    1.05079   1.14707    0.018
 5524.00    1.01569   1.14494    0.018
 5525.00    0.97985   1.13622    0.018
 5526.00    0.97788   1.12378    0.017
 5527.00    0.97781   1.10656    0.017
 5528.00    1.01875   1.08503    0.017
 5529.00    1.05416   1.07859    0.017
 5530.00    1.02223   1.09898    0.018
 5531.00    0.99889   1.12490    0.018
 5532.00    1.04709   1.13503    0.018
 5533.00    1.08920   1.13042    0.017
 5534.00    1.09335   1.11578    0.017
 5535.00    1.09718   1.10096    0.017
 5536.00    1.09944   1.10383    0.018
 5537.00    1.09512   1.12133    0.018
 5538.00    1.06473   1.13366    0.018
 5539.00    1.05497   1.13986    0.017
 5540.00    1.11332   1.14834    0.018
 5541.00    1.14882   1.15476    0.018
 5542.00    1.12056   1.15002    0.018
 5543.00    1.08900   1.13435    0.017
 5544.00    1.04959   1.12154    0.017
 5545.00    1.05530   1.12119    0.018
 5546.00    1.15402   1.12558    0.018
 5547.00    1.19913   1.13088    0.018
 5548.00    1.14811   1.14206    0.018
 5549.00    1.12598   1.15404    0.018
 5550.00    1.14918   1.15990    0.018
 5551.00    1.14172   1.16161    0.017
 5552.00    1.09207   1.15909    0.017
 5553.00    1.06442   1.15031    0.017
 5554.00    1.06341   1.13940    0.017
 5555.00    1.07551   1.13440    0.017
 5556.00    1.10161   1.13788    0.017
 5557.00    1.11175   1.14135    0.017
 5558.00    1.10683   1.13849    0.017
 5559.00    1.12324   1.13601    0.017
 5560.00    1.15737   1.13790    0.017
 5561.00    1.14723   1.13798    0.017
 5562.00    1.10469   1.13205    0.017
 5563.00    1.09716   1.12385    0.017
 5564.00    1.11210   1.12151    0.017
 5565.00    1.09476   1.12172    0.017
 5566.00    1.05929   1.11650    0.017
 5567.00    1.06882   1.11209    0.017
 5568.00    1.10037   1.11186    0.017
 5569.00    1.14415   1.10840    0.017
 5570.00    1.19310   1.10743    0.017
 5571.00    1.17979   1.11851    0.017
 5572.00    1.14396   1.12243    0.017
 5573.00    1.08481   1.11075    0.017
 5574.00    1.01852   1.11232    0.017
 5575.00    1.00483   1.12862    0.017
 5576.00    1.00455   1.13457    0.017
 5577.00    1.01822   1.13315    0.017
 5578.00    1.03478   1.13451    0.017
 5579.00    1.06740   1.13612    0.017
 5580.00    1.10264   1.14046    0.017
 5581.00    1.11334   1.14423    0.017
 5582.00    1.12104   1.14034    0.017
 5583.00    1.11353   1.13545    0.017
 5584.00    1.10474   1.13410    0.017
 5585.00    1.07572   1.12607    0.017
 5586.00    1.04572   1.10204    0.017
 5587.00    0.99896   1.07114    0.017
 5588.00    0.95268   1.05340    0.017
 5589.00    0.94946   1.05627    0.017
 5590.00    0.94715   1.07324    0.018
 5591.00    0.96280   1.09344    0.018
 5592.00    0.97468   1.10618    0.017
 5593.00    0.94279   1.10803    0.018
 5594.00    0.91505   1.10245    0.018
 5595.00    0.92059   1.10422    0.018
 5596.00    0.92512   1.12419    0.018
 5597.00    0.92357   1.13933    0.018
 5598.00    0.92488   1.12895    0.018
 5599.00    0.93980   1.11226    0.018
 5600.00    0.95477   1.10688    0.017
 5601.00    0.96990   1.10157    0.017
 5602.00    0.99201   1.09014    0.017
 5603.00    1.03668   1.08588    0.017
 5604.00    1.07582   1.10166    0.017
 5605.00    1.09983   1.13037    0.017
 5606.00    1.11772   1.15361    0.017
 5607.00    1.12127   1.16539    0.017
 5608.00    1.10888   1.16715    0.017
 5609.00    1.06412   1.16250    0.017
 5610.00    1.04247   1.15837    0.017
 5611.00    1.06160   1.15998    0.017
 5612.00    1.08036   1.16574    0.017
 5613.00    1.09854   1.16693    0.017
 5614.00    1.09894   1.14915    0.017
 5615.00    1.07523   1.10778    0.017
 5616.00    1.05144   1.07600    0.016
 5617.00    1.02756   1.08589    0.016
 5618.00    1.03623   1.11469    0.016
 5619.00    1.07918   1.12622    0.016
 5620.00    1.08573   1.12233    0.016
 5621.00    1.05845   1.12322    0.016
 5622.00    1.04746   1.13318    0.016
 5623.00    1.04982   1.13447    0.016
 5624.00    1.05549   1.11342    0.017
 5625.00    1.06354   1.08929    0.017
 5626.00    1.07170   1.08970    0.017
 5627.00    1.07993   1.10848    0.017
 5628.00    1.08323   1.12441    0.017
 5629.00    1.08381   1.13765    0.017
 5630.00    1.08675   1.15169    0.017
 5631.00    1.09082   1.15947    0.017
 5632.00    1.09609   1.15890    0.017
 5633.00    1.10186   1.15232    0.016
 5634.00    1.10751   1.14358    0.016
 5635.00    1.11311   1.13665    0.016
 5636.00    1.11699   1.12990    0.017
 5637.00    1.12035   1.12025    0.017
 5638.00    1.13150   1.11420    0.017
 5639.00    1.14460   1.11915    0.016
 5640.00    1.16007   1.12519    0.016
 5641.00    1.17602   1.12064    0.017
 5642.00    1.11971   1.11385    0.016
 5643.00    1.05196   1.11573    0.016
 5644.00    1.07670   1.12166    0.016
 5645.00    1.11233   1.12639    0.016
 5646.00    1.07794   1.13142    0.016
 5647.00    1.03795   1.13712    0.016
 5648.00    1.03116   1.13976    0.016
 5649.00    1.02585   1.13567    0.016
 5650.00    1.04876   1.12979    0.016
 5651.00    1.07145   1.13201    0.016
 5652.00    1.06835   1.14208    0.016
 5653.00    1.06562   1.14813    0.016
 5654.00    1.06989   1.13966    0.016
 5655.00    1.07077   1.12350    0.016
 5656.00    1.03407   1.11939    0.016
 5657.00    1.00208   1.11889    0.016
 5658.00    1.00665   1.09532    0.016
 5659.00    1.01711   1.07039    0.016
 5660.00    1.06223   1.08089    0.016
 5661.00    1.09311   1.10485    0.016
 5662.00    1.05772   1.10574    0.016
 5663.00    1.03732   1.09609    0.016
 5664.00    1.07394   1.10455    0.016
 5665.00    1.10907   1.12674    0.016
 5666.00    1.13948   1.13942    0.016
 5667.00    1.15479   1.13426    0.017
 5668.00    1.12945   1.12311    0.016
 5669.00    1.10879   1.11978    0.016
 5670.00    1.09892   1.12468    0.016
 5671.00    1.09510   1.13100    0.016
 5672.00    1.10336   1.13971    0.016
 5673.00    1.10364   1.15268    0.016
 5674.00    1.09003   1.16052    0.017
 5675.00    1.08399   1.15656    0.017
 5676.00    1.08947   1.15153    0.017
 5677.00    1.10358   1.15358    0.017
 5678.00    1.12923   1.15321    0.017
 5679.00    1.13674   1.14662    0.017
 5680.00    1.12289   1.14248    0.017
 5681.00    1.12448   1.14041    0.016
 5682.00    1.14210   1.12993    0.016
 5683.00    1.12976   1.11593    0.016
 5684.00    1.08997   1.11534    0.016
 5685.00    1.04848   1.12525    0.016
 5686.00    1.00563   1.12767    0.016
 5687.00    1.00968   1.11889    0.016
 5688.00    1.04707   1.11082    0.016
 5689.00    1.04547   1.11316    0.016
 5690.00    1.01955   1.12525    0.016
 5691.00    1.04011   1.13870    0.016
 5692.00    1.08599   1.15021    0.016
 5693.00    1.14040   1.15819    0.016
 5694.00    1.19883   1.15775    0.016
 5695.00    1.21108   1.15230    0.016
 5696.00    1.20447   1.15086    0.017
 5697.00    1.19130   1.15180    0.017
 5698.00    1.17584   1.14516    0.017
 5699.00    1.17147   1.13441    0.017
 5700.00    1.17035   1.12698    0.017
 5701.00    1.14746   1.11764    0.017
 5702.00    1.11926   1.10795    0.017
 5703.00    1.07131   1.11003    0.016
 5704.00    1.01946   1.12218    0.016
 5705.00    1.01051   1.12761    0.016
 5706.00    1.00815   1.11811    0.016
 5707.00    1.03043   1.10271    0.016
 5708.00    1.05551   1.09041    0.016
 5709.00    1.03456   1.08130    0.016
 5710.00    1.01012   1.08060    0.016
 5711.00    1.02237   1.08689    0.016
 5712.00    1.03612   1.09044    0.016
 5713.00    1.04771   1.10106    0.016
 5714.00    1.06064   1.12189    0.016
 5715.00    1.12967   1.13652    0.016
 5716.00    1.19389   1.14281    0.016
 5717.00    1.17569   1.14616    0.016
 5718.00    1.15650   1.14578    0.016
 5719.00    1.12688   1.14576    0.016
 5720.00    1.09981   1.14929    0.016
 5721.00    1.09179   1.15457    0.016
 5722.00    1.08441   1.16142    0.016
 5723.00    1.08075   1.16823    0.016
 5724.00    1.07701   1.17143    0.016
 5725.00    1.07295   1.16984    0.016
 5726.00    1.06868   1.16158    0.016
 5727.00    1.06364   1.14695    0.016
 5728.00    1.07151   1.13911    0.016
 5729.00    1.11958   1.14667    0.016
 5730.00    1.15757   1.15474    0.016
 5731.00    1.16893   1.14766    0.016
 5732.00    1.16665   1.13548    0.016
 5733.00    1.13343   1.13828    0.016
 5734.00    1.11262   1.15344    0.016
 5735.00    1.11617   1.16483    0.016
 5736.00    1.12360   1.16630    0.016
 5737.00    1.13765   1.16073    0.016
 5738.00    1.13764   1.15519    0.016
 5739.00    1.11652   1.15424    0.016
 5740.00    1.09659   1.15556    0.000
 5741.00    1.07823   1.15544    0.000
 5742.00    1.07604   1.15184    0.000
 5743.00    1.09265   1.14689    0.000
 5744.00    1.11114   1.14834    0.000
 5745.00    1.13155   1.15852    0.000
 5746.00    1.14912   1.16654    0.000
 5747.00    1.16411   1.15894    0.000
 5748.00    1.17358   1.14083    0.000
 5749.00    1.17866   1.13379    0.000
 5750.00    1.18223   1.14542    0.000
 5751.00    1.18474   1.15761    0.000
 5752.00    1.16246   1.15113    0.000
 5753.00    1.12496   1.12928    0.000
 5754.00    1.11247   1.11176    0.000
 5755.00    1.11341   1.11499    0.000
 5756.00    1.11102   1.13697    0.000
 5757.00    1.10709   1.15890    0.000
 5758.00    1.09941   1.16796    0.000
 5759.00    1.09023   1.16521    0.000
 5760.00    1.07731   1.15324    0.000
 5761.00    1.06311   1.13518    0.000
 5762.00    1.09695   1.11675    0.000
 5763.00    1.14465   1.10805    0.000
 5764.00    1.15930   1.12057    0.000
 5765.00    1.16609   1.14722    0.000
 5766.00    1.16560   1.16560    0.000
 5767.00    1.16371   1.17024    0.000
 5768.00    1.21365   1.16957    0.000
 5769.00    1.27131   1.16640    0.000
 5770.00    1.25973   1.16236    0.000
 5771.00    1.24061   1.15827    0.000
 5772.00    1.21904   1.15203    0.000
 5773.00    1.19730   1.14742    0.000
 5774.00    1.17635   1.14640    0.000
 5775.00    1.15543   1.14515    0.000
 5776.00    1.17177   1.14685    0.000
 5777.00    1.18681   1.15345    0.000
 5778.00    1.14968   1.15751    0.000
 5779.00    1.11678   1.15159    0.000
 5780.00    1.15194   1.13250    0.000
 5781.00    1.18327   1.10415    0.000
 5782.00    1.17576   1.08521    0.000
 5783.00    1.16570   1.08660    0.000
 5784.00    1.13716   1.09148    0.000
 5785.00    1.11224   1.08733    0.000
 5786.00    1.10742   1.08708    0.000
 5787.00    1.10276   1.10238    0.000
 5788.00    1.09878   1.12321    0.000
 5789.00    1.10099   1.13703    0.000
 5790.00    1.12575   1.13763    0.000
 5791.00    1.14054   1.12735   -2.000
 5792.00    1.12485   1.12321   -2.000
 5793.00    1.10598   1.13234   -2.000
 5794.00    1.07885   1.14575   -2.000
 5795.00    1.05140   1.15740   -2.000
 5796.00    1.02328   1.16119   -2.000
 5797.00    1.02207   1.15006   -2.000
 5798.00    1.07296   1.13436   -2.000
 5799.00    1.12046   1.13533   -2.000
 5800.00    1.16224   1.15340   -2.000
 5801.00    1.16565   1.17007   -2.000
 5802.00    1.11234   1.17721   -2.000
 5803.00    1.09491   1.17529   -2.000
 5804.00    1.12411   1.16207   -2.000
 5805.00    1.12875   1.14579   -2.000
 5806.00    1.10526   1.13902   -2.000
 5807.00    1.09671   1.14181   -2.000
 5808.00    1.10325   1.14759   -2.000
 5809.00    1.10726   1.15253   -2.000
 5810.00    1.10900   1.15747   -2.000
 5811.00    1.09686   1.16297    0.000
 5812.00    1.07381   1.16551    0.000
 5813.00    1.07003   1.16349    0.000
 5814.00    1.07955   1.15860    0.000
 5815.00    1.11061   1.14959    0.000
 5816.00    1.15470   1.13784    0.000
 5817.00    1.15428   1.13482    0.000
 5818.00    1.13036   1.14739    0.000
 5819.00    1.10921   1.16442    0.000
 5820.00    1.08932   1.17368    0.000
 5821.00    1.12828   1.17510    0.000
 5822.00    1.19047   1.17188    0.000
 5823.00    1.20486   1.16630    0.000
 5824.00    1.20320   1.16236    0.000
 5825.00    1.18283   1.16414    0.000
 5826.00    1.15719   1.16740    0.000
 5827.00    1.12852   1.16733    0.000
 5828.00    1.09913   1.16724    0.000
 5829.00    1.06498   1.16964    0.000
 5830.00    1.02993   1.17174    0.000
 5831.00    1.03844   1.17106    0.000
 5832.00    1.05324   1.17005    0.000
 5833.00    1.07891   1.16854    0.000
 5834.00    1.10572   1.16173    0.000
 5835.00    1.13603   1.15217    0.000
 5836.00    1.16659   1.15157    0.000
 5837.00    1.18410   1.15894    0.000
 5838.00    1.20117   1.16035    0.000
 5839.00    1.19379   1.15735    0.000
 5840.00    1.18534   1.16138    0.000
 5841.00    1.14366   1.17032    0.000
 5842.00    1.10453   1.17575    0.000
 5843.00    1.10391   1.17729    0.000
 5844.00    1.10545   1.17478    0.000
 5845.00    1.12783   1.16782    0.000
 5846.00    1.14662   1.15961    0.000
 5847.00    1.14033   1.15188    0.000
 5848.00    1.13083   1.14786    0.000
 5849.00    1.10402   1.15053    0.000
 5850.00    1.08513   1.15514    0.000
 5851.00    1.10054   1.15470    0.000
 5852.00    1.12066   1.14561    0.000
 5853.00    1.15757   1.12955    0.000
 5854.00    1.17502   1.11881    0.000
 5855.00    1.13416   1.12390    0.000
 5856.00    1.09294   1.13097    0.000
 5857.00    1.05079   1.12078    0.000
 5858.00    1.03187   1.10356    0.000
 5859.00    1.06391   1.10214    0.000
 5860.00    1.09361   1.11718    0.000
 5861.00    1.11885   1.13425    0.000
 5862.00    1.12919   1.14112    0.000
 5863.00    1.11477   1.13828    0.000
 5864.00    1.10354   1.13904    0.000
 5865.00    1.09694   1.14556    0.000
 5866.00    1.09601   1.14577    0.000
 5867.00    1.10236   1.13872    0.000
 5868.00    1.10172   1.13887    0.000
 5869.00    1.09320   1.15020    0.000
 5870.00    1.08894   1.16105    0.000
 5871.00    1.08892   1.16355    0.000
 5872.00    1.08212   1.15957    0.000
 5873.00    1.06934   1.15422    0.000
 5874.00    1.08192   1.15375    0.000
 5875.00    1.11411   1.15820    0.000
 5876.00    1.13163   1.15811    0.000
 5877.00    1.13917   1.15186    0.000
 5878.00    1.12797   1.14640    0.000
 5879.00    1.10560   1.14050    0.000
 5880.00    1.09108   1.13062    0.000
 5881.00    1.08063   1.12429    0.000
 5882.00    1.08801   1.12839    0.000
 5883.00    1.10341   1.13288    0.000
 5884.00    1.07018   1.12713    0.000
 5885.00    1.01809   1.12007    0.000
 5886.00    0.99550   1.12039    0.000
 5887.00    0.98264   1.11690    0.000
 5888.00    0.97877   1.08675    0.000
 5889.00    0.97739   1.01181    0.000
 5890.00    0.97136   0.92616    0.000
 5891.00    0.96427   0.90793    0.000
 5892.00    0.93919   0.96459    0.000
 5893.00    0.91083   1.02555    0.000
 5894.00    0.91308   1.04563    0.000
 5895.00    0.91961   1.01328    0.000
 5896.00    0.91867   0.95559    0.000
 5897.00    0.91698   0.94750    0.000
 5898.00    0.94603   1.00451    0.000
 5899.00    0.97703   1.06288    0.000
 5900.00    0.99908   1.09153    0.000
 5901.00    1.02095   1.10672    0.015
 5902.00    1.07096   1.11654    0.015
 5903.00    1.11932   1.12178    0.015
 5904.00    1.12119   1.12634    0.015
 5905.00    1.12245   1.12807    0.015
 5906.00    1.11519   1.12708    0.015
 5907.00    1.10805   1.12979    0.015
 5908.00    1.10198   1.13659    0.015
 5909.00    1.09484   1.14181    0.015
 5910.00    1.08035   1.14326    0.015
 5911.00    1.06914   1.14507    0.015
 5912.00    1.07519   1.14654    0.015
 5913.00    1.08675   1.13797    0.015
 5914.00    1.12160   1.11939    0.015
 5915.00    1.15060   1.10740    0.015
 5916.00    1.15915   1.10969    0.015
 5917.00    1.15987   1.12013    0.015
 5918.00    1.13752   1.13142    0.015
 5919.00    1.11581   1.13674    0.015
 5920.00    1.09573   1.13891    0.015
 5921.00    1.08397   1.14118    0.014
 5922.00    1.09016   1.13928    0.015
 5923.00    1.09709   1.13566    0.015
 5924.00    1.10543   1.13637    0.015
 5925.00    1.11565   1.14048    0.015
 5926.00    1.12895   1.14581    0.014
 5927.00    1.14697   1.14889    0.014
 5928.00    1.17174   1.14467    0.015
 5929.00    1.17782   1.13223    0.015
 5930.00    1.16027   1.11839    0.014
 5931.00    1.14527   1.11881    0.014
 5932.00    1.13310   1.13495    0.015
 5933.00    1.12634   1.14621    0.015
 5934.00    1.12490   1.14020    0.015
 5935.00    1.13021   1.12881    0.014
 5936.00    1.14135   1.12953    0.014
 5937.00    1.14120   1.14001    0.014
 5938.00    1.13244   1.14822    0.015
 5939.00    1.14068   1.15313    0.015
 5940.00    1.16031   1.15182    0.015
 5941.00    1.16109   1.13958    0.015
 5942.00    1.15080   1.12789    0.015
 5943.00    1.13067   1.12878    0.015
 5944.00    1.10551   1.13746    0.015
 5945.00    1.10246   1.14594    0.015
 5946.00    1.10922   1.15165    0.015
 5947.00    1.09189   1.15065    0.015
 5948.00    1.06538   1.13958    0.015
 5949.00    1.07186   1.12596    0.015
 5950.00    1.08901   1.12511    0.014
 5951.00    1.11126   1.13611    0.015
 5952.00    1.13489   1.13786    0.015
 5953.00    1.14403   1.12716    0.015
 5954.00    1.14995   1.12481    0.015
 5955.00    1.15148   1.13339    0.015
 5956.00    1.15224   1.13417    0.015
 5957.00    1.16389   1.12418    0.015
 5958.00    1.17701   1.11855    0.015
 5959.00    1.18531   1.12561    0.015
 5960.00    1.19314   1.13941    0.015
 5961.00    1.14756   1.14956    0.015
 5962.00    1.09879   1.15429    0.015
 5963.00    1.09498   1.15710    0.014
 5964.00    1.09256   1.15772    0.014
 5965.00    1.12798   1.15273    0.014
 5966.00    1.16241   1.14370    0.014
 5967.00    1.17158   1.14184    0.014
 5968.00    1.18308   1.14884    0.014
 5969.00    1.22601   1.15570    0.014
 5970.00    1.26507   1.16099    0.014
 5971.00    1.26954   1.16565    0.014
 5972.00    1.26641   1.16742    0.015
 5973.00    1.21320   1.16653    0.014
 5974.00    1.16904   1.16419    0.014
 5975.00    1.17126   1.15682    0.014
 5976.00    1.17197   1.14250    0.014
 5977.00    1.16642   1.12790    0.014
 5978.00    1.15397   1.12003    0.014
 5979.00    1.11786   1.12175    0.014
 5980.00    1.08817   1.13382    0.014
 5981.00    1.07698   1.14807    0.014
 5982.00    1.06696   1.15091    0.015
 5983.00    1.05983   1.13856    0.014
 5984.00    1.05854   1.11882    0.014
 5985.00    1.06966   1.10818    0.014
 5986.00    1.08632   1.11544    0.014
 5987.00    1.11321   1.12757    0.014
 5988.00    1.13536   1.13363    0.014
 5989.00    1.14985   1.13933    0.014
 5990.00    1.15400   1.14416    0.014
 5991.00    1.14351   1.13896    0.014
 5992.00    1.12505   1.13091    0.014
 5993.00    1.09665   1.13605    0.014
 5994.00    1.08599   1.14994    0.014
 5995.00    1.09479   1.15605    0.014
 5996.00    1.11533   1.15076    0.014
 5997.00    1.14722   1.13901    0.014
 5998.00    1.15358   1.12791    0.014
 5999.00    1.13815   1.12569    0.014
 6000.00    1.12360   1.13269    0.014
 6001.00    1.10970   1.14063    0.014
 6002.00    1.12560   1.13974    0.014
 6003.00    1.16118   1.13069    0.015
 6004.00    1.16471   1.12751    0.015
 6005.00    1.14969   1.13326    0.014
 6006.00    1.11768   1.13431    0.014
 6007.00    1.07711   1.12434    0.014
 6008.00    1.06019   1.10914    0.014
 6009.00    1.05360   1.10526    0.014
 6010.00    1.05542   1.12246    0.014
 6011.00    1.06039   1.14145    0.014
 6012.00    1.07457   1.14124    0.014
 6013.00    1.09167   1.12618    0.014
 6014.00    1.09316   1.11593    0.014
 6015.00    1.09050   1.11891    0.014
 6016.00    1.08739   1.12244    0.014
 6017.00    1.08418   1.12066    0.014
 6018.00    1.07437   1.12205    0.014
 6019.00    1.06342   1.12304    0.014
 6020.00    1.04557   1.11585    0.014
 6021.00    1.02682   1.10933    0.014
 6022.00    1.04021   1.11177    0.014
 6023.00    1.05655   1.11725    0.014
 6024.00    1.06918   1.12001    0.014
 6025.00    1.08159   1.12523    0.014
 6026.00    1.10066   1.13305    0.014
 6027.00    1.11983   1.13545    0.014
 6028.00    1.13495   1.13712    0.014
 6029.00    1.14928   1.14499    0.014
 6030.00    1.14532   1.15152    0.014
 6031.00    1.14181   1.15106    0.014
 6032.00    1.14422   1.15008    0.014
 6033.00    1.14561   1.15420    0.014
 6034.00    1.13813   1.15863    0.014
 6035.00    1.13075   1.15843    0.014
 6036.00    1.12404   1.15654    0.014
 6037.00    1.11844   1.15680    0.014
 6038.00    1.11838   1.15894    0.014
 6039.00    1.11834   1.15885    0.014
 6040.00    1.11834   1.15329    0.014
 6041.00    1.11629   1.14694    0.014
 6042.00    1.10733   1.14465    0.014
 6043.00    1.10433   1.14843    0.014
 6044.00    1.11824   1.15609    0.014
 6045.00    1.13845   1.15987    0.014
 6046.00    1.17392   1.15947    0.014
 6047.00    1.19963   1.16095    0.014
 6048.00    1.20492   1.16287    0.014
 6049.00    1.20399   1.16154    0.014
 6050.00    1.19177   1.16099    0.014
 6051.00    1.17367   1.16279    0.014
 6052.00    1.14624   1.15917    0.014
 6053.00    1.13142   1.14839    0.014
 6054.00    1.13418   1.14061    0.014
 6055.00    1.14165   1.13933    0.014
 6056.00    1.15489   1.13751    0.014
 6057.00    1.14903   1.13572    0.014
 6058.00    1.12252   1.14029    0.014
 6059.00    1.11331   1.14848    0.014
 6060.00    1.12060   1.15458    0.014
 6061.00    1.13159   1.15733    0.014
 6062.00    1.14568   1.15645    0.014
 6063.00    1.12955   1.15142    0.014
 6064.00    1.09103   1.14194    0.014
 6065.00    1.06512   1.12628    0.014
 6066.00    1.04741   1.11619    0.014
 6067.00    1.04609   1.12871    0.014
 6068.00    1.05410   1.15166    0.014
 6069.00    1.07348   1.16316    0.014
 6070.00    1.09851   1.16339    0.014
 6071.00    1.13330   1.16257    0.014
 6072.00    1.17227   1.16564    0.014
 6073.00    1.19564   1.17055    0.014
 6074.00    1.21328   1.17361    0.014
 6075.00    1.21306   1.17290    0.014
 6076.00    1.20727   1.16787    0.014
 6077.00    1.19973   1.15915    0.014
 6078.00    1.19175   1.14635    0.014
 6079.00    1.17783   1.13494    0.014
 6080.00    1.16266   1.13498    0.014
 6081.00    1.14524   1.13973    0.014
 6082.00    1.12743   1.13510    0.014
 6083.00    1.11488   1.12785    0.014
 6084.00    1.10298   1.12899    0.014
 6085.00    1.12419   1.13252    0.014
 6086.00    1.14831   1.13262    0.014
 6087.00    1.13336   1.13504    0.014
 6088.00    1.11639   1.14207    0.014
 6089.00    1.09903   1.14448    0.014
 6090.00    1.08227   1.13615    0.014
 6091.00    1.11067   1.12784    0.014
 6092.00    1.13848   1.12866    0.014
 6093.00    1.15376   1.13129    0.014
 6094.00    1.16692   1.13457    0.014
 6095.00    1.15453   1.14457    0.014
 6096.00    1.14303   1.15318    0.014
 6097.00    1.13898   1.15141    0.014
 6098.00    1.13210   1.14628    0.014
 6099.00    1.10772   1.14793    0.014
 6100.00    1.08507   1.15296    0.014
 6101.00    1.07081   1.14806    0.014
 6102.00    1.05865   1.12148    0.014
 6103.00    1.05483   1.08676    0.014
 6104.00    1.05449   1.08297    0.014
 6105.00    1.06561   1.11284    0.014
 6106.00    1.07618   1.13846    0.014
 6107.00    1.08523   1.14381    0.014
 6108.00    1.09539   1.14091    0.014
 6109.00    1.10821   1.14383    0.014
 6110.00    1.11588   1.15235    0.014
 6111.00    1.11293   1.15224    0.014
 6112.00    1.11506   1.14326    0.014
 6113.00    1.12629   1.14176    0.014
 6114.00    1.13233   1.15142    0.014
 6115.00    1.13024   1.15865    0.014
 6116.00    1.13129   1.15297    0.014
 6117.00    1.13663   1.14373    0.014
 6118.00    1.11581   1.14459    0.014
 6119.00    1.06334   1.14737    0.014
 6120.00    1.03389   1.13898    0.014
 6121.00    1.02899   1.12060    0.014
 6122.00    1.03420   1.09865    0.014
 6123.00    1.04893   1.08981    0.013
 6124.00    1.07527   1.10671    0.013
 6125.00    1.11126   1.12831    0.014
 6126.00    1.14150   1.13428    0.014
 6127.00    1.16754   1.13054    0.014
 6128.00    1.16738   1.12431    0.014
 6129.00    1.15042   1.11968    0.014
 6130.00    1.13501   1.12371    0.014
 6131.00    1.12047   1.13578    0.014
 6132.00    1.12184   1.14719    0.014
 6133.00    1.13096   1.15389    0.014
 6134.00    1.13134   1.15264    0.014
 6135.00    1.12802   1.13542    0.014
 6136.00    1.11679   1.09965    0.014
 6137.00    1.10269   1.05814    0.014
 6138.00    1.08986   1.04417    0.014
 6139.00    1.07743   1.07633    0.014
 6140.00    1.06847   1.11902    0.014
 6141.00    1.06039   1.12627    0.014
 6142.00    1.06742   1.10875    0.014
 6143.00    1.07757   1.10958    0.014
 6144.00    1.08251   1.13380    0.014
 6145.00    1.08660   1.15254    0.014
 6146.00    1.11963   1.15274    0.014
 6147.00    1.15619   1.14128    0.014
 6148.00    1.15880   1.12607    0.014
 6149.00    1.15858   1.11464    0.014
 6150.00    1.11893   1.11267    0.014
 6151.00    1.07739   1.11939    0.014
 6152.00    1.08480   1.13032    0.014
 6153.00    1.09283   1.13930    0.014
 6154.00    1.09516   1.13760    0.014
 6155.00    1.09793   1.12517    0.014
 6156.00    1.10928   1.11652    0.014
 6157.00    1.11743   1.11582    0.014
 6158.00    1.08865   1.11630    0.014
 6159.00    1.05694   1.11898    0.014
 6160.00    1.00183   1.11654    0.014
 6161.00    0.95765   1.09071    0.014
 6162.00    0.97926   1.05115    0.014
 6163.00    0.99553   1.03328    0.014
 6164.00    0.98641   1.04883    0.014
 6165.00    0.97798   1.07734    0.014
 6166.00    0.97222   1.09873    0.014
 6167.00    0.97181   1.11160    0.014
 6168.00    0.98862   1.11588    0.014
 6169.00    1.00538   1.09945    0.014
 6170.00    1.02199   1.07198    0.014
 6171.00    1.03702   1.06956    0.014
 6172.00    1.04835   1.09479    0.014
 6173.00    1.06326   1.11459    0.014
 6174.00    1.08544   1.11828    0.014
 6175.00    1.09717   1.11870    0.014
 6176.00    1.09047   1.11828    0.014
 6177.00    1.07092   1.11524    0.014
 6178.00    1.03157   1.11765    0.014
 6179.00    1.00514   1.12554    0.014
 6180.00    0.99624   1.12750    0.014
 6181.00    0.99001   1.12722    0.014
 6182.00    0.98696   1.13364    0.014
 6183.00    0.99426   1.13982    0.014
 6184.00    1.01247   1.14045    0.014
 6185.00    1.02265   1.13892    0.014
 6186.00    1.02540   1.13274    0.014
 6187.00    1.03925   1.12056    0.014
 6188.00    1.06217   1.11160    0.014
 6189.00    1.06626   1.11103    0.014
 6190.00    1.05679   1.10915    0.014
 6191.00    1.04546   1.09164    0.014
 6192.00    1.03295   1.07141    0.014
 6193.00    1.05792   1.07939    0.014
 6194.00    1.10359   1.10807    0.014
 6195.00    1.17781   1.12598    0.015
 6196.00    1.26574   1.13180   -2.000
 6197.00    1.14615   1.13804   -2.000
 6198.00    0.94054   1.13943   -2.000
 6199.00    0.67543   1.12508   -2.000
 6200.00    0.38922   1.10451   -2.000
 6201.00    0.48083   1.10100   -2.000
 6202.00    0.68550   1.11763   -2.000
 6203.00    0.97760   1.13494   -2.000
 6204.00    1.29142   1.14033   -2.000
 6205.00    1.34143   1.13879   -2.000
 6206.00    1.33831   1.13833   -2.000
 6207.00    1.23857   1.13911   -2.000
 6208.00    1.12359   1.13864    0.014
 6209.00    1.12704   1.13806    0.014
 6210.00    1.14437   1.13677    0.014
 6211.00    1.13412   1.13237    0.014
 6212.00    1.12167   1.12508    0.014
 6213.00    1.08891   1.11084    0.014
 6214.00    1.05526   1.08905    0.014
 6215.00    1.03133   1.07353    0.014
 6216.00    1.00782   1.07358    0.014
 6217.00    0.99942   1.08505    0.013
 6218.00    0.99064   1.09763    0.013
 6219.00    0.97487   1.09788    0.014
 6220.00    0.96048   1.08689    0.014
 6221.00    0.96136   1.08226    0.014
 6222.00    0.96354   1.09164    0.014
 6223.00    0.97580   1.10452    0.014
 6224.00    0.98952   1.10828    0.014
 6225.00    1.01177   1.10538    0.014
 6226.00    1.02685   1.10735    0.014
 6227.00    1.00868   1.11354    0.014
 6228.00    0.99009   1.11627    0.014
 6229.00    0.96994   1.10853    0.014
 6230.00    0.95664   1.08494    0.014
 6231.00    0.96506   1.05914    0.014
 6232.00    0.97570   1.05377    0.014
 6233.00    0.99227   1.06768    0.014
 6234.00    1.00689   1.08994    0.014
 6235.00    1.01700   1.11523    0.014
 6236.00    1.02100   1.12944    0.013
 6237.00    1.01285   1.12226    0.013
 6238.00    1.00324   1.10208    0.013
 6239.00    0.99109   1.08290    0.014
 6240.00    0.97976   1.07220    0.014
 6241.00    0.96970   1.07544    0.014
 6242.00    0.96645   1.08575    0.013
 6243.00    0.97228   1.08240    0.013
 6244.00    0.97756   1.07020    0.013
 6245.00    0.98217   1.06884    0.013
 6246.00    0.98441   1.06879    0.013
 6247.00    0.98419   1.06414    0.013
 6248.00    0.98469   1.07311    0.013
 6249.00    0.98583   1.09401    0.014
 6250.00    0.98957   1.10804    0.014
 6251.00    0.99542   1.10739    0.013
 6252.00    0.98850   1.09149    0.013
 6253.00    0.97253   1.07148    0.014
 6254.00    0.95952   1.06376    0.014
 6255.00    0.94836   1.06734    0.014
 6256.00    0.96607   1.06950    0.014
 6257.00    0.99949   1.06436    0.013
 6258.00    1.01074   1.05590    0.014
 6259.00    1.01152   1.05347    0.014
 6260.00    0.94101   1.06574    0.015
 6261.00    0.84144   1.08336    0.016
 6262.00    0.83484   1.09560    0.016
 6263.00    0.86058   1.10917    0.017
 6264.00    0.90357   1.11904    0.017
 6265.00    0.95162   1.11166    0.017
 6266.00    1.05051   1.09973    0.016
 6267.00    1.16175   1.10289    0.015
 6268.00    1.18343   1.11242    0.015
 6269.00    1.18752   1.11207    0.014
 6270.00    1.14766   1.10637    0.014
 6271.00    1.10106   1.10618    0.014
 6272.00    1.08051   1.11182    0.013
 6273.00    1.06290   1.11863    0.013
 6274.00    1.08452   1.12216    0.014
 6275.00    1.10910   1.12205    0.014
 6276.00    1.08758   1.12258    0.014
 6277.00    1.06421   1.12389    0.014
 6278.00    1.06505   1.12356    0.013
 6279.00    1.06651   1.11994    0.013
 6280.00    1.08589   1.10970    0.000
 6281.00    1.10398   1.09919    0.000
 6282.00    1.10023   1.10008    0.000
 6283.00    1.09590   1.10956    0.000
 6284.00    1.08555   1.11992    0.000
 6285.00    1.07544   1.12496    0.000
 6286.00    1.06709   1.12393    0.000
 6287.00    1.06348   1.12565    0.000
 6288.00    1.08681   1.13235    0.000
 6289.00    1.11108   1.13842    0.000
 6290.00    1.13954   1.13728    0.000
 6291.00    1.16264   1.12729    0.000
 6292.00    1.16580   1.11713    0.000
 6293.00    1.16145   1.11312    0.000
 6294.00    1.13378   1.11561    0.000
 6295.00    1.11189   1.12119    0.000
 6296.00    1.10528   1.11882    0.000
 6297.00    1.10139   1.10550    0.000
 6298.00    1.10367   1.09449    0.000
 6299.00    1.10112   1.09552    0.000
 6300.00    1.08911   1.10194    0.000
 6301.00    1.08700   1.09899    0.000
 6302.00    1.10179   1.08750    0.000
 6303.00    1.10951   1.08585    0.000
 6304.00    1.10663   1.09718    0.000
 6305.00    1.09823   1.10472    0.000
 6306.00    1.08256   1.10489    0.000
 6307.00    1.07281   1.11205    0.000
 6308.00    1.06990   1.12690    0.000
 6309.00    1.07676   1.13479    0.000
 6310.00    1.09358   1.13003    0.000
 6311.00    1.10415   1.11881    0.000
 6312.00    1.10907   1.11053    0.000
 6313.00    1.09762   1.10988    0.000
 6314.00    1.07316   1.10918    0.000
 6315.00    1.06167   1.09898    0.000
 6316.00    1.05925   1.08981    0.000
 6317.00    1.07052   1.08800    0.000
 6318.00    1.09018   1.07972    0.000
 6319.00    1.08990   1.07132    0.000
 6320.00    1.07895   1.08065    0.000
 6321.00    1.06517   1.09870    0.013
 6322.00    1.05008   1.10885    0.013
 6323.00    1.06211   1.11239    0.013
 6324.00    1.08500   1.11823    0.013
 6325.00    1.09526   1.12647    0.013
 6326.00    1.10119   1.13029    0.013
 6327.00    1.09262   1.12780    0.013
 6328.00    1.07987   1.12523    0.013
 6329.00    1.09691   1.12792    0.013
 6330.00    1.12102   1.12824    0.014
 6331.00    1.13715   1.12148    0.014
 6332.00    1.15176   1.11990    0.013
 6333.00    1.12978   1.12812    0.013
 6334.00    1.10238   1.13220    0.013
 6335.00    1.10430   1.11628    0.013
 6336.00    1.10940   1.08770    0.013
 6337.00    1.10726   1.07624    0.013
 6338.00    1.10461   1.08874    0.013
 6339.00    1.08970   1.10223    0.013
 6340.00    1.07435   1.10915    0.013
 6341.00    1.06802   1.11808    0.013
 6342.00    1.06216   1.12320    0.013
 6343.00    1.07171   1.11464    0.013
 6344.00    1.08079   1.09850    0.014
 6345.00    1.08238   1.08753    0.013
 6346.00    1.08519   1.07970    0.013
 6347.00    1.10019   1.07112    0.013
 6348.00    1.11687   1.07698    0.013
 6349.00    1.14565   1.10008    0.013
 6350.00    1.16805   1.11848    0.013
 6351.00    1.15517   1.12406    0.013
 6352.00    1.13954   1.12702    0.013
 6353.00    1.11173   1.12832    0.013
 6354.00    1.09206   1.12030    0.013
 6355.00    1.10200   1.10647    0.013
 6356.00    1.10808   1.10140    0.013
 6357.00    1.10241   1.10471    0.013
 6358.00    1.09669   1.10048    0.013
 6359.00    1.09080   1.08699    0.013
 6360.00    1.08225   1.07753    0.013
 6361.00    1.06778   1.07420    0.013
 6362.00    1.05850   1.06808    0.014
 6363.00    1.05925   1.06325    0.014
 6364.00    1.06030   1.06928    0.014
 6365.00    1.06187   1.08196    0.014
 6366.00    1.06502   1.09339    0.014
 6367.00    1.07047   1.10395    0.014
 6368.00    1.08118   1.11501    0.014
 6369.00    1.09871   1.11796    0.014
 6370.00    1.10774   1.10423    0.014
 6371.00    1.10705   1.08647    0.013
 6372.00    1.10971   1.08959    0.013
 6373.00    1.11574   1.11341    0.013
 6374.00    1.12602   1.13232    0.013
 6375.00    1.14009   1.13511    0.013
 6376.00    1.14893   1.13389    0.013
 6377.00    1.15368   1.13530    0.013
 6378.00    1.15915   1.13139    0.013
 6379.00    1.16512   1.12165    0.013
 6380.00    1.16954   1.11429    0.013
 6381.00    1.17303   1.11210    0.013
 6382.00    1.14692   1.11484    0.013
 6383.00    1.10520   1.11895    0.013
 6384.00    1.08034   1.11694    0.013
 6385.00    1.06319   1.11202    0.013
 6386.00    1.07115   1.11596    0.013
 6387.00    1.08899   1.12682    0.013
 6388.00    1.10243   1.13288    0.013
 6389.00    1.11440   1.13351    0.013
 6390.00    1.12408   1.13485    0.013
 6391.00    1.13312   1.13510    0.013
 6392.00    1.13384   1.12483    0.013
 6393.00    1.13264   1.10142    0.014
 6394.00    1.11722   1.08312    0.014
 6395.00    1.09916   1.09066    0.014
 6396.00    1.08575   1.11495    0.014
 6397.00    1.07300   1.13425    0.014
 6398.00    1.08369   1.13939    0.014
 6399.00    1.09681   1.12334    0.014
 6400.00    1.10896   1.09102    0.014
 6401.00    1.12104   1.07732    0.014
 6402.00    1.13523   1.09976    0.014
 6403.00    1.14949   1.12843    0.014
 6404.00    1.17311   1.13991    0.013
 6405.00    1.19524   1.14019    0.013
 6406.00    1.17102   1.13424    0.013
 6407.00    1.14759   1.11959    0.013
 6408.00    1.13623   1.10281    0.013
 6409.00    1.12650   1.10162    0.013
 6410.00    1.13249   1.11548    0.013
 6411.00    1.13960   1.11818    0.013
 6412.00    1.15453   1.10811    0.013
 6413.00    1.16718   1.10672    0.013
 6414.00    1.16755   1.11220    0.013
 6415.00    1.16633   1.11377    0.013
 6416.00    1.15822   1.11369    0.013
 6417.00    1.15143   1.11415    0.013
 6418.00    1.14935   1.11486    0.013
 6419.00    1.14640   1.11231    0.013
 6420.00    1.14084   1.10050    0.013
 6421.00    1.14212   1.08765    0.013
 6422.00    1.16079   1.09226    0.013
 6423.00    1.16674   1.11636    0.013
 6424.00    1.14480   1.13763    0.013
 6425.00    1.12178   1.14069    0.013
 6426.00    1.09671   1.13825    0.013
 6427.00    1.07102   1.14265    0.013
 6428.00    1.04432   1.14907    0.013
 6429.00    1.03809   1.14682    0.014
 6430.00    1.06162   1.12806    0.014
 6431.00    1.08739   1.09930    0.014
 6432.00    1.11602   1.08351    0.013
 6433.00    1.13992   1.09276    0.013
 6434.00    1.15849   1.11439    0.014
 6435.00    1.16388   1.13221    0.014
 6436.00    1.15617   1.13894    0.013
 6437.00    1.15211   1.13400    0.013
 6438.00    1.15125   1.11688    0.013
 6439.00    1.15490   1.09448    0.014
 6440.00    1.16202   1.09037    0.014
 6441.00    1.17710   1.11167    0.014
 6442.00    1.19758   1.13376    0.014
 6443.00    1.18865   1.14114    0.013
 6444.00    1.16223   1.14162    0.013
 6445.00    1.15815   1.14302    0.013
 6446.00    1.16567   1.14749    0.013
 6447.00    1.17315   1.15249    0.014
 6448.00    1.18060   1.14645    0.014
 6449.00    1.16379   1.11625    0.014
 6450.00    1.13759   1.07631    0.014
 6451.00    1.10880   1.06438    0.014
 6452.00    1.07917   1.08747    0.014
 6453.00    1.07078   1.11644    0.014
 6454.00    1.06825   1.12857    0.013
 6455.00    1.07713   1.11376    0.013
 6456.00    1.08860   1.08239    0.013
 6457.00    1.07987   1.07118    0.013
 6458.00    1.06747   1.09594    0.013
 6459.00    1.06971   1.12973    0.013
 6460.00    1.07398   1.14758    0.014
 6461.00    1.07468   1.14465    0.014
 6462.00    1.07503   1.11958    0.013
 6463.00    1.10161   1.08960    0.013
 6464.00    1.12986   1.08582    0.013
 6465.00    1.13044   1.10592    0.013
 6466.00    1.13022   1.12416    0.014
 6467.00    1.12928   1.13463    0.013
 6468.00    1.12944   1.14080    0.013
 6469.00    1.16052   1.13983    0.013
 6470.00    1.18867   1.13146    0.014
 6471.00    1.17559   1.12135    0.014
 6472.00    1.16194   1.11645    0.014
 6473.00    1.14297   1.12293    0.014
 6474.00    1.12501   1.13264    0.014
 6475.00    1.11381   1.13113    0.013
 6476.00    1.10448   1.12640    0.013
 6477.00    1.10490   1.13130    0.013
 6478.00    1.11020   1.13789    0.013
 6479.00    1.13606   1.13716    0.013
 6480.00    1.15375   1.13319    0.013
 6481.00    1.14293   1.12328    0.013
 6482.00    1.13185   1.10311    0.013
 6483.00    1.12004   1.08788    0.013
 6484.00    1.11393   1.09254    0.013
 6485.00    1.12209   1.10831    0.013
 6486.00    1.12525   1.12051    0.013
 6487.00    1.11765   1.12611    0.013
 6488.00    1.10682   1.12859    0.013
 6489.00    1.08999   1.12773    0.013
 6490.00    1.07950   1.11965    0.013
 6491.00    1.07935   1.10723    0.013
 6492.00    1.08645   1.09641    0.013
 6493.00    1.10397   1.08042    0.013
 6494.00    1.10874   1.04732    0.013
 6495.00    1.09747   1.00929    0.013
 6496.00    1.06988   0.99303    0.013
 6497.00    1.02416   1.00347    0.013
 6498.00    0.99471   1.02810    0.013
 6499.00    0.98121   1.05149    0.013
 6500.00    0.98494   1.06672    0.013
 6501.00    1.00357   1.08159    0.013
 6502.00    1.03282   1.09581    0.013
 6503.00    1.07015   1.10445    0.013
 6504.00    1.11654   1.10998    0.013
 6505.00    1.16900   1.11494    0.013
 6506.00    1.19626   1.11981    0.013
 6507.00    1.20876   1.12342    0.013
 6508.00    1.20031   1.12071    0.013
 6509.00    1.18117   1.11374    0.013
 6510.00    1.16789   1.11240    0.013
 6511.00    1.15722   1.11692    0.013
 6512.00    1.15877   1.11963    0.013
 6513.00    1.16497   1.11926    0.013
 6514.00    1.18135   1.11779    0.013
 6515.00    1.20102   1.10932    0.013
 6516.00    1.19049   1.09327    0.013
 6517.00    1.17182   1.08283    0.014
 6518.00    1.14621   1.08197    0.014
 6519.00    1.11906   1.08434    0.014
 6520.00    1.10331   1.09338    0.014
 6521.00    1.08958   1.10919    0.013
 6522.00    1.10764   1.11891    0.014
 6523.00    1.12998   1.11834    0.014
 6524.00    1.13441   1.11579    0.014
 6525.00    1.13712   1.11606    0.013
 6526.00    1.10474   1.11157    0.013
 6527.00    1.07029   1.09918    0.013
 6528.00    1.09518   1.09093    0.000
 6529.00    1.12145   1.09394    0.000
 6530.00    1.13315   1.10097    0.000
 6531.00    1.14465   1.10232    0.000
 6532.00    1.15108   1.09408    0.000
 6533.00    1.15647   1.08267    0.000
 6534.00    1.14789   1.07902    0.000
 6535.00    1.13913   1.08647    0.000
 6536.00    1.12868   1.09526    0.000
 6537.00    1.12116   1.09337    0.000
 6538.00    1.13291   1.08544    0.000
 6539.00    1.14460   1.08448    0.000
 6540.00    1.15600   1.08976    0.000
 6541.00    1.16851   1.08958    0.000
 6542.00    1.18559   1.07929    0.000
 6543.00    1.19912   1.06570    0.000
 6544.00    1.20050   1.05538    0.000
 6545.00    1.19325   1.04408    0.000
 6546.00    1.16113   1.02515    0.000
 6547.00    1.13886   1.00922    0.000
 6548.00    1.14080   1.00941    0.000
 6549.00    1.14289   1.01761    0.000
 6550.00    1.14526   1.01907    0.000
 6551.00    1.14595   1.00925    0.000
 6552.00    1.14354   0.99424    0.000
 6553.00    1.13856   0.97996    0.000
 6554.00    1.12943   0.96273    0.000
 6555.00    1.11870   0.94049    0.000
 6556.00    1.10568   0.92082    0.000
 6557.00    1.08713   0.90927    0.000
 6558.00    1.06169   0.90033    0.000
 6559.00    1.04965   0.88419    0.000
 6560.00    1.05226   0.85692    0.000
 6561.00    1.06836   0.80735    0.000
 6562.00    1.09748   0.71776    0.000
 6563.00    1.11777   0.62768    0.000
 6564.00    1.13052   0.62634    0.000
 6565.00    1.13808   0.71928    0.000
 6566.00    1.14174   0.81895    0.000
 6567.00    1.12047   0.87823    0.000
 6568.00    1.08276   0.90923    0.000
 6569.00    1.06932   0.92278    0.000
 6570.00    1.06990   0.92889    0.000
 6571.00    1.06728   0.94084    0.000
 6572.00    1.06305   0.95567    0.000
 6573.00    1.07770   0.96263    0.000
 6574.00    1.10058   0.96277    0.000
 6575.00    1.11289   0.96610    0.000
 6576.00    1.12125   0.98161    0.000
 6577.00    1.12457   1.00932    0.000
 6578.00    1.12629   1.03534    0.000
 6579.00    1.14138   1.04884    0.000
 6580.00    1.16002   1.04975    0.000
 6581.00    1.18241   1.04347    0.000
 6582.00    1.20562   1.04176    0.000
 6583.00    1.24984   1.05064    0.000
 6584.00    1.29766   1.06159    0.000
 6585.00    1.32685   1.06636    0.000
 6586.00    1.35362   1.06437    0.000
 6587.00    1.32071   1.06318    0.000
 6588.00    1.28236   1.07109    0.000
 6589.00    1.24612   1.08288    0.000
 6590.00    1.21000   1.09004    0.000
 6591.00    1.18969   1.08909    0.000
 6592.00    1.16961   1.07319    0.000
 6593.00    1.13813   1.04526    0.000
 6594.00    1.10681   1.03048    0.000
 6595.00    1.07928   1.04444    0.000
 6596.00    1.05593   1.06783    0.000
 6597.00    1.08554   1.07868    0.000
 6598.00    1.11344   1.07806    0.000
 6599.00    1.12677   1.07704    0.000
 6600.00    1.13938   1.08390    0.000
 6601.00    1.14733   1.09754    0.000
 6602.00    1.15210   1.10768    0.000
 6603.00    1.14100   1.10824    0.000
 6604.00    1.12774   1.10275    0.000
 6605.00    1.10578   1.09498    0.000
 6606.00    1.09292   1.08840    0.000
 6607.00    1.11056   1.08535    0.000
 6608.00    1.12091   1.08047    0.000
 6609.00    1.11068   1.07071    0.014
 6610.00    1.10469   1.06792    0.014
 6611.00    1.10895   1.08266    0.014
 6612.00    1.11452   1.10056    0.013
 6613.00    1.12281   1.10411    0.014
 6614.00    1.12475   1.09858    0.014
 6615.00    1.11515   1.10063    0.013
 6616.00    1.11517   1.11011    0.013
 6617.00    1.13046   1.11365    0.013
 6618.00    1.14396   1.11104    0.013
 6619.00    1.15497   1.11141    0.013
 6620.00    1.16809   1.11612    0.013
 6621.00    1.18380   1.11936    0.013
 6622.00    1.17935   1.11814    0.013
 6623.00    1.15313   1.11131    0.013
 6624.00    1.14433   1.09832    0.013
 6625.00    1.15211   1.08561    0.013
 6626.00    1.14280   1.08523    0.013
 6627.00    1.11913   1.09539    0.013
 6628.00    1.10452   1.10293    0.013
 6629.00    1.09660   1.10379    0.013
 6630.00    1.09564   1.10064    0.013
 6631.00    1.09919   1.09611    0.014
 6632.00    1.08342   1.09046    0.014
 6633.00    1.05667   1.08000    0.014
 6634.00    1.07507   1.06771    0.014
 6635.00    1.11581   1.06720    0.014
 6636.00    1.14507   1.08240    0.014
 6637.00    1.16941   1.09919    0.014
 6638.00    1.16143   1.10716    0.014
 6639.00    1.14158   1.10493    0.014
 6640.00    1.11821   1.09841    0.014
 6641.00    1.09373   1.09926    0.014
 6642.00    1.09884   1.10475    0.014
 6643.00    1.11160   1.09829    0.014
 6644.00    1.13325   1.08266    0.014
 6645.00    1.15678   1.07943    0.013
 6646.00    1.15497   1.09114    0.013
 6647.00    1.14895   1.10042    0.013
 6648.00    1.16517   1.10100    0.014
 6649.00    1.18419   1.10219    0.014
 6650.00    1.14982   1.10648    0.014
 6651.00    1.11080   1.10719    0.013
 6652.00    1.11963   1.10410    0.013
 6653.00    1.13091   1.10231    0.014
 6654.00    1.14237   1.10318    0.014
 6655.00    1.15367   1.10505    0.014
 6656.00    1.15377   1.10523    0.014
 6657.00    1.15273   1.10302    0.014
 6658.00    1.12761   1.10311    0.014
 6659.00    1.10201   1.10478    0.014
 6660.00    1.07072   1.10263    0.014
 6661.00    1.04074   1.09761    0.014
 6662.00    1.02157   1.09099    0.014
 6663.00    1.00496   1.08009    0.014
 6664.00    1.00418   1.07072    0.014
 6665.00    1.01327   1.07377    0.013
 6666.00    1.07029   1.08230    0.014
 6667.00    1.11455   1.08400    0.014
 6668.00    1.10841   1.08269    0.014
 6669.00    1.10728   1.08771    0.014
 6670.00    1.12264   1.09831    0.014
 6671.00    1.13330   1.10628    0.013
 6672.00    1.13088   1.10810    0.014
 6673.00    1.12984   1.10831    0.014
 6674.00    1.13207   1.11047    0.014
 6675.00    1.13560   1.11234    0.014
 6676.00    1.14181   1.10833    0.014
 6677.00    1.14581   1.09063    0.014
 6678.00    1.14587   1.06236    0.014
 6679.00    1.14060   1.04880    0.014
 6680.00    1.12702   1.06314    0.014
 6681.00    1.10462   1.08395    0.014
 6682.00    1.07012   1.09400    0.014
 6683.00    1.05915   1.09885    0.014
 6684.00    1.07662   1.10411    0.014
 6685.00    1.10008   1.10813    0.014
 6686.00    1.12991   1.10918    0.014
 6687.00    1.13155   1.10842    0.014
 6688.00    1.10671   1.10691    0.014
 6689.00    1.09036   1.10610    0.014
 6690.00    1.08104   1.10720    0.014
 6691.00    1.09122   1.10846    0.014
 6692.00    1.11560   1.10880    0.014
 6693.00    1.12598   1.10855    0.014
 6694.00    1.12740   1.10788    0.014
 6695.00    1.12177   1.10375    0.014
 6696.00    1.11218   1.09267    0.000
 6697.00    1.11363   1.08134    0.000
 6698.00    1.12046   1.07913    0.000
 6699.00    1.11917   1.08608    0.000
 6700.00    1.11448   1.09786    0.000
 6701.00    1.13023   1.10721    0.000
 6702.00    1.15335   1.10833    0.000
 6703.00    1.14579   1.10121    0.000
 6704.00    1.12889   1.09002    0.000
 6705.00    1.12793   1.08509    0.000
 6706.00    1.13102   1.09034    0.000
 6707.00    1.12250   1.09668    0.000
 6708.00    1.11160   1.09859    0.000
 6709.00    1.11438   1.09852    0.000
 6710.00    1.11937   1.09680    0.000
 6711.00    1.10554   1.09384    0.000
 6712.00    1.08943   1.09327    0.000
 6713.00    1.10449   1.09216    0.000
 6714.00    1.12214   1.08719    0.000
 6715.00    1.11446   1.08043    0.000
 6716.00    1.10558   1.07153    0.000
 6717.00    1.10980   1.06069    0.000
 6718.00    1.11405   1.05577    0.000
 6719.00    1.10906   1.06660    0.000
 6720.00    1.10479   1.08478    0.000
 6721.00    1.11438   1.09266    0.000
 6722.00    1.12226   1.09089    0.000
 6723.00    1.11057   1.09258    0.000
 6724.00    1.09586   1.09994    0.000
 6725.00    1.05706   1.10249    0.000
 6726.00    1.02524   1.09555    0.000
 6727.00    1.03526   1.08858    0.000
 6728.00    1.05445   1.08954    0.000
 6729.00    1.11704   1.09429    0.000
 6730.00    1.17329   1.09969    0.000
 6731.00    1.20501   1.10549    0.000
 6732.00    1.22191   1.10703    0.000
 6733.00    1.19113   1.10232    0.000
 6734.00    1.16167   1.09691    0.000
 6735.00    1.13580   1.09703    0.000
 6736.00    1.10896   1.10174    0.000
 6737.00    1.07984   1.10368    0.000
 6738.00    1.06936   1.09648    0.000
 6739.00    1.09652   1.08605    0.000
 6740.00    1.11420   1.08402    0.000
 6741.00    1.11522   1.09012    0.000
 6742.00    1.10763   1.09213    0.000
 6743.00    1.08678   1.08542    0.000
 6744.00    1.08380   1.08068    0.000
 6745.00    1.10497   1.08367    0.000
 6746.00    1.11412   1.08671    0.000
 6747.00    1.10897   1.08506    0.000
 6748.00    1.09867   1.08156    0.000
 6749.00    1.08297   1.07891    0.000
 6750.00    1.07592   1.07756    0.000
 6751.00    1.07687   1.07834    0.000
 6752.00    1.05174   1.08000    0.000
 6753.00    1.00532   1.07926    0.015
 6754.00    0.99990   1.07999    0.016
 6755.00    1.02393   1.08552    0.016
 6756.00    1.03046   1.08958    0.016
 6757.00    1.02595   1.09220    0.016
 6758.00    1.05771   1.09839    0.016
 6759.00    1.10946   1.10628    0.016
 6760.00    1.15954   1.11193    0.016
 6761.00    1.20882   1.11353    0.017
 6762.00    1.26542   1.10995    0.017
 6763.00    1.32505   1.10541    0.017
 6764.00    1.31217   1.10563    0.017
 6765.00    1.27365   1.10648    0.017
 6766.00    1.28340   1.10115    0.017
 6767.00    1.30755   1.08934    0.017
 6768.00    1.28884   1.08002    0.017
 6769.00    1.25951   1.08171    0.016
 6770.00    1.23150   1.08766    0.016
 6771.00    1.20377   1.08665    0.016
 6772.00    1.19006   1.08339    0.015
 6773.00    1.17857   1.08867    0.015
 6774.00    1.17269   1.10001    0.015
 6775.00    1.16748   1.10887    0.015
 6776.00    1.18040   1.11260    0.015
 6777.00    1.19475   1.11194    0.016
 6778.00    1.17745   1.11070    0.016
 6779.00    1.15877   1.11442    0.016
 6780.00    1.15962   1.11918    0.016
 6781.00    1.16036   1.11708    0.016
 6782.00    1.14585   1.10840    0.016
 6783.00    1.13273   1.09484    0.016
 6784.00    1.14463   1.07906    0.016
 6785.00    1.15722   1.07000    0.016
 6786.00    1.17748   1.07176    0.016
 6787.00    1.19685   1.08052    0.015
 6788.00    1.20936   1.09198    0.016
 6789.00    1.21384   1.09908    0.016
 6790.00    1.17145   1.09906    0.016
 6791.00    1.13151   1.09868    0.016
 6792.00    1.10286   1.10008    0.016
 6793.00    1.09073   1.09684    0.016
 6794.00    1.14106   1.08899    0.016
 6795.00    1.17852   1.08486    0.016
 6796.00    1.17539   1.08568    0.015
 6797.00    1.17549   1.08894    0.015
 6798.00    1.18426   1.09428    0.015
 6799.00    1.17857   1.09762    0.015
 6800.00    1.13965   1.09751    0.016
 6801.00    1.12164   1.09814    0.016
 6802.00    1.14521   1.10079    0.016
 6803.00    1.14900   1.10112    0.016
 6804.00    1.11851   1.09775    0.016
 6805.00    1.08911   1.09675    0.015
 6806.00    1.06139   1.09825    0.015
 6807.00    1.06360   1.09594    0.015
 6808.00    1.10570   1.09316    0.015
 6809.00    1.14531   1.09352    0.015
 6810.00    1.18203   1.09187    0.015
 6811.00    1.17243   1.09041    0.016
 6812.00    1.11490   1.09394    0.016
 6813.00    1.09573   1.09655    0.016
 6814.00    1.11160   1.09247    0.016
 6815.00    1.12883   1.08594    0.016
 6816.00    1.14715   1.08675    0.016
 6817.00    1.13628   1.09664    0.015
 6818.00    1.10473   1.10436    0.015
 6819.00    1.10139   1.10205    0.015
 6820.00    1.11555   1.09460    0.015
 6821.00    1.13645   1.09099    0.015
 6822.00    1.16100   1.09620    0.015
 6823.00    1.15573   1.10637    0.015
 6824.00    1.13640   1.11333    0.015
 6825.00    1.11404   1.11430    0.015
 6826.00    1.09043   1.11215    0.015
 6827.00    1.06450   1.10707    0.015
 6828.00    1.03775   1.09632    0.015
 6829.00    1.05943   1.08674    0.016
 6830.00    1.09528   1.08884    0.016
 6831.00    1.10010   1.09990    0.016
 6832.00    1.09741   1.10717    0.016
 6833.00    1.08435   1.10512    0.015
 6834.00    1.06927   1.10210    0.015
 6835.00    1.09959   1.10528    0.015
 6836.00    1.13684   1.10833    0.016
 6837.00    1.14135   1.10439    0.016
 6838.00    1.14218   1.09647    0.016
 6839.00    1.13044   1.08724    0.016
 6840.00    1.11777   1.07619    0.017
 6841.00    1.11506   1.06483    0.016
 6842.00    1.11275   1.05687    0.016
 6843.00    1.13248   1.05839    0.016
 6844.00    1.15248   1.07094    0.015
 6845.00    1.17692   1.08650    0.015
 6846.00    1.19781   1.09554    0.015
 6847.00    1.15866   1.09780    0.015
 6848.00    1.12219   1.09912    0.015
 6849.00    1.11368   1.10168    0.015
 6850.00    1.10713   1.10346    0.015
 6851.00    1.11518   1.10417    0.015
 6852.00    1.11981   1.10549    0.016
 6853.00    1.10512   1.10696    0.015
 6854.00    1.09325   1.10266    0.015
 6855.00    1.09411   1.08831    0.015
 6856.00    1.09028   1.07489    0.015
 6857.00    1.06902   1.07450    0.015
 6858.00    1.04321   1.08155    0.015
 6859.00    1.00332   1.08829    0.015
 6860.00    0.99462   1.09057    0.015
 6861.00    1.06803   1.08284    0.015
 6862.00    1.10953   1.07270    0.016
 6863.00    1.07891   1.07701    0.015
 6864.00    1.05972   1.09419    0.015
 6865.00    1.06288   1.10647    0.015
 6866.00    1.07007   1.10386    0.016
 6867.00    1.08415   1.09077    0.016
 6868.00    1.10147   1.07895    0.016
 6869.00    1.12363   1.07917    0.016
 6870.00    1.10528   1.08895    0.016
 6871.00    1.03371   1.09459    0.016
 6872.00    1.01894   1.08993    0.015
 6873.00    1.06987   1.08338    0.016
 6874.00    1.08474   1.08373    0.016
 6875.00    1.06281   1.08653    0.015
 6876.00    1.07599   1.08763    0.015
 6877.00    1.12078   1.09188    0.016
 6878.00    1.11182   1.09999    0.016
 6879.00    1.06023   1.10580    0.016
 6880.00    1.07504   1.10479    0.015
 6881.00    1.13618   1.09554    0.016
 6882.00    1.13482   1.08085    0.015
 6883.00    1.09522   1.07198    0.015
 6884.00    1.07210   1.07801    0.015
 6885.00    1.05779   1.09183    0.015
 6886.00    1.05624   1.09926    0.015
 6887.00    1.06060   1.10025    0.015
 6888.00    1.02536   1.10453    0.015
 6889.00    0.97429   1.11149    0.015
 6890.00    0.96354   1.11684    0.015
 6891.00    0.96651   1.11975    0.016
 6892.00    1.00351   1.11923    0.016
 6893.00    1.05025   1.11710    0.016
 6894.00    1.07738   1.11574    0.016
 6895.00    1.09986   1.11133    0.016
 6896.00    1.09962   1.10459    0.016
 6897.00    1.09504   1.10485    0.016
 6898.00    1.11573   1.11072    0.016
 6899.00    1.14017   1.11178    0.016
 6900.00    1.13986   1.10708    0.016
 6901.00    1.13689   1.10564    0.016
 6902.00    1.13695   1.11128    0.016
 6903.00    1.13722   1.11618    0.016
 6904.00    1.10851   1.11470    0.016
 6905.00    1.07875   1.11132    0.015
 6906.00    1.09418   1.11139    0.016
 6907.00    1.10932   1.11411    0.016
 6908.00    1.10922   1.11682    0.016
 6909.00    1.10631   1.11957    0.016
 6910.00    1.05910   1.12163    0.016
 6911.00    1.01728   1.11931    0.016
 6912.00    1.02940   1.11290    0.016
 6913.00    1.04155   1.10586    0.016
 6914.00    1.05391   1.09857    0.016
 6915.00    1.07238   1.09458    0.016
 6916.00    1.12449   1.09748    0.016
 6917.00    1.16127   1.10036    0.016
 6918.00    1.13041   1.10198    0.016
 6919.00    1.09362   1.10809    0.016
 6920.00    1.03532   1.11564    0.016
 6921.00    0.99562   1.12002    0.016
 6922.00    1.01247   1.12164    0.016
 6923.00    1.02663   1.11897    0.016
 6924.00    1.03386   1.10742    0.016
 6925.00    1.04985   1.09126    0.016
 6926.00    1.08532   1.08251    0.016
 6927.00    1.10567   1.08598    0.016
 6928.00    1.09689   1.09658    0.017
 6929.00    1.08256   1.10615    0.017
 6930.00    1.05889   1.11102    0.016
 6931.00    1.05344   1.11119    0.016
 6932.00    1.07480   1.10706    0.017
 6933.00    1.09105   1.10011    0.017
 6934.00    1.10067   1.09591    0.017
 6935.00    1.09768   1.10113    0.017
 6936.00    1.08031   1.10923    0.017
 6937.00    1.06624   1.11021    0.017
 6938.00    1.05549   1.10778    0.017
 6939.00    1.04642   1.11040    0.017
 6940.00    1.03884   1.11689    0.017
 6941.00    1.04587   1.12248    0.017
 6942.00    1.06430   1.12241    0.017
 6943.00    1.06084   1.11270    0.017
 6944.00    1.04233   1.09733    0.017
 6945.00    1.05888   1.08339    0.017
 6946.00    1.09656   1.07857    0.017
 6947.00    1.11556   1.08732    0.017
 6948.00    1.12472   1.10153    0.017
 6949.00    1.15362   1.11118    0.017
 6950.00    1.19153   1.11307    0.017
 6951.00    1.14699   1.10597    0.017
 6952.00    1.07008   1.09499    0.017
 6953.00    1.03016   1.08901    0.017
 6954.00    1.00261   1.08800    0.017
 6955.00    1.03420   1.08976    0.017
 6956.00    1.08240   1.09589    0.017
 6957.00    1.06553   1.10468    0.017
 6958.00    1.03359   1.10898    0.017
 6959.00    1.01434   1.10786    0.017
 6960.00    0.99745   1.10706    0.017
 6961.00    1.05873   1.10825    0.017
 6962.00    1.13120   1.11125    0.017
 6963.00    1.11115   1.11350    0.017
 6964.00    1.08152   1.11476    0.018
 6965.00    1.08422   1.11403    0.018
 6966.00    1.08908   1.10816    0.018
 6967.00    1.06156   1.10434    0.018
 6968.00    1.03300   1.11151    0.018
 6969.00    1.03083   1.12118    0.018
 6970.00    1.02999   1.12213    0.018
 6971.00    1.07015   1.11420    0.018
 6972.00    1.10528   1.10782    0.018
 6973.00    1.06561   1.11300    0.017
 6974.00    1.02934   1.11915    0.017
 6975.00    1.02574   1.11189    0.017
 6976.00    1.02228   1.09757    0.017
 6977.00    1.01982   1.08364    0.017
 6978.00    1.02183   1.06443    0.017
 6979.00    1.04785   1.04459    0.017
 6980.00    1.05571   1.04557    0.018
 6981.00    0.98542   1.06963    0.017
 6982.00    0.94692   1.09473    0.017
 6983.00    1.02130   1.11036    0.018
 6984.00    1.08313   1.11838    0.018
 6985.00    1.10754   1.11910    0.018
 6986.00    1.12091   1.11565    0.018
 6987.00    1.10625   1.11418    0.018
 6988.00    1.08918   1.11425    0.018
 6989.00    1.06687   1.11092    0.018
 6990.00    1.05882   1.10495    0.018
 6991.00    1.07780   1.10603    0.018
 6992.00    1.08975   1.11548    0.018
 6993.00    1.09008   1.12215    0.018
 6994.00    1.10072   1.11978    0.018
 6995.00    1.12632   1.11257    0.018
 6996.00    1.15592   1.10927    0.018
 6997.00    1.19065   1.11226    0.018
 6998.00    1.16725   1.11407    0.018
 6999.00    1.07848   1.10667    0.018
 7000.00    0.99657   1.09273    0.018
 7001.00    0.92145   1.08694    0.018
 7002.00    0.93757   1.09632    0.018
 7003.00    1.03353   1.10668    0.018
 7004.00    1.05585   1.10373    0.018
 7005.00    1.02141   1.09321    0.018
 7006.00    1.01962   1.08834    0.018
 7007.00    1.03995   1.09138    0.019
 7008.00    1.07499   1.09828    0.019
 7009.00    1.11876   1.10567    0.019
 7010.00    1.05770   1.10991    0.019
 7011.00    0.94236   1.10857    0.019
 7012.00    0.95953   1.10498    0.019
 7013.00    1.03619   1.10520    0.019
 7014.00    1.05713   1.10726    0.019
 7015.00    1.05656   1.09975    0.019
 7016.00    1.01320   1.07884    0.019
 7017.00    0.95579   1.06088    0.019
 7018.00    0.92148   1.06778    0.018
 7019.00    0.89354   1.09393    0.018
 7020.00    0.90809   1.11413    0.018
 7021.00    0.93225   1.12080    0.019
 7022.00    0.96018   1.11866    0.018
 7023.00    0.98880   1.10680    0.018
 7024.00    1.03458   1.08845    0.019
 7025.00    1.08273   1.07772    0.019
 7026.00    1.04041   1.08331    0.019
 7027.00    0.98910   1.09723    0.019
 7028.00    0.93888   1.10679    0.019
 7029.00    0.88872   1.11023    0.019
 7030.00    1.01122   1.11224    0.019
 7031.00    1.13783   1.11529    0.019
 7032.00    1.05771   1.11607    0.019
 7033.00    0.98215   1.11330    0.019
 7034.00    1.03182   1.11030    0.019
 7035.00    1.07048   1.10994    0.019
 7036.00    0.95467   1.11547    0.019
 7037.00    0.85551   1.11903    0.019
 7038.00    0.90985   1.10590    0.019
 7039.00    0.96586   1.08832    0.019
 7040.00    1.03322   1.09455    0.019
 7041.00    1.08978   1.12080    0.019
 7042.00    1.08990   1.14128    0.018
 7043.00    1.09311   1.14739    0.018
 7044.00    1.10937   1.14166    0.019
 7045.00    1.10964   1.12733    0.019
 7046.00    1.05433   1.11719    0.019
 7047.00    1.01346   1.12243    0.019
 7048.00    1.01483   1.13684    0.019
 7049.00    1.02229   1.14786    0.019
 7050.00    1.04494   1.14983   -2.000
 7051.00    1.05591   1.14327   -2.000
 7052.00    1.04173   1.12849   -2.000
 7053.00    1.04643   1.10559   -2.000
 7054.00    1.08639   1.08677   -2.000
 7055.00    1.11031   1.08383   -2.000
 7056.00    1.10804   1.09263   -2.000
 7057.00    1.12262   1.10400   -2.000
 7058.00    1.16128   1.11022   -2.000
 7059.00    1.18884   1.10571   -2.000
 7060.00    1.20243   1.09165   -2.000
 7061.00    1.19226   1.08038   -2.000
 7062.00    1.15573   1.08225   -2.000
 7063.00    1.15083   1.09169   -2.000
 7064.00    1.17686   1.10290   -2.000
 7065.00    1.14060   1.11390   -2.000
 7066.00    1.05063   1.11312   -2.000
 7067.00    1.06688   1.09543   -2.000
 7068.00    1.16386   1.07304   -2.000
 7069.00    1.10422   1.06180   -2.000
 7070.00    0.94002   1.07165   -2.000
 7071.00    0.90487   1.09355   -2.000
 7072.00    0.94520   1.10785   -2.000
 7073.00    1.03901   1.11101   -2.000
 7074.00    1.16009   1.11081   -2.000
 7075.00    1.17803   1.10908   -2.000
 7076.00    1.15042   1.10491   -2.000
 7077.00    1.12977   1.10119   -2.000
 7078.00    1.11176   1.10208   -2.000
 7079.00    1.14610   1.10602   -2.000
 7080.00    1.19730   1.11031   -2.000
 7081.00    1.14359   1.11642   -2.000
 7082.00    1.06162   1.11806   -2.000
 7083.00    1.04794   1.10524   -2.000
 7084.00    1.04934   1.08108   -2.000
 7085.00    1.09907   1.05931   -2.000
 7086.00    1.15730   1.05518   -2.000
 7087.00    1.02785   1.06545   -2.000
 7088.00    0.87325   1.07159   -2.000
 7089.00    0.95252   1.06917   -2.000
 7090.00    1.05402   1.06476   -2.000
 7091.00    1.04254   1.06269   -2.000
 7092.00    1.02444   1.06498   -2.000
 7093.00    1.00221   1.06712   -2.000
 7094.00    0.98086   1.06714   -2.000
 7095.00    1.09310   1.06936   -2.000
 7096.00    1.19509   1.07244   -2.000
 7097.00    1.04234   1.07426   -2.000
 7098.00    0.89805   1.07682   -2.000
 7099.00    0.86625   1.08193   -2.000
 7100.00    0.84787   1.08770   -2.000
 7101.00    0.94841   1.08926   -2.000
 7102.00    1.02343   1.08413   -2.000
 7103.00    0.93176   1.07679   -2.000
 7104.00    0.86814   1.07651   -2.000
 7105.00    0.94734   1.08473   -2.000
 7106.00    0.99423   1.09021   -2.000
 7107.00    0.90817   1.08380   -2.000
 7108.00    0.84632   1.07427   -2.000
 7109.00    0.86699   1.07352   -2.000
 7110.00    0.88148   1.07499   -2.000
 7111.00    0.87818   1.06749   -2.000
 7112.00    0.87194   1.05725   -2.000
 7113.00    0.85845   1.05647   -2.000
 7114.00    0.87690   1.06502   -2.000
 7115.00    0.96296   1.07306   -2.000
 7116.00    0.98311   1.07712   -2.000
 7117.00    0.88204   1.07878   -2.000
 7118.00    0.85431   1.07680   -2.000
 7119.00    0.94439   1.07311   -2.000
 7120.00    1.04096   1.07104   -2.000
 7121.00    1.14666   1.07073   -2.000
 7122.00    1.16632   1.06915   -2.000
 7123.00    1.07922   1.06737   -2.000
 7124.00    0.92384   1.07157   -2.000
 7125.00    0.69380   1.07640   -2.000
 7126.00    0.65273   1.07345   -2.000
 7127.00    0.79390   1.06807   -2.000
 7128.00    0.86652   1.06864   -2.000
 7129.00    0.88085   1.07097   -2.000
 7130.00    0.79687   1.06225   -2.000
 7131.00    0.63925   1.04535   -2.000
 7132.00    0.61904   1.04037   -2.000
 7133.00    0.68922   1.05325   -2.000
 7134.00    0.88794   1.07021   -2.000
 7135.00    1.16069   1.08032   -2.000
 7136.00    1.13968   1.08313   -2.000
 7137.00    0.97126   1.08669   -2.000
 7138.00    0.93193   1.09222   -2.000
 7139.00    0.94865   1.08749   -2.000
 7140.00    0.86015   1.07567   -2.000
 7141.00    0.73246   1.07642   -2.000
 7142.00    0.84892   1.08692   -2.000
 7143.00    1.04251   1.08957   -2.000
 7144.00    0.95950   1.08650   -2.000
 7145.00    0.80353   1.08586   -2.000
 7146.00    0.77763   1.08592   -2.000
 7147.00    0.77977   1.08107   -2.000
 7148.00    0.87124   1.06582   -2.000
 7149.00    0.97798   1.05098   -2.000
 7150.00    0.96124   1.05288   -2.000
 7151.00    0.92852   1.06446   -2.000
 7152.00    0.82107   1.07663   -2.000
 7153.00    0.70683   1.09093   -2.000
 7154.00    0.75047   1.09984   -2.000
 7155.00    0.80274   1.09512   -2.000
 7156.00    0.97234   1.08616   -2.000
 7157.00    1.14185   1.08975   -2.000
 7158.00    1.07899   1.10048   -2.000
 7159.00    1.00664   1.09961   -2.000
 7160.00    0.71905   1.08994   -2.000
 7161.00    0.44182   1.08482   -2.000
 7162.00    0.29501   1.08915   -2.000
 7163.00    0.20848   1.09345   -2.000
 7164.00    0.63618   1.08086   -2.000
 7165.00    1.03521   1.05570   -2.000
 7166.00    1.25255   1.04494   -2.000
 7167.00    1.38524   1.06171   -2.000
 7168.00    1.09765   1.09054   -2.000
 7169.00    0.86258   1.10806   -2.000
 7170.00    0.83886   1.10725   -2.000
 7171.00    0.82511   1.10138   -2.000
 7172.00    0.84464   1.10355   -2.000
 7173.00    0.87643   1.11233   -2.000
 7174.00    0.94279   1.11715   -2.000
 7175.00    0.97408   1.11225   -2.000
 7176.00    0.92081   1.10002   -2.000
 7177.00    0.87378   1.09136   -2.000
 7178.00    0.83973   1.09768   -2.000
 7179.00    0.83843   1.10690   -2.000
 7180.00    0.89642   1.09778   -2.000
 7181.00    0.91307   1.07395   -2.000
 7182.00    0.86427   1.06050   -2.000
 7183.00    0.85287   1.07207   -2.000
 7184.00    0.89341   1.09407   -2.000
 7185.00    0.92155   1.10310   -2.000
 7186.00    0.93452   1.09613   -2.000
 7187.00    0.93069   1.07907   -2.000
 7188.00    0.90877   1.05909   -2.000
 7189.00    0.86417   1.05079   -2.000
 7190.00    0.79801   1.05694   -2.000
 7191.00    0.82425   1.06937   -2.000
 7192.00    0.92794   1.07856   -2.000
 7193.00    1.00593   1.07664   -2.000
 7194.00    1.06497   1.07195   -2.000
 7195.00    1.04901   1.07706   -2.000
 7196.00    0.98443   1.08708   -2.000
 7197.00    0.97700   1.08814   -2.000
 7198.00    1.00199   1.08386   -2.000
 7199.00    0.87381   1.08706   -2.000
 7200.00    0.67000   1.09313   -2.000
 7201.00    0.64707   1.09185   -2.000
 7202.00    0.70139   1.08426   -2.000
 7203.00    0.70365   1.08225   -2.000
 7204.00    0.68687   1.09296   -2.000
 7205.00    0.86304   1.10535   -2.000
 7206.00    1.09900   1.10085   -2.000
 7207.00    1.06726   1.07441   -2.000
 7208.00    0.96643   1.04801   -2.000
 7209.00    0.84416   1.04686   -2.000
 7210.00    0.71737   1.06658   -2.000
 7211.00    0.74128   1.09028   -2.000
 7212.00    0.79021   1.10423   -2.000
 7213.00    0.70269   1.09977   -2.000
 7214.00    0.59811   1.08602   -2.000
 7215.00    0.59466   1.07791   -2.000
 7216.00    0.59998   1.07912   -2.000
 7217.00    0.69215   1.08714   -2.000
 7218.00    0.78874   1.09921   -2.000
