###################################################################
## OUTPUT of StarlightChains_v04.for    [Cid@UFSC - 01/Apr/2007] ##
###################################################################

## Some input info
KUG0210-078._27_46.txt                   [arq_obs]
Base.CB07.vall.4m                        [arq_base]
Masks.EmLines.NEW.gm                     [arq_masks]
StCv04.C11.config                        [arq_config]
   66                                    [N_base]
    0                                    [N_YAV_components = # of components with extra extinction!]
    0                                    [i_FitPowerLaw (1/0 = Yes/No)]
-9.99                                    [alpha_PowerLaw]
CCM                                      [red_law_option]
 1.458241                                [q_norm = A(l_norm)/A(V)]

## (Re)Sampling Parameters
 3741.00                                 [l_ini (A)]
 7218.00                                 [l_fin (A)]
    1.00                                 [dl    (A)]     (OBS: dl_cushion =    50.00 A)

## Normalization info
 4020.00                                 [l_norm (A) - for base]
 4010.00                                 [llow_norm (A) - window for f_obs]
 4060.00                                 [lupp_norm (A) - window for f_obs]
9.651667E-18                             [fobs_norm (in input units)]

## S/N
 3691.00                                 [llow_SN (A) - window for S/N]
 7268.00                                 [lupp_SN (A) - window for S/N]
   2.410                                 [S/N in S/N window]
   4.244                                 [S/N in norm. window]
   0.007                                 [S/N_err in S/N window]
   0.013                                 [S/N_err in norm. window]
  1.0000                                 [fscale_chi2]

## etc...
    -2007365                             [idum_orig]
  2407                                   [NOl_eff]
  2286                                   [Nl_eff]
   121    NSIGMA                         [Ntot_cliped & clip_method]
  6060600                                [Nglobal_steps]
   7                                     [N_chains]
  33                                     [NEX0s_base = N_base in EX0s-fits]
 0   0   1      121   2.0   4.630E+03    [Clip-Bug, RC-Crash & Burn-In warning-flags, n_censored_weights, wei_nsig_threshold & wei_limit]
    59     57.976     57.248      0.729  [idt_all, wdt_TotTime, wdt_UsrTime & wdt_SysTime (sec)]

## Synthesis Results - Best model ##

 9.62708E-06                             [chi2/Nl_eff]
    28.71988                             [adev (%)]

    94.86563                             [sum-of-x (%)]
 3.34543E-18                             [Flux_tot (units of input spectrum!)]
 2.72438E-14                             [Mini_tot (???)]
 1.47778E-14                             [Mcor_tot (???)]

-416.25                                  [v0_min  (km/s)]
 130.22                                  [vd_min  (km/s)]
-0.7496                                  [AV_min  (mag)]
 0.0000                                  [YAV_min (mag)]

# j     x_j(%)      Mini_j(%)     Mcor_j(%)     age_j(yr)     Z_j      (L/M)_j    YAV?  Mstars   component_j        a/Fe...       SSP_chi2r SSP_adev(%)   SSP_AV   SSP_x(%)
  1      0.0000     0.0000E+00    0.0000E+00    1.000000E+06  0.00400  1.094E-02    0   1.0000   age020_m42            0.0000     1.1422E-05    30.1182   2.0043    76.0663
  2      1.9719     6.3702E-03    1.1743E-02    3.160000E+06  0.00400  4.007E-02    0   0.9999   age045_m42            0.0000     1.0293E-05    29.5742   1.1766    83.9541
  3      0.0000     0.0000E+00    0.0000E+00    5.010000E+06  0.00400  2.539E-02    0   0.9488   age055_m42            0.0000     1.0891E-05    29.9202   1.5749    79.8508
  4      0.0000     0.0000E+00    0.0000E+00    6.610000E+06  0.00400  2.620E-02    0   0.9220   age061_m42            0.0000     1.0346E-05    29.5940   1.1236    83.5093
  5      0.0000     0.0000E+00    0.0000E+00    1.000000E+07  0.00400  1.322E-02    0   0.8862   age070_m42            0.0000     1.0559E-05    29.8334   0.9208    83.0312
  6      0.0000     0.0000E+00    0.0000E+00    1.445000E+07  0.00400  7.883E-03    0   0.8571   age078_m42            0.0000     1.0923E-05    29.9814   1.2785    80.0724
  7      0.0000     0.0000E+00    0.0000E+00    2.512000E+07  0.00400  5.251E-03    0   0.8174   age090_m42            0.0000     1.0531E-05    29.8245   0.7994    83.2355
  8      0.0000     0.0000E+00    0.0000E+00    4.000000E+07  0.00400  3.649E-03    0   0.7851   age104_m42            0.0000     1.0315E-05    29.6467   0.5408    84.8080
  9      4.9396     2.0639E-01    2.9028E-01    5.500000E+07  0.00400  3.098E-03    0   0.7629   age110_m42            0.0000     1.0107E-05    29.4646   0.6321    86.5712
 10      0.0000     0.0000E+00    0.0000E+00    1.015200E+08  0.00400  2.228E-03    0   0.7207   age116_m42            0.0000     9.9788E-06    29.4008   0.6061    88.1032
 11      7.6084     9.0105E-01    1.1043E+00    2.861200E+08  0.00400  1.093E-03    0   0.6648   age125_m42            0.0000     9.7898E-06    29.1962  -0.0003    91.2769
 12      0.0000     0.0000E+00    0.0000E+00    5.088000E+08  0.00400  6.597E-04    0   0.6365   age130_m42            0.0000     9.7362E-06    29.1948  -0.0878    94.5960
 13     31.7527     1.9278E+01    2.0607E+01    1.434000E+09  0.00400  2.132E-04    0   0.5798   age139_m42            0.0000     9.7161E-06    29.6064  -1.0000    97.1226
 14      0.0000     0.0000E+00    0.0000E+00    4.250000E+09  0.00400  5.895E-05    0   0.5377   age158_m42            0.0000     1.1245E-05    36.4770  -1.0000    87.3659
 15      0.0000     0.0000E+00    0.0000E+00    7.500000E+09  0.00400  3.510E-05    0   0.5212   age171_m42            0.0000     1.2857E-05    41.3287  -1.0000    84.3161
 16      0.0000     0.0000E+00    0.0000E+00    1.300000E+10  0.00400  2.005E-05    0   0.5034   age193_m42            0.0000     1.4803E-05    45.7565  -1.0000    81.2992
 17      0.0000     0.0000E+00    0.0000E+00    1.800000E+10  0.00400  1.525E-05    0   0.4967   age213_m42            0.0000     1.4844E-05    46.1567  -1.0000    80.3772
 18      0.0000     0.0000E+00    0.0000E+00    1.000000E+06  0.00800  1.238E-02    0   1.0000   age020_m52            0.0000     1.1440E-05    30.1223   2.0066    76.0708
 19      0.0000     0.0000E+00    0.0000E+00    3.160000E+06  0.00800  3.074E-02    0   0.9966   age045_m52            0.0000     1.1472E-05    30.1266   1.9431    76.3789
 20      0.6657     3.2298E-03    5.6227E-03    5.010000E+06  0.00800  2.668E-02    0   0.9443   age055_m52            0.0000     1.1152E-05    29.9975   1.6873    78.3341
 21      0.0000     0.0000E+00    0.0000E+00    6.610000E+06  0.00800  2.136E-02    0   0.9177   age061_m52            0.0000     1.0525E-05    29.6132   0.4141    84.2433
 22      0.0000     0.0000E+00    0.0000E+00    1.000000E+07  0.00800  1.215E-02    0   0.8827   age070_m52            0.0000     1.0843E-05    29.9944   1.1405    81.6460
 23      0.0000     0.0000E+00    0.0000E+00    1.445000E+07  0.00800  8.717E-03    0   0.8552   age078_m52            0.0000     1.0829E-05    29.9234   1.2387    81.3365
 24      3.9277     9.0917E-02    1.3681E-01    2.512000E+07  0.00800  5.592E-03    0   0.8162   age090_m52            0.0000     1.0511E-05    29.7713   0.8624    84.1718
 25      0.0000     0.0000E+00    0.0000E+00    4.000000E+07  0.00800  3.896E-03    0   0.7841   age104_m52            0.0000     1.0277E-05    29.5765   0.7345    85.9393
 26      0.0000     0.0000E+00    0.0000E+00    1.015200E+08  0.00800  2.148E-03    0   0.7226   age116_m52            0.0000     1.0046E-05    29.3671   0.6111    87.5903
 27      0.0000     0.0000E+00    0.0000E+00    2.861200E+08  0.00800  9.925E-04    0   0.6683   age125_m52            0.0000     9.7906E-06    29.1367  -0.0282    95.6484
 28     23.5005     9.6847E+00    1.0959E+01    9.047900E+08  0.00800  3.141E-04    0   0.6138   age135_m52            0.0000     9.9149E-06    28.7338  -0.9699   103.6894
 29      0.0000     0.0000E+00    0.0000E+00    1.434000E+09  0.00800  1.719E-04    0   0.5853   age139_m52            0.0000     1.0956E-05    34.8957  -1.0000    93.7410
 30      0.0000     0.0000E+00    0.0000E+00    2.500000E+09  0.00800  7.872E-05    0   0.5600   age150_m52            0.0000     1.3207E-05    41.5679  -1.0000    87.7029
 31      0.0000     0.0000E+00    0.0000E+00    4.250000E+09  0.00800  4.336E-05    0   0.5426   age158_m52            0.0000     1.3461E-05    41.9851  -1.0000    86.6799
 32      0.0000     0.0000E+00    0.0000E+00    6.250000E+09  0.00800  3.159E-05    0   0.5319   age166_m52            0.0000     1.6401E-05    47.5396  -1.0000    83.5325
 33      1.6204     1.5411E+01    1.4413E+01    1.300000E+10  0.00800  1.361E-05    0   0.5073   age193_m52            0.0000     2.4752E-05    58.0764  -1.0000    72.9987
 34      0.0000     0.0000E+00    0.0000E+00    1.800000E+10  0.00800  9.886E-06    0   0.4990   age213_m52            0.0000     2.8225E-05    59.9286  -1.0000    70.0733
 35      0.0000     0.0000E+00    0.0000E+00    1.000000E+06  0.02000  1.544E-02    0   1.0000   age020_m62            0.0000     1.1502E-05    30.1524   2.0125    75.9961
 36      0.0000     0.0000E+00    0.0000E+00    3.160000E+06  0.02000  3.762E-02    0   0.9858   age045_m62            0.0000     1.1620E-05    30.1767   1.9645    76.2271
 37      0.0000     0.0000E+00    0.0000E+00    5.010000E+06  0.02000  3.296E-02    0   0.9342   age055_m62            0.0000     1.0730E-05    29.7768   1.5123    81.3651
 38      0.0000     0.0000E+00    0.0000E+00    8.710000E+06  0.02000  1.154E-02    0   0.8861   age067_m62            0.0000     1.1920E-05    31.0759   0.7436    79.1218
 39      0.0000     0.0000E+00    0.0000E+00    1.445000E+07  0.02000  7.663E-03    0   0.8472   age078_m62            0.0000     1.1020E-05    30.1028   0.8245    82.1518
 40      5.3514     1.5284E-01    2.2821E-01    2.512000E+07  0.02000  4.532E-03    0   0.8099   age090_m62            0.0000     1.1051E-05    30.1959   0.8249    81.6296
 41      0.0000     0.0000E+00    0.0000E+00    5.500000E+07  0.02000  2.733E-03    0   0.7595   age110_m62            0.0000     1.0414E-05    29.6638   0.7354    84.7934
 42      0.4737     4.4786E-02    5.7672E-02    1.609000E+08  0.02000  1.369E-03    0   0.6985   age120_m62            0.0000     9.8985E-06    29.2691   0.4279    91.4250
 43      0.0000     0.0000E+00    0.0000E+00    2.861200E+08  0.02000  9.013E-04    0   0.6714   age125_m62            0.0000     9.9040E-06    28.9246  -0.0000    98.0882
 44      0.0000     0.0000E+00    0.0000E+00    5.088000E+08  0.02000  5.028E-04    0   0.6449   age130_m62            0.0000     1.0144E-05    29.0992  -0.4590   104.3069
 45      0.0000     0.0000E+00    0.0000E+00    9.047900E+08  0.02000  2.428E-04    0   0.6179   age135_m62            0.0000     9.9918E-06    28.9015  -1.0000   102.5833
 46      0.0000     0.0000E+00    0.0000E+00    1.434000E+09  0.02000  1.263E-04    0   0.5908   age139_m62            0.0000     1.0981E-05    33.5871  -1.0000    95.2283
 47      0.0000     0.0000E+00    0.0000E+00    2.500000E+09  0.02000  5.985E-05    0   0.5673   age150_m62            0.0000     1.4183E-05    42.5684  -1.0000    89.0475
 48      0.2815     1.1139E+00    1.1229E+00    4.250000E+09  0.02000  3.271E-05    0   0.5468   age158_m62            0.0000     1.9299E-05    50.6375  -1.0000    83.0581
 49      4.9891     4.7485E+01    4.5233E+01    1.000000E+10  0.02000  1.360E-05    0   0.5167   age181_m62            0.0000     2.7513E-05    57.6873  -1.0000    74.6546
 50      0.0000     0.0000E+00    0.0000E+00    1.800000E+10  0.02000  7.124E-06    0   0.5013   age213_m62            0.0000     3.3558E-05    60.5690  -1.0000    68.5147
 51      0.0000     0.0000E+00    0.0000E+00    1.000000E+06  0.05000  2.592E-02    0   0.9998   age020_m72            0.0000     1.1678E-05    30.1822   2.0244    75.4347
 52      0.0000     0.0000E+00    0.0000E+00    3.160000E+06  0.05000  4.845E-02    0   0.9577   age045_m72            0.0000     1.1384E-05    30.0515   1.8307    77.6059
 53      3.3307     1.4034E-02    2.3666E-02    5.010000E+06  0.05000  3.072E-02    0   0.9147   age055_m72            0.0000     1.1379E-05    30.0766   1.3999    79.1763
 54      0.0000     0.0000E+00    0.0000E+00    6.610000E+06  0.05000  1.455E-02    0   0.8877   age061_m72            0.0000     1.2715E-05    31.6433   0.8017    78.0524
 55      2.6310     3.7531E-02    5.8979E-02    1.000000E+07  0.05000  9.074E-03    0   0.8524   age070_m72            0.0000     1.1479E-05    30.0967   1.5521    79.1120
 56      0.0000     0.0000E+00    0.0000E+00    2.512000E+07  0.05000  4.250E-03    0   0.7902   age090_m72            0.0000     1.0953E-05    29.9302   1.2396    81.3883
 57      0.0000     0.0000E+00    0.0000E+00    4.000000E+07  0.05000  3.087E-03    0   0.7618   age104_m72            0.0000     1.0731E-05    29.8768   0.9976    83.1718
 58      0.0000     0.0000E+00    0.0000E+00    1.015200E+08  0.05000  1.700E-03    0   0.7096   age116_m72            0.0000     1.0019E-05    29.4080   0.6225    89.4414
 59      0.0000     0.0000E+00    0.0000E+00    2.861200E+08  0.05000  7.384E-04    0   0.6633   age125_m72            0.0000     1.0021E-05    29.0795  -0.1527   101.3791
 60      0.0000     0.0000E+00    0.0000E+00    5.088000E+08  0.05000  3.819E-04    0   0.6372   age130_m72            0.0000     9.9785E-06    28.9036  -0.7039   104.6182
 61      0.0000     0.0000E+00    0.0000E+00    9.047900E+08  0.05000  1.676E-04    0   0.6110   age135_m72            0.0000     1.1186E-05    32.9772  -1.0000    98.4868
 62      0.0000     0.0000E+00    0.0000E+00    1.434000E+09  0.05000  8.837E-05    0   0.5874   age139_m72            0.0000     1.4496E-05    42.6873  -1.0000    90.4992
 63      1.8212     5.5692E+00    5.7476E+00    2.500000E+09  0.05000  4.233E-05    0   0.5598   age150_m72            0.0000     2.0427E-05    50.9608  -1.0000    84.0581
 64      0.0000     0.0000E+00    0.0000E+00    6.250000E+09  0.05000  1.435E-05    0   0.5249   age166_m72            0.0000     3.0257E-05    59.2410  -1.0000    71.8698
 65      0.0000     0.0000E+00    0.0000E+00    1.300000E+10  0.05000  6.513E-06    0   0.5036   age193_m72            0.0000     3.8312E-05    62.2096  -1.0000    64.7689
 66      0.0000     0.0000E+00    0.0000E+00    1.800000E+10  0.05000  4.527E-06    0   0.4945   age213_m72            0.0000     4.2675E-05    63.2799  -1.0000    60.1437


## Synthesis Results - Average & Chains ##

# j      x_j: min, <> & last-chain-values for 1 ...  7 chains
  1      0.0000      0.4468      0.0000      0.6409      0.6748      1.0568      0.6865      0.0000      0.6950
  2      1.9719      0.5136      0.0000      0.4877      3.2480      0.0000      1.7235      0.9991      0.0000
  3      0.0000      0.4800      5.7968      1.3082      0.3109      0.4570      0.0000      1.1273      1.3181
  4      0.0000      0.4074      0.4782      0.0000      0.0000      0.3134      1.9131      0.2954      0.0000
  5      0.0000      0.3591      0.8597      0.9314      0.0000      0.0756      0.5671      0.6621      0.3144
  6      0.0000      0.4243      0.5914      1.0300      0.3611      0.0000      0.2861      0.0051      0.0080
  7      0.0000      0.4017      0.0000      1.3650      0.0000      1.4981      0.0315      0.0000      0.0000
  8      0.0000      0.6748      0.1013      0.6399      1.2517      3.5202      2.1171      0.0443      0.0000
  9      4.9396      0.5858      0.3870      0.7000      2.2963      3.5645      1.4640      0.7686      1.2529
 10      0.0000      0.5365      1.8645      1.6725      0.0000      1.1857      0.0000      1.5032      3.9569
 11      7.6084      0.6479      1.1235      0.6466      1.8927      0.5353      1.9962      1.7123      0.0000
 12      0.0000      0.4411      0.8760      0.5291      0.1877      1.4373      0.7436      0.0000      0.5469
 13     31.7527      0.5793      0.8445      1.2077      1.0697      0.7132      0.3172      0.3593      2.8635
 14      0.0000      0.3592      0.0000      0.3627      0.3662      3.0168      0.7430      0.2088      0.8679
 15      0.0000      0.4170      0.0000      0.5090      0.9499      0.1834      1.5556      1.0635      0.7877
 16      0.0000      0.4238      0.4655      3.0445      0.0000      0.2311      0.4175      0.1854      0.4455
 17      0.0000      0.4765      1.3339      0.0000      0.0000      2.4027      1.3819      0.0000      0.9061
 18      0.0000      0.3495      0.4051      0.8098      0.4314      0.0000      0.0000      2.0971      0.9540
 19      0.0000      0.3527      1.9402      0.0000      0.1155      0.0000      1.3128      0.1167      1.3646
 20      0.6657      0.5278      0.0000      0.0000      0.0197      1.2778      0.5756      0.4300      0.0000
 21      0.0000      0.4255      1.6763      0.9097      1.4016      0.4910      0.1492      0.0000      0.7833
 22      0.0000      0.2977      0.0000      0.7857      1.3086      0.4981      1.3186      0.1098      1.9864
 23      0.0000      0.6118      0.0000      0.2612      0.6191      1.0382      1.5079      0.2745      0.0000
 24      3.9277      0.4302      2.0197      0.2121      2.6444      0.0000      0.0000      0.5179      0.4291
 25      0.0000      0.4080      0.0000      1.8502      0.0000      0.0885      0.9345      0.0000      0.0000
 26      0.0000      0.4816      1.0251      0.2519      2.4638      1.1069      0.5106      0.0300      2.3088
 27      0.0000      0.6048      0.0000      0.3235      0.0000      0.0000      1.2506      0.0000      0.0000
 28     23.5005      0.3788      0.0000      0.3244      0.0000      0.0084      0.6705      0.5608      0.0025
 29      0.0000      0.4623      2.4479      3.1716      0.0000      0.3930      0.0000      0.0000      0.0303
 30      0.0000      0.4171      1.0575      0.5869      0.4790      1.2657      0.0000      0.0000      0.0000
 31      0.0000      0.3833      0.0000      0.3760      0.0000      1.3597      1.4887      2.2727      1.0843
 32      0.0000      0.4192      0.0285      0.0954      0.0000      0.7510      0.5301      0.0000      0.2996
 33      1.6204      0.4366      1.5023      0.2682      0.0000      2.5133      1.2015      0.4000      1.2229
 34      0.0000      0.3051      0.0000      0.0000      0.7086      0.0000      0.1409      0.0000      1.0041
 35      0.0000      0.3286      0.0537      0.0417      2.4122      0.3938      0.4397      1.9973      0.0000
 36      0.0000      0.5744      0.8839      0.4919      0.1451      1.7392      0.7428      4.1330      0.1902
 37      0.0000      0.5008      1.5834      0.0000      0.0000      0.7544      1.0367      0.0000      0.0226
 38      0.0000      0.5246      1.4134      1.2831      2.4943      0.9769      0.2809      0.0000      1.5625
 39      0.0000      0.3247      0.2246      0.0000      0.0000      0.1293      0.0000      1.5807      0.0000
 40      5.3514      0.5757      3.1454      2.5724      0.0166      0.0000      4.2408      3.7050      0.8108
 41      0.0000      0.4444      0.2046      0.9820      0.0000      0.8801      1.6759      1.7816      0.9434
 42      0.4737      0.4464      0.0000      1.0522      0.5841      0.4647      0.6108      1.1357      0.7429
 43      0.0000      0.2766      5.2137      0.3155      0.7892      0.0000      0.0000      0.0000      0.3913
 44      0.0000      0.4978      0.2777      1.1970      0.5578      0.0000      0.8709      0.0000      1.3684
 45      0.0000      0.4157      0.9777      0.0000      0.0000      0.0000      0.9422      1.1881      0.3015
 46      0.0000      0.4931      0.3556      0.4998      0.9067      0.0000      1.6201      0.6691      1.3349
 47      0.0000      0.2932      0.2793      0.0725      0.0000      0.5698      1.4082      0.0000      0.1125
 48      0.2815      0.4365      0.5743      0.1276      3.4152      0.6788      0.5017      0.3933      0.9880
 49      4.9891      0.5032      0.3571      0.4997      0.0000      0.6075      0.2589      2.3182      0.3297
 50      0.0000     20.7046     12.5845     14.2968     14.5509     10.3141      9.5485     15.2514     12.0015
 51      0.0000      0.4745      0.0000      0.6785      0.8558      0.3304      0.9774      0.6106      2.3466
 52      0.0000      0.3455      1.3951      0.0000      0.8701      0.0392      0.7908      0.3061      0.9648
 53      3.3307      0.6274      0.7179      1.3480      1.0013      1.2170      0.0000      0.6982      0.0000
 54      0.0000     12.1681      2.7157      8.3379      5.5102      9.0185      9.1470     11.8762      6.8666
 55      2.6310      9.7373      7.1642      5.9408      8.4106      3.7603      4.9185      7.4983      8.1661
 56      0.0000      0.3624      0.2351      0.7274      0.2181      0.0000      1.0387      0.0000      1.8068
 57      0.0000      0.4870      2.1659      0.7306      2.4740      1.8133      0.0000      0.0000      0.7442
 58      0.0000      0.3967      0.3108      0.2886      0.3820      1.7675      0.0000      0.4914      0.0000
 59      0.0000      0.5548      0.0000      0.0000      0.7278      0.8657      0.4941      0.0000      1.0273
 60      0.0000      0.3898      0.0000      1.3974      0.0000      0.8452      0.0740      0.2352      0.3428
 61      0.0000      0.3551      0.0000      0.0910      1.6605      2.0182      0.2706      0.0000      0.5025
 62      0.0000      0.4385      0.0000      2.1957      0.0000      0.5673      1.7110      0.0000      0.5630
 63      1.8212      0.4964      0.4870      0.3753      0.0000      0.6383      2.1878      1.3124      0.7274
 64      0.0000      0.4884      2.4738      1.3188      0.3363      0.0000      0.0000      0.0000      2.6088
 65      0.0000      9.7464      5.8932      8.9402      8.3439      9.2346      6.3317      7.6314      7.1988
 66      0.0000      0.3886      1.6654      0.0000      0.5100      0.0000      1.1603      0.0000      0.3020

# j      m_j: min, <> & last-chain-values for 1 ...  7 chains
  1  0.0000E+00  1.6964E-03  0.0000E+00  3.0474E-03  3.2941E-03  5.4925E-03  4.0557E-03  0.0000E+00  3.5801E-03
  2  1.1743E-02  5.3240E-04  0.0000E+00  6.3304E-04  4.3286E-03  0.0000E+00  2.7798E-03  1.3436E-03  0.0000E+00
  3  0.0000E+00  7.4521E-04  1.2103E-02  2.5431E-03  6.2042E-04  9.7091E-04  0.0000E+00  2.2702E-03  2.7755E-03
  4  0.0000E+00  5.9553E-04  9.4028E-04  0.0000E+00  0.0000E+00  6.2710E-04  4.3515E-03  5.6013E-04  0.0000E+00
  5  0.0000E+00  9.9988E-04  3.2199E-03  3.2479E-03  0.0000E+00  2.8821E-04  2.4571E-03  2.3918E-03  1.1875E-03
  6  0.0000E+00  1.9162E-03  3.5923E-03  5.8258E-03  2.0967E-03  0.0000E+00  2.0108E-03  3.0068E-05  4.9259E-05
  7  0.0000E+00  2.5977E-03  0.0000E+00  1.1054E-02  0.0000E+00  1.3259E-02  3.1743E-04  0.0000E+00  0.0000E+00
  8  0.0000E+00  6.0316E-03  1.2179E-03  7.1617E-03  1.4383E-02  4.3062E-02  2.9442E-02  5.1323E-04  0.0000E+00
  9  2.9028E-01  5.9930E-03  5.3243E-03  8.9671E-03  3.0200E-02  4.9907E-02  2.3303E-02  1.0200E-02  1.7386E-02
 10  0.0000E+00  7.2091E-03  3.3696E-02  2.8143E-02  0.0000E+00  2.1807E-02  0.0000E+00  2.6205E-02  7.2125E-02
 11  1.1043E+00  1.6370E-02  3.8179E-02  2.0459E-02  6.1480E-02  1.8511E-02  7.8477E-02  5.6126E-02  0.0000E+00
 12  0.0000E+00  1.7681E-02  4.7221E-02  2.6558E-02  9.6720E-03  7.8845E-02  4.6371E-02  0.0000E+00  2.9736E-02
 13  2.0607E+01  6.5451E-02  1.2831E-01  1.7086E-01  1.5536E-01  1.1028E-01  5.5748E-02  5.2663E-02  4.3882E-01
 14  0.0000E+00  1.3609E-01  0.0000E+00  1.7208E-01  1.7839E-01  1.5645E+00  4.3804E-01  1.0262E-01  4.4606E-01
 15  0.0000E+00  2.5723E-01  0.0000E+00  3.9319E-01  7.5328E-01  1.5486E-01  1.4930E+00  8.5105E-01  6.5913E-01
 16  0.0000E+00  4.4203E-01  6.5297E-01  3.9764E+00  0.0000E+00  3.2995E-01  6.7747E-01  2.5085E-01  6.3033E-01
 17  0.0000E+00  6.4469E-01  2.4273E+00  0.0000E+00  0.0000E+00  4.4494E+00  2.9091E+00  0.0000E+00  1.6630E+00
 18  0.0000E+00  1.1727E-03  1.8283E-03  3.4027E-03  1.8609E-03  0.0000E+00  0.0000E+00  9.1286E-03  4.3422E-03
 19  0.0000E+00  4.7505E-04  3.5143E-03  0.0000E+00  1.9990E-04  0.0000E+00  2.7509E-03  2.0384E-04  2.4929E-03
 20  5.6227E-03  7.7598E-04  0.0000E+00  0.0000E+00  3.7167E-05  2.5713E-03  1.3167E-03  8.2026E-04  0.0000E+00
 21  0.0000E+00  7.5946E-04  4.0236E-03  2.0332E-03  3.2160E-03  1.1994E-03  4.1442E-04  0.0000E+00  1.8963E-03
 22  0.0000E+00  8.9848E-04  0.0000E+00  2.9694E-03  5.0773E-03  2.0573E-03  6.1920E-03  4.2988E-04  8.1319E-03
 23  0.0000E+00  2.4932E-03  0.0000E+00  1.3333E-03  3.2438E-03  5.7910E-03  9.5616E-03  1.4511E-03  0.0000E+00
 24  1.3681E-01  2.6085E-03  1.6470E-02  1.6102E-03  2.0613E-02  0.0000E+00  0.0000E+00  4.0738E-03  3.5292E-03
 25  0.0000E+00  3.4112E-03  0.0000E+00  1.9371E-02  0.0000E+00  1.0130E-03  1.2157E-02  0.0000E+00  0.0000E+00
 26  0.0000E+00  6.7298E-03  1.9266E-02  4.4083E-03  4.4265E-02  2.1171E-02  1.1102E-02  5.4466E-04  4.3768E-02
 27  0.0000E+00  1.6917E-02  0.0000E+00  1.1331E-02  0.0000E+00  0.0000E+00  5.4429E-02  0.0000E+00  0.0000E+00
 28  1.0959E+01  3.0748E-02  0.0000E+00  3.2977E-02  0.0000E+00  9.3677E-04  8.4684E-02  5.9058E-02  2.7583E-04
 29  0.0000E+00  6.5396E-02  4.6567E-01  5.6178E-01  0.0000E+00  7.6079E-02  0.0000E+00  0.0000E+00  5.8127E-03
 30  0.0000E+00  1.2327E-01  4.2032E-01  2.1720E-01  1.8197E-01  5.1191E-01  0.0000E+00  0.0000E+00  0.0000E+00
 31  0.0000E+00  1.9924E-01  0.0000E+00  2.4476E-01  0.0000E+00  9.6739E-01  1.2041E+00  1.5327E+00  7.6463E-01
 32  0.0000E+00  2.9325E-01  2.6832E-02  8.3590E-02  0.0000E+00  7.1898E-01  5.7691E-01  0.0000E+00  2.8422E-01
 33  1.4413E+01  6.7608E-01  3.1286E+00  5.1997E-01  0.0000E+00  5.3263E+00  2.8946E+00  8.0349E-01  2.5685E+00
 34  0.0000E+00  6.3970E-01  0.0000E+00  0.0000E+00  1.9101E+00  0.0000E+00  4.5970E-01  0.0000E+00  2.8560E+00
 35  0.0000E+00  8.8399E-04  1.9443E-04  1.4052E-04  8.3435E-03  1.4501E-03  1.8407E-03  6.9712E-03  0.0000E+00
 36  0.0000E+00  6.2525E-04  1.2940E-03  6.7050E-04  2.0310E-04  2.5911E-03  1.2580E-03  5.8365E-03  2.8081E-04
 37  0.0000E+00  5.8965E-04  2.5074E-03  0.0000E+00  0.0000E+00  1.2157E-03  1.8991E-03  0.0000E+00  3.6106E-05
 38  0.0000E+00  1.6732E-03  6.0635E-03  5.1254E-03  1.0229E-02  4.2649E-03  1.3941E-03  0.0000E+00  6.7608E-03
 39  0.0000E+00  1.4914E-03  1.3874E-03  0.0000E+00  0.0000E+00  8.1262E-04  0.0000E+00  9.4177E-03  0.0000E+00
 40  2.2821E-01  4.2741E-03  3.1405E-02  2.3915E-02  1.5865E-04  0.0000E+00  4.8984E-02  3.5682E-02  8.1647E-03
 41  0.0000E+00  5.1304E-03  3.1766E-03  1.4197E-02  0.0000E+00  1.3905E-02  3.0102E-02  2.6682E-02  1.4774E-02
 42  5.7672E-02  9.4608E-03  0.0000E+00  2.7928E-02  1.5916E-02  1.3480E-02  2.0145E-02  3.1228E-02  2.1360E-02
 43  0.0000E+00  8.5605E-03  2.1699E-01  1.2225E-02  3.1396E-02  0.0000E+00  0.0000E+00  0.0000E+00  1.6424E-02
 44  0.0000E+00  2.6522E-02  1.9903E-02  7.9870E-02  3.8208E-02  0.0000E+00  7.2196E-02  0.0000E+00  9.8903E-02
 45  0.0000E+00  4.3942E-02  1.3901E-01  0.0000E+00  0.0000E+00  0.0000E+00  1.5497E-01  1.6294E-01  4.3236E-02
 46  0.0000E+00  9.5820E-02  9.2926E-02  1.2161E-01  2.2651E-01  0.0000E+00  4.8982E-01  1.6868E-01  3.5186E-01
 47  0.0000E+00  1.1544E-01  1.4792E-01  3.5768E-02  0.0000E+00  3.0709E-01  8.6272E-01  0.0000E+00  6.0109E-02
 48  1.1229E+00  3.0310E-01  5.3640E-01  1.1094E-01  3.0490E+00  6.4514E-01  5.4202E-01  3.5434E-01  9.3070E-01
 49  4.5233E+01  7.9427E-01  7.5792E-01  9.8757E-01  0.0000E+00  1.3122E+00  6.3587E-01  4.7464E+00  7.0586E-01
 50  0.0000E+00  6.0524E+01  4.9475E+01  5.2335E+01  5.4683E+01  4.1265E+01  4.3428E+01  5.7836E+01  4.7589E+01
 51  0.0000E+00  7.6037E-04  0.0000E+00  1.3616E-03  1.7629E-03  7.2450E-04  2.4369E-03  1.2692E-03  5.1004E-03
 52  0.0000E+00  2.8370E-04  1.5407E-03  0.0000E+00  9.1850E-04  4.4027E-05  1.0103E-03  3.2611E-04  1.0747E-03
 53  2.3666E-02  7.7598E-04  1.1942E-03  2.0880E-03  1.5922E-03  2.0603E-03  0.0000E+00  1.1203E-03  0.0000E+00
 54  0.0000E+00  3.0840E-02  9.2567E-03  2.6463E-02  1.7954E-02  3.1283E-02  3.6070E-02  3.9048E-02  2.3607E-02
 55  5.8979E-02  3.7999E-02  3.7600E-02  2.9031E-02  4.2195E-02  2.0084E-02  2.9864E-02  3.7959E-02  4.3227E-02
 56  0.0000E+00  2.7988E-03  2.4420E-03  7.0358E-03  2.1655E-03  0.0000E+00  1.2482E-02  0.0000E+00  1.8930E-02
 57  0.0000E+00  4.9927E-03  2.9862E-02  9.3791E-03  3.2605E-02  2.5441E-02  0.0000E+00  0.0000E+00  1.0349E-02
 58  0.0000E+00  6.8789E-03  7.2486E-03  6.2663E-03  8.5157E-03  4.1947E-02  0.0000E+00  1.1054E-02  0.0000E+00
 59  0.0000E+00  2.0704E-02  0.0000E+00  0.0000E+00  3.4917E-02  4.4217E-02  2.8685E-02  0.0000E+00  5.2001E-02
 60  0.0000E+00  2.7015E-02  0.0000E+00  1.2129E-01  0.0000E+00  8.0183E-02  7.9758E-03  2.1153E-02  3.2226E-02
 61  0.0000E+00  5.3773E-02  0.0000E+00  1.7253E-02  3.2330E-01  4.1832E-01  6.3768E-02  0.0000E+00  1.0323E-01
 62  0.0000E+00  1.2109E-01  0.0000E+00  7.5924E-01  0.0000E+00  2.1439E-01  7.3512E-01  0.0000E+00  2.1087E-01
 63  5.7476E+00  2.7268E-01  3.5982E-01  2.5818E-01  0.0000E+00  4.7997E-01  1.8701E+00  9.3532E-01  5.4208E-01
 64  0.0000E+00  7.4213E-01  5.0556E+00  2.5095E+00  6.5703E-01  0.0000E+00  0.0000E+00  0.0000E+00  5.3773E+00
 65  0.0000E+00  3.1307E+01  2.5459E+01  3.5961E+01  3.4456E+01  4.0597E+01  3.1644E+01  3.1800E+01  3.1366E+01
 66  0.0000E+00  1.7636E+00  1.0164E+01  0.0000E+00  2.9749E+00  0.0000E+00  8.1923E+00  0.0000E+00  1.8592E+00

# AV, chi2 & Mass for <> & i_chain = 1 ...  7 solutions
AV      -0.7496     -0.9762     -0.7525     -0.9217     -0.8231     -0.9000     -0.8484     -0.7659     -0.8692
chi2 9.6271E-06  1.2105E-05  1.1672E-05  1.1626E-05  1.1736E-05  1.1596E-05  1.1461E-05  1.1413E-05  1.1560E-05
Mass 1.4778E-14  6.2620E-14  6.2876E-14  5.3804E-14  5.9827E-14  5.0683E-14  4.7783E-14  6.4025E-14  5.3294E-14
-416.25                                  [v0_min (km/s) before EX0s...]
 130.22                                  [vd_min (km/s) before EX0s...]


## Synthetic spectrum (Best Model) ##l_obs f_obs f_syn wei
 3478    [Nl_obs]
 3741.00    0.14617   0.52942    0.000
 3742.00    0.38619   0.48996    0.000
 3743.00    0.33114   0.45506    0.000
 3744.00    0.33294   0.43618    0.000
 3745.00    0.36786   0.44307   -1.000
 3746.00    0.48983   0.47608   -1.000
 3747.00    0.65600   0.52567   -1.000
 3748.00    0.43638   0.57861   -1.000
 3749.00    0.04712   0.62303   -1.000
 3750.00    0.13407   0.65113   -1.000
 3751.00    0.40081   0.66092   -1.000
 3752.00    0.41294   0.65834   -1.000
 3753.00    0.34348   0.65400   -1.000
 3754.00    0.49011   0.65555   -1.000
 3755.00    0.69464   0.66301   -1.000
 3756.00    0.85531   0.67062   -1.000
 3757.00    1.00635   0.67262   -1.000
 3758.00    0.78680   0.66651   -1.000
 3759.00    0.50256   0.65209   -1.000
 3760.00    0.77879   0.62953   -1.000
 3761.00    1.12947   0.60019   -1.000
 3762.00    0.92496   0.56695   -1.000
 3763.00    0.66828   0.53445   -1.000
 3764.00    0.51535   0.50925   -1.000
 3765.00    0.36841   0.49916   -1.000
 3766.00    0.85200   0.50959   -1.000
 3767.00    1.34575   0.53885   -1.000
 3768.00    1.25811   0.57844   -1.000
 3769.00    1.16969   0.61907   -1.000
 3770.00    1.06226   0.65612   -1.000
 3771.00    0.93874   0.68935   -1.000
 3772.00    0.60444   0.71968   -1.000
 3773.00    0.34125   0.74746   -1.000
 3774.00    0.70238   0.77175   -1.000
 3775.00    1.02422   0.79111   -1.000
 3776.00    1.09133   0.80458   -1.000
 3777.00    1.10126   0.81172   -1.000
 3778.00    0.82177   0.81183   -1.000
 3779.00    0.60746   0.80317   -1.000
 3780.00    0.65998   0.78562   -1.000
 3781.00    0.71361   0.76257   -1.000
 3782.00    0.77101   0.73941   -1.000
 3783.00    0.77083   0.72008   -1.000
 3784.00    0.60599   0.70472   -1.000
 3785.00    0.36354   0.69015   -1.000
 3786.00   -0.06853   0.67131    0.000
 3787.00   -0.28398   0.64390    0.000
 3788.00   -0.04287   0.60676    0.000
 3789.00    0.25481   0.56268   -1.000
 3790.00    0.65614   0.51707   -1.000
 3791.00    0.85377   0.47696   -1.000
 3792.00    0.72535   0.45178   -1.000
 3793.00    0.55695   0.45061   -1.000
 3794.00    0.33238   0.47652   -1.000
 3795.00    0.27140   0.52314   -1.000
 3796.00    0.41262   0.57824   -1.000
 3797.00    0.42966   0.63028   -1.000
 3798.00    0.31143   0.67182   -1.000
 3799.00    0.17893   0.70078   -1.000
 3800.00    0.03271   0.71964   -1.000
 3801.00    0.05902   0.73475   -1.000
 3802.00    0.23154   0.75247   -1.000
 3803.00    0.30032   0.77397   -1.000
 3804.00    0.29170   0.79468   -1.000
 3805.00    0.26814   0.80743   -1.000
 3806.00    0.23478   0.80795   -1.000
 3807.00    0.41755   0.79757   -1.000
 3808.00    0.72433   0.78254   -1.000
 3809.00    0.99639   0.76963   -1.000
 3810.00    1.25110   0.76270   -1.000
 3811.00    0.95274   0.76019   -1.000
 3812.00    0.41523   0.75609   -1.000
 3813.00    0.35969   0.74622   -1.000
 3814.00    0.48291   0.73311   -1.000
 3815.00    0.32869   0.72366   -1.000
 3816.00    0.08726   0.72072   -1.000
 3817.00   -0.06696   0.71916    0.000
 3818.00   -0.19829   0.71112    0.000
 3819.00    0.04237   0.69460   -1.000
 3820.00    0.36274   0.67368   -1.000
 3821.00    0.30851   0.65305   -1.000
 3822.00    0.19072   0.63396   -1.000
 3823.00    0.04501   0.61413   -1.000
 3824.00   -0.10429   0.59038    0.000
 3825.00    0.15548   0.55958   -1.000
 3826.00    0.45196   0.52082   -1.000
 3827.00    0.64126   0.47797   -1.000
 3828.00    0.82479   0.43853   -1.000
 3829.00    0.73145   0.41147   -1.000
 3830.00    0.63226   0.40292   -1.000
 3831.00    0.50856   0.41298   -1.000
 3832.00    0.38882   0.43778   -1.000
 3833.00    0.35714   0.47220   -1.000
 3834.00    0.32060   0.51226   -1.000
 3835.00    0.22362   0.55621   -1.000
 3836.00    0.16221   0.60204   -1.000
 3837.00    0.40152   0.64577   -1.000
 3838.00    0.68374   0.68370    0.397
 3839.00    1.23596   0.71349    0.048
 3840.00    1.59209   0.73580    0.027
 3841.00    0.98070   0.75247    0.026
 3842.00    0.43215   0.76429    0.025
 3843.00    0.13520   0.77203    0.025
 3844.00    0.03707   0.77812    0.026
 3845.00    0.59997   0.78574    0.026
 3846.00    0.94137   0.79487    0.026
 3847.00    0.66079   0.80253    0.000
 3848.00    0.47272   0.80494    0.000
 3849.00    0.50689   0.80170    0.000
 3850.00    0.59651   0.79528    0.000
 3851.00    0.80112   0.78898    0.000
 3852.00    0.84485   0.78357    0.000
 3853.00    0.59840   0.78020    0.000
 3854.00    0.43481   0.78146    0.000
 3855.00    0.40190   0.78977    0.000
 3856.00    0.32031   0.80375    0.000
 3857.00    0.17130   0.81795    0.000
 3858.00   -0.09479   0.82669    0.000
 3859.00   -0.50355   0.82832    0.000
 3860.00   -0.45434   0.82557    0.000
 3861.00    0.08684   0.82157    0.000
 3862.00    0.58691   0.81739    0.000
 3863.00    1.04804   0.81118    0.000
 3864.00    1.19880   0.80045    0.000
 3865.00    1.09027   0.78598    0.000
 3866.00    0.74933   0.77199    0.000
 3867.00    0.23745   0.76408    0.000
 3868.00   -0.06520   0.76331    0.000
 3869.00   -0.23269   0.76468    0.000
 3870.00   -0.03500   0.76058    0.000
 3871.00    0.36907   0.74714    0.000
 3872.00    0.54270   0.72735    0.000
 3873.00    0.60298   0.70815    0.000
 3874.00    0.41382   0.69278    0.000
 3875.00    0.11860   0.67925    0.000
 3876.00    0.25512   0.66366    0.000
 3877.00    0.54891   0.64328    0.000
 3878.00    0.31311   0.61648    0.000
 3879.00   -0.08594   0.58141    0.000
 3880.00   -0.13555   0.53886    0.000
 3881.00   -0.09547   0.49466    0.000
 3882.00    0.22058   0.45871    0.023
 3883.00    0.59432   0.44156    0.023
 3884.00    0.34809   0.44904    0.023
 3885.00   -0.00036   0.47885    0.000
 3886.00    0.17391   0.52171    0.023
 3887.00    0.41290   0.56590    0.023
 3888.00    0.32405   0.60398    0.023
 3889.00    0.20715   0.63482    0.023
 3890.00    0.26035   0.66094    0.023
 3891.00    0.32202   0.68387    0.023
 3892.00    0.49058   0.70332    0.023
 3893.00    0.65380   0.71943    0.023
 3894.00    0.35883   0.73367    0.023
 3895.00    0.07353   0.74761    0.022
 3896.00   -0.01378   0.76028    0.000
 3897.00   -0.06742   0.76985    0.000
 3898.00    0.27729   0.77562    0.022
 3899.00    0.56665   0.77964    0.021
 3900.00    0.40516   0.78654    0.021
 3901.00    0.25676   0.79944    0.020
 3902.00    0.18835   0.81794    0.020
 3903.00    0.14409   0.83806    0.019
 3904.00    0.21599   0.85471    0.019
 3905.00    0.34421   0.86527    0.019
 3906.00    0.69296   0.86948    0.019
 3907.00    1.00523   0.86882    0.019
 3908.00    1.19859   0.86566    0.020
 3909.00    1.21284   0.86172    0.020
 3910.00    0.73320   0.85724    0.020
 3911.00    0.51777   0.85122    0.021
 3912.00    0.92624   0.84231    0.022
 3913.00    1.12022   0.83127    0.022
 3914.00    0.87644   0.82066    0.022
 3915.00    0.66810   0.81360    0.022
 3916.00    0.52269   0.81144    0.022
 3917.00    0.42180   0.81234    0.022
 3918.00    0.39006   0.81228    0.023
 3919.00    0.51090   0.80690    0.023
 3920.00    0.83991   0.79422    0.023
 3921.00    1.05673   0.77465    0.023
 3922.00    1.13880   0.74985    0.023
 3923.00    0.99895   0.72109    0.023
 3924.00    0.62408   0.68779    0.023
 3925.00    0.58027   0.64917    0.023
 3926.00    0.84574   0.60774    0.023
 3927.00    0.89892   0.57222    0.023
 3928.00    0.77728   0.55515    0.023
 3929.00    0.48146   0.56478    0.023
 3930.00    0.05939   0.59888    0.023
 3931.00   -0.03936   0.64606    0.000
 3932.00    0.06765   0.69335    0.023
 3933.00    0.45136   0.73259    0.023
 3934.00    0.98907   0.76077    0.023
 3935.00    1.10422   0.77786    0.023
 3936.00    1.01481   0.78582    0.023
 3937.00    0.88158   0.78844    0.023
 3938.00    0.73003   0.79106    0.023
 3939.00    0.29173   0.79726    0.023
 3940.00   -0.24914   0.80633    0.000
 3941.00   -0.00915   0.81487    0.000
 3942.00    0.46687   0.82035    0.022
 3943.00    0.68645   0.82302    0.023
 3944.00    0.84162   0.82436    0.023
 3945.00    1.13272   0.82442    0.023
 3946.00    1.45153   0.82252    0.023
 3947.00    1.02209   0.81877    0.023
 3948.00    0.47284   0.81308    0.023
 3949.00   -0.12169   0.80459    0.000
 3950.00   -0.72162   0.79296    0.000
 3951.00   -0.09418   0.77928    0.000
 3952.00    0.63320   0.76461    0.023
 3953.00    0.90124   0.74724    0.023
 3954.00    1.14817   0.72333    0.023
 3955.00    0.91648   0.69158    0.023
 3956.00    0.68778   0.65476    0.023
 3957.00    0.93378   0.61632    0.023
 3958.00    1.15932   0.57684    0.023
 3959.00    0.99745   0.53356    0.022
 3960.00    0.85274   0.48424    0.000
 3961.00    0.90151   0.43118    0.000
 3962.00    0.89803   0.38188    0.000
 3963.00    0.48390   0.34694    0.000
 3964.00    0.16687   0.33558    0.000
 3965.00    0.42594   0.35084    0.000
 3966.00    0.66445   0.38849    0.000
 3967.00    0.80638   0.43970    0.000
 3968.00    0.83939   0.49542    0.000
 3969.00    0.45497   0.54920    0.000
 3970.00    0.25965   0.59810    0.000
 3971.00    0.66876   0.64157    0.000
 3972.00    1.02853   0.67979    0.000
 3973.00    1.25466   0.71270    0.000
 3974.00    1.40436   0.73912    0.000
 3975.00    1.37657   0.75831    0.000
 3976.00    1.31257   0.77167    0.000
 3977.00    1.17582   0.78227    0.000
 3978.00    0.93531   0.79322    0.000
 3979.00    0.51330   0.80570    0.000
 3980.00    0.30943   0.81915    0.000
 3981.00    0.43953   0.83260    0.023
 3982.00    0.63038   0.84469    0.023
 3983.00    0.90294   0.85476    0.023
 3984.00    1.12912   0.86316    0.024
 3985.00    1.30038   0.87059    0.023
 3986.00    1.32942   0.87749    0.023
 3987.00    1.20997   0.88242    0.023
 3988.00    1.13413   0.88354    0.023
 3989.00    1.09846   0.88056    0.023
 3990.00    1.03902   0.87551    0.023
 3991.00    0.96030   0.87214    0.023
 3992.00    1.00697   0.87394    0.023
 3993.00    1.14324   0.88153    0.023
 3994.00    1.26820   0.89235    0.023
 3995.00    1.38605   0.90214    0.023
 3996.00    1.08576   0.90671    0.023
 3997.00    0.55632   0.90364    0.022
 3998.00    0.25520   0.89365    0.022
 3999.00    0.06283   0.88140    0.022
 4000.00    0.34126   0.87344    0.022
 4001.00    0.81320   0.87377    0.022
 4002.00    0.85243   0.88131    0.022
 4003.00    0.73969   0.89158    0.022
 4004.00    0.50142   0.90089    0.022
 4005.00    0.22595   0.90802    0.022
 4006.00    0.33078   0.91358    0.022
 4007.00    0.52904   0.91794    0.022
 4008.00    0.76429   0.92161    0.022
 4009.00    1.00689   0.92464    0.022
 4010.00    1.02334   0.92659    0.022
 4011.00    1.00465   0.92820    0.022
 4012.00    1.07929   0.93038    0.022
 4013.00    1.16466   0.93289    0.022
 4014.00    1.17893   0.93433    0.022
 4015.00    1.18771   0.93268    0.022
 4016.00    1.00126   0.92692    0.022
 4017.00    0.80660   0.91797    0.022
 4018.00    0.75548   0.90862    0.022
 4019.00    0.70884   0.90240    0.022
 4020.00    0.80050   0.90182    0.022
 4021.00    0.90275   0.90588    0.022
 4022.00    1.19156   0.90943    0.022
 4023.00    1.43234   0.90669    0.022
 4024.00    1.15624   0.89675    0.022
 4025.00    0.93743   0.88362    0.021
 4026.00    1.15344   0.87335    0.021
 4027.00    1.35654   0.87086    0.021
 4028.00    1.48511   0.87726    0.021
 4029.00    1.56447   0.89139    0.021
 4030.00    1.41827   0.91006    0.021
 4031.00    1.26006   0.92825    0.021
 4032.00    1.05677   0.94101    0.021
 4033.00    0.93152   0.94562    0.021
 4034.00    1.05091   0.94308    0.021
 4035.00    1.12019   0.93612    0.021
 4036.00    1.05612   0.92528    0.021
 4037.00    1.00145   0.90912    0.021
 4038.00    0.96825   0.88801    0.021
 4039.00    0.87118   0.86807    0.021
 4040.00    0.64782   0.85866    0.021
 4041.00    0.50590   0.86438    0.021
 4042.00    0.50425   0.88195    0.021
 4043.00    0.56062   0.90237    0.021
 4044.00    0.70450   0.91719    0.022
 4045.00    0.83648   0.92326    0.022
 4046.00    0.95270   0.92133    0.022
 4047.00    1.00000   0.91393    0.022
 4048.00    0.96682   0.90466    0.023
 4049.00    1.02984   0.89617    0.022
 4050.00    1.19189   0.88943    0.022
 4051.00    1.23015   0.88546    0.022
 4052.00    1.15599   0.88491    0.022
 4053.00    0.97916   0.88714    0.022
 4054.00    0.72015   0.88907    0.022
 4055.00    0.69854   0.88558    0.022
 4056.00    0.84409   0.87445    0.022
 4057.00    0.82525   0.86017    0.022
 4058.00    0.70486   0.85031    0.022
 4059.00    0.63573   0.84934    0.022
 4060.00    0.59425   0.85649    0.021
 4061.00    0.48105   0.86666    0.022
 4062.00    0.33423   0.87507    0.022
 4063.00    0.22433   0.87845    0.022
 4064.00    0.12933   0.87521    0.021
 4065.00    0.34285   0.86740    0.021
 4066.00    0.66274   0.86000    0.021
 4067.00    0.73313   0.85631    0.021
 4068.00    0.73107   0.85403    0.021
 4069.00    1.10211   0.84737    0.022
 4070.00    1.56276   0.83501    0.022
 4071.00    1.48489   0.82292    0.022
 4072.00    1.30267   0.81870    0.021
 4073.00    0.97957   0.82570    0.021
 4074.00    0.63525   0.83990    0.021
 4075.00    0.35797   0.85269    0.021
 4076.00    0.08811   0.85769    0.021
 4077.00    0.55235   0.85404    0.021
 4078.00    1.07035   0.84608    0.021
 4079.00    1.16719   0.83976    0.021
 4080.00    1.24791   0.83828    0.021
 4081.00    0.85949   0.84059    0.021
 4082.00    0.47999   0.84278    0.020
 4083.00    0.53447   0.84068    0.020
 4084.00    0.59037   0.83222    0.020
 4085.00    0.66977   0.81826    0.020
 4086.00    0.75291   0.80098    0.020
 4087.00    0.87446   0.78099    0.020
 4088.00    0.96497   0.75776    0.020
 4089.00    0.82781   0.73047    0.020
 4090.00    0.68634   0.69864    0.020
 4091.00    0.52073   0.66342    0.020
 4092.00    0.44757   0.62551    0.000
 4093.00    0.78811   0.58465    0.000
 4094.00    1.06014   0.54393    0.000
 4095.00    1.08056   0.51172    0.000
 4096.00    1.08673   0.49783    0.000
 4097.00    1.04902   0.50840    0.000
 4098.00    1.09421   0.54047    0.000
 4099.00    1.35606   0.58312    0.000
 4100.00    1.50392   0.62573    0.000
 4101.00    1.39575   0.66194    0.000
 4102.00    1.28979   0.68936    0.000
 4103.00    1.18810   0.70963    0.000
 4104.00    1.03813   0.72602    0.000
 4105.00    0.80624   0.74173    0.000
 4106.00    0.81059   0.75873    0.000
 4107.00    1.16612   0.77674    0.000
 4108.00    1.30475   0.79407    0.000
 4109.00    1.15997   0.80824    0.000
 4110.00    0.94282   0.81710    0.000
 4111.00    0.64236   0.82027    0.000
 4112.00    0.56486   0.81921    0.000
 4113.00    0.71369   0.81669    0.021
 4114.00    0.75323   0.81629    0.021
 4115.00    0.69493   0.81991    0.021
 4116.00    0.76602   0.82665    0.021
 4117.00    0.93919   0.83492    0.021
 4118.00    0.91200   0.84283    0.021
 4119.00    0.74577   0.84813    0.021
 4120.00    0.68207   0.84887    0.021
 4121.00    0.68075   0.84505    0.021
 4122.00    0.90959   0.83866    0.021
 4123.00    1.26070   0.83168    0.021
 4124.00    1.28495   0.82502    0.021
 4125.00    1.15847   0.81894    0.022
 4126.00    1.40415   0.81492    0.022
 4127.00    1.79760   0.81593    0.022
 4128.00    1.52296   0.82413    0.021
 4129.00    1.02222   0.83768    0.021
 4130.00    0.66374   0.85316    0.021
 4131.00    0.34573   0.86696    0.020
 4132.00    0.49957   0.87595    0.020
 4133.00    0.76420   0.87898    0.020
 4134.00    0.86851   0.87402    0.020
 4135.00    0.94255   0.85984    0.020
 4136.00    1.02701   0.83999    0.020
 4137.00    1.11299   0.82181    0.020
 4138.00    1.07832   0.81325    0.020
 4139.00    1.03082   0.81830    0.020
 4140.00    1.20270   0.83267    0.020
 4141.00    1.38975   0.84718    0.020
 4142.00    1.18188   0.85625    0.020
 4143.00    0.96040   0.85948    0.020
 4144.00    1.05948   0.85865    0.021
 4145.00    1.15930   0.85614    0.021
 4146.00    1.26210   0.85300    0.020
 4147.00    1.34033   0.84907    0.020
 4148.00    1.03838   0.84522    0.019
 4149.00    0.74091   0.84319    0.019
 4150.00    0.48764   0.84465    0.019
 4151.00    0.28620   0.84956    0.019
 4152.00    0.45281   0.85672    0.019
 4153.00    0.61971   0.86455    0.019
 4154.00    0.78813   0.87138    0.019
 4155.00    0.96519   0.87611    0.019
 4156.00    1.17998   0.87858    0.019
 4157.00    1.36249   0.87920    0.019
 4158.00    1.42892   0.87751    0.019
 4159.00    1.35663   0.87335    0.019
 4160.00    0.86578   0.86805    0.018
 4161.00    0.50134   0.86298    0.018
 4162.00    0.46154   0.85853    0.018
 4163.00    0.57474   0.85386    0.018
 4164.00    1.02592   0.84653    0.019
 4165.00    1.19609   0.83531    0.019
 4166.00    0.82795   0.82265    0.019
 4167.00    0.58760   0.81338    0.019
 4168.00    0.56079   0.81094    0.019
 4169.00    0.58877   0.81416    0.019
 4170.00    0.69699   0.81929    0.019
 4171.00    0.86094   0.82396    0.019
 4172.00    1.09666   0.82794    0.019
 4173.00    1.13911   0.83196    0.019
 4174.00    0.96225   0.83618    0.019
 4175.00    0.90462   0.83957    0.019
 4176.00    0.96632   0.84152    0.019
 4177.00    0.91819   0.84309    0.019
 4178.00    0.77312   0.84429    0.019
 4179.00    0.75933   0.84353    0.019
 4180.00    0.84764   0.84060    0.019
 4181.00    0.84172   0.83683    0.019
 4182.00    0.77137   0.83491    0.019
 4183.00    0.73602   0.83725    0.019
 4184.00    0.72165   0.84333    0.019
 4185.00    0.71229   0.85065    0.019
 4186.00    0.70554   0.85679    0.019
 4187.00    0.99307   0.85994    0.019
 4188.00    1.41408   0.85801    0.019
 4189.00    1.34824   0.84961    0.019
 4190.00    1.09244   0.83644    0.019
 4191.00    0.80126   0.82287    0.019
 4192.00    0.49833   0.81219    0.019
 4193.00    0.51315   0.80570    0.019
 4194.00    0.61652   0.80409    0.019
 4195.00    0.71681   0.80636    0.019
 4196.00    0.81638   0.81075    0.019
 4197.00    0.62330   0.81738    0.019
 4198.00    0.37644   0.82621    0.019
 4199.00    0.42424   0.83577    0.019
 4200.00    0.51370   0.84490    0.019
 4201.00    0.81837   0.85221    0.019
 4202.00    1.14498   0.85657    0.019
 4203.00    0.89125   0.85834    0.019
 4204.00    0.59971   0.85848    0.019
 4205.00    0.72643   0.85777    0.019
 4206.00    0.86542   0.85550    0.019
 4207.00    0.62559   0.84958    0.019
 4208.00    0.40791   0.84042    0.018
 4209.00    0.84081   0.83170    0.019
 4210.00    1.24402   0.82810    0.019
 4211.00    1.21502   0.83265    0.019
 4212.00    1.18857   0.84294    0.019
 4213.00    1.18620   0.85301    0.019
 4214.00    1.14439   0.85796    0.019
 4215.00    0.83144   0.85495    0.018
 4216.00    0.62948   0.84252    0.018
 4217.00    1.01751   0.82110    0.018
 4218.00    1.29562   0.79370    0.018
 4219.00    1.10431   0.76659    0.018
 4220.00    0.95953   0.74831    0.018
 4221.00    0.97865   0.74595    0.018
 4222.00    0.96722   0.76127    0.018
 4223.00    0.86530   0.78705    0.018
 4224.00    0.72931   0.81094    0.018
 4225.00    0.50732   0.82500    0.018
 4226.00    0.48379   0.82784    0.018
 4227.00    0.89149   0.82258    0.018
 4228.00    1.12130   0.81531    0.017
 4229.00    1.01563   0.81023    0.017
 4230.00    0.85199   0.80773    0.017
 4231.00    0.59290   0.80836    0.017
 4232.00    0.45491   0.81218    0.016
 4233.00    0.49175   0.81784    0.016
 4234.00    0.57529   0.82465    0.016
 4235.00    0.71812   0.83228    0.016
 4236.00    0.84104   0.83950    0.016
 4237.00    0.94168   0.84486    0.016
 4238.00    0.99931   0.84722    0.016
 4239.00    1.01450   0.84464    0.016
 4240.00    0.90387   0.83616    0.016
 4241.00    0.68374   0.82379    0.016
 4242.00    0.57931   0.81140    0.017
 4243.00    0.56357   0.80232    0.017
 4244.00    0.60867   0.79762    0.017
 4245.00    0.69476   0.79722    0.017
 4246.00    0.73179   0.79977    0.017
 4247.00    0.73985   0.80251    0.017
 4248.00    0.75904   0.80471    0.017
 4249.00    0.78396   0.80799    0.018
 4250.00    1.02624   0.81225    0.018
 4251.00    1.36549   0.81419    0.017
 4252.00    1.27264   0.81048    0.017
 4253.00    1.01411   0.80269    0.017
 4254.00    0.79894   0.79653    0.017
 4255.00    0.59789   0.79752    0.017
 4256.00    0.65593   0.80751    0.017
 4257.00    0.78468   0.82235    0.017
 4258.00    0.72894   0.83508    0.017
 4259.00    0.63186   0.84127    0.017
 4260.00    0.53449   0.83947    0.017
 4261.00    0.43707   0.82999    0.017
 4262.00    0.59049   0.81498    0.017
 4263.00    0.77823   0.79685    0.018
 4264.00    0.89923   0.77757    0.018
 4265.00    1.01370   0.76018    0.018
 4266.00    0.98799   0.74937    0.018
 4267.00    0.95369   0.74814    0.017
 4268.00    0.85521   0.75503    0.017
 4269.00    0.75583   0.76795    0.017
 4270.00    0.82045   0.78460    0.017
 4271.00    0.88121   0.79995    0.017
 4272.00    0.83991   0.80951    0.017
 4273.00    0.81227   0.81167    0.017
 4274.00    0.97254   0.80801    0.017
 4275.00    1.09732   0.80270    0.018
 4276.00    0.89984   0.79837    0.017
 4277.00    0.71532   0.79527    0.017
 4278.00    0.61706   0.79255    0.018
 4279.00    0.54998   0.78814    0.018
 4280.00    0.64435   0.78112    0.018
 4281.00    0.67146   0.77180    0.018
 4282.00    0.41783   0.76074   -2.000
 4283.00    0.28141   0.75050   -2.000
 4284.00    0.54961   0.74569   -2.000
 4285.00    0.78962   0.74888   -2.000
 4286.00    0.94769   0.75738   -2.000
 4287.00    0.96745   0.76523   -2.000
 4288.00    0.64414   0.76784   -2.000
 4289.00    0.42182   0.76454   -2.000
 4290.00    0.41542   0.75541   -2.000
 4291.00    0.44243   0.74062   -2.000
 4292.00    0.53150   0.72246   -2.000
 4293.00    0.66098   0.70399   -2.000
 4294.00    0.85601   0.68993   -2.000
 4295.00    0.96743   0.68370   -2.000
 4296.00    0.95992   0.68344   -2.000
 4297.00    0.90937   0.68650   -2.000
 4298.00    0.80494   0.69006    0.018
 4299.00    0.80894   0.69013    0.018
 4300.00    0.93255   0.68566    0.018
 4301.00    0.96962   0.67877    0.018
 4302.00    0.92251   0.67346    0.018
 4303.00    0.74209   0.67430    0.018
 4304.00    0.44729   0.68199    0.017
 4305.00    0.32560   0.69395    0.018
 4306.00    0.33472   0.70808    0.018
 4307.00    0.36496   0.72386    0.018
 4308.00    0.40924   0.74170    0.018
 4309.00    0.65002   0.76230    0.018
 4310.00    1.00508   0.78356    0.018
 4311.00    1.02937   0.79951    0.018
 4312.00    0.88604   0.80618    0.017
 4313.00    0.84768   0.80385    0.017
 4314.00    0.85538   0.79354    0.017
 4315.00    0.75739   0.77663    0.017
 4316.00    0.61958   0.75485    0.017
 4317.00    0.57378   0.72937    0.017
 4318.00    0.55739   0.70485    0.017
 4319.00    0.60528   0.68833    0.017
 4320.00    0.67036   0.68502    0.017
 4321.00    0.64514   0.69465    0.017
 4322.00    0.60016   0.70949    0.017
 4323.00    0.58331   0.72076    0.017
 4324.00    0.57137   0.72439    0.017
 4325.00    0.50310   0.72120    0.018
 4326.00    0.42739   0.71336    0.018
 4327.00    0.77616   0.70107    0.018
 4328.00    1.16459   0.68300    0.017
 4329.00    1.16418   0.65694    0.017
 4330.00    1.14153   0.62057    0.000
 4331.00    1.12018   0.57566    0.000
 4332.00    1.09659   0.53055    0.000
 4333.00    0.81233   0.49470    0.000
 4334.00    0.54820   0.47588    0.000
 4335.00    0.76727   0.47996    0.000
 4336.00    0.96898   0.50461    0.000
 4337.00    0.94451   0.53983    0.000
 4338.00    0.92575   0.57750    0.000
 4339.00    0.95682   0.61314    0.000
 4340.00    0.99070   0.64318    0.000
 4341.00    1.04270   0.66647    0.000
 4342.00    1.05215   0.68296    0.000
 4343.00    0.84696   0.69155    0.000
 4344.00    0.65751   0.69191    0.000
 4345.00    0.53231   0.68810    0.000
 4346.00    0.44841   0.68793    0.000
 4347.00    0.50421   0.69624    0.000
 4348.00    0.52911   0.71102    0.000
 4349.00    0.46584   0.72776    0.000
 4350.00    0.46586   0.74295    0.000
 4351.00    0.62018   0.75390    0.017
 4352.00    0.71838   0.76051    0.017
 4353.00    0.69858   0.76585    0.017
 4354.00    0.72015   0.77304    0.017
 4355.00    0.81735   0.78220    0.017
 4356.00    0.89104   0.79130    0.017
 4357.00    0.92717   0.79873    0.017
 4358.00    0.94358   0.80334    0.017
 4359.00    0.93235   0.80372    0.017
 4360.00    0.94640   0.79941    0.017
 4361.00    0.99167   0.79259    0.017
 4362.00    1.02625   0.78670    0.017
 4363.00    1.04920   0.78321    0.017
 4364.00    1.03142   0.78104    0.017
 4365.00    0.97455   0.77847    0.017
 4366.00    0.94745   0.77390    0.017
 4367.00    0.94554   0.76713    0.017
 4368.00    0.89776   0.76115    0.017
 4369.00    0.81581   0.76049    0.017
 4370.00    0.91643   0.76692    0.017
 4371.00    1.13651   0.77730    0.017
 4372.00    1.14963   0.78575    0.017
 4373.00    1.04421   0.78691    0.017
 4374.00    0.87797   0.77802    0.017
 4375.00    0.68138   0.75943    0.017
 4376.00    0.86310   0.73487    0.017
 4377.00    1.20807   0.71241    0.017
 4378.00    1.09980   0.70131    0.017
 4379.00    0.82380   0.70470    0.017
 4380.00    0.60624   0.71763    0.017
 4381.00    0.40700   0.73277    0.017
 4382.00    0.50617   0.74565    0.017
 4383.00    0.68342   0.75497    0.017
 4384.00    0.90105   0.76141    0.017
 4385.00    1.12731   0.76661    0.016
 4386.00    1.09776   0.77091    0.016
 4387.00    1.02495   0.77345    0.016
 4388.00    0.82410   0.77510    0.016
 4389.00    0.60689   0.77847    0.016
 4390.00    0.75559   0.78418    0.016
 4391.00    0.93696   0.78920    0.016
 4392.00    0.95292   0.79027    0.016
 4393.00    0.96008   0.78676    0.016
 4394.00    0.69917   0.78056    0.016
 4395.00    0.43702   0.77427    0.016
 4396.00    0.50006   0.76782    0.016
 4397.00    0.57098   0.75942    0.016
 4398.00    0.81532   0.75084    0.016
 4399.00    1.02604   0.74675    0.016
 4400.00    0.82152   0.74869    0.016
 4401.00    0.65288   0.75526    0.016
 4402.00    0.78607   0.76580    0.016
 4403.00    0.90344   0.77913    0.017
 4404.00    0.92159   0.79169    0.016
 4405.00    0.93894   0.79986    0.016
 4406.00    0.95240   0.80119    0.016
 4407.00    0.91749   0.79429    0.016
 4408.00    0.68947   0.78195    0.016
 4409.00    0.56229   0.77154    0.016
 4410.00    0.76950   0.76874    0.016
 4411.00    0.95104   0.77415    0.016
 4412.00    1.06066   0.78483    0.016
 4413.00    1.11483   0.79547    0.016
 4414.00    1.03612   0.80100    0.016
 4415.00    0.93843   0.80023    0.016
 4416.00    0.80148   0.79613    0.016
 4417.00    0.76890   0.79220    0.016
 4418.00    0.92421   0.78976    0.016
 4419.00    1.05654   0.78859    0.016
 4420.00    1.15269   0.78826    0.016
 4421.00    1.16167   0.78858    0.016
 4422.00    1.05018   0.78886    0.016
 4423.00    0.97482   0.78805    0.016
 4424.00    0.94340   0.78634    0.016
 4425.00    0.87789   0.78390    0.016
 4426.00    0.77581   0.77937    0.016
 4427.00    0.81029   0.77271    0.016
 4428.00    0.97393   0.76690    0.016
 4429.00    1.08340   0.76608    0.016
 4430.00    1.14770   0.77228    0.016
 4431.00    1.03713   0.78328    0.016
 4432.00    0.79817   0.79385    0.016
 4433.00    0.66042   0.79855    0.016
 4434.00    0.58793   0.79511    0.016
 4435.00    0.64199   0.78611    0.016
 4436.00    0.76743   0.77723    0.016
 4437.00    0.92484   0.77393    0.016
 4438.00    1.09796   0.77817    0.016
 4439.00    1.09059   0.78682    0.016
 4440.00    1.00664   0.79503    0.016
 4441.00    1.00652   0.80051    0.016
 4442.00    1.03687   0.80253    0.016
 4443.00    0.97678   0.80089    0.016
 4444.00    0.88887   0.79695    0.016
 4445.00    0.92354   0.79140    0.016
 4446.00    0.98959   0.78309    0.016
 4447.00    0.89943   0.77171    0.016
 4448.00    0.77672   0.75977    0.016
 4449.00    0.74106   0.75095    0.016
 4450.00    0.71970   0.74661    0.016
 4451.00    0.80818   0.74538    0.016
 4452.00    0.91019   0.74560    0.016
 4453.00    0.76702   0.74637    0.016
 4454.00    0.60298   0.74721    0.016
 4455.00    0.73742   0.74950    0.016
 4456.00    0.88658   0.75504    0.016
 4457.00    0.88915   0.76215    0.016
 4458.00    0.88984   0.76785    0.016
 4459.00    0.91959   0.77077    0.016
 4460.00    0.93881   0.77030    0.016
 4461.00    0.74483   0.76667    0.000
 4462.00    0.58077   0.76197    0.000
 4463.00    0.76848   0.75942    0.000
 4464.00    0.93228   0.76109    0.000
 4465.00    0.90222   0.76764    0.000
 4466.00    0.84081   0.77822    0.000
 4467.00    0.58856   0.78985    0.000
 4468.00    0.40996   0.79946    0.000
 4469.00    0.58459   0.80595    0.000
 4470.00    0.71160   0.80873    0.000
 4471.00    0.65258   0.80606    0.000
 4472.00    0.59434   0.79680    0.000
 4473.00    0.53864   0.78249    0.000
 4474.00    0.56957   0.76809    0.000
 4475.00    0.83886   0.76035    0.000
 4476.00    1.00841   0.76306    0.000
 4477.00    0.94293   0.77414    0.000
 4478.00    0.86496   0.78804    0.000
 4479.00    0.76157   0.79885    0.000
 4480.00    0.71736   0.80242    0.000
 4481.00    0.77809   0.79830    0.000
 4482.00    0.84076   0.79020    0.015
 4483.00    0.90644   0.78314    0.015
 4484.00    0.98234   0.78003    0.015
 4485.00    1.07215   0.78030    0.016
 4486.00    1.09573   0.78112    0.016
 4487.00    1.03989   0.78031    0.016
 4488.00    0.93770   0.77864    0.016
 4489.00    0.78652   0.77834    0.016
 4490.00    0.73052   0.78092    0.016
 4491.00    0.76327   0.78621    0.015
 4492.00    0.75213   0.79211    0.015
 4493.00    0.70490   0.79636    0.015
 4494.00    0.70148   0.79903    0.015
 4495.00    0.72977   0.80281    0.015
 4496.00    0.84144   0.80920    0.015
 4497.00    1.00607   0.81654    0.015
 4498.00    0.93793   0.82234    0.015
 4499.00    0.74051   0.82483    0.016
 4500.00    0.66192   0.82363    0.016
 4501.00    0.64074   0.82053    0.015
 4502.00    0.62257   0.81786    0.015
 4503.00    0.60567   0.81622    0.015
 4504.00    0.76609   0.81436    0.015
 4505.00    0.98980   0.81094    0.016
 4506.00    0.91780   0.80588    0.016
 4507.00    0.75665   0.80001    0.015
 4508.00    0.74237   0.79487    0.015
 4509.00    0.76488   0.79168    0.015
 4510.00    0.76196   0.79015    0.015
 4511.00    0.75387   0.78986    0.015
 4512.00    0.75729   0.79078    0.015
 4513.00    0.76255   0.79188    0.015
 4514.00    0.79154   0.79150    0.015
 4515.00    0.82336   0.78850    0.015
 4516.00    0.87259   0.78314    0.015
 4517.00    0.92324   0.77616    0.015
 4518.00    1.01203   0.76755    0.015
 4519.00    1.10256   0.75776    0.015
 4520.00    0.86638   0.74792    0.015
 4521.00    0.62929   0.73927    0.015
 4522.00    0.54999   0.73359    0.015
 4523.00    0.47707   0.73192    0.015
 4524.00    0.52372   0.73336    0.015
 4525.00    0.58703   0.73556    0.015
 4526.00    0.83703   0.73624    0.015
 4527.00    1.06671   0.73592    0.015
 4528.00    1.13738   0.73788    0.015
 4529.00    1.18068   0.74487    0.015
 4530.00    1.06214   0.75635    0.015
 4531.00    0.95620   0.76846    0.015
 4532.00    0.90919   0.77720    0.015
 4533.00    0.83815   0.78090    0.015
 4534.00    0.67525   0.78068    0.015
 4535.00    0.56232   0.77904    0.015
 4536.00    0.60869   0.77715    0.015
 4537.00    0.66649   0.77478    0.015
 4538.00    0.75516   0.77191    0.015
 4539.00    0.79970   0.76833    0.015
 4540.00    0.74200   0.76340    0.015
 4541.00    0.72048   0.75716    0.015
 4542.00    0.77150   0.75128    0.015
 4543.00    0.84409   0.74786    0.015
 4544.00    0.95433   0.74694    0.015
 4545.00    0.99603   0.74699    0.015
 4546.00    0.93297   0.74708    0.015
 4547.00    0.87854   0.74702    0.015
 4548.00    0.83568   0.74785    0.015
 4549.00    0.85811   0.75178    0.015
 4550.00    0.95771   0.75928    0.000
 4551.00    0.97445   0.76861    0.000
 4552.00    0.90483   0.77752    0.000
 4553.00    0.80995   0.78395    0.000
 4554.00    0.69187   0.78631    0.000
 4555.00    0.64638   0.78408    0.000
 4556.00    0.65974   0.77837    0.000
 4557.00    0.70301   0.77198    0.000
 4558.00    0.76761   0.76813    0.000
 4559.00    0.80786   0.76868    0.000
 4560.00    0.83287   0.77304    0.000
 4561.00    0.85740   0.77838    0.000
 4562.00    0.88167   0.78135    0.000
 4563.00    0.93301   0.78002    0.000
 4564.00    0.99721   0.77583    0.000
 4565.00    0.86473   0.77268    0.000
 4566.00    0.65159   0.77256    0.000
 4567.00    0.71827   0.77473    0.000
 4568.00    0.88301   0.77783    0.000
 4569.00    0.93832   0.77989    0.000
 4570.00    0.96130   0.77875    0.000
 4571.00    0.94672   0.77396    0.000
 4572.00    0.92295   0.76677    0.000
 4573.00    0.88331   0.75905    0.000
 4574.00    0.84053   0.75259    0.000
 4575.00    0.95775   0.74816    0.000
 4576.00    1.09974   0.74587    0.000
 4577.00    1.00401   0.74562    0.000
 4578.00    0.88108   0.74707    0.000
 4579.00    0.82254   0.75014    0.000
 4580.00    0.76896   0.75476    0.000
 4581.00    0.72630   0.75996    0.000
 4582.00    0.68409   0.76393    0.000
 4583.00    0.57978   0.76520    0.000
 4584.00    0.48087   0.76352    0.000
 4585.00    0.63669   0.76013    0.000
 4586.00    0.78244   0.75664    0.000
 4587.00    0.75202   0.75406    0.000
 4588.00    0.73707   0.75309    0.000
 4589.00    0.88749   0.75367    0.000
 4590.00    1.02664   0.75497    0.000
 4591.00    1.08064   0.75614    0.000
 4592.00    1.11107   0.75638    0.000
 4593.00    1.00602   0.75571    0.000
 4594.00    0.95410   0.75493    0.000
 4595.00    1.14493   0.75464    0.000
 4596.00    1.25803   0.75510    0.000
 4597.00    1.08039   0.75652    0.000
 4598.00    0.90372   0.75908    0.000
 4599.00    0.73006   0.76284    0.000
 4600.00    0.65707   0.76795    0.000
 4601.00    0.85129   0.77374    0.000
 4602.00    1.01068   0.77862    0.000
 4603.00    1.09073   0.78112    0.000
 4604.00    1.06194   0.78091    0.000
 4605.00    0.81837   0.77857    0.000
 4606.00    0.68406   0.77569    0.000
 4607.00    0.73760   0.77362    0.000
 4608.00    0.69624   0.77241    0.000
 4609.00    0.51200   0.77174    0.000
 4610.00    0.49207   0.77087    0.000
 4611.00    0.68957   0.76938    0.000
 4612.00    0.76517   0.76826    0.000
 4613.00    0.69870   0.76865    0.000
 4614.00    0.72494   0.77010    0.000
 4615.00    0.84647   0.77203    0.000
 4616.00    0.87130   0.77387    0.000
 4617.00    0.80849   0.77443    0.000
 4618.00    0.78308   0.77342    0.000
 4619.00    0.78755   0.77166    0.000
 4620.00    0.93227   0.76943    0.000
 4621.00    1.17557   0.76689    0.000
 4622.00    1.10639   0.76515    0.000
 4623.00    0.84457   0.76462    0.000
 4624.00    0.75668   0.76418    0.000
 4625.00    0.76245   0.76298    0.000
 4626.00    0.79000   0.76111    0.000
 4627.00    0.82774   0.75845    0.000
 4628.00    0.81985   0.75488    0.000
 4629.00    0.79357   0.75091    0.000
 4630.00    0.84165   0.74730    0.000
 4631.00    0.91530   0.74441    0.000
 4632.00    0.95307   0.74274    0.000
 4633.00    0.98044   0.74299    0.000
 4634.00    0.94976   0.74489    0.000
 4635.00    0.90517   0.74696    0.000
 4636.00    0.92624   0.74745    0.000
 4637.00    0.95999   0.74489    0.000
 4638.00    0.81049   0.73897    0.000
 4639.00    0.63350   0.73155    0.000
 4640.00    0.58280   0.72559    0.000
 4641.00    0.54599   0.72315    0.000
 4642.00    0.84496   0.72483    0.000
 4643.00    1.16835   0.72969    0.000
 4644.00    0.97061   0.73553    0.000
 4645.00    0.75316   0.73985    0.000
 4646.00    0.80707   0.74116    0.000
 4647.00    0.86221   0.74003    0.000
 4648.00    0.91153   0.73852    0.000
 4649.00    0.95316   0.73901    0.000
 4650.00    0.86904   0.74297    0.000
 4651.00    0.79699   0.75001    0.000
 4652.00    0.84839   0.75764    0.000
 4653.00    0.89350   0.76273    0.000
 4654.00    0.89268   0.76325    0.000
 4655.00    0.90183   0.75905    0.000
 4656.00    0.96677   0.75139    0.000
 4657.00    0.99501   0.74152    0.000
 4658.00    0.85950   0.73014    0.000
 4659.00    0.75324   0.71856    0.000
 4660.00    0.75413   0.70912    0.000
 4661.00    0.74069   0.70411    0.000
 4662.00    0.68325   0.70483    0.000
 4663.00    0.64959   0.71082    0.000
 4664.00    0.67798   0.71952    0.000
 4665.00    0.76709   0.72768    0.000
 4666.00    0.99230   0.73359    0.000
 4667.00    1.08375   0.73746    0.000
 4668.00    0.91543   0.74000    0.000
 4669.00    0.74813   0.74133    0.000
 4670.00    0.58258   0.74093    0.000
 4671.00    0.51308   0.73839    0.000
 4672.00    0.58609   0.73400    0.000
 4673.00    0.63205   0.72915    0.000
 4674.00    0.64274   0.72587    0.000
 4675.00    0.69415   0.72534    0.000
 4676.00    0.79235   0.72717    0.000
 4677.00    0.86758   0.73008    0.000
 4678.00    0.91954   0.73271    0.000
 4679.00    0.87591   0.73413    0.000
 4680.00    0.74684   0.73420    0.000
 4681.00    0.76649   0.73335    0.000
 4682.00    0.90326   0.73211    0.000
 4683.00    0.80407   0.73112    0.000
 4684.00    0.54143   0.73098    0.000
 4685.00    0.57988   0.73196    0.000
 4686.00    0.80119   0.73414    0.000
 4687.00    0.89486   0.73709    0.000
 4688.00    0.92084   0.73939    0.000
 4689.00    0.89683   0.73925    0.000
 4690.00    0.84981   0.73608    0.000
 4691.00    0.89543   0.73064    0.000
 4692.00    0.97776   0.72407    0.000
 4693.00    0.94282   0.71749    0.000
 4694.00    0.86829   0.71210    0.000
 4695.00    0.77189   0.70885    0.000
 4696.00    0.66929   0.70773    0.000
 4697.00    0.54783   0.70803    0.000
 4698.00    0.42197   0.70899    0.000
 4699.00    0.41875   0.70991    0.000
 4700.00    0.43859   0.71009    0.000
 4701.00    0.59877   0.70977    0.000
 4702.00    0.77936   0.71028    0.000
 4703.00    0.81090   0.71235    0.000
 4704.00    0.82668   0.71532    0.000
 4705.00    0.78290   0.71788    0.000
 4706.00    0.73503   0.71935    0.000
 4707.00    0.82457   0.72022    0.000
 4708.00    0.91877   0.72166    0.000
 4709.00    0.86356   0.72484    0.000
 4710.00    0.81199   0.72995    0.000
 4711.00    0.88648   0.73581    0.000
 4712.00    0.94459   0.74058    0.000
 4713.00    0.75142   0.74325    0.000
 4714.00    0.56761   0.74418    0.000
 4715.00    0.47557   0.74419    0.000
 4716.00    0.41520   0.74359    0.000
 4717.00    0.57878   0.74201    0.000
 4718.00    0.70382   0.73861    0.000
 4719.00    0.61918   0.73280    0.000
 4720.00    0.56095   0.72490    0.000
 4721.00    0.61778   0.71628    0.000
 4722.00    0.67773   0.70913    0.000
 4723.00    0.74886   0.70550    0.000
 4724.00    0.79449   0.70581    0.000
 4725.00    0.76336   0.70878    0.000
 4726.00    0.75035   0.71262    0.000
 4727.00    0.78376   0.71580    0.000
 4728.00    0.81030   0.71767    0.000
 4729.00    0.82173   0.71860    0.000
 4730.00    0.84363   0.71920    0.000
 4731.00    0.88557   0.71983    0.000
 4732.00    0.86994   0.72087    0.000
 4733.00    0.75826   0.72238    0.000
 4734.00    0.69636   0.72379    0.000
 4735.00    0.70723   0.72479    0.000
 4736.00    0.67870   0.72590    0.000
 4737.00    0.59953   0.72753    0.000
 4738.00    0.56124   0.72938    0.000
 4739.00    0.56926   0.73088    0.000
 4740.00    0.50894   0.73198    0.000
 4741.00    0.38034   0.73280    0.000
 4742.00    0.34056   0.73288    0.000
 4743.00    0.37905   0.73172    0.000
 4744.00    0.38669   0.72930    0.000
 4745.00    0.37038   0.72580    0.000
 4746.00    0.45597   0.72156    0.000
 4747.00    0.61111   0.71729    0.000
 4748.00    0.70014   0.71395    0.000
 4749.00    0.74962   0.71212    0.000
 4750.00    0.68725   0.71176    0.000
 4751.00    0.56651   0.71207    0.000
 4752.00    0.57306   0.71181    0.000
 4753.00    0.63724   0.70984    0.000
 4754.00    0.70547   0.70565    0.000
 4755.00    0.77528   0.69959    0.000
 4756.00    0.69942   0.69281    0.000
 4757.00    0.57529   0.68709    0.000
 4758.00    0.73279   0.68403    0.000
 4759.00    0.96858   0.68412    0.000
 4760.00    1.02009   0.68685    0.000
 4761.00    1.02944   0.69120    0.014
 4762.00    0.85593   0.69579    0.014
 4763.00    0.64892   0.69940    0.013
 4764.00    0.74386   0.70176    0.013
 4765.00    0.88132   0.70345    0.014
 4766.00    0.80693   0.70528    0.013
 4767.00    0.71105   0.70794    0.013
 4768.00    0.66169   0.71114    0.013
 4769.00    0.61533   0.71361    0.013
 4770.00    0.72250   0.71430    0.013
 4771.00    0.83397   0.71329    0.013
 4772.00    0.77429   0.71120    0.013
 4773.00    0.71066   0.70825    0.013
 4774.00    0.53235   0.70484    0.013
 4775.00    0.37741   0.70162    0.013
 4776.00    0.56018   0.69875    0.013
 4777.00    0.73281   0.69612    0.013
 4778.00    0.81016   0.69390    0.013
 4779.00    0.84934   0.69232    0.013
 4780.00    0.62715   0.69127    0.013
 4781.00    0.46493   0.69075    0.013
 4782.00    0.62044   0.69149    0.013
 4783.00    0.74687   0.69388    0.013
 4784.00    0.74944   0.69775    0.013
 4785.00    0.76053   0.70301    0.013
 4786.00    0.80152   0.70888    0.013
 4787.00    0.80843   0.71393    0.013
 4788.00    0.71461   0.71686    0.013
 4789.00    0.65044   0.71674    0.013
 4790.00    0.66092   0.71357    0.013
 4791.00    0.65757   0.70880    0.013
 4792.00    0.62423   0.70452    0.013
 4793.00    0.63470   0.70220    0.013
 4794.00    0.72763   0.70209    0.013
 4795.00    0.77283   0.70324    0.013
 4796.00    0.73959   0.70406    0.013
 4797.00    0.67487   0.70318    0.013
 4798.00    0.56479   0.70044    0.013
 4799.00    0.55162   0.69702    0.013
 4800.00    0.66125   0.69439    0.013
 4801.00    0.76221   0.69332    0.013
 4802.00    0.85349   0.69351    0.013
 4803.00    0.85972   0.69445    0.013
 4804.00    0.78218   0.69577    0.013
 4805.00    0.73906   0.69707    0.013
 4806.00    0.72585   0.69826    0.013
 4807.00    0.65818   0.69966    0.013
 4808.00    0.54883   0.70147    0.013
 4809.00    0.57170   0.70353    0.013
 4810.00    0.68351   0.70540    0.013
 4811.00    0.73563   0.70646    0.013
 4812.00    0.75256   0.70598    0.013
 4813.00    0.72663   0.70332    0.013
 4814.00    0.67868   0.69853    0.013
 4815.00    0.62906   0.69243    0.013
 4816.00    0.57870   0.68649    0.013
 4817.00    0.58871   0.68212    0.013
 4818.00    0.62182   0.68017    0.013
 4819.00    0.66351   0.68059    0.013
 4820.00    0.70799   0.68181    0.013
 4821.00    0.73875   0.68184    0.013
 4822.00    0.76578   0.68020    0.013
 4823.00    0.71940   0.67776    0.013
 4824.00    0.65662   0.67557    0.013
 4825.00    0.58495   0.67419    0.013
 4826.00    0.51169   0.67366    0.013
 4827.00    0.62920   0.67388    0.013
 4828.00    0.77269   0.67423    0.013
 4829.00    0.77393   0.67351    0.013
 4830.00    0.76136   0.67104    0.013
 4831.00    0.66686   0.66714    0.013
 4832.00    0.56740   0.66252    0.013
 4833.00    0.54516   0.65790    0.013
 4834.00    0.52507   0.65420    0.013
 4835.00    0.52293   0.65203    0.013
 4836.00    0.52290   0.65112    0.013
 4837.00    0.57793   0.65057    0.013
 4838.00    0.63743   0.64952    0.013
 4839.00    0.75813   0.64744    0.013
 4840.00    0.86014   0.64376    0.013
 4841.00    0.79333   0.63851    0.013
 4842.00    0.72373   0.63252    0.013
 4843.00    0.63565   0.62651    0.013
 4844.00    0.57346   0.62013    0.013
 4845.00    0.64492   0.61208    0.013
 4846.00    0.67657   0.60133    0.013
 4847.00    0.54253   0.58804    0.013
 4848.00    0.43480   0.57268    0.000
 4849.00    0.41761   0.55527    0.000
 4850.00    0.45681   0.53551    0.000
 4851.00    0.65954   0.51308    0.000
 4852.00    0.74773   0.48864    0.000
 4853.00    0.55245   0.46548    0.000
 4854.00    0.46454   0.44957    0.000
 4855.00    0.60571   0.44639    0.000
 4856.00    0.72507   0.45769    0.000
 4857.00    0.80400   0.47993    0.000
 4858.00    0.77346   0.50606    0.000
 4859.00    0.56570   0.53014    0.000
 4860.00    0.44747   0.54927    0.000
 4861.00    0.45635   0.56252    0.000
 4862.00    0.42298   0.57036    0.000
 4863.00    0.33683   0.57451    0.000
 4864.00    0.32297   0.57726    0.000
 4865.00    0.38870   0.58103    0.000
 4866.00    0.45695   0.58763    0.000
 4867.00    0.52765   0.59703    0.000
 4868.00    0.60063   0.60735    0.000
 4869.00    0.67558   0.61683    0.000
 4870.00    0.67105   0.62508    0.000
 4871.00    0.60657   0.63221    0.000
 4872.00    0.57835   0.63788    0.000
 4873.00    0.57417   0.64168    0.000
 4874.00    0.59768   0.64323    0.000
 4875.00    0.63727   0.64257    0.013
 4876.00    0.66189   0.64073    0.013
 4877.00    0.67894   0.63867    0.013
 4878.00    0.80576   0.63648    0.013
 4879.00    0.98064   0.63413    0.013
 4880.00    0.85902   0.63191    0.013
 4881.00    0.62595   0.63002    0.013
 4882.00    0.59887   0.62855    0.013
 4883.00    0.63749   0.62826    0.013
 4884.00    0.61743   0.63086    0.013
 4885.00    0.58172   0.63800    0.013
 4886.00    0.63907   0.64987    0.013
 4887.00    0.71671   0.66387    0.013
 4888.00    0.57344   0.67597    0.013
 4889.00    0.39187   0.68366    0.013
 4890.00    0.53810   0.68643    0.013
 4891.00    0.72750   0.68515    0.013
 4892.00    0.69585   0.68138    0.013
 4893.00    0.64366   0.67671    0.013
 4894.00    0.53950   0.67267    0.013
 4895.00    0.43238   0.67040    0.013
 4896.00    0.46471   0.66996    0.013
 4897.00    0.49999   0.67095    0.013
 4898.00    0.50955   0.67288    0.013
 4899.00    0.52538   0.67448    0.013
 4900.00    0.68992   0.67398    0.013
 4901.00    0.83911   0.67060    0.013
 4902.00    0.78999   0.66556    0.013
 4903.00    0.73176   0.66119    0.013
 4904.00    0.59435   0.65949    0.013
 4905.00    0.49424   0.66120    0.013
 4906.00    0.63406   0.66514    0.013
 4907.00    0.72488   0.66862    0.013
 4908.00    0.56926   0.66906    0.013
 4909.00    0.46062   0.66470    0.013
 4910.00    0.54324   0.65497    0.013
 4911.00    0.62430   0.64135    0.013
 4912.00    0.70014   0.62731    0.013
 4913.00    0.73223   0.61697    0.013
 4914.00    0.63982   0.61312    0.013
 4915.00    0.58018   0.61597    0.013
 4916.00    0.60024   0.62360    0.013
 4917.00    0.63584   0.63332    0.013
 4918.00    0.70402   0.64367    0.013
 4919.00    0.69003   0.65440    0.013
 4920.00    0.52612   0.66472    0.013
 4921.00    0.40176   0.67287    0.013
 4922.00    0.34051   0.67765    0.013
 4923.00    0.30694   0.67864    0.013
 4924.00    0.31210   0.67582    0.013
 4925.00    0.29957   0.67018    0.013
 4926.00    0.26527   0.66331    0.013
 4927.00    0.25010   0.65674    0.013
 4928.00    0.25570   0.65181    0.013
 4929.00    0.31977   0.64855    0.013
 4930.00    0.43986   0.64575    0.013
 4931.00    0.53347   0.64360    0.013
 4932.00    0.60472   0.64397    0.013
 4933.00    0.67041   0.64824    0.013
 4934.00    0.73196   0.65579    0.013
 4935.00    0.75570   0.66397    0.013
 4936.00    0.75475   0.67031    0.013
 4937.00    0.70524   0.67434    0.013
 4938.00    0.62797   0.67650    0.013
 4939.00    0.58287   0.67751    0.013
 4940.00    0.55379   0.67861    0.000
 4941.00    0.64993   0.68037    0.000
 4942.00    0.79999   0.68203    0.000
 4943.00    0.73808   0.68259    0.000
 4944.00    0.59791   0.68141    0.000
 4945.00    0.61551   0.67790    0.000
 4946.00    0.68245   0.67149    0.000
 4947.00    0.67206   0.66231    0.000
 4948.00    0.64149   0.65125    0.000
 4949.00    0.65473   0.64011    0.000
 4950.00    0.67731   0.63159    0.000
 4951.00    0.78621   0.62876    0.000
 4952.00    0.90966   0.63320    0.000
 4953.00    0.78699   0.64229    0.000
 4954.00    0.63301   0.65091    0.000
 4955.00    0.67423   0.65588    0.000
 4956.00    0.73276   0.65678    0.000
 4957.00    0.71237   0.65451    0.000
 4958.00    0.68780   0.65037    0.000
 4959.00    0.64236   0.64606    0.000
 4960.00    0.59732   0.64325    0.000
 4961.00    0.61553   0.64261    0.000
 4962.00    0.62754   0.64396    0.000
 4963.00    0.50480   0.64696    0.000
 4964.00    0.39661   0.65096    0.000
 4965.00    0.46700   0.65515    0.000
 4966.00    0.53813   0.65861    0.000
 4967.00    0.61546   0.66050    0.000
 4968.00    0.67486   0.66025    0.000
 4969.00    0.62226   0.65756    0.000
 4970.00    0.59472   0.65255    0.000
 4971.00    0.69000   0.64561    0.000
 4972.00    0.74180   0.63721    0.000
 4973.00    0.62056   0.62806    0.000
 4974.00    0.53362   0.61890    0.000
 4975.00    0.56016   0.61104    0.000
 4976.00    0.60477   0.60661    0.000
 4977.00    0.69986   0.60734    0.000
 4978.00    0.73124   0.61282    0.000
 4979.00    0.61027   0.62086    0.000
 4980.00    0.54113   0.62882    0.000
 4981.00    0.57905   0.63452    0.000
 4982.00    0.62203   0.63707    0.000
 4983.00    0.67411   0.63732    0.000
 4984.00    0.66608   0.63685    0.000
 4985.00    0.56361   0.63694    0.000
 4986.00    0.49553   0.63783    0.000
 4987.00    0.47487   0.63896    0.000
 4988.00    0.46827   0.63982    0.000
 4989.00    0.47875   0.63956    0.000
 4990.00    0.57194   0.63727    0.000
 4991.00    0.75365   0.63277    0.000
 4992.00    0.74195   0.62673    0.000
 4993.00    0.54762   0.62046    0.000
 4994.00    0.49756   0.61529    0.000
 4995.00    0.56760   0.61162    0.000
 4996.00    0.66905   0.60892    0.000
 4997.00    0.79351   0.60655    0.000
 4998.00    0.78718   0.60452    0.000
 4999.00    0.69667   0.60392    0.000
 5000.00    0.60941   0.60587    0.000
 5001.00    0.52397   0.60964    0.000
 5002.00    0.55804   0.61264    0.000
 5003.00    0.65065   0.61254    0.000
 5004.00    0.62481   0.60875    0.000
 5005.00    0.54880   0.60242    0.000
 5006.00    0.59467   0.59580    0.000
 5007.00    0.68472   0.59100    0.000
 5008.00    0.69365   0.58898    0.000
 5009.00    0.67769   0.58935    0.000
 5010.00    0.66542   0.59094    0.000
 5011.00    0.65409   0.59315    0.000
 5012.00    0.53172   0.59613    0.000
 5013.00    0.38628   0.59968    0.000
 5014.00    0.52474   0.60312    0.000
 5015.00    0.70968   0.60618    0.000
 5016.00    0.62477   0.60925    0.000
 5017.00    0.50674   0.61220    0.000
 5018.00    0.51468   0.61434    0.000
 5019.00    0.53326   0.61555    0.000
 5020.00    0.58207   0.61641    0.000
 5021.00    0.63235   0.61818    0.000
 5022.00    0.69949   0.62155    0.000
 5023.00    0.76526   0.62573    0.000
 5024.00    0.73167   0.62951    0.000
 5025.00    0.69758   0.63181    0.000
 5026.00    0.65327   0.63143    0.000
 5027.00    0.60898   0.62764    0.000
 5028.00    0.56490   0.62084    0.000
 5029.00    0.52842   0.61263    0.013
 5030.00    0.55328   0.60442    0.013
 5031.00    0.58421   0.59617    0.012
 5032.00    0.65195   0.58826    0.012
 5033.00    0.68525   0.58261    0.013
 5034.00    0.55384   0.58193    0.012
 5035.00    0.46938   0.58792    0.012
 5036.00    0.56777   0.59892    0.012
 5037.00    0.64255   0.61079    0.012
 5038.00    0.64072   0.62002    0.012
 5039.00    0.64299   0.62438    0.012
 5040.00    0.65650   0.62322    0.012
 5041.00    0.66181   0.61818    0.012
 5042.00    0.64780   0.61230    0.012
 5043.00    0.61041   0.60826    0.012
 5044.00    0.52551   0.60726    0.012
 5045.00    0.44994   0.60939    0.012
 5046.00    0.39089   0.61383    0.012
 5047.00    0.37622   0.61906    0.012
 5048.00    0.43026   0.62378    0.012
 5049.00    0.47389   0.62763    0.012
 5050.00    0.50337   0.63078    0.012
 5051.00    0.50612   0.63332    0.012
 5052.00    0.47689   0.63497    0.012
 5053.00    0.48835   0.63539    0.012
 5054.00    0.54276   0.63396    0.012
 5055.00    0.53005   0.63005    0.012
 5056.00    0.45487   0.62379    0.012
 5057.00    0.46259   0.61654    0.012
 5058.00    0.53835   0.61054    0.012
 5059.00    0.55635   0.60717    0.012
 5060.00    0.53263   0.60605    0.012
 5061.00    0.52758   0.60633    0.012
 5062.00    0.53439   0.60734    0.012
 5063.00    0.50672   0.60819    0.012
 5064.00    0.45995   0.60821    0.012
 5065.00    0.40171   0.60777    0.012
 5066.00    0.33794   0.60755    0.012
 5067.00    0.42826   0.60727    0.012
 5068.00    0.58274   0.60621    0.012
 5069.00    0.61424   0.60386    0.012
 5070.00    0.60196   0.59973    0.012
 5071.00    0.56372   0.59382    0.012
 5072.00    0.51766   0.58763    0.012
 5073.00    0.44842   0.58358    0.012
 5074.00    0.37337   0.58297    0.012
 5075.00    0.34194   0.58541    0.012
 5076.00    0.31933   0.58995    0.012
 5077.00    0.45503   0.59559    0.012
 5078.00    0.61588   0.60115    0.012
 5079.00    0.64085   0.60570    0.012
 5080.00    0.64975   0.60905    0.012
 5081.00    0.63453   0.61157    0.012
 5082.00    0.61738   0.61368    0.012
 5083.00    0.61102   0.61566    0.012
 5084.00    0.60516   0.61764    0.012
 5085.00    0.57157   0.61914    0.012
 5086.00    0.53906   0.61912    0.011
 5087.00    0.57630   0.61662    0.012
 5088.00    0.61403   0.61153    0.012
 5089.00    0.66097   0.60468    0.012
 5090.00    0.69628   0.59764    0.012
 5091.00    0.60199   0.59225    0.012
 5092.00    0.51657   0.59014    0.012
 5093.00    0.50027   0.59143    0.012
 5094.00    0.48156   0.59459    0.012
 5095.00    0.44869   0.59758    0.012
 5096.00    0.43765   0.59899    0.012
 5097.00    0.52846   0.59842    0.012
 5098.00    0.60495   0.59615    0.012
 5099.00    0.62687   0.59295    0.012
 5100.00    0.64204   0.59003    0.012
 5101.00    0.63576   0.58840    0.012
 5102.00    0.58736   0.58845    0.012
 5103.00    0.42542   0.59047    0.012
 5104.00    0.31566   0.59416    0.012
 5105.00    0.32655   0.59860    0.012
 5106.00    0.31147   0.60313    0.012
 5107.00    0.24440   0.60730    0.012
 5108.00    0.26954   0.61082    0.012
 5109.00    0.45532   0.61347    0.012
 5110.00    0.54712   0.61467    0.012
 5111.00    0.49558   0.61373    0.012
 5112.00    0.50078   0.61033    0.012
 5113.00    0.58202   0.60469    0.012
 5114.00    0.56187   0.59755    0.013
 5115.00    0.42208   0.58989    0.013
 5116.00    0.34609   0.58308    0.013
 5117.00    0.33647   0.57827    0.013
 5118.00    0.36781   0.57564    0.012
 5119.00    0.43675   0.57474    0.012
 5120.00    0.55919   0.57505    0.012
 5121.00    0.72492   0.57622    0.012
 5122.00    0.73813   0.57825    0.012
 5123.00    0.64277   0.58114    0.012
 5124.00    0.63631   0.58447    0.012
 5125.00    0.68539   0.58770    0.012
 5126.00    0.58434   0.59041    0.012
 5127.00    0.40133   0.59198    0.012
 5128.00    0.41892   0.59156    0.012
 5129.00    0.53166   0.58894    0.012
 5130.00    0.54073   0.58486    0.012
 5131.00    0.50738   0.58053    0.012
 5132.00    0.62969   0.57727    0.012
 5133.00    0.80642   0.57526    0.012
 5134.00    0.76798   0.57403    0.012
 5135.00    0.66611   0.57362    0.012
 5136.00    0.61255   0.57384    0.012
 5137.00    0.57078   0.57404    0.012
 5138.00    0.57912   0.57401    0.012
 5139.00    0.59736   0.57391    0.012
 5140.00    0.55747   0.57391    0.012
 5141.00    0.50861   0.57389    0.012
 5142.00    0.60835   0.57342    0.011
 5143.00    0.72502   0.57237    0.011
 5144.00    0.62707   0.57115    0.012
 5145.00    0.51274   0.57055    0.012
 5146.00    0.50462   0.57153    0.012
 5147.00    0.50086   0.57474    0.012
 5148.00    0.56053   0.57999    0.011
 5149.00    0.61691   0.58619    0.011
 5150.00    0.51271   0.59190    0.011
 5151.00    0.41670   0.59592    0.011
 5152.00    0.46270   0.59749    0.011
 5153.00    0.51054   0.59615    0.012
 5154.00    0.57797   0.59174    0.012
 5155.00    0.64128   0.58402    0.012
 5156.00    0.67355   0.57239    0.012
 5157.00    0.68433   0.55657    0.012
 5158.00    0.57205   0.53790    0.012
 5159.00    0.46718   0.51952    0.012
 5160.00    0.39613   0.50507    0.012
 5161.00    0.37154   0.49626    0.012
 5162.00    0.52031   0.49200    0.012
 5163.00    0.62661   0.49019    0.012
 5164.00    0.60042   0.49063    0.012
 5165.00    0.57082   0.49495    0.012
 5166.00    0.53225   0.50429    0.012
 5167.00    0.50216   0.51786    0.012
 5168.00    0.49139   0.53322    0.012
 5169.00    0.44280   0.54702    0.012
 5170.00    0.31976   0.55615    0.012
 5171.00    0.31247   0.55879    0.015
 5172.00    0.50383   0.55446    0.039
 5173.00    0.63832   0.54380   -1.000
 5174.00    0.68735   0.52920   -1.000
 5175.00    0.65351   0.51553   -1.000
 5176.00    0.51021   0.50814   -1.000
 5177.00    0.44822   0.50954   -1.000
 5178.00    0.48080   0.51878   -1.000
 5179.00    0.46931   0.53222   -1.000
 5180.00    0.41261   0.54560   -1.000
 5181.00    0.42585   0.55543    0.044
 5182.00    0.50237   0.55987    0.015
 5183.00    0.51304   0.55959    0.012
 5184.00    0.47119   0.55703    0.012
 5185.00    0.37407   0.55453    0.012
 5186.00    0.23817   0.55356    0.011
 5187.00    0.18711   0.55494    0.011
 5188.00    0.18825   0.55852    0.012
 5189.00    0.22240   0.56345    0.012
 5190.00    0.27428   0.56877    0.000
 5191.00    0.30040   0.57342    0.000
 5192.00    0.31450   0.57632    0.000
 5193.00    0.44482   0.57660    0.000
 5194.00    0.62190   0.57371    0.000
 5195.00    0.69281   0.56758    0.000
 5196.00    0.72728   0.55898    0.000
 5197.00    0.59156   0.54953    0.000
 5198.00    0.40668   0.54093    0.000
 5199.00    0.36916   0.53466    0.000
 5200.00    0.36683   0.53207    0.000
 5201.00    0.45725   0.53384    0.000
 5202.00    0.56553   0.53979    0.000
 5203.00    0.46368   0.54879    0.000
 5204.00    0.33041   0.55883    0.000
 5205.00    0.37145   0.56753    0.000
 5206.00    0.43158   0.57322    0.000
 5207.00    0.44978   0.57577    0.000
 5208.00    0.46495   0.57653    0.000
 5209.00    0.46174   0.57730    0.000
 5210.00    0.45784   0.57938    0.000
 5211.00    0.53724   0.58281    0.011
 5212.00    0.61148   0.58644    0.011
 5213.00    0.48348   0.58846    0.011
 5214.00    0.36458   0.58721    0.011
 5215.00    0.39327   0.58186    0.011
 5216.00    0.42036   0.57277    0.011
 5217.00    0.43124   0.56184    0.011
 5218.00    0.44716   0.55224    0.011
 5219.00    0.49976   0.54691    0.011
 5220.00    0.54655   0.54717    0.012
 5221.00    0.56099   0.55224    0.012
 5222.00    0.54702   0.55940    0.012
 5223.00    0.40670   0.56555    0.012
 5224.00    0.31713   0.56906    0.012
 5225.00    0.41298   0.57023    0.012
 5226.00    0.46039   0.57081    0.012
 5227.00    0.35952   0.57255    0.012
 5228.00    0.33077   0.57621    0.012
 5229.00    0.48965   0.58122    0.012
 5230.00    0.58805   0.58637    0.012
 5231.00    0.55121   0.59051    0.012
 5232.00    0.51503   0.59310    0.012
 5233.00    0.48014   0.59429    0.012
 5234.00    0.44894   0.59458    0.012
 5235.00    0.42399   0.59417    0.012
 5236.00    0.40213   0.59274    0.012
 5237.00    0.38485   0.58997    0.012
 5238.00    0.38349   0.58588    0.012
 5239.00    0.40288   0.58084    0.012
 5240.00    0.45525   0.57565    0.012
 5241.00    0.54545   0.57137    0.012
 5242.00    0.57353   0.56871    0.012
 5243.00    0.53877   0.56778    0.012
 5244.00    0.47444   0.56824    0.012
 5245.00    0.38373   0.56973    0.012
 5246.00    0.41083   0.57212    0.012
 5247.00    0.53054   0.57543    0.012
 5248.00    0.52047   0.57956    0.012
 5249.00    0.42064   0.58393    0.012
 5250.00    0.32841   0.58720    0.012
 5251.00    0.24078   0.58765    0.012
 5252.00    0.28066   0.58389    0.012
 5253.00    0.38801   0.57565    0.013
 5254.00    0.45832   0.56392    0.013
 5255.00    0.51162   0.55069    0.013
 5256.00    0.61935   0.53830    0.013
 5257.00    0.74859   0.52852    0.013
 5258.00    0.71364   0.52173    0.012
 5259.00    0.62338   0.51737    0.012
 5260.00    0.66314   0.51481    0.012
 5261.00    0.73972   0.51392    0.012
 5262.00    0.62305   0.51523    0.012
 5263.00    0.46127   0.51950    0.012
 5264.00    0.47462   0.52660    0.012
 5265.00    0.52080   0.53532    0.012
 5266.00    0.43975   0.54422    0.012
 5267.00    0.34028   0.55250    0.012
 5268.00    0.31636   0.56010    0.012
 5269.00    0.30038   0.56709    0.012
 5270.00    0.37070   0.57295    0.012
 5271.00    0.44689   0.57657    0.012
 5272.00    0.47672   0.57714    0.012
 5273.00    0.50499   0.57497    0.012
 5274.00    0.38905   0.57173    0.012
 5275.00    0.27770   0.56961    0.012
 5276.00    0.31849   0.57026    0.012
 5277.00    0.36075   0.57416    0.012
 5278.00    0.42552   0.58039    0.012
 5279.00    0.48232   0.58723    0.012
 5280.00    0.46131   0.59308    0.012
 5281.00    0.43947   0.59706    0.012
 5282.00    0.41172   0.59907    0.012
 5283.00    0.40812   0.59937    0.011
 5284.00    0.53539   0.59811    0.012
 5285.00    0.61886   0.59514    0.012
 5286.00    0.51198   0.59024    0.012
 5287.00    0.42285   0.58349    0.012
 5288.00    0.39725   0.57559    0.012
 5289.00    0.40503   0.56788    0.012
 5290.00    0.51309   0.56203    0.012
 5291.00    0.60257   0.55937    0.012
 5292.00    0.64454   0.56023    0.012
 5293.00    0.66562   0.56399    0.012
 5294.00    0.64075   0.56956    0.012
 5295.00    0.60138   0.57580    0.012
 5296.00    0.53435   0.58178    0.012
 5297.00    0.49043   0.58672    0.012
 5298.00    0.48498   0.59020    0.012
 5299.00    0.47509   0.59229    0.012
 5300.00    0.45872   0.59347    0.012
 5301.00    0.49044   0.59422    0.012
 5302.00    0.58387   0.59468    0.012
 5303.00    0.54571   0.59460    0.012
 5304.00    0.35877   0.59363    0.012
 5305.00    0.29423   0.59161    0.012
 5306.00    0.35177   0.58874    0.012
 5307.00    0.44283   0.58549    0.012
 5308.00    0.56337   0.58249    0.012
 5309.00    0.53742   0.58030    0.012
 5310.00    0.39794   0.57913    0.012
 5311.00    0.43271   0.57861    0.012
 5312.00    0.58620   0.57798    0.012
 5313.00    0.62096   0.57641    0.012
 5314.00    0.58482   0.57332    0.012
 5315.00    0.53938   0.56849    0.012
 5316.00    0.48908   0.56202    0.012
 5317.00    0.48670   0.55422    0.012
 5318.00    0.50597   0.54568    0.012
 5319.00    0.50250   0.53762    0.012
 5320.00    0.49021   0.53192    0.012
 5321.00    0.48935   0.53055    0.012
 5322.00    0.49226   0.53435    0.012
 5323.00    0.56678   0.54230    0.012
 5324.00    0.66115   0.55208    0.012
 5325.00    0.63330   0.56125    0.012
 5326.00    0.57758   0.56823    0.012
 5327.00    0.48046   0.57240    0.012
 5328.00    0.37578   0.57372    0.011
 5329.00    0.46007   0.57250    0.011
 5330.00    0.57086   0.56931    0.011
 5331.00    0.52033   0.56515    0.011
 5332.00    0.45353   0.56140    0.011
 5333.00    0.48981   0.55930    0.011
 5334.00    0.53270   0.55941    0.011
 5335.00    0.58373   0.56124    0.011
 5336.00    0.63455   0.56362    0.011
 5337.00    0.50734   0.56541    0.011
 5338.00    0.38487   0.56609    0.011
 5339.00    0.39809   0.56593    0.011
 5340.00    0.40836   0.56573    0.011
 5341.00    0.37625   0.56639    0.011
 5342.00    0.35189   0.56847    0.011
 5343.00    0.39996   0.57206    0.011
 5344.00    0.45316   0.57672    0.011
 5345.00    0.54127   0.58178    0.011
 5346.00    0.60773   0.58660    0.011
 5347.00    0.55985   0.59074    0.011
 5348.00    0.52153   0.59387    0.011
 5349.00    0.52383   0.59574    0.011
 5350.00    0.51533   0.59610    0.012
 5351.00    0.46900   0.59478    0.012
 5352.00    0.44389   0.59182    0.012
 5353.00    0.48131   0.58750    0.012
 5354.00    0.52084   0.58237    0.012
 5355.00    0.56568   0.57713    0.012
 5356.00    0.56256   0.57230    0.012
 5357.00    0.45562   0.56809    0.012
 5358.00    0.39675   0.56425    0.012
 5359.00    0.42818   0.56024    0.012
 5360.00    0.43822   0.55564    0.012
 5361.00    0.41318   0.55066    0.012
 5362.00    0.42308   0.54637    0.012
 5363.00    0.48320   0.54442    0.012
 5364.00    0.52148   0.54609    0.012
 5365.00    0.53213   0.55149    0.012
 5366.00    0.58229   0.55926    0.012
 5367.00    0.67650   0.56726    0.012
 5368.00    0.69820   0.57363   -2.000
 5369.00    0.64862   0.57741   -2.000
 5370.00    0.49944   0.57865   -2.000
 5371.00    0.26391   0.57795   -2.000
 5372.00    0.12937   0.57609   -2.000
 5373.00    0.07199   0.57380   -2.000
 5374.00    0.16403   0.57177   -2.000
 5375.00    0.35639   0.57055   -2.000
 5376.00    0.57177   0.57032   -2.000
 5377.00    0.80068   0.57081   -2.000
 5378.00    0.91232   0.57135   -2.000
 5379.00    0.96384   0.57117   -2.000
 5380.00    0.88856   0.56978   -2.000
 5381.00    0.75696   0.56716   -2.000
 5382.00    0.70381   0.56372   -2.000
 5383.00    0.68062   0.56000    0.012
 5384.00    0.69924   0.55637    0.011
 5385.00    0.73142   0.55292    0.011
 5386.00    0.71567   0.54955    0.011
 5387.00    0.68691   0.54631    0.011
 5388.00    0.63169   0.54363    0.011
 5389.00    0.57057   0.54219    0.011
 5390.00    0.60310   0.54251    0.011
 5391.00    0.65226   0.54440    0.011
 5392.00    0.54839   0.54676    0.011
 5393.00    0.42375   0.54807    0.011
 5394.00    0.37251   0.54709    0.011
 5395.00    0.32836   0.54351    0.011
 5396.00    0.47763   0.53825    0.011
 5397.00    0.63853   0.53299    0.011
 5398.00    0.50191   0.52942    0.011
 5399.00    0.35873   0.52834    0.011
 5400.00    0.41204   0.52961    0.011
 5401.00    0.46368   0.53254    0.011
 5402.00    0.47244   0.53650    0.011
 5403.00    0.48488   0.54116    0.011
 5404.00    0.54722   0.54625    0.011
 5405.00    0.59351   0.55138    0.011
 5406.00    0.49541   0.55607    0.011
 5407.00    0.41919   0.56003    0.011
 5408.00    0.48753   0.56311    0.011
 5409.00    0.53519   0.56525    0.012
 5410.00    0.47639   0.56633    0.011
 5411.00    0.44209   0.56631    0.011
 5412.00    0.50942   0.56529    0.011
 5413.00    0.53569   0.56361    0.012
 5414.00    0.42094   0.56168    0.012
 5415.00    0.37983   0.55994    0.012
 5416.00    0.55179   0.55871    0.012
 5417.00    0.67593   0.55801    0.012
 5418.00    0.68201   0.55734    0.012
 5419.00    0.65898   0.55591    0.012
 5420.00    0.57399   0.55315    0.012
 5421.00    0.50883   0.54926    0.012
 5422.00    0.48036   0.54507    0.012
 5423.00    0.50468   0.54149    0.012
 5424.00    0.61430   0.53899    0.012
 5425.00    0.67804   0.53765    0.012
 5426.00    0.67675   0.53760    0.012
 5427.00    0.66974   0.53925    0.012
 5428.00    0.65561   0.54299    0.012
 5429.00    0.59191   0.54872    0.012
 5430.00    0.47374   0.55564    0.012
 5431.00    0.47956   0.56245    0.012
 5432.00    0.60558   0.56782    0.011
 5433.00    0.69906   0.57071    0.011
 5434.00    0.76472   0.57052    0.011
 5435.00    0.78712   0.56713    0.011
 5436.00    0.77696   0.56107    0.011
 5437.00    0.71138   0.55364    0.011
 5438.00    0.60913   0.54675    0.011
 5439.00    0.55025   0.54228    0.011
 5440.00    0.51650   0.54118    0.011
 5441.00    0.50718   0.54294    0.011
 5442.00    0.51020   0.54585    0.011
 5443.00    0.47523   0.54788    0.011
 5444.00    0.42365   0.54767    0.011
 5445.00    0.50755   0.54511    0.011
 5446.00    0.64224   0.54131    0.011
 5447.00    0.67158   0.53807    0.011
 5448.00    0.66739   0.53690    0.011
 5449.00    0.62694   0.53828    0.011
 5450.00    0.57686   0.54133    0.011
 5451.00    0.59489   0.54439    0.011
 5452.00    0.62773   0.54603    0.011
 5453.00    0.53344   0.54579    0.011
 5454.00    0.41718   0.54430    0.011
 5455.00    0.40626   0.54277    0.011
 5456.00    0.40915   0.54220    0.011
 5457.00    0.53592   0.54293    0.011
 5458.00    0.67413   0.54458    0.011
 5459.00    0.63626   0.54640    0.011
 5460.00    0.58849   0.54767    0.011
 5461.00    0.57087   0.54793    0.012
 5462.00    0.55340   0.54705    0.012
 5463.00    0.48101   0.54506    0.012
 5464.00    0.41319   0.54211    0.012
 5465.00    0.45262   0.53835    0.011
 5466.00    0.48984   0.53412    0.011
 5467.00    0.49865   0.52997    0.012
 5468.00    0.51170   0.52673    0.012
 5469.00    0.56140   0.52514    0.012
 5470.00    0.59596   0.52541    0.011
 5471.00    0.53348   0.52713    0.011
 5472.00    0.47145   0.52953    0.011
 5473.00    0.41171   0.53208    0.011
 5474.00    0.35863   0.53470    0.011
 5475.00    0.33260   0.53748    0.011
 5476.00    0.30555   0.54027    0.011
 5477.00    0.27503   0.54259    0.011
 5478.00    0.29532   0.54398   -2.000
 5479.00    0.45994   0.54441   -2.000
 5480.00    0.57451   0.54433   -2.000
 5481.00    0.56762   0.54429   -2.000
 5482.00    0.58248   0.54460   -2.000
 5483.00    0.64290   0.54514   -2.000
 5484.00    0.43368   0.54558   -2.000
 5485.00   -0.26658   0.54564   -2.000
 5486.00   -1.24604   0.54522   -2.000
 5487.00   -2.66993   0.54442   -2.000
 5488.00   -2.86153   0.54345   -2.000
 5489.00   -1.33165   0.54252   -2.000
 5490.00    0.26368   0.54170   -2.000
 5491.00    1.93949   0.54089   -2.000
 5492.00    2.87331   0.53988   -2.000
 5493.00    3.00304   0.53856   -2.000
 5494.00    2.63328   0.53703   -2.000
 5495.00    1.78606   0.53548   -2.000
 5496.00    1.08437   0.53413   -2.000
 5497.00    0.50534   0.53310   -2.000
 5498.00    0.32939   0.53250   -2.000
 5499.00    0.45260   0.53235   -2.000
 5500.00    0.51202   0.53245   -2.000
 5501.00    0.52986   0.53236   -2.000
 5502.00    0.56238   0.53160    0.011
 5503.00    0.60329   0.53010    0.011
 5504.00    0.60525   0.52834    0.011
 5505.00    0.58786   0.52721    0.011
 5506.00    0.57504   0.52753    0.011
 5507.00    0.56418   0.52964    0.011
 5508.00    0.56436   0.53326    0.011
 5509.00    0.56860   0.53765    0.011
 5510.00    0.50108   0.54194    0.011
 5511.00    0.41118   0.54540    0.011
 5512.00    0.50106   0.54759    0.011
 5513.00    0.63772   0.54837    0.011
 5514.00    0.56717   0.54782    0.011
 5515.00    0.45261   0.54599    0.011
 5516.00    0.55804   0.54295    0.012
 5517.00    0.70040   0.53892    0.012
 5518.00    0.61693   0.53446    0.012
 5519.00    0.50485   0.53054    0.011
 5520.00    0.50767   0.52816    0.011
 5521.00    0.52063   0.52790    0.011
 5522.00    0.49812   0.52953    0.011
 5523.00    0.47376   0.53206    0.011
 5524.00    0.42951   0.53436    0.011
 5525.00    0.38567   0.53578    0.011
 5526.00    0.40185   0.53634    0.011
 5527.00    0.41648   0.53658    0.011
 5528.00    0.39789   0.53713    0.011
 5529.00    0.38516   0.53829    0.011
 5530.00    0.44380   0.53999    0.011
 5531.00    0.50086   0.54181    0.011
 5532.00    0.54480   0.54323    0.011
 5533.00    0.58381   0.54385    0.011
 5534.00    0.59215   0.54358    0.011
 5535.00    0.59594   0.54271    0.011
 5536.00    0.57753   0.54181    0.011
 5537.00    0.55845   0.54145    0.011
 5538.00    0.53674   0.54197    0.011
 5539.00    0.53675   0.54330    0.011
 5540.00    0.60841   0.54502    0.011
 5541.00    0.64327   0.54654    0.011
 5542.00    0.57546   0.54728    0.011
 5543.00    0.51994   0.54696    0.011
 5544.00    0.49375   0.54565    0.011
 5545.00    0.47721   0.54375    0.011
 5546.00    0.48054   0.54182    0.011
 5547.00    0.47832   0.54032    0.011
 5548.00    0.46614   0.53943    0.011
 5549.00    0.49091   0.53902    0.011
 5550.00    0.57365   0.53877    0.011
 5551.00    0.57846   0.53834    0.011
 5552.00    0.47597   0.53746    0.011
 5553.00    0.44221   0.53604    0.011
 5554.00    0.49174   0.53419    0.011
 5555.00    0.53248   0.53216    0.011
 5556.00    0.56383   0.53021    0.012
 5557.00    0.54864   0.52855    0.012
 5558.00    0.48959   0.52727    0.011
 5559.00    0.53176   0.52636    0.011
 5560.00    0.65804   0.52574    0.012
 5561.00    0.66758   0.52535    0.012
 5562.00    0.59170   0.52512    0.012
 5563.00    0.52092   0.52506    0.012
 5564.00    0.45340   0.52527    0.011
 5565.00    0.46641   0.52587    0.011
 5566.00    0.52466   0.52694    0.011
 5567.00    0.58681   0.52843    0.011
 5568.00    0.65086   0.53011    0.011
 5569.00    0.59962   0.53170    0.011
 5570.00    0.49966   0.53293    0.011
 5571.00    0.46516   0.53358    0.011
 5572.00    0.45435   0.53350    0.011
 5573.00    0.44134   0.53257    0.011
 5574.00    0.42767   0.53068    0.011
 5575.00    0.43913   0.52768    0.011
 5576.00    0.45700   0.52348    0.011
 5577.00    0.50473   0.51823    0.011
 5578.00    0.55865   0.51253    0.011
 5579.00    0.55335   0.50740    0.011
 5580.00    0.53839   0.50394    0.011
 5581.00    0.49426   0.50279    0.011
 5582.00    0.44656   0.50387    0.011
 5583.00    0.50388   0.50645    0.011
 5584.00    0.57001   0.50960    0.011
 5585.00    0.49637   0.51260    0.011
 5586.00    0.41596   0.51509    0.011
 5587.00    0.53024   0.51682    0.011
 5588.00    0.64477   0.51755    0.011
 5589.00    0.60056   0.51707    0.011
 5590.00    0.55597   0.51544    0.011
 5591.00    0.50402   0.51314    0.011
 5592.00    0.46255   0.51102    0.012
 5593.00    0.54283   0.51001    0.012
 5594.00    0.61008   0.51082    0.012
 5595.00    0.57265   0.51374    0.012
 5596.00    0.53916   0.51842    0.012
 5597.00    0.52949   0.52401    0.012
 5598.00    0.51474   0.52943    0.012
 5599.00    0.47573   0.53378    0.012
 5600.00    0.44084   0.53662    0.012
 5601.00    0.42201   0.53786    0.012
 5602.00    0.41700   0.53757    0.012
 5603.00    0.45671   0.53569    0.012
 5604.00    0.52392   0.53214    0.012
 5605.00    0.66648   0.52711    0.012
 5606.00    0.75175   0.52138    0.012
 5607.00    0.70260   0.51624    0.012
 5608.00    0.63724   0.51295    0.012
 5609.00    0.53899   0.51209    0.011
 5610.00    0.45025   0.51330    0.011
 5611.00    0.37831   0.51555    0.011
 5612.00    0.33921   0.51767    0.011
 5613.00    0.35089   0.51883    0.011
 5614.00    0.39755   0.51874    0.011
 5615.00    0.49169   0.51769    0.011
 5616.00    0.54847   0.51643    0.011
 5617.00    0.56062   0.51584    0.011
 5618.00    0.54524   0.51654    0.011
 5619.00    0.50086   0.51856    0.011
 5620.00    0.46535   0.52141    0.011
 5621.00    0.43809   0.52435    0.011
 5622.00    0.40783   0.52668    0.011
 5623.00    0.37511   0.52797    0.010
 5624.00    0.37580   0.52805    0.010
 5625.00    0.40057   0.52701    0.010
 5626.00    0.44849   0.52514    0.011
 5627.00    0.51104   0.52280    0.011
 5628.00    0.54298   0.52043    0.011
 5629.00    0.55799   0.51835    0.011
 5630.00    0.58331   0.51677    0.011
 5631.00    0.61359   0.51571    0.011
 5632.00    0.62170   0.51515    0.011
 5633.00    0.62060   0.51504    0.011
 5634.00    0.59473   0.51536    0.011
 5635.00    0.56007   0.51611    0.011
 5636.00    0.52326   0.51718    0.011
 5637.00    0.48580   0.51842    0.011
 5638.00    0.46636   0.51964    0.011
 5639.00    0.45141   0.52070    0.011
 5640.00    0.49671   0.52155    0.011
 5641.00    0.55419   0.52220    0.011
 5642.00    0.58875   0.52266    0.011
 5643.00    0.61969   0.52283    0.011
 5644.00    0.61378   0.52245    0.011
 5645.00    0.60354   0.52123    0.011
 5646.00    0.52335   0.51895    0.011
 5647.00    0.43758   0.51567    0.011
 5648.00    0.57534   0.51174    0.011
 5649.00    0.72305   0.50782    0.011
 5650.00    0.61177   0.50468    0.011
 5651.00    0.50021   0.50290    0.011
 5652.00    0.51809   0.50265    0.011
 5653.00    0.53839   0.50370    0.011
 5654.00    0.60316   0.50556    0.011
 5655.00    0.65137   0.50777    0.011
 5656.00    0.51612   0.50994    0.011
 5657.00    0.40110   0.51175    0.011
 5658.00    0.44293   0.51301    0.011
 5659.00    0.48081   0.51378    0.010
 5660.00    0.49549   0.51437    0.010
 5661.00    0.50369   0.51522    0.010
 5662.00    0.48169   0.51659    0.010
 5663.00    0.48391   0.51848    0.010
 5664.00    0.57817   0.52059    0.010
 5665.00    0.62257   0.52253    0.010
 5666.00    0.50878   0.52396    0.010
 5667.00    0.43959   0.52474    0.010
 5668.00    0.49035   0.52485    0.010
 5669.00    0.53300   0.52432    0.011
 5670.00    0.55689   0.52316    0.011
 5671.00    0.55354   0.52141    0.011
 5672.00    0.49580   0.51919    0.011
 5673.00    0.39690   0.51675    0.011
 5674.00    0.22643   0.51438    0.011
 5675.00    0.14943   0.51237    0.011
 5676.00    0.21476   0.51082    0.011
 5677.00    0.31763   0.50973    0.011
 5678.00    0.47073   0.50906    0.011
 5679.00    0.53963   0.50897    0.011
 5680.00    0.50935   0.50968    0.011
 5681.00    0.48588   0.51132    0.011
 5682.00    0.46946   0.51371    0.011
 5683.00    0.41110   0.51639    0.011
 5684.00    0.31432   0.51876    0.011
 5685.00    0.32099   0.52033    0.011
 5686.00    0.41121   0.52084    0.011
 5687.00    0.47406   0.52029    0.011
 5688.00    0.51744   0.51881    0.011
 5689.00    0.50998   0.51662    0.011
 5690.00    0.47081   0.51403    0.011
 5691.00    0.41944   0.51139    0.011
 5692.00    0.36142   0.50904    0.011
 5693.00    0.39900   0.50724    0.011
 5694.00    0.48183   0.50602    0.011
 5695.00    0.52914   0.50508    0.011
 5696.00    0.56193   0.50396    0.011
 5697.00    0.54049   0.50222    0.011
 5698.00    0.50012   0.49971    0.011
 5699.00    0.47924   0.49677    0.011
 5700.00    0.46409   0.49405    0.011
 5701.00    0.54563   0.49235    0.011
 5702.00    0.65072   0.49227    0.011
 5703.00    0.69468   0.49402    0.011
 5704.00    0.72660   0.49736    0.011
 5705.00    0.66808   0.50167    0.011
 5706.00    0.59567   0.50616    0.010
 5707.00    0.52316   0.51018    0.010
 5708.00    0.45064   0.51340    0.010
 5709.00    0.43530   0.51585    0.011
 5710.00    0.42429   0.51777    0.011
 5711.00    0.42538   0.51943    0.011
 5712.00    0.42697   0.52091    0.011
 5713.00    0.43740   0.52210    0.010
 5714.00    0.44802   0.52276    0.010
 5715.00    0.46324   0.52268    0.011
 5716.00    0.47647   0.52178    0.011
 5717.00    0.45554   0.52027    0.011
 5718.00    0.44302   0.51852    0.010
 5719.00    0.51935   0.51696    0.011
 5720.00    0.58831   0.51587    0.011
 5721.00    0.60209   0.51528    0.011
 5722.00    0.60090   0.51515    0.011
 5723.00    0.51429   0.51539    0.011
 5724.00    0.43716   0.51599    0.011
 5725.00    0.40304   0.51684    0.011
 5726.00    0.40931   0.51774    0.011
 5727.00    0.56585   0.51841    0.011
 5728.00    0.68678   0.51866    0.011
 5729.00    0.69688   0.51850    0.011
 5730.00    0.68314   0.51806    0.011
 5731.00    0.60642   0.51754    0.011
 5732.00    0.56083   0.51710    0.011
 5733.00    0.58588   0.51683    0.010
 5734.00    0.57557   0.51677    0.010
 5735.00    0.49577   0.51688    0.010
 5736.00    0.44378   0.51699    0.010
 5737.00    0.43944   0.51691    0.010
 5738.00    0.46102   0.51651    0.010
 5739.00    0.52148   0.51581    0.010
 5740.00    0.53962   0.51493    0.000
 5741.00    0.50196   0.51390    0.000
 5742.00    0.50030   0.51266    0.000
 5743.00    0.54043   0.51114    0.000
 5744.00    0.55665   0.50955    0.000
 5745.00    0.54838   0.50839    0.000
 5746.00    0.58010   0.50821    0.000
 5747.00    0.64795   0.50913    0.000
 5748.00    0.67037   0.51074    0.000
 5749.00    0.65662   0.51216    0.000
 5750.00    0.66329   0.51260    0.000
 5751.00    0.68426   0.51174    0.000
 5752.00    0.63004   0.50992    0.000
 5753.00    0.52965   0.50797    0.000
 5754.00    0.48709   0.50681    0.000
 5755.00    0.47554   0.50700    0.000
 5756.00    0.52221   0.50853    0.000
 5757.00    0.59600   0.51083    0.000
 5758.00    0.60565   0.51315    0.000
 5759.00    0.58955   0.51485    0.000
 5760.00    0.59813   0.51564    0.000
 5761.00    0.61515   0.51557    0.000
 5762.00    0.58708   0.51486    0.000
 5763.00    0.54601   0.51380    0.000
 5764.00    0.55252   0.51267    0.000
 5765.00    0.57036   0.51166    0.000
 5766.00    0.57010   0.51085    0.000
 5767.00    0.56637   0.51010    0.000
 5768.00    0.57475   0.50911    0.000
 5769.00    0.58494   0.50746    0.000
 5770.00    0.54295   0.50485    0.000
 5771.00    0.49527   0.50131    0.000
 5772.00    0.40506   0.49730    0.000
 5773.00    0.31179   0.49353    0.000
 5774.00    0.28738   0.49070    0.000
 5775.00    0.26551   0.48928    0.000
 5776.00    0.34477   0.48938    0.000
 5777.00    0.42232   0.49080    0.000
 5778.00    0.42396   0.49315    0.000
 5779.00    0.42557   0.49589    0.000
 5780.00    0.42678   0.49848    0.000
 5781.00    0.43183   0.50060    0.000
 5782.00    0.47583   0.50224    0.000
 5783.00    0.51114   0.50364    0.000
 5784.00    0.48344   0.50505    0.000
 5785.00    0.46609   0.50650    0.000
 5786.00    0.50625   0.50781    0.000
 5787.00    0.52922   0.50876    0.000
 5788.00    0.47592   0.50936    0.000
 5789.00    0.43395   0.50987    0.000
 5790.00    0.43323   0.51066    0.000
 5791.00    0.42977   0.51184   -2.000
 5792.00    0.41794   0.51317   -2.000
 5793.00    0.40686   0.51414   -2.000
 5794.00    0.39774   0.51434   -2.000
 5795.00    0.39282   0.51367   -2.000
 5796.00    0.39728   0.51248   -2.000
 5797.00    0.41880   0.51127   -2.000
 5798.00    0.47332   0.51050   -2.000
 5799.00    0.53537   0.51033   -2.000
 5800.00    0.61012   0.51065   -2.000
 5801.00    0.67991   0.51115   -2.000
 5802.00    0.74235   0.51149   -2.000
 5803.00    0.74874   0.51138   -2.000
 5804.00    0.68230   0.51072   -2.000
 5805.00    0.64423   0.50961   -2.000
 5806.00    0.63864   0.50839   -2.000
 5807.00    0.62714   0.50751   -2.000
 5808.00    0.60967   0.50737   -2.000
 5809.00    0.56874   0.50811   -2.000
 5810.00    0.50692   0.50950   -2.000
 5811.00    0.46549   0.51109    0.000
 5812.00    0.44008   0.51242    0.000
 5813.00    0.42842   0.51322    0.000
 5814.00    0.42625   0.51351    0.000
 5815.00    0.43357   0.51348    0.000
 5816.00    0.44662   0.51335    0.000
 5817.00    0.51603   0.51327    0.000
 5818.00    0.61521   0.51328    0.000
 5819.00    0.58529   0.51337    0.000
 5820.00    0.49623   0.51345    0.000
 5821.00    0.45629   0.51345    0.000
 5822.00    0.43573   0.51332    0.000
 5823.00    0.47209   0.51302    0.000
 5824.00    0.52759   0.51256    0.000
 5825.00    0.60545   0.51201    0.000
 5826.00    0.68962   0.51146    0.000
 5827.00    0.67078   0.51098    0.000
 5828.00    0.62797   0.51066    0.000
 5829.00    0.53898   0.51057    0.000
 5830.00    0.44136   0.51073    0.000
 5831.00    0.49391   0.51114    0.000
 5832.00    0.56813   0.51169    0.000
 5833.00    0.54869   0.51211    0.000
 5834.00    0.51945   0.51214    0.000
 5835.00    0.47337   0.51156    0.000
 5836.00    0.42614   0.51034    0.000
 5837.00    0.45289   0.50864    0.000
 5838.00    0.48209   0.50673    0.000
 5839.00    0.54115   0.50482    0.000
 5840.00    0.59673   0.50300    0.000
 5841.00    0.54154   0.50119    0.000
 5842.00    0.49194   0.49922    0.000
 5843.00    0.52687   0.49698    0.000
 5844.00    0.56221   0.49450    0.000
 5845.00    0.60145   0.49191    0.000
 5846.00    0.63927   0.48937    0.000
 5847.00    0.66712   0.48705    0.000
 5848.00    0.69135   0.48519    0.000
 5849.00    0.69599   0.48406    0.000
 5850.00    0.69970   0.48393    0.000
 5851.00    0.69934   0.48480    0.000
 5852.00    0.68061   0.48640    0.000
 5853.00    0.59636   0.48825    0.000
 5854.00    0.52060   0.48991    0.000
 5855.00    0.47029   0.49115    0.000
 5856.00    0.45029   0.49197    0.000
 5857.00    0.50764   0.49257    0.000
 5858.00    0.55089   0.49320    0.000
 5859.00    0.56315   0.49402    0.000
 5860.00    0.55817   0.49505    0.000
 5861.00    0.52031   0.49609    0.000
 5862.00    0.48435   0.49685    0.000
 5863.00    0.45151   0.49706    0.000
 5864.00    0.43073   0.49663    0.000
 5865.00    0.42753   0.49566    0.000
 5866.00    0.40347   0.49435    0.000
 5867.00    0.35273   0.49290    0.000
 5868.00    0.36386   0.49144    0.000
 5869.00    0.44486   0.49004    0.000
 5870.00    0.48842   0.48870    0.000
 5871.00    0.49473   0.48746    0.000
 5872.00    0.50078   0.48627    0.000
 5873.00    0.50660   0.48502    0.000
 5874.00    0.51382   0.48340    0.000
 5875.00    0.52211   0.48091    0.000
 5876.00    0.53975   0.47681    0.000
 5877.00    0.56374   0.47038    0.000
 5878.00    0.53736   0.46124    0.000
 5879.00    0.48097   0.44987    0.000
 5880.00    0.44310   0.43779    0.000
 5881.00    0.41488   0.42724    0.000
 5882.00    0.42487   0.42014    0.000
 5883.00    0.45209   0.41712    0.000
 5884.00    0.46122   0.41726    0.000
 5885.00    0.46333   0.41889    0.000
 5886.00    0.49569   0.42084    0.000
 5887.00    0.53802   0.42315    0.000
 5888.00    0.51773   0.42676    0.000
 5889.00    0.48013   0.43257    0.000
 5890.00    0.49255   0.44053    0.000
 5891.00    0.51636   0.44964    0.000
 5892.00    0.53931   0.45851    0.000
 5893.00    0.56210   0.46602    0.000
 5894.00    0.52037   0.47167    0.000
 5895.00    0.46962   0.47553    0.000
 5896.00    0.48125   0.47801    0.000
 5897.00    0.49914   0.47959    0.000
 5898.00    0.48689   0.48066    0.000
 5899.00    0.47272   0.48147    0.000
 5900.00    0.47574   0.48205    0.000
 5901.00    0.47945   0.48227    0.010
 5902.00    0.54775   0.48197    0.010
 5903.00    0.60907   0.48107    0.010
 5904.00    0.47363   0.47964    0.010
 5905.00    0.34858   0.47799    0.010
 5906.00    0.37145   0.47659    0.010
 5907.00    0.39171   0.47586    0.010
 5908.00    0.38772   0.47598    0.010
 5909.00    0.38636   0.47683    0.010
 5910.00    0.40288   0.47807    0.010
 5911.00    0.42117   0.47933    0.010
 5912.00    0.44873   0.48037    0.009
 5913.00    0.47612   0.48112    0.009
 5914.00    0.50281   0.48168    0.009
 5915.00    0.51729   0.48209    0.009
 5916.00    0.48911   0.48234    0.009
 5917.00    0.45951   0.48233    0.009
 5918.00    0.42576   0.48196    0.009
 5919.00    0.40492   0.48126    0.009
 5920.00    0.41647   0.48042    0.009
 5921.00    0.46058   0.47971    0.009
 5922.00    0.57502   0.47933    0.009
 5923.00    0.66067   0.47932    0.009
 5924.00    0.69236   0.47958    0.010
 5925.00    0.69364   0.47996    0.010
 5926.00    0.64510   0.48040    0.009
 5927.00    0.60417   0.48090    0.009
 5928.00    0.57414   0.48140    0.009
 5929.00    0.53571   0.48176    0.009
 5930.00    0.48664   0.48181    0.009
 5931.00    0.46398   0.48146    0.009
 5932.00    0.47070   0.48085    0.009
 5933.00    0.48679   0.48026    0.009
 5934.00    0.51207   0.47994    0.010
 5935.00    0.53570   0.47996    0.010
 5936.00    0.55788   0.48012    0.009
 5937.00    0.56071   0.48010    0.009
 5938.00    0.54878   0.47968    0.010
 5939.00    0.52097   0.47884    0.010
 5940.00    0.48250   0.47777    0.010
 5941.00    0.48993   0.47674    0.009
 5942.00    0.52431   0.47596    0.009
 5943.00    0.50730   0.47545    0.009
 5944.00    0.46398   0.47516    0.009
 5945.00    0.45333   0.47500    0.009
 5946.00    0.45716   0.47493    0.009
 5947.00    0.42998   0.47500    0.009
 5948.00    0.39098   0.47531    0.009
 5949.00    0.37752   0.47602    0.009
 5950.00    0.37232   0.47717    0.009
 5951.00    0.37005   0.47866    0.009
 5952.00    0.36858   0.48023    0.009
 5953.00    0.39705   0.48154    0.009
 5954.00    0.43217   0.48235    0.009
 5955.00    0.43933   0.48261    0.009
 5956.00    0.44155   0.48248    0.009
 5957.00    0.41947   0.48226    0.009
 5958.00    0.39410   0.48222    0.009
 5959.00    0.38427   0.48249    0.009
 5960.00    0.37593   0.48300    0.009
 5961.00    0.41447   0.48354    0.009
 5962.00    0.45580   0.48385    0.009
 5963.00    0.43692   0.48366    0.009
 5964.00    0.41668   0.48283    0.009
 5965.00    0.42479   0.48136    0.009
 5966.00    0.43354   0.47945    0.009
 5967.00    0.45873   0.47745    0.009
 5968.00    0.47871   0.47578    0.009
 5969.00    0.42850   0.47471    0.009
 5970.00    0.38744   0.47430    0.009
 5971.00    0.42827   0.47427    0.009
 5972.00    0.45680   0.47423    0.009
 5973.00    0.40430   0.47384    0.009
 5974.00    0.36736   0.47303    0.009
 5975.00    0.41014   0.47206    0.009
 5976.00    0.45346   0.47135    0.009
 5977.00    0.49899   0.47125    0.009
 5978.00    0.52796   0.47186    0.009
 5979.00    0.50017   0.47300    0.009
 5980.00    0.48071   0.47439    0.009
 5981.00    0.48528   0.47577    0.009
 5982.00    0.48766   0.47700    0.009
 5983.00    0.48469   0.47806    0.009
 5984.00    0.45718   0.47890    0.009
 5985.00    0.37751   0.47940    0.009
 5986.00    0.35017   0.47943    0.009
 5987.00    0.41942   0.47895    0.009
 5988.00    0.47046   0.47804    0.009
 5989.00    0.49214   0.47694    0.009
 5990.00    0.48633   0.47587    0.009
 5991.00    0.44162   0.47496    0.009
 5992.00    0.42876   0.47420    0.009
 5993.00    0.45554   0.47351    0.009
 5994.00    0.49658   0.47277    0.009
 5995.00    0.55327   0.47193    0.009
 5996.00    0.60699   0.47098    0.009
 5997.00    0.65783   0.47000    0.009
 5998.00    0.64109   0.46914    0.009
 5999.00    0.56666   0.46860    0.009
 6000.00    0.52614   0.46852    0.009
 6001.00    0.51111   0.46887    0.009
 6002.00    0.49545   0.46941    0.009
 6003.00    0.47937   0.46985    0.009
 6004.00    0.47643   0.46999    0.009
 6005.00    0.48110   0.46981    0.009
 6006.00    0.48319   0.46943    0.009
 6007.00    0.48397   0.46895    0.009
 6008.00    0.51375   0.46843    0.009
 6009.00    0.55617   0.46784    0.009
 6010.00    0.59405   0.46720    0.009
 6011.00    0.63022   0.46659    0.009
 6012.00    0.56611   0.46617    0.009
 6013.00    0.47016   0.46612    0.009
 6014.00    0.43178   0.46656    0.009
 6015.00    0.40866   0.46751    0.009
 6016.00    0.39745   0.46889    0.009
 6017.00    0.38882   0.47056    0.009
 6018.00    0.41484   0.47235    0.009
 6019.00    0.44682   0.47411    0.009
 6020.00    0.46093   0.47574    0.009
 6021.00    0.47270   0.47717    0.009
 6022.00    0.47656   0.47836    0.009
 6023.00    0.47969   0.47930    0.009
 6024.00    0.56502   0.47998    0.009
 6025.00    0.65493   0.48041    0.009
 6026.00    0.63732   0.48056    0.009
 6027.00    0.61664   0.48044    0.009
 6028.00    0.52624   0.48004    0.009
 6029.00    0.44011   0.47944    0.009
 6030.00    0.45303   0.47876    0.009
 6031.00    0.46846   0.47815    0.009
 6032.00    0.51580   0.47779    0.009
 6033.00    0.56044   0.47780    0.009
 6034.00    0.58180   0.47818    0.009
 6035.00    0.60071   0.47884    0.009
 6036.00    0.60398   0.47961    0.009
 6037.00    0.60634   0.48032    0.009
 6038.00    0.60416   0.48086    0.009
 6039.00    0.61441   0.48116    0.009
 6040.00    0.67494   0.48118    0.009
 6041.00    0.74647   0.48089    0.010
 6042.00    0.85491   0.48026    0.010
 6043.00    0.95010   0.47927    0.011
 6044.00    1.00774   0.47799    0.011
 6045.00    1.04172   0.47658    0.011
 6046.00    1.01840   0.47527    0.011
 6047.00    0.96025   0.47429    0.011
 6048.00    0.82930   0.47377    0.010
 6049.00    0.71455   0.47369    0.010
 6050.00    0.62923   0.47382    0.009
 6051.00    0.58026   0.47381    0.009
 6052.00    0.58905   0.47336    0.009
 6053.00    0.60195   0.47234    0.009
 6054.00    0.62058   0.47090    0.009
 6055.00    0.59887   0.46946    0.009
 6056.00    0.52768   0.46856    0.009
 6057.00    0.47488   0.46864    0.009
 6058.00    0.44199   0.46983    0.009
 6059.00    0.45215   0.47189    0.009
 6060.00    0.50339   0.47435    0.009
 6061.00    0.53872   0.47668    0.009
 6062.00    0.56066   0.47850    0.009
 6063.00    0.54717   0.47961    0.009
 6064.00    0.50742   0.47998    0.009
 6065.00    0.52347   0.47964    0.009
 6066.00    0.57581   0.47863    0.009
 6067.00    0.59876   0.47705    0.009
 6068.00    0.60496   0.47503    0.009
 6069.00    0.59183   0.47281    0.009
 6070.00    0.56911   0.47062    0.009
 6071.00    0.58708   0.46870    0.009
 6072.00    0.62251   0.46720    0.009
 6073.00    0.62852   0.46618    0.009
 6074.00    0.62371   0.46564    0.009
 6075.00    0.56372   0.46550    0.009
 6076.00    0.48656   0.46565    0.009
 6077.00    0.44547   0.46593    0.009
 6078.00    0.41374   0.46615    0.009
 6079.00    0.40769   0.46618    0.009
 6080.00    0.40707   0.46599    0.009
 6081.00    0.43399   0.46569    0.009
 6082.00    0.46551   0.46551    0.009
 6083.00    0.50126   0.46566    0.009
 6084.00    0.53753   0.46624    0.009
 6085.00    0.53039   0.46718    0.009
 6086.00    0.51944   0.46825    0.009
 6087.00    0.55225   0.46912    0.009
 6088.00    0.58732   0.46946    0.009
 6089.00    0.52581   0.46899    0.009
 6090.00    0.46342   0.46756    0.009
 6091.00    0.46575   0.46525    0.009
 6092.00    0.46543   0.46242    0.009
 6093.00    0.40886   0.45973    0.009
 6094.00    0.35635   0.45791    0.009
 6095.00    0.35297   0.45744    0.009
 6096.00    0.35734   0.45835    0.009
 6097.00    0.42606   0.46024    0.009
 6098.00    0.48587   0.46249    0.009
 6099.00    0.49040   0.46456    0.009
 6100.00    0.48617   0.46619    0.009
 6101.00    0.43921   0.46735    0.009
 6102.00    0.40653   0.46819    0.009
 6103.00    0.43041   0.46881    0.009
 6104.00    0.45478   0.46925    0.009
 6105.00    0.48079   0.46944    0.009
 6106.00    0.49920   0.46925    0.009
 6107.00    0.49644   0.46850    0.009
 6108.00    0.49261   0.46707    0.009
 6109.00    0.48622   0.46488    0.009
 6110.00    0.48361   0.46207    0.009
 6111.00    0.48877   0.45899    0.009
 6112.00    0.48205   0.45617    0.009
 6113.00    0.45405   0.45419    0.009
 6114.00    0.44627   0.45345    0.009
 6115.00    0.47015   0.45396    0.009
 6116.00    0.47873   0.45538    0.009
 6117.00    0.46628   0.45723    0.009
 6118.00    0.44325   0.45909    0.009
 6119.00    0.40741   0.46073    0.009
 6120.00    0.40889   0.46206    0.009
 6121.00    0.45016   0.46294    0.009
 6122.00    0.47392   0.46313    0.009
 6123.00    0.48121   0.46225    0.009
 6124.00    0.49312   0.46003    0.009
 6125.00    0.50887   0.45655    0.009
 6126.00    0.51420   0.45233    0.009
 6127.00    0.51193   0.44831    0.009
 6128.00    0.47097   0.44545    0.009
 6129.00    0.40521   0.44441    0.009
 6130.00    0.37571   0.44526    0.009
 6131.00    0.36655   0.44756    0.009
 6132.00    0.38779   0.45064    0.009
 6133.00    0.42387   0.45388    0.009
 6134.00    0.46248   0.45684    0.009
 6135.00    0.50217   0.45927    0.009
 6136.00    0.52579   0.46095    0.009
 6137.00    0.54361   0.46175    0.009
 6138.00    0.54965   0.46165    0.009
 6139.00    0.55210   0.46084    0.009
 6140.00    0.54670   0.45967    0.009
 6141.00    0.53930   0.45852    0.009
 6142.00    0.55261   0.45765    0.009
 6143.00    0.57019   0.45707    0.009
 6144.00    0.54018   0.45662    0.009
 6145.00    0.50243   0.45604    0.009
 6146.00    0.48256   0.45504    0.009
 6147.00    0.46487   0.45333    0.009
 6148.00    0.48152   0.45065    0.009
 6149.00    0.50103   0.44681    0.009
 6150.00    0.51683   0.44183    0.009
 6151.00    0.53245   0.43613    0.009
 6152.00    0.49497   0.43054    0.009
 6153.00    0.45703   0.42604    0.009
 6154.00    0.43756   0.42342    0.009
 6155.00    0.41805   0.42290    0.009
 6156.00    0.39773   0.42403    0.009
 6157.00    0.37889   0.42596    0.009
 6158.00    0.37695   0.42782    0.009
 6159.00    0.38134   0.42920    0.009
 6160.00    0.43635   0.43016    0.009
 6161.00    0.48489   0.43111    0.009
 6162.00    0.49448   0.43243    0.009
 6163.00    0.49836   0.43423    0.009
 6164.00    0.47509   0.43635    0.009
 6165.00    0.45044   0.43847    0.009
 6166.00    0.42047   0.44036    0.009
 6167.00    0.38815   0.44192    0.009
 6168.00    0.34828   0.44322    0.009
 6169.00    0.32055   0.44435    0.009
 6170.00    0.32596   0.44540    0.009
 6171.00    0.33028   0.44635    0.009
 6172.00    0.33201   0.44710    0.009
 6173.00    0.33646   0.44750    0.009
 6174.00    0.34640   0.44741    0.009
 6175.00    0.35708   0.44668    0.009
 6176.00    0.36906   0.44525    0.009
 6177.00    0.41406   0.44316    0.009
 6178.00    0.50998   0.44055    0.009
 6179.00    0.55561   0.43768    0.009
 6180.00    0.53312   0.43490    0.009
 6181.00    0.48954   0.43267    0.009
 6182.00    0.42079   0.43143    0.009
 6183.00    0.37595   0.43145    0.009
 6184.00    0.35625   0.43269    0.009
 6185.00    0.35493   0.43474    0.009
 6186.00    0.37065   0.43700    0.009
 6187.00    0.37022   0.43888    0.009
 6188.00    0.35660   0.44001    0.009
 6189.00    0.36858   0.44037    0.009
 6190.00    0.39898   0.44029    0.009
 6191.00    0.46212   0.44020    0.009
 6192.00    0.54594   0.44045    0.009
 6193.00    0.56879   0.44118    0.009
 6194.00    0.55798   0.44228    0.009
 6195.00    0.44337   0.44351    0.009
 6196.00    0.27890   0.44459   -2.000
 6197.00   -0.31300   0.44532   -2.000
 6198.00   -1.08210   0.44555   -2.000
 6199.00   -1.34451   0.44513   -2.000
 6200.00   -1.42734   0.44397   -2.000
 6201.00   -0.73461   0.44201   -2.000
 6202.00    0.19021   0.43931   -2.000
 6203.00    1.02275   0.43614   -2.000
 6204.00    1.83236   0.43289   -2.000
 6205.00    1.85185   0.43000   -2.000
 6206.00    1.71224   0.42782   -2.000
 6207.00    1.28626   0.42650   -2.000
 6208.00    0.81511   0.42595    0.010
 6209.00    0.65715   0.42597    0.009
 6210.00    0.53590   0.42633    0.009
 6211.00    0.55369   0.42686    0.009
 6212.00    0.58251   0.42751    0.009
 6213.00    0.55473   0.42823    0.009
 6214.00    0.52446   0.42892    0.009
 6215.00    0.51138   0.42944    0.009
 6216.00    0.49901   0.42955    0.009
 6217.00    0.51092   0.42904    0.009
 6218.00    0.52131   0.42780    0.009
 6219.00    0.50382   0.42598    0.009
 6220.00    0.48679   0.42393    0.008
 6221.00    0.47503   0.42223    0.008
 6222.00    0.47594   0.42144    0.009
 6223.00    0.57471   0.42185    0.009
 6224.00    0.65868   0.42337    0.009
 6225.00    0.65602   0.42548    0.009
 6226.00    0.63297   0.42748    0.009
 6227.00    0.51536   0.42874    0.009
 6228.00    0.40223   0.42896    0.009
 6229.00    0.30607   0.42818    0.009
 6230.00    0.25150   0.42665    0.009
 6231.00    0.32853   0.42480    0.009
 6232.00    0.40653   0.42299    0.009
 6233.00    0.48715   0.42146    0.009
 6234.00    0.54520   0.42042    0.009
 6235.00    0.55130   0.42002    0.009
 6236.00    0.54882   0.42032    0.009
 6237.00    0.52924   0.42126    0.009
 6238.00    0.49347   0.42257    0.009
 6239.00    0.42960   0.42379    0.009
 6240.00    0.41549   0.42446    0.009
 6241.00    0.47698   0.42425    0.009
 6242.00    0.53007   0.42312    0.009
 6243.00    0.57192   0.42127    0.009
 6244.00    0.59095   0.41904    0.009
 6245.00    0.58315   0.41681    0.009
 6246.00    0.56879   0.41491    0.009
 6247.00    0.54763   0.41365    0.009
 6248.00    0.51977   0.41321    0.008
 6249.00    0.48578   0.41372    0.008
 6250.00    0.43898   0.41523    0.008
 6251.00    0.38187   0.41759    0.008
 6252.00    0.35370   0.42039    0.008
 6253.00    0.34605   0.42318    0.009
 6254.00    0.35250   0.42559    0.009
 6255.00    0.36772   0.42741    0.009
 6256.00    0.40475   0.42857    0.009
 6257.00    0.45366   0.42920    0.009
 6258.00    0.40166   0.42951    0.009
 6259.00    0.30200   0.42969    0.010
 6260.00    0.05432   0.42992    0.010
 6261.00   -0.25368   0.43026    0.000
 6262.00   -0.29049   0.43069    0.000
 6263.00   -0.23292   0.43115    0.000
 6264.00    0.07874   0.43154    0.012
 6265.00    0.46492   0.43174    0.011
 6266.00    0.72100   0.43163    0.011
 6267.00    0.94549   0.43114    0.010
 6268.00    0.87640   0.43025    0.010
 6269.00    0.74969   0.42915    0.009
 6270.00    0.62839   0.42809    0.009
 6271.00    0.50791   0.42735    0.009
 6272.00    0.50702   0.42714    0.009
 6273.00    0.51962   0.42752    0.009
 6274.00    0.52051   0.42850    0.009
 6275.00    0.52052   0.42993    0.009
 6276.00    0.51128   0.43159    0.009
 6277.00    0.50167   0.43322    0.008
 6278.00    0.45473   0.43452    0.009
 6279.00    0.40947   0.43528    0.009
 6280.00    0.44362   0.43544    0.000
 6281.00    0.47592   0.43503    0.000
 6282.00    0.47685   0.43421    0.000
 6283.00    0.47732   0.43311    0.000
 6284.00    0.47286   0.43180    0.000
 6285.00    0.46953   0.43033    0.000
 6286.00    0.47465   0.42880    0.000
 6287.00    0.47139   0.42734    0.000
 6288.00    0.42053   0.42598    0.000
 6289.00    0.38345   0.42472    0.000
 6290.00    0.40876   0.42364    0.000
 6291.00    0.43339   0.42293    0.000
 6292.00    0.45555   0.42275    0.000
 6293.00    0.47056   0.42319    0.000
 6294.00    0.46341   0.42426    0.000
 6295.00    0.45263   0.42590    0.000
 6296.00    0.43224   0.42793    0.000
 6297.00    0.41546   0.42998    0.000
 6298.00    0.40682   0.43168    0.000
 6299.00    0.39882   0.43275    0.000
 6300.00    0.39205   0.43308    0.000
 6301.00    0.40113   0.43275    0.000
 6302.00    0.43733   0.43188    0.000
 6303.00    0.46638   0.43055    0.000
 6304.00    0.48474   0.42897    0.000
 6305.00    0.48495   0.42735    0.000
 6306.00    0.46125   0.42578    0.000
 6307.00    0.42818   0.42440    0.000
 6308.00    0.38423   0.42352    0.000
 6309.00    0.35466   0.42335    0.000
 6310.00    0.33978   0.42386    0.000
 6311.00    0.33618   0.42493    0.000
 6312.00    0.34274   0.42645    0.000
 6313.00    0.34115   0.42824    0.000
 6314.00    0.33307   0.43001    0.000
 6315.00    0.33502   0.43157    0.000
 6316.00    0.34397   0.43278    0.000
 6317.00    0.36098   0.43366    0.000
 6318.00    0.38294   0.43421    0.000
 6319.00    0.43088   0.43445    0.000
 6320.00    0.49273   0.43449    0.000
 6321.00    0.47329   0.43440    0.009
 6322.00    0.41606   0.43404    0.009
 6323.00    0.37032   0.43320    0.009
 6324.00    0.32919   0.43172    0.009
 6325.00    0.30717   0.42988    0.009
 6326.00    0.29168   0.42817    0.008
 6327.00    0.29873   0.42696    0.008
 6328.00    0.31225   0.42646    0.008
 6329.00    0.35536   0.42675    0.008
 6330.00    0.40550   0.42755    0.008
 6331.00    0.37973   0.42837    0.008
 6332.00    0.33946   0.42880    0.008
 6333.00    0.32074   0.42867    0.008
 6334.00    0.30521   0.42822    0.009
 6335.00    0.35062   0.42772    0.009
 6336.00    0.40264   0.42745    0.009
 6337.00    0.39863   0.42766    0.008
 6338.00    0.39064   0.42841    0.008
 6339.00    0.37505   0.42950    0.009
 6340.00    0.35919   0.43059    0.009
 6341.00    0.38721   0.43137    0.009
 6342.00    0.41380   0.43153    0.009
 6343.00    0.38438   0.43091    0.009
 6344.00    0.35858   0.42958    0.009
 6345.00    0.39037   0.42779    0.009
 6346.00    0.42278   0.42574    0.009
 6347.00    0.46151   0.42348    0.009
 6348.00    0.50193   0.42114    0.009
 6349.00    0.55454   0.41897    0.009
 6350.00    0.59729   0.41713    0.009
 6351.00    0.58550   0.41570    0.009
 6352.00    0.56644   0.41486    0.009
 6353.00    0.51522   0.41480    0.009
 6354.00    0.47716   0.41560    0.009
 6355.00    0.48691   0.41712    0.008
 6356.00    0.49790   0.41917    0.008
 6357.00    0.51264   0.42149    0.009
 6358.00    0.51548   0.42374    0.009
 6359.00    0.48748   0.42566    0.009
 6360.00    0.46197   0.42720    0.008
 6361.00    0.44202   0.42850    0.008
 6362.00    0.41628   0.42967    0.009
 6363.00    0.37937   0.43071    0.009
 6364.00    0.36494   0.43153    0.009
 6365.00    0.38838   0.43203    0.009
 6366.00    0.41101   0.43213    0.009
 6367.00    0.43245   0.43171    0.009
 6368.00    0.45125   0.43082    0.009
 6369.00    0.46661   0.42970    0.009
 6370.00    0.46977   0.42862    0.009
 6371.00    0.45901   0.42783    0.009
 6372.00    0.44208   0.42743    0.009
 6373.00    0.41894   0.42733    0.009
 6374.00    0.41650   0.42743    0.009
 6375.00    0.43247   0.42769    0.009
 6376.00    0.47449   0.42804    0.009
 6377.00    0.53690   0.42832    0.009
 6378.00    0.55143   0.42838    0.009
 6379.00    0.53296   0.42812    0.008
 6380.00    0.50074   0.42746    0.009
 6381.00    0.46022   0.42637    0.009
 6382.00    0.42465   0.42487    0.009
 6383.00    0.39169   0.42331    0.008
 6384.00    0.40749   0.42229    0.008
 6385.00    0.44557   0.42209    0.008
 6386.00    0.45999   0.42241    0.008
 6387.00    0.46509   0.42281    0.008
 6388.00    0.44517   0.42290    0.008
 6389.00    0.41685   0.42246    0.008
 6390.00    0.43529   0.42190    0.008
 6391.00    0.46689   0.42206    0.008
 6392.00    0.43595   0.42311    0.009
 6393.00    0.39048   0.42461    0.009
 6394.00    0.38589   0.42617    0.009
 6395.00    0.38890   0.42736    0.009
 6396.00    0.42339   0.42787    0.009
 6397.00    0.46240   0.42759    0.010
 6398.00    0.46228   0.42681    0.009
 6399.00    0.45809   0.42597    0.009
 6400.00    0.46275   0.42516    0.009
 6401.00    0.46801   0.42434    0.009
 6402.00    0.48223   0.42378    0.009
 6403.00    0.49675   0.42368    0.009
 6404.00    0.50056   0.42388    0.009
 6405.00    0.50256   0.42417    0.009
 6406.00    0.44782   0.42437    0.009
 6407.00    0.39294   0.42429    0.009
 6408.00    0.33580   0.42381    0.009
 6409.00    0.28646   0.42298    0.008
 6410.00    0.31245   0.42201    0.008
 6411.00    0.33852   0.42143    0.008
 6412.00    0.36517   0.42175    0.009
 6413.00    0.38539   0.42301    0.009
 6414.00    0.37089   0.42476    0.009
 6415.00    0.36589   0.42648    0.009
 6416.00    0.40196   0.42785    0.009
 6417.00    0.41634   0.42860    0.009
 6418.00    0.35356   0.42851    0.009
 6419.00    0.30835   0.42756    0.009
 6420.00    0.31567   0.42599    0.009
 6421.00    0.31056   0.42436    0.009
 6422.00    0.27378   0.42335    0.009
 6423.00    0.25643   0.42316    0.009
 6424.00    0.28164   0.42354    0.009
 6425.00    0.32159   0.42406    0.009
 6426.00    0.38954   0.42435    0.009
 6427.00    0.43157   0.42418    0.009
 6428.00    0.43061   0.42354    0.009
 6429.00    0.41447   0.42287    0.009
 6430.00    0.37623   0.42296    0.009
 6431.00    0.36175   0.42415    0.009
 6432.00    0.37764   0.42608    0.009
 6433.00    0.41319   0.42812    0.009
 6434.00    0.47090   0.42978    0.009
 6435.00    0.47134   0.43064    0.009
 6436.00    0.41485   0.43039    0.009
 6437.00    0.36513   0.42893    0.009
 6438.00    0.32132   0.42637    0.009
 6439.00    0.31317   0.42311    0.009
 6440.00    0.33254   0.41994    0.009
 6441.00    0.39883   0.41787    0.009
 6442.00    0.49696   0.41738    0.009
 6443.00    0.55854   0.41803    0.009
 6444.00    0.59836   0.41916    0.009
 6445.00    0.60088   0.42026    0.009
 6446.00    0.58403   0.42118    0.009
 6447.00    0.48682   0.42202    0.009
 6448.00    0.35344   0.42282    0.009
 6449.00    0.30377   0.42328    0.009
 6450.00    0.28648   0.42309    0.009
 6451.00    0.32454   0.42213    0.009
 6452.00    0.38081   0.42057    0.009
 6453.00    0.40100   0.41903    0.009
 6454.00    0.41123   0.41848    0.009
 6455.00    0.38977   0.41922    0.009
 6456.00    0.36112   0.42073    0.009
 6457.00    0.36009   0.42237    0.009
 6458.00    0.36406   0.42368    0.009
 6459.00    0.45242   0.42433    0.009
 6460.00    0.55253   0.42422    0.009
 6461.00    0.52447   0.42358    0.009
 6462.00    0.48362   0.42270    0.009
 6463.00    0.37136   0.42196    0.009
 6464.00    0.25458   0.42151    0.009
 6465.00    0.28020   0.42119    0.009
 6466.00    0.30993   0.42095    0.009
 6467.00    0.34042   0.42089    0.009
 6468.00    0.36934   0.42082    0.009
 6469.00    0.35449   0.42036    0.009
 6470.00    0.34048   0.41942    0.009
 6471.00    0.33832   0.41808    0.009
 6472.00    0.33877   0.41653    0.009
 6473.00    0.36338   0.41523    0.009
 6474.00    0.38861   0.41469    0.009
 6475.00    0.41797   0.41493    0.009
 6476.00    0.44042   0.41554    0.009
 6477.00    0.42659   0.41607    0.009
 6478.00    0.41256   0.41613    0.009
 6479.00    0.39768   0.41534    0.009
 6480.00    0.38612   0.41338    0.009
 6481.00    0.38614   0.41014    0.009
 6482.00    0.39101   0.40578    0.009
 6483.00    0.41013   0.40066    0.009
 6484.00    0.43536   0.39522    0.009
 6485.00    0.47585   0.39028    0.009
 6486.00    0.48533   0.38694    0.009
 6487.00    0.42796   0.38583    0.009
 6488.00    0.36886   0.38689    0.009
 6489.00    0.30651   0.38966    0.009
 6490.00    0.28636   0.39351    0.009
 6491.00    0.33513   0.39793    0.009
 6492.00    0.36544   0.40243    0.009
 6493.00    0.36929   0.40649    0.009
 6494.00    0.37914   0.40983    0.009
 6495.00    0.39654   0.41235    0.009
 6496.00    0.41649   0.41411    0.009
 6497.00    0.43928   0.41519    0.009
 6498.00    0.45171   0.41570    0.009
 6499.00    0.45399   0.41581    0.009
 6500.00    0.46939   0.41573    0.009
 6501.00    0.49612   0.41556    0.009
 6502.00    0.48198   0.41518    0.009
 6503.00    0.43673   0.41449    0.009
 6504.00    0.42371   0.41345    0.009
 6505.00    0.43223   0.41215    0.009
 6506.00    0.46726   0.41073    0.009
 6507.00    0.51781   0.40950    0.009
 6508.00    0.52151   0.40875    0.009
 6509.00    0.50128   0.40862    0.009
 6510.00    0.47557   0.40912    0.009
 6511.00    0.44743   0.41014    0.009
 6512.00    0.42809   0.41133    0.009
 6513.00    0.41209   0.41229    0.009
 6514.00    0.44082   0.41287    0.009
 6515.00    0.48399   0.41309    0.009
 6516.00    0.49538   0.41298    0.009
 6517.00    0.49819   0.41261    0.009
 6518.00    0.47885   0.41211    0.009
 6519.00    0.45461   0.41169    0.009
 6520.00    0.43354   0.41139    0.009
 6521.00    0.41301   0.41109    0.009
 6522.00    0.40795   0.41071    0.009
 6523.00    0.40497   0.41034    0.009
 6524.00    0.41327   0.41015    0.009
 6525.00    0.42264   0.41025    0.009
 6526.00    0.41312   0.41059    0.009
 6527.00    0.40249   0.41096    0.009
 6528.00    0.40990   0.41115    0.000
 6529.00    0.41787   0.41106    0.000
 6530.00    0.43999   0.41062    0.000
 6531.00    0.45995   0.40968    0.000
 6532.00    0.42558   0.40812    0.000
 6533.00    0.39164   0.40594    0.000
 6534.00    0.36345   0.40337    0.000
 6535.00    0.34370   0.40069    0.000
 6536.00    0.39908   0.39814    0.000
 6537.00    0.44498   0.39587    0.000
 6538.00    0.42879   0.39408    0.000
 6539.00    0.41906   0.39275    0.000
 6540.00    0.44240   0.39146    0.000
 6541.00    0.45027   0.38977    0.000
 6542.00    0.39432   0.38751    0.000
 6543.00    0.35299   0.38471    0.000
 6544.00    0.36164   0.38143    0.000
 6545.00    0.38270   0.37758    0.000
 6546.00    0.43945   0.37302    0.000
 6547.00    0.47994   0.36754    0.000
 6548.00    0.48043   0.36089    0.000
 6549.00    0.47545   0.35280    0.000
 6550.00    0.45887   0.34338    0.000
 6551.00    0.44215   0.33340    0.000
 6552.00    0.42516   0.32425    0.000
 6553.00    0.41348   0.31752    0.000
 6554.00    0.41035   0.31508    0.000
 6555.00    0.39815   0.31854    0.000
 6556.00    0.37314   0.32722    0.000
 6557.00    0.37928   0.33801    0.000
 6558.00    0.42413   0.34824    0.000
 6559.00    0.46733   0.35686    0.000
 6560.00    0.50873   0.36348    0.000
 6561.00    0.49714   0.36825    0.000
 6562.00    0.43436   0.37169    0.000
 6563.00    0.37168   0.37428    0.000
 6564.00    0.30907   0.37642    0.000
 6565.00    0.30553   0.37858    0.000
 6566.00    0.34633   0.38109    0.000
 6567.00    0.39390   0.38392    0.000
 6568.00    0.44594   0.38681    0.000
 6569.00    0.44888   0.38935    0.000
 6570.00    0.42349   0.39133    0.000
 6571.00    0.41433   0.39276    0.000
 6572.00    0.41333   0.39381    0.000
 6573.00    0.39974   0.39474    0.000
 6574.00    0.38068   0.39574    0.000
 6575.00    0.41042   0.39673    0.000
 6576.00    0.45837   0.39757    0.000
 6577.00    0.52263   0.39816    0.000
 6578.00    0.59205   0.39841    0.000
 6579.00    0.55067   0.39831    0.000
 6580.00    0.47998   0.39771    0.000
 6581.00    0.48695   0.39653    0.000
 6582.00    0.51071   0.39495    0.000
 6583.00    0.51596   0.39328    0.000
 6584.00    0.51803   0.39193    0.000
 6585.00    0.50503   0.39145    0.000
 6586.00    0.49008   0.39218    0.000
 6587.00    0.46918   0.39374    0.000
 6588.00    0.44773   0.39543    0.000
 6589.00    0.40130   0.39695    0.000
 6590.00    0.35349   0.39826    0.000
 6591.00    0.33168   0.39939    0.000
 6592.00    0.31135   0.40021    0.000
 6593.00    0.37979   0.40049    0.000
 6594.00    0.44720   0.40014    0.000
 6595.00    0.49093   0.39929    0.000
 6596.00    0.52895   0.39819    0.000
 6597.00    0.49459   0.39715    0.000
 6598.00    0.46121   0.39641    0.000
 6599.00    0.43624   0.39608    0.000
 6600.00    0.41217   0.39622    0.000
 6601.00    0.39381   0.39686    0.000
 6602.00    0.38481   0.39802    0.000
 6603.00    0.42241   0.39938    0.000
 6604.00    0.45189   0.40053    0.000
 6605.00    0.44855   0.40138    0.000
 6606.00    0.44487   0.40209    0.000
 6607.00    0.44002   0.40275    0.000
 6608.00    0.42426   0.40319    0.000
 6609.00    0.37767   0.40332    0.009
 6610.00    0.35997   0.40315    0.009
 6611.00    0.41211   0.40272    0.009
 6612.00    0.45793   0.40202    0.009
 6613.00    0.49056   0.40106    0.009
 6614.00    0.49453   0.39993    0.009
 6615.00    0.44653   0.39879    0.009
 6616.00    0.40346   0.39781    0.010
 6617.00    0.36821   0.39712    0.010
 6618.00    0.33413   0.39669    0.010
 6619.00    0.30167   0.39626    0.010
 6620.00    0.31111   0.39565    0.010
 6621.00    0.37188   0.39488    0.010
 6622.00    0.41277   0.39402    0.010
 6623.00    0.43222   0.39325    0.010
 6624.00    0.43882   0.39271    0.010
 6625.00    0.43317   0.39255    0.010
 6626.00    0.42297   0.39289    0.010
 6627.00    0.40895   0.39367    0.010
 6628.00    0.42560   0.39455    0.010
 6629.00    0.46494   0.39516    0.010
 6630.00    0.46622   0.39537    0.010
 6631.00    0.44278   0.39520    0.009
 6632.00    0.45934   0.39480    0.009
 6633.00    0.49864   0.39435    0.010
 6634.00    0.48612   0.39391    0.009
 6635.00    0.44797   0.39356    0.009
 6636.00    0.43608   0.39352    0.009
 6637.00    0.43544   0.39385    0.010
 6638.00    0.43320   0.39428    0.010
 6639.00    0.43037   0.39452    0.010
 6640.00    0.44279   0.39457    0.010
 6641.00    0.45994   0.39447    0.010
 6642.00    0.47020   0.39424    0.010
 6643.00    0.47868   0.39389    0.010
 6644.00    0.46318   0.39353    0.010
 6645.00    0.44263   0.39320    0.010
 6646.00    0.51114   0.39291    0.010
 6647.00    0.59451   0.39256    0.010
 6648.00    0.50781   0.39205    0.010
 6649.00    0.39976   0.39134    0.010
 6650.00    0.36752   0.39045    0.010
 6651.00    0.34189   0.38943    0.010
 6652.00    0.35130   0.38836    0.010
 6653.00    0.36250   0.38739    0.010
 6654.00    0.40679   0.38669    0.010
 6655.00    0.45101   0.38643    0.010
 6656.00    0.44944   0.38672    0.010
 6657.00    0.44520   0.38756    0.010
 6658.00    0.38476   0.38866    0.010
 6659.00    0.33005   0.38979    0.010
 6660.00    0.34425   0.39086    0.010
 6661.00    0.35770   0.39176    0.010
 6662.00    0.36495   0.39227    0.010
 6663.00    0.36607   0.39215    0.010
 6664.00    0.32937   0.39134    0.010
 6665.00    0.30336   0.38997    0.010
 6666.00    0.32923   0.38825    0.010
 6667.00    0.35846   0.38643    0.010
 6668.00    0.40097   0.38478    0.010
 6669.00    0.42460   0.38355    0.011
 6670.00    0.38625   0.38302    0.010
 6671.00    0.36203   0.38339    0.010
 6672.00    0.37709   0.38444    0.010
 6673.00    0.39721   0.38559    0.010
 6674.00    0.42939   0.38654    0.010
 6675.00    0.43015   0.38728    0.010
 6676.00    0.36638   0.38783    0.010
 6677.00    0.31852   0.38817    0.010
 6678.00    0.29906   0.38833    0.010
 6679.00    0.33314   0.38837    0.010
 6680.00    0.45087   0.38832    0.010
 6681.00    0.50280   0.38816    0.010
 6682.00    0.46445   0.38784    0.010
 6683.00    0.42027   0.38731    0.010
 6684.00    0.36906   0.38663    0.010
 6685.00    0.32892   0.38590    0.010
 6686.00    0.30056   0.38527    0.010
 6687.00    0.25435   0.38481    0.010
 6688.00    0.19135   0.38460    0.010
 6689.00    0.18175   0.38465    0.010
 6690.00    0.21636   0.38494    0.011
 6691.00    0.25022   0.38529    0.011
 6692.00    0.28353   0.38554    0.011
 6693.00    0.36252   0.38562    0.011
 6694.00    0.47073   0.38552    0.011
 6695.00    0.46922   0.38534    0.011
 6696.00    0.40629   0.38517    0.000
 6697.00    0.39732   0.38510    0.000
 6698.00    0.41463   0.38511    0.000
 6699.00    0.35609   0.38499    0.000
 6700.00    0.26563   0.38459    0.000
 6701.00    0.34612   0.38384    0.000
 6702.00    0.48817   0.38270    0.000
 6703.00    0.51307   0.38118    0.000
 6704.00    0.50229   0.37944    0.000
 6705.00    0.43685   0.37767    0.000
 6706.00    0.35756   0.37604    0.000
 6707.00    0.33419   0.37476    0.000
 6708.00    0.32232   0.37401    0.000
 6709.00    0.33537   0.37388    0.000
 6710.00    0.35244   0.37436    0.000
 6711.00    0.33747   0.37537    0.000
 6712.00    0.31862   0.37658    0.000
 6713.00    0.34897   0.37761    0.000
 6714.00    0.38341   0.37836    0.000
 6715.00    0.32032   0.37896    0.000
 6716.00    0.25260   0.37948    0.000
 6717.00    0.31302   0.37987    0.000
 6718.00    0.37201   0.38016    0.000
 6719.00    0.24940   0.38043    0.000
 6720.00    0.13014   0.38075    0.000
 6721.00    0.07626   0.38101    0.000
 6722.00    0.03364   0.38113    0.000
 6723.00    0.12019   0.38109    0.000
 6724.00    0.21391   0.38087    0.000
 6725.00    0.36471   0.38049    0.000
 6726.00    0.49139   0.37999    0.000
 6727.00    0.47329   0.37946    0.000
 6728.00    0.47032   0.37887    0.000
 6729.00    0.53894   0.37821    0.000
 6730.00    0.56269   0.37753    0.000
 6731.00    0.41312   0.37694    0.000
 6732.00    0.26772   0.37653    0.000
 6733.00    0.13579   0.37627    0.000
 6734.00    0.07949   0.37604    0.000
 6735.00    0.22938   0.37570    0.000
 6736.00    0.35026   0.37529    0.000
 6737.00    0.40337   0.37488    0.000
 6738.00    0.47444   0.37444    0.000
 6739.00    0.58180   0.37392    0.000
 6740.00    0.59781   0.37349    0.000
 6741.00    0.45314   0.37330    0.000
 6742.00    0.36605   0.37343    0.000
 6743.00    0.36763   0.37391    0.000
 6744.00    0.41410   0.37475    0.000
 6745.00    0.52126   0.37580    0.000
 6746.00    0.51963   0.37692    0.000
 6747.00    0.38845   0.37809    0.000
 6748.00    0.33725   0.37914    0.000
 6749.00    0.37001   0.37994    0.000
 6750.00    0.28473   0.38048    0.000
 6751.00    0.09016   0.38074    0.000
 6752.00   -0.23967   0.38066    0.000
 6753.00   -0.67989   0.38024    0.000
 6754.00   -0.70362   0.37951    0.000
 6755.00   -0.42816   0.37862    0.000
 6756.00    0.08669   0.37770    0.022
 6757.00    0.75246   0.37680    0.024
 6758.00    0.96090   0.37600    0.022
 6759.00    0.91728   0.37543    0.019
 6760.00    0.60727   0.37526    0.016
 6761.00    0.16960   0.37558    0.014
 6762.00    0.18123   0.37629    0.014
 6763.00    0.37870   0.37719    0.015
 6764.00    0.50762   0.37816    0.015
 6765.00    0.61229   0.37917    0.015
 6766.00    0.50033   0.38010    0.014
 6767.00    0.32369   0.38070    0.014
 6768.00    0.50389   0.38082    0.014
 6769.00    0.77248   0.38039    0.013
 6770.00    0.64645   0.37944    0.013
 6771.00    0.44121   0.37809    0.013
 6772.00    0.30524   0.37655    0.012
 6773.00    0.18015   0.37500    0.012
 6774.00    0.20160   0.37363    0.012
 6775.00    0.24014   0.37265    0.012
 6776.00    0.41374   0.37214    0.012
 6777.00    0.59800   0.37210    0.012
 6778.00    0.54006   0.37244    0.012
 6779.00    0.47159   0.37292    0.013
 6780.00    0.46023   0.37331    0.013
 6781.00    0.45361   0.37355    0.013
 6782.00    0.64038   0.37360    0.013
 6783.00    0.81208   0.37353    0.014
 6784.00    0.71121   0.37343    0.013
 6785.00    0.60999   0.37338    0.013
 6786.00    0.50491   0.37342    0.013
 6787.00    0.40487   0.37362    0.013
 6788.00    0.34354   0.37398    0.013
 6789.00    0.29019   0.37441    0.013
 6790.00    0.28331   0.37481    0.013
 6791.00    0.29333   0.37511    0.013
 6792.00    0.38144   0.37531    0.013
 6793.00    0.44652   0.37537    0.013
 6794.00    0.42446   0.37526    0.013
 6795.00    0.40059   0.37506    0.012
 6796.00    0.37097   0.37479    0.012
 6797.00    0.34316   0.37446    0.012
 6798.00    0.32019   0.37420    0.012
 6799.00    0.30298   0.37402    0.012
 6800.00    0.29902   0.37385    0.012
 6801.00    0.31128   0.37369    0.013
 6802.00    0.35583   0.37349    0.013
 6803.00    0.39821   0.37331    0.013
 6804.00    0.43687   0.37324    0.013
 6805.00    0.45573   0.37325    0.013
 6806.00    0.44454   0.37322    0.013
 6807.00    0.42725   0.37317    0.013
 6808.00    0.40185   0.37321    0.013
 6809.00    0.43209   0.37342    0.013
 6810.00    0.52765   0.37373    0.013
 6811.00    0.48626   0.37402    0.013
 6812.00    0.30313   0.37426    0.013
 6813.00    0.25745   0.37448    0.013
 6814.00    0.33725   0.37463    0.013
 6815.00    0.38361   0.37461    0.013
 6816.00    0.40304   0.37440    0.013
 6817.00    0.39882   0.37411    0.013
 6818.00    0.37785   0.37386    0.012
 6819.00    0.36415   0.37367    0.012
 6820.00    0.35498   0.37356    0.012
 6821.00    0.38461   0.37360    0.012
 6822.00    0.43531   0.37383    0.012
 6823.00    0.48235   0.37411    0.012
 6824.00    0.52768   0.37420    0.012
 6825.00    0.45197   0.37394    0.012
 6826.00    0.32705   0.37332    0.013
 6827.00    0.20602   0.37237    0.013
 6828.00    0.08635   0.37115    0.013
 6829.00    0.26440   0.36975    0.013
 6830.00    0.52956   0.36844    0.014
 6831.00    0.50196   0.36749    0.013
 6832.00    0.40345   0.36707    0.013
 6833.00    0.42180   0.36716    0.013
 6834.00    0.46302   0.36769    0.013
 6835.00    0.42835   0.36852    0.013
 6836.00    0.38211   0.36950    0.013
 6837.00    0.20941   0.37037    0.013
 6838.00    0.02251   0.37095    0.013
 6839.00    0.15172   0.37116    0.013
 6840.00    0.30456   0.37102    0.013
 6841.00    0.49721   0.37056    0.013
 6842.00    0.69144   0.36978    0.013
 6843.00    0.57022   0.36881    0.013
 6844.00    0.45111   0.36783    0.013
 6845.00    0.50241   0.36696    0.012
 6846.00    0.54562   0.36623    0.012
 6847.00    0.45218   0.36567    0.013
 6848.00    0.37119   0.36527    0.013
 6849.00    0.42038   0.36511    0.013
 6850.00    0.47347   0.36529    0.013
 6851.00    0.55558   0.36574    0.013
 6852.00    0.62029   0.36629    0.013
 6853.00    0.58641   0.36677    0.013
 6854.00    0.56145   0.36708    0.013
 6855.00    0.57674   0.36722    0.013
 6856.00    0.58824   0.36725    0.013
 6857.00    0.58576   0.36716    0.013
 6858.00    0.58016   0.36689    0.013
 6859.00    0.56494   0.36645    0.013
 6860.00    0.55519   0.36604    0.013
 6861.00    0.55985   0.36589    0.012
 6862.00    0.54895   0.36603    0.012
 6863.00    0.50287   0.36641    0.012
 6864.00    0.42835   0.36693    0.012
 6865.00    0.29816   0.36756    0.012
 6866.00    0.22564   0.36825    0.012
 6867.00    0.25150   0.36890    0.012
 6868.00    0.33539   0.36930    0.013
 6869.00    0.50602   0.36930    0.013
 6870.00    0.59446   0.36899    0.013
 6871.00    0.57494   0.36854    0.013
 6872.00    0.50552   0.36813    0.013
 6873.00    0.37834   0.36780    0.013
 6874.00    0.29739   0.36764    0.013
 6875.00    0.26361   0.36779    0.013
 6876.00    0.34321   0.36832    0.013
 6877.00    0.52484   0.36913    0.013
 6878.00    0.51710   0.37003    0.013
 6879.00    0.35913   0.37083    0.013
 6880.00    0.31459   0.37149    0.013
 6881.00    0.34919   0.37197    0.013
 6882.00    0.37086   0.37223    0.013
 6883.00    0.38461   0.37225    0.012
 6884.00    0.34991   0.37213    0.012
 6885.00    0.28932   0.37195    0.012
 6886.00    0.33261   0.37177    0.012
 6887.00    0.42409   0.37162    0.012
 6888.00    0.42486   0.37147    0.012
 6889.00    0.38938   0.37141    0.012
 6890.00    0.36923   0.37151    0.012
 6891.00    0.35431   0.37172    0.012
 6892.00    0.37403   0.37195    0.013
 6893.00    0.40367   0.37217    0.013
 6894.00    0.44258   0.37244    0.013
 6895.00    0.48369   0.37285    0.013
 6896.00    0.46421   0.37325    0.013
 6897.00    0.43318   0.37348    0.013
 6898.00    0.36227   0.37348    0.013
 6899.00    0.28546   0.37326    0.013
 6900.00    0.34964   0.37285    0.013
 6901.00    0.42904   0.37217    0.013
 6902.00    0.32197   0.37120    0.013
 6903.00    0.20173   0.37021    0.013
 6904.00    0.33121   0.36940    0.013
 6905.00    0.46966   0.36879    0.013
 6906.00    0.30862   0.36848    0.012
 6907.00    0.15136   0.36843    0.012
 6908.00    0.15914   0.36863    0.012
 6909.00    0.16727   0.36907    0.012
 6910.00    0.18087   0.36946    0.012
 6911.00    0.19367   0.36960    0.012
 6912.00    0.19844   0.36944    0.012
 6913.00    0.21059   0.36909    0.012
 6914.00    0.27571   0.36875    0.012
 6915.00    0.32050   0.36860    0.013
 6916.00    0.25320   0.36861    0.013
 6917.00    0.21819   0.36873    0.013
 6918.00    0.32555   0.36898    0.013
 6919.00    0.36816   0.36932    0.013
 6920.00    0.17605   0.36961    0.013
 6921.00    0.07590   0.36974    0.013
 6922.00    0.25527   0.36975    0.013
 6923.00    0.35245   0.36977    0.013
 6924.00    0.23717   0.36979    0.013
 6925.00    0.18510   0.36983    0.013
 6926.00    0.27350   0.36992    0.013
 6927.00    0.33712   0.37011    0.013
 6928.00    0.35301   0.37038    0.012
 6929.00    0.38532   0.37058    0.012
 6930.00    0.44522   0.37054    0.013
 6931.00    0.41728   0.37028    0.013
 6932.00    0.25999   0.36981    0.012
 6933.00    0.17843   0.36924    0.012
 6934.00    0.19491   0.36879    0.012
 6935.00    0.20701   0.36864    0.013
 6936.00    0.21409   0.36872    0.013
 6937.00    0.28081   0.36892    0.013
 6938.00    0.40754   0.36914    0.013
 6939.00    0.48767   0.36930    0.013
 6940.00    0.52644   0.36940    0.013
 6941.00    0.56078   0.36940    0.014
 6942.00    0.59166   0.36923    0.013
 6943.00    0.51725   0.36903    0.013
 6944.00    0.37043   0.36897    0.013
 6945.00    0.34057   0.36913    0.013
 6946.00    0.38122   0.36948    0.013
 6947.00    0.31769   0.36993    0.013
 6948.00    0.19936   0.37040    0.013
 6949.00    0.24044   0.37090    0.013
 6950.00    0.35428   0.37138    0.013
 6951.00    0.34486   0.37177    0.013
 6952.00    0.28703   0.37208    0.013
 6953.00    0.26631   0.37230    0.013
 6954.00    0.25799   0.37247    0.013
 6955.00    0.34182   0.37268    0.013
 6956.00    0.45153   0.37297    0.013
 6957.00    0.52424   0.37325    0.013
 6958.00    0.58838   0.37341    0.013
 6959.00    0.45022   0.37339    0.013
 6960.00    0.27451   0.37324    0.013
 6961.00    0.35148   0.37295    0.013
 6962.00    0.46462   0.37237    0.013
 6963.00    0.42212   0.37132    0.013
 6964.00    0.36350   0.36985    0.013
 6965.00    0.37172   0.36813    0.014
 6966.00    0.38441   0.36627    0.014
 6967.00    0.31856   0.36457    0.013
 6968.00    0.25023   0.36353    0.013
 6969.00    0.34935   0.36346    0.013
 6970.00    0.44189   0.36423    0.013
 6971.00    0.33318   0.36557    0.013
 6972.00    0.23205   0.36724    0.013
 6973.00    0.24355   0.36902    0.013
 6974.00    0.26272   0.37064    0.013
 6975.00    0.35555   0.37176    0.013
 6976.00    0.44043   0.37224    0.013
 6977.00    0.46995   0.37219    0.013
 6978.00    0.49288   0.37185    0.013
 6979.00    0.48043   0.37153    0.013
 6980.00    0.45055   0.37137    0.013
 6981.00    0.34553   0.37131    0.013
 6982.00    0.26082   0.37124    0.013
 6983.00    0.24816   0.37115    0.013
 6984.00    0.22216   0.37111    0.014
 6985.00    0.15634   0.37105    0.013
 6986.00    0.18979   0.37080    0.013
 6987.00    0.47539   0.37023    0.014
 6988.00    0.59420   0.36940    0.014
 6989.00    0.34836   0.36861    0.013
 6990.00    0.21579   0.36805    0.013
 6991.00    0.29810   0.36759    0.013
 6992.00    0.35554   0.36707    0.013
 6993.00    0.37182   0.36652    0.013
 6994.00    0.40690   0.36618    0.013
 6995.00    0.46929   0.36614    0.013
 6996.00    0.42388   0.36631    0.013
 6997.00    0.24089   0.36659    0.013
 6998.00    0.10887   0.36692    0.013
 6999.00    0.03419   0.36720    0.013
 7000.00    0.19952   0.36731    0.014
 7001.00    0.60296   0.36726    0.014
 7002.00    0.69495   0.36704    0.015
 7003.00    0.51444   0.36650    0.014
 7004.00    0.41696   0.36557    0.014
 7005.00    0.38347   0.36459    0.014
 7006.00    0.36240   0.36420    0.014
 7007.00    0.34974   0.36455    0.014
 7008.00    0.41064   0.36521    0.015
 7009.00    0.51522   0.36588    0.015
 7010.00    0.52347   0.36649    0.015
 7011.00    0.48183   0.36693    0.014
 7012.00    0.58178   0.36703    0.014
 7013.00    0.74528   0.36685    0.014
 7014.00    0.78297   0.36666    0.014
 7015.00    0.77211   0.36662    0.014
 7016.00    0.68184   0.36668    0.014
 7017.00    0.56551   0.36692    0.014
 7018.00    0.43887   0.36741    0.015
 7019.00    0.30940   0.36809    0.015
 7020.00   -0.77692   0.36872    0.000
 7021.00   -2.07957   0.36909    0.000
 7022.00   -1.08748   0.36919    0.000
 7023.00    0.31923   0.36914    0.110
 7024.00    0.51208   0.36904   -1.000
 7025.00    0.53678   0.36896   -1.000
 7026.00    0.56915   0.36877   -1.000
 7027.00    0.60229   0.36857   -1.000
 7028.00    0.55811   0.36894   -1.000
 7029.00    0.50910   0.37013   -1.000
 7030.00    0.55200   0.37171   -1.000
 7031.00    0.59714   0.37329   -1.000
 7032.00    0.54473   0.37474   -1.000
 7033.00    0.49381   0.37600   -1.000
 7034.00    0.48367   0.37700   -1.000
 7035.00    0.47739   0.37772   -1.000
 7036.00    0.52516   0.37807   -1.000
 7037.00    0.56368   0.37794   -1.000
 7038.00    0.51688   0.37726   -1.000
 7039.00    0.46757   0.37603   -1.000
 7040.00    0.40144   0.37431   -1.000
 7041.00    0.35772   0.37198   -1.000
 7042.00    0.43121   0.36914   -1.000
 7043.00    0.50668   0.36614   -1.000
 7044.00    0.59050   0.36329   -1.000
 7045.00    0.64610   0.36086   -1.000
 7046.00    0.60350   0.35892   -1.000
 7047.00    0.54543   0.35732   -1.000
 7048.00    0.44206   0.35596   -1.000
 7049.00    0.37266   0.35484   -1.000
 7050.00    0.38803   0.35410   -2.000
 7051.00    0.39914   0.35366   -2.000
 7052.00    0.40111   0.35335   -2.000
 7053.00    0.42673   0.35312   -2.000
 7054.00    0.49654   0.35293   -2.000
 7055.00    0.53571   0.35272   -2.000
 7056.00    0.52492   0.35251   -2.000
 7057.00    0.51542   0.35237   -2.000
 7058.00    0.50778   0.35252   -2.000
 7059.00    0.49141   0.35311   -2.000
 7060.00    0.46407   0.35399   -2.000
 7061.00    0.44467   0.35498   -2.000
 7062.00    0.43409   0.35603   -2.000
 7063.00    0.46711   0.35706   -2.000
 7064.00    0.54278   0.35794   -2.000
 7065.00    0.58462   0.35853   -2.000
 7066.00    0.59728   0.35882   -2.000
 7067.00    0.62356   0.35887   -2.000
 7068.00    0.66018   0.35861   -2.000
 7069.00    0.63592   0.35801   -2.000
 7070.00    0.57101   0.35705   -2.000
 7071.00    0.57789   0.35563   -2.000
 7072.00    0.62674   0.35364   -2.000
 7073.00    0.56232   0.35113   -2.000
 7074.00    0.44015   0.34848   -2.000
 7075.00    0.42510   0.34599   -2.000
 7076.00    0.45734   0.34363   -2.000
 7077.00    0.52724   0.34135   -2.000
 7078.00    0.61142   0.33934   -2.000
 7079.00    0.58499   0.33778   -2.000
 7080.00    0.52294   0.33670   -2.000
 7081.00    0.48644   0.33601   -2.000
 7082.00    0.45682   0.33556   -2.000
 7083.00    0.52337   0.33540   -2.000
 7084.00    0.61116   0.33556   -2.000
 7085.00    0.60791   0.33599   -2.000
 7086.00    0.58866   0.33665   -2.000
 7087.00    0.61402   0.33750   -2.000
 7088.00    0.64534   0.33863   -2.000
 7089.00    0.60499   0.33986   -2.000
 7090.00    0.55782   0.34091   -2.000
 7091.00    0.58278   0.34174   -2.000
 7092.00    0.61196   0.34243   -2.000
 7093.00    0.54851   0.34308   -2.000
 7094.00    0.48389   0.34360   -2.000
 7095.00    0.56955   0.34383   -2.000
 7096.00    0.64480   0.34377   -2.000
 7097.00    0.46132   0.34360   -2.000
 7098.00    0.29391   0.34340   -2.000
 7099.00    0.33998   0.34310   -2.000
 7100.00    0.37847   0.34270   -2.000
 7101.00    0.34979   0.34242   -2.000
 7102.00    0.33729   0.34251   -2.000
 7103.00    0.43042   0.34290   -2.000
 7104.00    0.50999   0.34340   -2.000
 7105.00    0.52054   0.34396   -2.000
 7106.00    0.52183   0.34454   -2.000
 7107.00    0.48501   0.34504   -2.000
 7108.00    0.47029   0.34533   -2.000
 7109.00    0.53092   0.34537   -2.000
 7110.00    0.58211   0.34511   -2.000
 7111.00    0.60616   0.34454   -2.000
 7112.00    0.60439   0.34380   -2.000
 7113.00    0.53926   0.34300   -2.000
 7114.00    0.50635   0.34193   -2.000
 7115.00    0.54160   0.34050   -2.000
 7116.00    0.56196   0.33898   -2.000
 7117.00    0.55491   0.33768   -2.000
 7118.00    0.58398   0.33662   -2.000
 7119.00    0.67107   0.33564   -2.000
 7120.00    0.74318   0.33487   -2.000
 7121.00    0.79418   0.33467   -2.000
 7122.00    0.75240   0.33511   -2.000
 7123.00    0.59554   0.33589   -2.000
 7124.00    0.44094   0.33675   -2.000
 7125.00    0.28881   0.33760   -2.000
 7126.00    0.17344   0.33843   -2.000
 7127.00    0.09351   0.33914   -2.000
 7128.00    0.11537   0.33955   -2.000
 7129.00    0.22379   0.33977   -2.000
 7130.00    0.28222   0.33998   -2.000
 7131.00    0.30321   0.34015   -2.000
 7132.00    0.36646   0.34007   -2.000
 7133.00    0.45751   0.33975   -2.000
 7134.00    0.49326   0.33931   -2.000
 7135.00    0.49716   0.33882   -2.000
 7136.00    0.48917   0.33825   -2.000
 7137.00    0.47520   0.33759   -2.000
 7138.00    0.50865   0.33720   -2.000
 7139.00    0.56269   0.33751   -2.000
 7140.00    0.53588   0.33836   -2.000
 7141.00    0.47896   0.33947   -2.000
 7142.00    0.45419   0.34074   -2.000
 7143.00    0.43958   0.34204   -2.000
 7144.00    0.44868   0.34312   -2.000
 7145.00    0.46404   0.34386   -2.000
 7146.00    0.38939   0.34439   -2.000
 7147.00    0.29535   0.34462   -2.000
 7148.00    0.36439   0.34430   -2.000
 7149.00    0.46131   0.34347   -2.000
 7150.00    0.53873   0.34243   -2.000
 7151.00    0.61362   0.34146   -2.000
 7152.00    0.61109   0.34050   -2.000
 7153.00    0.60154   0.33936   -2.000
 7154.00    0.57586   0.33826   -2.000
 7155.00    0.54930   0.33775   -2.000
 7156.00    0.54671   0.33809   -2.000
 7157.00    0.54386   0.33894   -2.000
 7158.00    0.47144   0.33983   -2.000
 7159.00    0.40633   0.34070   -2.000
 7160.00    0.50721   0.34161   -2.000
 7161.00    0.59032   0.34248   -2.000
 7162.00    0.44958   0.34311   -2.000
 7163.00    0.32949   0.34337   -2.000
 7164.00    0.38562   0.34322   -2.000
 7165.00    0.44544   0.34269   -2.000
 7166.00    0.52864   0.34199   -2.000
 7167.00    0.58623   0.34138   -2.000
 7168.00    0.51667   0.34088   -2.000
 7169.00    0.47154   0.34023   -2.000
 7170.00    0.52478   0.33949   -2.000
 7171.00    0.56828   0.33899   -2.000
 7172.00    0.57929   0.33887   -2.000
 7173.00    0.57168   0.33894   -2.000
 7174.00    0.51153   0.33881   -2.000
 7175.00    0.48742   0.33840   -2.000
 7176.00    0.55025   0.33784   -2.000
 7177.00    0.60466   0.33720   -2.000
 7178.00    0.64155   0.33675   -2.000
 7179.00    0.63848   0.33671   -2.000
 7180.00    0.56305   0.33706   -2.000
 7181.00    0.45450   0.33764   -2.000
 7182.00    0.29352   0.33813   -2.000
 7183.00    0.24030   0.33862   -2.000
 7184.00    0.33681   0.33924   -2.000
 7185.00    0.40236   0.33981   -2.000
 7186.00    0.43005   0.34001   -2.000
 7187.00    0.46285   0.33985   -2.000
 7188.00    0.50113   0.33981   -2.000
 7189.00    0.49510   0.33998   -2.000
 7190.00    0.44693   0.34005   -2.000
 7191.00    0.44231   0.33977   -2.000
 7192.00    0.47422   0.33923   -2.000
 7193.00    0.50119   0.33887   -2.000
 7194.00    0.52453   0.33866   -2.000
 7195.00    0.49632   0.33820   -2.000
 7196.00    0.43470   0.33741   -2.000
 7197.00    0.50711   0.33663   -2.000
 7198.00    0.65556   0.33648   -2.000
 7199.00    0.63018   0.33699   -2.000
 7200.00    0.51895   0.33779   -2.000
 7201.00    0.55625   0.33875   -2.000
 7202.00    0.65697   0.33963   -2.000
 7203.00    0.64989   0.34044   -2.000
 7204.00    0.60336   0.34120   -2.000
 7205.00    0.51108   0.34183   -2.000
 7206.00    0.40463   0.34240   -2.000
 7207.00    0.38509   0.34293   -2.000
 7208.00    0.38799   0.34341   -2.000
 7209.00    0.45006   0.34372   -2.000
 7210.00    0.52458   0.34395   -2.000
 7211.00    0.38351   0.34423   -2.000
 7212.00    0.20663   0.34455   -2.000
 7213.00    0.38129   0.34484   -2.000
 7214.00    0.59987   0.34520   -2.000
 7215.00    0.55172   0.34573   -2.000
 7216.00    0.48048   0.34633   -2.000
 7217.00    0.46517   0.34688   -2.000
 7218.00    0.45270   0.34729   -2.000
