###################################################################
## OUTPUT of StarlightChains_v04.for    [Cid@UFSC - 01/Apr/2007] ##
###################################################################

## Some input info
KUG0210-078._21_35.txt                   [arq_obs]
Base.CB07.vall.4m                        [arq_base]
Masks.EmLines.NEW.gm                     [arq_masks]
StCv04.C11.config                        [arq_config]
   66                                    [N_base]
    0                                    [N_YAV_components = # of components with extra extinction!]
    0                                    [i_FitPowerLaw (1/0 = Yes/No)]
-9.99                                    [alpha_PowerLaw]
CCM                                      [red_law_option]
 1.458241                                [q_norm = A(l_norm)/A(V)]

## (Re)Sampling Parameters
 3741.00                                 [l_ini (A)]
 7218.00                                 [l_fin (A)]
    1.00                                 [dl    (A)]     (OBS: dl_cushion =    50.00 A)

## Normalization info
 4020.00                                 [l_norm (A) - for base]
 4010.00                                 [llow_norm (A) - window for f_obs]
 4060.00                                 [lupp_norm (A) - window for f_obs]
5.766000E-18                             [fobs_norm (in input units)]

## S/N
 3691.00                                 [llow_SN (A) - window for S/N]
 7268.00                                 [lupp_SN (A) - window for S/N]
   2.267                                 [S/N in S/N window]
   2.588                                 [S/N in norm. window]
   0.007                                 [S/N_err in S/N window]
   0.008                                 [S/N_err in norm. window]
  1.0000                                 [fscale_chi2]

## etc...
    -2007233                             [idum_orig]
  2392                                   [NOl_eff]
  2361                                   [Nl_eff]
    31    NSIGMA                         [Ntot_cliped & clip_method]
   585550                                [Nglobal_steps]
   7                                     [N_chains]
   7                                     [NEX0s_base = N_base in EX0s-fits]
 0   0   1       31   2.0   1.358E+03    [Clip-Bug, RC-Crash & Burn-In warning-flags, n_censored_weights, wei_nsig_threshold & wei_limit]
    10      9.990      9.595      0.395  [idt_all, wdt_TotTime, wdt_UsrTime & wdt_SysTime (sec)]

## Synthesis Results - Best model ##

 3.03899E-05                             [chi2/Nl_eff]
    67.88320                             [adev (%)]

   127.99437                             [sum-of-x (%)]
 1.82404E-17                             [Flux_tot (units of input spectrum!)]
 1.26329E-15                             [Mini_tot (???)]
 1.12869E-15                             [Mcor_tot (???)]

 415.43                                  [v0_min  (km/s)]
 122.07                                  [vd_min  (km/s)]
 0.6737                                  [AV_min  (mag)]
 0.0000                                  [YAV_min (mag)]

# j     x_j(%)      Mini_j(%)     Mcor_j(%)     age_j(yr)     Z_j      (L/M)_j    YAV?  Mstars   component_j        a/Fe...       SSP_chi2r SSP_adev(%)   SSP_AV   SSP_x(%)
  1      0.0000     0.0000E+00    0.0000E+00    1.000000E+06  0.00400  1.094E-02    0   1.0000   age020_m42            0.0000     3.2392E-05    76.2298   1.6046   126.6880
  2      0.0000     0.0000E+00    0.0000E+00    3.160000E+06  0.00400  4.007E-02    0   0.9999   age045_m42            0.0000     3.4366E-05    76.6709   0.8071   137.4484
  3      0.0000     0.0000E+00    0.0000E+00    5.010000E+06  0.00400  2.539E-02    0   0.9488   age055_m42            0.0000     3.3348E-05    76.4476   1.1639   133.1431
  4      0.0000     0.0000E+00    0.0000E+00    6.610000E+06  0.00400  2.620E-02    0   0.9220   age061_m42            0.0000     3.4491E-05    76.4861   0.7475   137.4061
  5      0.0000     0.0000E+00    0.0000E+00    1.000000E+07  0.00400  1.322E-02    0   0.8862   age070_m42            0.0000     3.3544E-05    74.9017   0.5759   137.4154
  6      0.0000     0.0000E+00    0.0000E+00    1.445000E+07  0.00400  7.883E-03    0   0.8571   age078_m42            0.0000     3.2954E-05    75.0388   0.9039   133.9277
  7      0.0000     0.0000E+00    0.0000E+00    2.512000E+07  0.00400  5.251E-03    0   0.8174   age090_m42            0.0000     3.3543E-05    74.6084   0.4612   137.8279
  8      0.0000     0.0000E+00    0.0000E+00    4.000000E+07  0.00400  3.649E-03    0   0.7851   age104_m42            0.0000     3.3943E-05    74.8257   0.2137   139.5969
  9      0.0000     0.0000E+00    0.0000E+00    5.500000E+07  0.00400  3.098E-03    0   0.7629   age110_m42            0.0000     3.5052E-05    75.5835   0.3105   141.0446
 10      0.0000     0.0000E+00    0.0000E+00    1.015200E+08  0.00400  2.228E-03    0   0.7207   age116_m42            0.0000     3.6084E-05    75.9599   0.2980   142.0602
 11      0.0000     0.0000E+00    0.0000E+00    2.861200E+08  0.00400  1.093E-03    0   0.6648   age125_m42            0.0000     3.6712E-05    75.3405  -0.2393   145.2511
 12      0.0000     0.0000E+00    0.0000E+00    5.088000E+08  0.00400  6.597E-04    0   0.6365   age130_m42            0.0000     3.8165E-05    75.9959  -0.2999   147.7689
 13      0.0000     0.0000E+00    0.0000E+00    1.434000E+09  0.00400  2.132E-04    0   0.5798   age139_m42            0.0000     3.7917E-05    75.8980  -1.0000   146.1009
 14      0.0000     0.0000E+00    0.0000E+00    4.250000E+09  0.00400  5.895E-05    0   0.5377   age158_m42            0.0000     3.8060E-05    77.3129  -1.0000   130.5372
 15      0.0000     0.0000E+00    0.0000E+00    7.500000E+09  0.00400  3.510E-05    0   0.5212   age171_m42            0.0000     3.9299E-05    77.9499  -1.0000   124.4938
 16      0.0000     0.0000E+00    0.0000E+00    1.300000E+10  0.00400  2.005E-05    0   0.5034   age193_m42            0.0000     4.0528E-05    78.5462  -1.0000   119.0004
 17      0.0000     0.0000E+00    0.0000E+00    1.800000E+10  0.00400  1.525E-05    0   0.4967   age213_m42            0.0000     4.0496E-05    78.5384  -1.0000   117.8485
 18      5.6227     5.1235E+00    5.7345E+00    1.000000E+06  0.00800  1.238E-02    0   1.0000   age020_m52            0.0000     3.2345E-05    76.2823   1.6023   126.9771
 19      0.0000     0.0000E+00    0.0000E+00    3.160000E+06  0.00800  3.074E-02    0   0.9966   age045_m52            0.0000     3.2350E-05    76.4081   1.5100   128.5504
 20      0.0000     0.0000E+00    0.0000E+00    5.010000E+06  0.00800  2.668E-02    0   0.9443   age055_m52            0.0000     3.2885E-05    76.3951   1.2542   131.7503
 21      0.0000     0.0000E+00    0.0000E+00    6.610000E+06  0.00800  2.136E-02    0   0.9177   age061_m52            0.0000     3.2708E-05    75.1611  -0.0005   140.2860
 22      0.0000     0.0000E+00    0.0000E+00    1.000000E+07  0.00800  1.215E-02    0   0.8827   age070_m52            0.0000     3.2901E-05    74.4494   0.7915   136.1639
 23      0.0000     0.0000E+00    0.0000E+00    1.445000E+07  0.00800  8.717E-03    0   0.8552   age078_m52            0.0000     3.3104E-05    75.0134   0.8714   135.7855
 24      0.0000     0.0000E+00    0.0000E+00    2.512000E+07  0.00800  5.592E-03    0   0.8162   age090_m52            0.0000     3.3640E-05    74.5513   0.5260   139.4398
 25      0.0000     0.0000E+00    0.0000E+00    4.000000E+07  0.00800  3.896E-03    0   0.7841   age104_m52            0.0000     3.4354E-05    74.9504   0.4087   141.3087
 26      0.0000     0.0000E+00    0.0000E+00    1.015200E+08  0.00800  2.148E-03    0   0.7226   age116_m52            0.0000     3.5545E-05    75.6431   0.2964   142.3420
 27      0.0000     0.0000E+00    0.0000E+00    2.861200E+08  0.00800  9.925E-04    0   0.6683   age125_m52            0.0000     3.8089E-05    75.9338  -0.2330   149.0950
 28      0.0000     0.0000E+00    0.0000E+00    9.047900E+08  0.00800  3.141E-04    0   0.6138   age135_m52            0.0000     3.9326E-05    76.6153  -1.0000   155.6525
 29      0.0000     0.0000E+00    0.0000E+00    1.434000E+09  0.00800  1.719E-04    0   0.5853   age139_m52            0.0000     3.8743E-05    76.6596  -1.0000   139.3363
 30      0.0000     0.0000E+00    0.0000E+00    2.500000E+09  0.00800  7.872E-05    0   0.5600   age150_m52            0.0000     4.0175E-05    78.0656  -1.0000   128.4409
 31      0.0000     0.0000E+00    0.0000E+00    4.250000E+09  0.00800  4.336E-05    0   0.5426   age158_m52            0.0000     4.0105E-05    78.1491  -1.0000   126.8014
 32      0.0000     0.0000E+00    0.0000E+00    6.250000E+09  0.00800  3.159E-05    0   0.5319   age166_m52            0.0000     4.2180E-05    78.6675  -1.0000   120.4892
 33      0.0000     0.0000E+00    0.0000E+00    1.300000E+10  0.00800  1.361E-05    0   0.5073   age193_m52            0.0000     4.6848E-05    79.7511  -1.0000   104.1459
 34      0.0000     0.0000E+00    0.0000E+00    1.800000E+10  0.00800  9.886E-06    0   0.4990   age213_m52            0.0000     4.8859E-05    79.7744  -1.0000    99.5769
 35      0.0000     0.0000E+00    0.0000E+00    1.000000E+06  0.02000  1.544E-02    0   1.0000   age020_m62            0.0000     3.2263E-05    76.3051   1.5950   127.3399
 36      0.0000     0.0000E+00    0.0000E+00    3.160000E+06  0.02000  3.762E-02    0   0.9858   age045_m62            0.0000     3.2183E-05    76.4002   1.5292   128.7167
 37      0.0000     0.0000E+00    0.0000E+00    5.010000E+06  0.02000  3.296E-02    0   0.9342   age055_m62            0.0000     3.3791E-05    76.7560   1.0944   135.6287
 38      0.0000     0.0000E+00    0.0000E+00    8.710000E+06  0.02000  1.154E-02    0   0.8861   age067_m62            0.0000     3.0787E-05    70.9987   0.4516   134.5148
 39      0.0000     0.0000E+00    0.0000E+00    1.445000E+07  0.02000  7.663E-03    0   0.8472   age078_m62            0.0000     3.2206E-05    73.4734   0.5036   137.6510
 40      0.0000     0.0000E+00    0.0000E+00    2.512000E+07  0.02000  4.532E-03    0   0.8099   age090_m62            0.0000     3.2378E-05    73.3289   0.4993   137.1256
 41      0.0000     0.0000E+00    0.0000E+00    5.500000E+07  0.02000  2.733E-03    0   0.7595   age110_m62            0.0000     3.4059E-05    74.9689   0.3941   140.1780
 42      0.0000     0.0000E+00    0.0000E+00    1.609000E+08  0.02000  1.369E-03    0   0.6985   age120_m62            0.0000     3.6878E-05    75.6953   0.1658   145.7242
 43      0.0000     0.0000E+00    0.0000E+00    2.861200E+08  0.02000  9.013E-04    0   0.6714   age125_m62            0.0000     3.9012E-05    75.8605  -0.1145   150.6189
 44      0.0000     0.0000E+00    0.0000E+00    5.088000E+08  0.02000  5.028E-04    0   0.6449   age130_m62            0.0000     4.0558E-05    76.9985  -0.6018   157.6979
 45      0.0000     0.0000E+00    0.0000E+00    9.047900E+08  0.02000  2.428E-04    0   0.6179   age135_m62            0.0000     3.9158E-05    77.3906  -1.0000   153.8843
 46      0.0000     0.0000E+00    0.0000E+00    1.434000E+09  0.02000  1.263E-04    0   0.5908   age139_m62            0.0000     3.9313E-05    77.4104  -1.0000   141.2381
 47      0.0000     0.0000E+00    0.0000E+00    2.500000E+09  0.02000  5.985E-05    0   0.5673   age150_m62            0.0000     4.1189E-05    78.5205  -1.0000   129.1873
 48      0.0000     0.0000E+00    0.0000E+00    4.250000E+09  0.02000  3.271E-05    0   0.5468   age158_m62            0.0000     4.4206E-05    79.3035  -1.0000   118.2970
 49      0.0000     0.0000E+00    0.0000E+00    1.000000E+10  0.02000  1.360E-05    0   0.5167   age181_m62            0.0000     4.8795E-05    79.4588  -1.0000   105.4012
 50      0.0000     0.0000E+00    0.0000E+00    1.800000E+10  0.02000  7.124E-06    0   0.5013   age213_m62            0.0000     5.2160E-05    79.1684  -1.0000    96.7257
 51      0.0000     0.0000E+00    0.0000E+00    1.000000E+06  0.05000  2.592E-02    0   0.9998   age020_m72            0.0000     3.2003E-05    76.2652   1.5922   127.2648
 52      0.0000     0.0000E+00    0.0000E+00    3.160000E+06  0.05000  4.845E-02    0   0.9577   age045_m72            0.0000     3.2676E-05    76.7223   1.3717   131.4441
 53      0.0000     0.0000E+00    0.0000E+00    5.010000E+06  0.05000  3.072E-02    0   0.9147   age055_m72            0.0000     3.2105E-05    74.6950   1.0227   133.8799
 54    122.3717     9.4877E+01    9.4266E+01    6.610000E+06  0.05000  1.455E-02    0   0.8877   age061_m72            0.0000     3.0250E-05    69.9297   0.5668   133.5616
 55      0.0000     0.0000E+00    0.0000E+00    1.000000E+07  0.05000  9.074E-03    0   0.8524   age070_m72            0.0000     3.2203E-05    74.7133   1.2091   133.3122
 56      0.0000     0.0000E+00    0.0000E+00    2.512000E+07  0.05000  4.250E-03    0   0.7902   age090_m72            0.0000     3.3220E-05    74.7342   0.8912   136.4316
 57      0.0000     0.0000E+00    0.0000E+00    4.000000E+07  0.05000  3.087E-03    0   0.7618   age104_m72            0.0000     3.3752E-05    74.5302   0.6724   138.4782
 58      0.0000     0.0000E+00    0.0000E+00    1.015200E+08  0.05000  1.700E-03    0   0.7096   age116_m72            0.0000     3.6345E-05    75.2625   0.3452   144.1071
 59      0.0000     0.0000E+00    0.0000E+00    2.861200E+08  0.05000  7.384E-04    0   0.6633   age125_m72            0.0000     4.0134E-05    76.3417  -0.3007   154.1057
 60      0.0000     0.0000E+00    0.0000E+00    5.088000E+08  0.05000  3.819E-04    0   0.6372   age130_m72            0.0000     3.9887E-05    77.6499  -0.9098   160.2686
 61      0.0000     0.0000E+00    0.0000E+00    9.047900E+08  0.05000  1.676E-04    0   0.6110   age135_m72            0.0000     3.9916E-05    78.1625  -1.0000   144.8175
 62      0.0000     0.0000E+00    0.0000E+00    1.434000E+09  0.05000  8.837E-05    0   0.5874   age139_m72            0.0000     4.1746E-05    78.6602  -1.0000   131.0035
 63      0.0000     0.0000E+00    0.0000E+00    2.500000E+09  0.05000  4.233E-05    0   0.5598   age150_m72            0.0000     4.4709E-05    79.4310  -1.0000   119.2290
 64      0.0000     0.0000E+00    0.0000E+00    6.250000E+09  0.05000  1.435E-05    0   0.5249   age166_m72            0.0000     4.9961E-05    79.7285  -1.0000   101.6125
 65      0.0000     0.0000E+00    0.0000E+00    1.300000E+10  0.05000  6.513E-06    0   0.5036   age193_m72            0.0000     5.4376E-05    79.1226  -1.0000    91.9711
 66      0.0000     0.0000E+00    0.0000E+00    1.800000E+10  0.05000  4.527E-06    0   0.4945   age213_m72            0.0000     5.7036E-05    78.5018  -1.0000    85.7206


## Synthesis Results - Average & Chains ##

# j      x_j: min, <> & last-chain-values for 1 ...  7 chains
  1      0.0000     24.9715     61.9291     58.7750     58.8126     58.6663     58.1170     58.4077     58.8388
  2      0.0000      1.4611      0.0000      0.0000      0.0000      0.0000      0.0000      0.0000      0.0000
  3      0.0000      0.9152      0.0000      0.0000      0.0000      0.0000      0.0000      0.0000      0.0000
  4      0.0000      1.0669      0.0000      0.0000      0.0000      0.0000      0.0000      0.0000      0.0000
  5      0.0000      1.1630      0.0000      0.0000      0.0000      0.0000      0.0000      0.0000      0.0000
  6      0.0000      1.0624      0.0000      0.0000      0.0000      0.0000      0.0000      0.0000      0.0000
  7      0.0000      1.1928      0.0000      0.0000      0.0000      0.0000      0.0000      0.0000      0.0000
  8      0.0000      1.0278      0.0000      0.0000      0.0000      0.0000      0.0000      0.0000      0.0000
  9      0.0000      1.0297      0.0000      0.0000      0.0000      0.0000      0.0000      0.0000      0.0000
 10      0.0000      1.1287      0.0000      0.0000      0.0000      0.0000      0.0000      0.0000      0.0000
 11      0.0000      1.0587      0.0000      0.0000      0.0000      0.0000      0.0000      0.0000      0.0000
 12      0.0000      1.4913      0.0000      0.0000      0.0000      0.0000      0.0000      0.0000      0.0000
 13      0.0000      1.1644      0.0000      0.0000      0.0000      0.0000      0.0000      0.0000      0.0000
 14      0.0000      1.1438      0.0000      0.0000      0.0000      0.0000      0.0000      0.0000      0.0000
 15      0.0000      0.9023      0.0000      0.0000      0.0000      0.0000      0.0000      0.0000      0.0000
 16      0.0000      4.9946      9.0026     10.2843      9.7797      9.6459      9.4595      9.6385      9.5525
 17      0.0000      9.6301     27.8034     23.2125     23.6606     23.6153     23.5467     23.5417     23.9587
 18      5.6227      4.4226      9.3212      9.0925      9.0456      9.1047      9.0089      9.9455      9.0714
 19      0.0000      1.1090      0.0000      0.0000      0.0000      0.0000      1.1712      0.0000      0.0000
 20      0.0000      1.1369      0.0000      0.0000      0.0000      0.0000      0.0000      0.0000      0.0000
 21      0.0000      1.1881      0.0000      0.0000      0.0000      0.0000      0.0000      0.0000      0.0000
 22      0.0000      1.3705      0.0000      0.0000      0.0000      0.0000      0.0000      0.0000      0.0000
 23      0.0000      1.3431      0.0000      0.0000      0.0000      0.0000      0.0000      0.0000      0.0019
 24      0.0000      0.8757      0.0000      0.0000      0.0000      0.0000      0.0000      0.0000      0.0000
 25      0.0000      1.0078      0.0000      0.0000      0.0000      0.0000      0.0000      0.0000      0.0000
 26      0.0000      1.0760      0.0000      0.0000      0.0000      0.0000      0.0000      0.0000      0.0000
 27      0.0000      0.9711      0.0000      0.0000      0.0000      0.0000      0.0000      0.0000      0.0000
 28      0.0000      1.4827      0.0000      0.0000      0.0000      0.0000      0.0000      0.0000      0.0000
 29      0.0000      0.8253      0.0000      0.0000      0.0000      0.0000      0.0000      0.0000      0.0000
 30      0.0000      0.8661      0.0000      0.0000      0.0000      0.0000      0.0000      0.0000      0.0000
 31      0.0000      0.9901      0.0000      0.0000      0.0000      0.0000      0.0000      0.0000      0.0000
 32      0.0000      1.2864      0.0000      0.0000      0.0000      0.0000      0.0000      0.0000      0.0000
 33      0.0000      1.2637      0.0000      0.0000      0.0000      0.0000      0.0000      0.0000      0.0000
 34      0.0000      1.2431      0.0000      0.0000      0.0000      0.0000      0.0000      0.0023      0.0000
 35      0.0000      1.2251      0.0000      0.0000      0.0000      0.0000      0.0000      0.0072      0.0000
 36      0.0000      1.3369      0.0000      0.0000      0.0000      0.0000      0.0000      0.0000      0.0000
 37      0.0000      1.2291      0.0000      0.0000      0.0000      0.0000      0.0000      0.0000      0.0000
 38      0.0000      1.8390      0.0000      0.0000      0.0000      0.0000      0.0000      0.0000      0.0000
 39      0.0000      1.3917      0.0000      0.0000      0.0009      0.0000      0.0000      0.0000      0.0000
 40      0.0000      1.4965      0.0000      0.0000      0.0000      0.0000      0.0000      0.0000      0.0000
 41      0.0000      1.3366      0.0000      0.0000      0.0000      0.0000      0.0000      0.0000      0.0000
 42      0.0000      1.1247      0.0000      0.0000      0.0000      0.0000      0.0000      0.0000      0.0000
 43      0.0000      1.2553      0.0000      0.0000      0.0000      0.0000      0.0000      0.0000      0.0000
 44      0.0000      1.5459      0.0000      0.0000      0.0000      0.0000      0.0000      0.0000      0.0000
 45      0.0000      1.0973      0.0000      0.0000      0.0000      0.0000      0.0000      0.0000      0.0000
 46      0.0000      1.2239      0.0000      0.0000      0.0000      0.0000      0.0000      0.0000      0.0000
 47      0.0000      1.3878      0.0000      0.0000      0.0000      0.0000      0.0000      0.0000      0.0000
 48      0.0000      1.0735      0.0000      0.0000      0.0000      0.0000      0.0000      0.0000      0.0000
 49      0.0000      1.2382      0.0000      0.0000      0.0000      0.0000      0.0000      0.0000      0.0000
 50      0.0000      1.1537      0.0000      0.0000      0.0000      0.0000      0.0000      0.0000      0.0000
 51      0.0000      1.5049      0.0239      0.0314      0.0000      0.0000      0.0077      0.1357      0.0000
 52      0.0000      1.0038      0.0000      0.0000      0.0000      0.0000      0.0000      0.0000      0.0000
 53      0.0000      1.2689      0.0000      0.0000      0.0000      0.0000      0.0000      0.0000      0.0000
 54    122.3717     11.7655     21.9199     28.6043     28.7006     28.9662     28.6889     28.3215     28.5767
 55      0.0000      1.0830      0.0000      0.0000      0.0000      0.0000      0.0000      0.0000      0.0000
 56      0.0000      1.3051      0.0000      0.0000      0.0000      0.0000      0.0000      0.0000      0.0000
 57      0.0000      1.3967      0.0000      0.0000      0.0000      0.0000      0.0000      0.0000      0.0000
 58      0.0000      1.5436      0.0000      0.0000      0.0000      0.0000      0.0000      0.0000      0.0000
 59      0.0000      1.2304      0.0000      0.0000      0.0000      0.0000      0.0000      0.0000      0.0000
 60      0.0000      1.2604      0.0000      0.0000      0.0000      0.0000      0.0000      0.0000      0.0000
 61      0.0000      0.8538      0.0000      0.0000      0.0000      0.0000      0.0000      0.0000      0.0000
 62      0.0000      1.5614      0.0000      0.0000      0.0000      0.0000      0.0000      0.0000      0.0000
 63      0.0000      0.9190      0.0000      0.0000      0.0000      0.0000      0.0000      0.0000      0.0000
 64      0.0000      0.8916      0.0000      0.0000      0.0000      0.0000      0.0000      0.0000      0.0000
 65      0.0000      1.5290      0.0000      0.0000      0.0000      0.0000      0.0000      0.0000      0.0000
 66      0.0000      1.1547      0.0000      0.0000      0.0000      0.0016      0.0000      0.0000      0.0000

# j      m_j: min, <> & last-chain-values for 1 ...  7 chains
  1  0.0000E+00  2.0564E-01  4.9684E-01  5.2563E-01  5.2497E-01  5.2606E-01  5.2480E-01  5.2509E-01  5.2316E-01
  2  0.0000E+00  3.2847E-03  0.0000E+00  0.0000E+00  0.0000E+00  0.0000E+00  0.0000E+00  0.0000E+00  0.0000E+00
  3  0.0000E+00  3.0810E-03  0.0000E+00  0.0000E+00  0.0000E+00  0.0000E+00  0.0000E+00  0.0000E+00  0.0000E+00
  4  0.0000E+00  3.3826E-03  0.0000E+00  0.0000E+00  0.0000E+00  0.0000E+00  0.0000E+00  0.0000E+00  0.0000E+00
  5  0.0000E+00  7.0239E-03  0.0000E+00  0.0000E+00  0.0000E+00  0.0000E+00  0.0000E+00  0.0000E+00  0.0000E+00
  6  0.0000E+00  1.0407E-02  0.0000E+00  0.0000E+00  0.0000E+00  0.0000E+00  0.0000E+00  0.0000E+00  0.0000E+00
  7  0.0000E+00  1.6729E-02  0.0000E+00  0.0000E+00  0.0000E+00  0.0000E+00  0.0000E+00  0.0000E+00  0.0000E+00
  8  0.0000E+00  1.9923E-02  0.0000E+00  0.0000E+00  0.0000E+00  2.4008E-07  0.0000E+00  0.0000E+00  0.0000E+00
  9  0.0000E+00  2.2844E-02  0.0000E+00  0.0000E+00  0.0000E+00  0.0000E+00  0.0000E+00  0.0000E+00  0.0000E+00
 10  0.0000E+00  3.2893E-02  0.0000E+00  0.0000E+00  0.0000E+00  0.0000E+00  0.0000E+00  0.0000E+00  0.0000E+00
 11  0.0000E+00  5.8015E-02  0.0000E+00  0.0000E+00  0.0000E+00  0.0000E+00  0.0000E+00  0.0000E+00  0.0000E+00
 12  0.0000E+00  1.2963E-01  0.0000E+00  0.0000E+00  0.0000E+00  0.0000E+00  0.0000E+00  0.0000E+00  0.0000E+00
 13  0.0000E+00  2.8530E-01  0.0000E+00  0.0000E+00  0.0000E+00  0.0000E+00  0.0000E+00  0.0000E+00  0.0000E+00
 14  0.0000E+00  9.3994E-01  0.0000E+00  0.0000E+00  0.0000E+00  0.0000E+00  0.0000E+00  0.0000E+00  0.0000E+00
 15  0.0000E+00  1.2071E+00  0.0000E+00  0.0000E+00  0.0000E+00  0.0000E+00  0.0000E+00  0.0000E+00  0.0000E+00
 16  0.0000E+00  1.1297E+01  1.9838E+01  2.5262E+01  2.3978E+01  2.3758E+01  2.3463E+01  2.3801E+01  2.3330E+01
 17  0.0000E+00  2.8258E+01  7.9481E+01  7.3969E+01  7.5255E+01  7.5454E+01  7.5764E+01  7.5413E+01  7.5906E+01
 18  5.7345E+00  3.2184E-02  6.6084E-02  7.1856E-02  7.1351E-02  7.2146E-02  7.1888E-02  7.9011E-02  7.1276E-02
 19  0.0000E+00  3.2391E-03  0.0000E+00  0.0000E+00  0.0000E+00  0.0000E+00  3.7512E-03  0.0000E+00  0.0000E+00
 20  0.0000E+00  3.6252E-03  0.0000E+00  0.0000E+00  0.0000E+00  0.0000E+00  0.0000E+00  0.0000E+00  0.0000E+00
 21  0.0000E+00  4.5989E-03  0.0000E+00  0.0000E+00  0.0000E+00  0.0000E+00  0.0000E+00  0.0000E+00  0.0000E+00
 22  0.0000E+00  8.9701E-03  0.0000E+00  0.0000E+00  0.0000E+00  0.0000E+00  0.0000E+00  0.0000E+00  0.0000E+00
 23  0.0000E+00  1.1871E-02  0.0000E+00  0.0000E+00  0.0000E+00  0.0000E+00  0.0000E+00  0.0000E+00  1.8436E-05
 24  0.0000E+00  1.1515E-02  0.0000E+00  0.0000E+00  0.0000E+00  0.0000E+00  0.0000E+00  0.0000E+00  0.0000E+00
 25  0.0000E+00  1.8273E-02  0.0000E+00  0.0000E+00  0.0000E+00  0.0000E+00  0.0000E+00  0.0000E+00  0.0000E+00
 26  0.0000E+00  3.2611E-02  0.0000E+00  0.0000E+00  0.0000E+00  0.0000E+00  0.0000E+00  0.0000E+00  0.0000E+00
 27  0.0000E+00  5.8908E-02  0.0000E+00  0.0000E+00  0.0000E+00  0.0000E+00  0.0000E+00  0.0000E+00  0.0000E+00
 28  0.0000E+00  2.6103E-01  0.0000E+00  0.0000E+00  0.0000E+00  0.0000E+00  0.0000E+00  0.0000E+00  0.0000E+00
 29  0.0000E+00  2.5316E-01  0.0000E+00  0.0000E+00  0.0000E+00  0.0000E+00  0.0000E+00  0.0000E+00  0.0000E+00
 30  0.0000E+00  5.5509E-01  0.0000E+00  0.0000E+00  0.0000E+00  0.0000E+00  0.0000E+00  0.0000E+00  0.0000E+00
 31  0.0000E+00  1.1162E+00  0.0000E+00  0.0000E+00  0.0000E+00  0.0000E+00  0.0000E+00  0.0000E+00  0.0000E+00
 32  0.0000E+00  1.9513E+00  0.0000E+00  0.0000E+00  0.0000E+00  0.0000E+00  0.0000E+00  0.0000E+00  0.0000E+00
 33  0.0000E+00  4.2435E+00  0.0000E+00  0.0000E+00  0.0000E+00  0.0000E+00  0.0000E+00  0.0000E+00  0.0000E+00
 34  0.0000E+00  5.6527E+00  0.0000E+00  0.0000E+00  0.0000E+00  0.0000E+00  0.0000E+00  1.1440E-02  0.0000E+00
 35  0.0000E+00  7.1485E-03  0.0000E+00  0.0000E+00  0.0000E+00  0.0000E+00  0.0000E+00  4.5794E-05  0.0000E+00
 36  0.0000E+00  3.1561E-03  0.0000E+00  0.0000E+00  0.0000E+00  0.0000E+00  0.0000E+00  0.0000E+00  0.0000E+00
 37  0.0000E+00  3.1384E-03  0.0000E+00  0.0000E+00  0.0000E+00  0.0000E+00  0.0000E+00  0.0000E+00  0.0000E+00
 38  0.0000E+00  1.2721E-02  0.0000E+00  0.0000E+00  0.0000E+00  0.0000E+00  0.0000E+00  0.0000E+00  0.0000E+00
 39  0.0000E+00  1.3862E-02  0.0000E+00  0.0000E+00  9.4439E-06  0.0000E+00  0.0000E+00  0.0000E+00  0.0000E+00
 40  0.0000E+00  2.4093E-02  0.0000E+00  0.0000E+00  0.0000E+00  0.0000E+00  0.0000E+00  0.0000E+00  0.0000E+00
 41  0.0000E+00  3.3464E-02  0.0000E+00  0.0000E+00  0.0000E+00  0.0000E+00  0.0000E+00  0.0000E+00  0.0000E+00
 42  0.0000E+00  5.1699E-02  0.0000E+00  0.0000E+00  0.0000E+00  0.0000E+00  0.0000E+00  0.0000E+00  0.0000E+00
 43  0.0000E+00  8.4247E-02  0.0000E+00  0.0000E+00  0.0000E+00  0.0000E+00  0.0000E+00  0.0000E+00  0.0000E+00
 44  0.0000E+00  1.7864E-01  0.0000E+00  0.0000E+00  0.0000E+00  0.0000E+00  0.0000E+00  0.0000E+00  0.0000E+00
 45  0.0000E+00  2.5158E-01  0.0000E+00  0.0000E+00  0.0000E+00  0.0000E+00  0.0000E+00  0.0000E+00  0.0000E+00
 46  0.0000E+00  5.1579E-01  0.0000E+00  0.0000E+00  0.0000E+00  0.0000E+00  0.0000E+00  0.0000E+00  0.0000E+00
 47  0.0000E+00  1.1851E+00  0.0000E+00  0.0000E+00  0.0000E+00  0.0000E+00  0.0000E+00  0.0000E+00  0.0000E+00
 48  0.0000E+00  1.6168E+00  0.0000E+00  0.0000E+00  0.0000E+00  0.0000E+00  0.0000E+00  0.0000E+00  0.0000E+00
 49  0.0000E+00  4.2381E+00  0.0000E+00  0.0000E+00  0.0000E+00  0.0000E+00  0.0000E+00  0.0000E+00  0.0000E+00
 50  0.0000E+00  7.3140E+00  0.0000E+00  0.0000E+00  0.0000E+00  0.0000E+00  0.0000E+00  0.0000E+00  0.0000E+00
 51  0.0000E+00  5.2297E-03  8.0811E-05  1.1860E-04  0.0000E+00  0.0000E+00  2.9495E-05  5.1467E-04  0.0000E+00
 52  0.0000E+00  1.7877E-03  0.0000E+00  0.0000E+00  0.0000E+00  0.0000E+00  0.0000E+00  0.0000E+00  0.0000E+00
 53  0.0000E+00  3.4037E-03  0.0000E+00  0.0000E+00  0.0000E+00  0.0000E+00  0.0000E+00  0.0000E+00  0.0000E+00
 54  9.4266E+01  6.4669E-02  1.1738E-01  1.7074E-01  1.7099E-01  1.7336E-01  1.7291E-01  1.6994E-01  1.6959E-01
 55  0.0000E+00  9.1654E-03  0.0000E+00  0.0000E+00  0.0000E+00  0.0000E+00  0.0000E+00  0.0000E+00  0.0000E+00
 56  0.0000E+00  2.1862E-02  0.0000E+00  0.0000E+00  0.0000E+00  0.0000E+00  0.0000E+00  0.0000E+00  0.0000E+00
 57  0.0000E+00  3.1053E-02  0.0000E+00  0.0000E+00  0.0000E+00  0.0000E+00  0.0000E+00  0.0000E+00  0.0000E+00
 58  0.0000E+00  5.8049E-02  0.0000E+00  0.0000E+00  0.0000E+00  0.0000E+00  0.0000E+00  0.0000E+00  0.0000E+00
 59  0.0000E+00  9.9576E-02  0.0000E+00  0.0000E+00  0.0000E+00  0.0000E+00  0.0000E+00  0.0000E+00  0.0000E+00
 60  0.0000E+00  1.8946E-01  0.0000E+00  0.0000E+00  0.0000E+00  0.0000E+00  0.0000E+00  0.0000E+00  0.0000E+00
 61  0.0000E+00  2.8043E-01  0.0000E+00  0.0000E+00  0.0000E+00  0.0000E+00  0.0000E+00  0.0000E+00  0.0000E+00
 62  0.0000E+00  9.3505E-01  0.0000E+00  0.0000E+00  0.0000E+00  0.0000E+00  0.0000E+00  0.0000E+00  0.0000E+00
 63  0.0000E+00  1.0949E+00  0.0000E+00  0.0000E+00  0.0000E+00  0.0000E+00  0.0000E+00  0.0000E+00  0.0000E+00
 64  0.0000E+00  2.9383E+00  0.0000E+00  0.0000E+00  0.0000E+00  0.0000E+00  0.0000E+00  0.0000E+00  0.0000E+00
 65  0.0000E+00  1.0651E+01  0.0000E+00  0.0000E+00  0.0000E+00  0.0000E+00  0.0000E+00  0.0000E+00  0.0000E+00
 66  0.0000E+00  1.1363E+01  0.0000E+00  0.0000E+00  0.0000E+00  1.6772E-02  0.0000E+00  0.0000E+00  0.0000E+00

# AV, chi2 & Mass for <> & i_chain = 1 ...  7 solutions
AV       0.6737      0.0340     -0.0458      0.0238      0.0248      0.0288      0.0362      0.0340      0.0228
chi2 3.0390E-05  3.3113E-05  3.1028E-05  3.0947E-05  3.0946E-05  3.0941E-05  3.0938E-05  3.0941E-05  3.0947E-05
Mass 1.1287E-15  6.6993E-14  6.1777E-14  6.0851E-14  6.1050E-14  6.1095E-14  6.1272E-14  6.1365E-14  6.1118E-14
 415.43                                  [v0_min (km/s) before EX0s...]
 122.07                                  [vd_min (km/s) before EX0s...]


## Synthetic spectrum (Best Model) ##l_obs f_obs f_syn wei
 3478    [Nl_obs]
 3741.00   -1.46213   1.09932    0.000
 3742.00   -1.51340   1.15229    0.000
 3743.00   -0.96584   1.21010    0.000
 3744.00    0.78050   1.26059    0.000
 3745.00    3.22530   1.29899    0.027
 3746.00    3.95452   1.32435    0.027
 3747.00    3.81254   1.33643    0.024
 3748.00    2.07607   1.33478    0.024
 3749.00   -0.36155   1.31852    0.000
 3750.00   -0.28357   1.28743    0.000
 3751.00    0.74412   1.24188    0.021
 3752.00    1.39733   1.18313    0.020
 3753.00    1.93052   1.11708    0.020
 3754.00    1.53743   1.05861    0.019
 3755.00    0.89612   1.02787    0.019
 3756.00    0.84804   1.03732    0.019
 3757.00    0.93017   1.08275    0.019
 3758.00    0.63250   1.14669    0.019
 3759.00    0.26853   1.20980    0.019
 3760.00    0.20653   1.26138    0.019
 3761.00    0.18466   1.29995    0.019
 3762.00    0.83085   1.32785    0.020
 3763.00    1.53983   1.34728    0.020
 3764.00    1.28065   1.35979    0.020
 3765.00    0.96563   1.36635    0.019
 3766.00    0.70640   1.36695    0.019
 3767.00    0.45127   1.36222    0.019
 3768.00    0.53109   1.35217    0.019
 3769.00    0.56858   1.33482    0.019
 3770.00   -0.42224   1.30709    0.000
 3771.00   -1.21955   1.26567    0.000
 3772.00    0.51896   1.20899    0.019
 3773.00    2.02532   1.14024    0.019
 3774.00    1.49366   1.07045    0.019
 3775.00    1.00766   1.01902    0.018
 3776.00    0.81762   1.00476    0.018
 3777.00    0.41347   1.03279    0.017
 3778.00   -1.07433   1.09182    0.000
 3779.00   -1.90576   1.16199    0.000
 3780.00   -0.05055   1.22618    0.000
 3781.00    1.67041   1.27654    0.018
 3782.00    2.93607   1.31311    0.019
 3783.00    4.03733   1.34021    0.020
 3784.00    4.66840   1.36273    0.020
 3785.00    5.09365   1.38266    0.020
 3786.00    5.01603   1.39863    0.021
 3787.00    4.25378   1.40820    0.020
 3788.00    2.04854   1.41024    0.019
 3789.00    0.63566   1.40694    0.018
 3790.00    0.67414   1.40214    0.018
 3791.00    0.85896   1.39777    0.017
 3792.00    1.27803   1.39345    0.018
 3793.00    1.26658   1.38627    0.018
 3794.00    0.65042   1.37298    0.017
 3795.00    0.80848   1.35206    0.018
 3796.00    1.92347   1.32424    0.018
 3797.00    2.31541   1.28964    0.018
 3798.00    1.91959   1.24573    0.018
 3799.00    2.04257   1.18857    0.019
 3800.00    2.66409   1.11732    0.019
 3801.00    2.34368   1.04063    0.019
 3802.00    1.22509   0.97791    0.019
 3803.00    0.99523   0.95085    0.018
 3804.00    1.42856   0.96966    0.018
 3805.00    1.30880   1.02661    0.018
 3806.00    0.82646   1.10083    0.017
 3807.00    1.06047   1.17169    0.018
 3808.00    1.70555   1.22755    0.018
 3809.00    2.03494   1.26460    0.018
 3810.00    2.20654   1.28589    0.019
 3811.00    1.31477   1.30099    0.019
 3812.00   -0.03685   1.31934    0.000
 3813.00   -0.17612   1.34405    0.000
 3814.00    0.13422   1.37037    0.017
 3815.00    0.17094   1.39080    0.016
 3816.00    0.12166   1.40285    0.016
 3817.00   -1.12494   1.40803    0.000
 3818.00   -2.68561   1.40833    0.000
 3819.00   -1.72603   1.40443    0.000
 3820.00   -0.22647   1.39474    0.000
 3821.00    0.71284   1.37505    0.016
 3822.00    1.55707   1.34037    0.016
 3823.00    1.40321   1.29262    0.016
 3824.00    1.12128   1.24824    0.016
 3825.00    0.73562   1.22866    0.016
 3826.00    0.34065   1.24370    0.016
 3827.00   -0.45023   1.28269    0.000
 3828.00   -1.26240   1.32254    0.000
 3829.00   -0.52297   1.34811    0.000
 3830.00    0.24872   1.35721    0.016
 3831.00    1.11820   1.35359    0.016
 3832.00    1.94991   1.34102    0.017
 3833.00    1.94258   1.32026    0.017
 3834.00    1.84123   1.29036    0.017
 3835.00    0.57074   1.24936    0.017
 3836.00   -0.56886   1.19544    0.000
 3837.00   -0.60225   1.12842    0.000
 3838.00   -0.51573   1.05236    0.000
 3839.00    0.32519   0.97973    0.017
 3840.00    1.08625   0.92994    0.017
 3841.00    1.45329   0.91960    0.017
 3842.00    1.69685   0.95239    0.017
 3843.00    1.44613   1.01648    0.017
 3844.00    1.04173   1.09214    0.017
 3845.00    0.12637   1.16352    0.017
 3846.00   -0.30704   1.22190    0.000
 3847.00    0.61294   1.26530    0.000
 3848.00    1.31894   1.29712    0.000
 3849.00    1.51096   1.32114    0.000
 3850.00    1.51809   1.33948    0.000
 3851.00    1.14174   1.35226    0.000
 3852.00    1.07182   1.35984    0.000
 3853.00    1.55459   1.36329    0.000
 3854.00    2.13829   1.36347    0.000
 3855.00    2.88117   1.36246    0.000
 3856.00    2.81398   1.36232    0.000
 3857.00    1.62535   1.36424    0.000
 3858.00    0.70145   1.36698    0.000
 3859.00    0.10013   1.36680    0.000
 3860.00    0.22302   1.36352    0.000
 3861.00    1.12384   1.36124    0.000
 3862.00    1.21651   1.36298    0.000
 3863.00    0.54348   1.36784    0.000
 3864.00    0.02065   1.37107    0.000
 3865.00   -0.37671   1.36930    0.000
 3866.00   -0.03397   1.36299    0.000
 3867.00    0.85310   1.35453    0.000
 3868.00    1.21059   1.34595    0.000
 3869.00    1.22601   1.33891    0.000
 3870.00    1.00145   1.33428    0.000
 3871.00    0.64126   1.33193    0.000
 3872.00    0.13492   1.33199    0.000
 3873.00   -0.44331   1.33412    0.000
 3874.00   -0.11591   1.33790    0.000
 3875.00    0.59660   1.33868    0.000
 3876.00    0.94040   1.33263    0.000
 3877.00    1.14991   1.32375    0.000
 3878.00    1.47436   1.31718    0.000
 3879.00    1.83425   1.31274    0.000
 3880.00    1.38447   1.30539    0.000
 3881.00    0.72684   1.29549    0.015
 3882.00    0.32443   1.28871    0.015
 3883.00   -0.02463   1.28889    0.000
 3884.00   -0.44438   1.29058    0.000
 3885.00   -0.87578   1.28559    0.000
 3886.00   -0.33702   1.27097    0.000
 3887.00    0.32188   1.24761    0.015
 3888.00    1.11578   1.21763    0.015
 3889.00    1.92123   1.18050    0.015
 3890.00    0.71967   1.13179    0.015
 3891.00   -0.58193   1.06797    0.000
 3892.00    0.61664   0.99363    0.015
 3893.00    1.83114   0.92488    0.015
 3894.00    1.43107   0.88415    0.015
 3895.00    1.05080   0.88793    0.015
 3896.00    1.07547   0.93527    0.014
 3897.00    1.12957   1.00726    0.014
 3898.00    1.53162   1.08209    0.014
 3899.00    1.82109   1.14640    0.013
 3900.00    1.19342   1.19583    0.013
 3901.00    0.57525   1.23115    0.013
 3902.00    0.01518   1.25484    0.012
 3903.00   -0.44488   1.27025    0.000
 3904.00   -0.42366   1.28190    0.000
 3905.00   -0.34999   1.29413    0.000
 3906.00   -0.07094   1.30868    0.000
 3907.00    0.17032   1.32312    0.012
 3908.00    0.28837   1.33453    0.012
 3909.00    0.38710   1.34190    0.012
 3910.00    0.43253   1.34584    0.013
 3911.00    0.46192   1.34778    0.013
 3912.00    0.45343   1.34921    0.013
 3913.00    0.55095   1.35053    0.014
 3914.00    0.86480   1.35048    0.014
 3915.00    1.00604   1.34727    0.014
 3916.00    0.84069   1.34144    0.014
 3917.00    0.72494   1.33649    0.014
 3918.00    0.68626   1.33630    0.015
 3919.00    1.19839   1.34075    0.015
 3920.00    2.46208   1.34447    0.015
 3921.00    2.55326   1.34148    0.015
 3922.00    1.23599   1.32765    0.015
 3923.00    0.58454   1.30365    0.014
 3924.00    0.63826   1.27665    0.014
 3925.00    0.63483   1.25853    0.015
 3926.00    0.57802   1.25708    0.015
 3927.00    0.58341   1.26873    0.015
 3928.00    0.64005   1.28185    0.015
 3929.00    1.16216   1.28632    0.015
 3930.00    2.02172   1.28180    0.015
 3931.00    2.55744   1.27488    0.015
 3932.00    2.88707   1.27259    0.015
 3933.00    2.77213   1.27848    0.015
 3934.00    2.40978   1.28977    0.015
 3935.00    2.22895   1.30013    0.015
 3936.00    2.13598   1.30441    0.014
 3937.00    2.14379   1.30088    0.014
 3938.00    2.19373   1.29346    0.015
 3939.00    1.56015   1.28832    0.014
 3940.00    0.68206   1.28994    0.014
 3941.00    0.65795   1.29755    0.014
 3942.00    0.89197   1.30730    0.014
 3943.00    1.19085   1.31613    0.014
 3944.00    1.50602   1.32236    0.014
 3945.00    1.68963   1.32591    0.014
 3946.00    1.84642   1.32665    0.013
 3947.00    1.58517   1.32399    0.013
 3948.00    1.25698   1.31791    0.014
 3949.00    0.88413   1.30983    0.014
 3950.00    0.50595   1.30284    0.014
 3951.00    0.38386   1.29986    0.014
 3952.00    0.28262   1.30129    0.014
 3953.00    0.75833   1.30483    0.014
 3954.00    1.26056   1.30810    0.014
 3955.00    2.13582   1.30928    0.014
 3956.00    2.97444   1.30695    0.014
 3957.00    1.65049   1.30032    0.014
 3958.00    0.38142   1.29002    0.014
 3959.00    0.15210   1.27889    0.014
 3960.00    0.01274   1.27083    0.000
 3961.00    0.88731   1.26818    0.000
 3962.00    1.60930   1.26914    0.000
 3963.00    1.13193   1.26941    0.000
 3964.00    0.77210   1.26460    0.000
 3965.00    1.10976   1.25234    0.000
 3966.00    1.37408   1.23242    0.000
 3967.00    1.29401   1.20558    0.000
 3968.00    1.29772   1.17273    0.000
 3969.00    1.62249   1.13481    0.000
 3970.00    1.84538   1.09317    0.000
 3971.00    1.74261   1.04787    0.000
 3972.00    1.69181   0.99545    0.000
 3973.00    1.78176   0.93495    0.000
 3974.00    1.90715   0.87578    0.000
 3975.00    2.11486   0.83654    0.000
 3976.00    2.03254   0.83379    0.000
 3977.00    1.36770   0.86960    0.000
 3978.00    1.14167   0.93107    0.000
 3979.00    1.68322   1.00102    0.000
 3980.00    1.52917   1.06634    0.000
 3981.00    0.31019   1.12005    0.014
 3982.00   -0.04774   1.16051    0.000
 3983.00    0.75231   1.18931    0.014
 3984.00    1.26942   1.20933    0.014
 3985.00    1.45148   1.22305    0.014
 3986.00    1.27854   1.23197    0.014
 3987.00    0.73492   1.23754    0.013
 3988.00    1.00599   1.24236    0.013
 3989.00    2.02745   1.24940    0.013
 3990.00    2.49318   1.25936    0.013
 3991.00    2.50771   1.27034    0.013
 3992.00    2.16605   1.27982    0.013
 3993.00    1.56992   1.28642    0.013
 3994.00    1.37574   1.29012    0.013
 3995.00    1.43358   1.29172    0.013
 3996.00    1.40624   1.29175    0.013
 3997.00    1.33222   1.28971    0.013
 3998.00    1.43285   1.28484    0.013
 3999.00    1.61668   1.27777    0.013
 4000.00    1.51546   1.27175    0.013
 4001.00    1.29708   1.27018    0.013
 4002.00    0.84655   1.27315    0.013
 4003.00    0.31448   1.27765    0.013
 4004.00    0.06710   1.28122    0.012
 4005.00   -0.09593   1.28305    0.000
 4006.00    0.51604   1.28320    0.012
 4007.00    1.31841   1.28142    0.013
 4008.00    1.58004   1.27756    0.013
 4009.00    1.73418   1.27197    0.013
 4010.00    1.43689   1.26476    0.013
 4011.00    1.06945   1.25455    0.013
 4012.00    0.94841   1.23942    0.013
 4013.00    0.85571   1.22026    0.013
 4014.00    0.80442   1.20390    0.013
 4015.00    0.75633   1.19991    0.013
 4016.00    1.64639   1.21170    0.013
 4017.00    2.57595   1.23333    0.013
 4018.00    2.30447   1.25509    0.013
 4019.00    2.00983   1.27061    0.013
 4020.00    1.18068   1.27907    0.013
 4021.00    0.41130   1.28251    0.013
 4022.00    0.69594   1.28313    0.013
 4023.00    0.95498   1.28229    0.013
 4024.00    0.93868   1.28013    0.013
 4025.00    0.99753   1.27546    0.013
 4026.00    1.62683   1.26606    0.013
 4027.00    1.98383   1.24910    0.013
 4028.00    0.77029   1.22153    0.013
 4029.00   -0.13240   1.18294    0.000
 4030.00    0.38952   1.13980    0.013
 4031.00    0.82751   1.10710    0.013
 4032.00    0.95071   1.10107    0.013
 4033.00    1.00000   1.12454    0.012
 4034.00    0.81759   1.16447    0.012
 4035.00    0.68414   1.20280    0.012
 4036.00    0.68095   1.22826    0.012
 4037.00    0.88693   1.24020    0.012
 4038.00    1.57057   1.24342    0.012
 4039.00    1.89831   1.24352    0.012
 4040.00    1.52246   1.24485    0.012
 4041.00    1.27153   1.25001    0.012
 4042.00    1.23578   1.25778    0.013
 4043.00    1.26733   1.26441    0.013
 4044.00    1.40040   1.26642    0.012
 4045.00    1.35862   1.26291    0.012
 4046.00    1.08505   1.25594    0.012
 4047.00    0.82011   1.24897    0.012
 4048.00    0.56523   1.24402    0.012
 4049.00    0.43129   1.24224    0.012
 4050.00    0.42186   1.24346    0.012
 4051.00    0.65652   1.24674    0.012
 4052.00    1.11284   1.25093    0.012
 4053.00    1.14475   1.25500    0.012
 4054.00    0.83698   1.25866    0.012
 4055.00    1.00224   1.26156    0.012
 4056.00    1.50059   1.26260    0.012
 4057.00    1.60463   1.26069    0.012
 4058.00    1.46512   1.25580    0.012
 4059.00    1.02870   1.24985    0.012
 4060.00    0.43208   1.24536    0.012
 4061.00    0.21779   1.24340    0.012
 4062.00    0.18268   1.24279    0.012
 4063.00    0.29428   1.24130    0.012
 4064.00    0.46515   1.23732    0.012
 4065.00    0.54431   1.23154    0.012
 4066.00    0.59184   1.22660    0.012
 4067.00    1.04772   1.22473    0.012
 4068.00    1.62219   1.22653    0.012
 4069.00    1.73167   1.23093    0.012
 4070.00    1.72946   1.23573    0.012
 4071.00    1.57796   1.23824    0.012
 4072.00    1.39753   1.23566    0.012
 4073.00    1.66246   1.22641    0.012
 4074.00    1.99449   1.21139    0.013
 4075.00    1.75001   1.19523    0.012
 4076.00    1.44177   1.18320    0.012
 4077.00    1.30335   1.17714    0.012
 4078.00    1.17736   1.17587    0.012
 4079.00    0.67991   1.17457    0.012
 4080.00    0.16824   1.17140    0.012
 4081.00    0.19364   1.16930    0.012
 4082.00    0.23015   1.17189    0.012
 4083.00    0.57367   1.17950    0.012
 4084.00    0.92198   1.18922    0.012
 4085.00    1.34920   1.19738    0.012
 4086.00    1.66393   1.20184    0.012
 4087.00    0.82112   1.20219    0.012
 4088.00    0.13124   1.19871    0.012
 4089.00    0.56356   1.19274    0.012
 4090.00    1.00918   1.18651    0.012
 4091.00    1.52949   1.18124    0.012
 4092.00    1.93184   1.17624    0.000
 4093.00    1.80632   1.17124    0.000
 4094.00    1.64356   1.16674    0.000
 4095.00    1.34404   1.16439    0.000
 4096.00    1.12897   1.16271    0.000
 4097.00    1.17360   1.15786    0.000
 4098.00    1.35542   1.14672    0.000
 4099.00    1.89583   1.12766    0.000
 4100.00    2.14420   1.10077    0.000
 4101.00    1.73671   1.06687    0.000
 4102.00    1.46854   1.02732    0.000
 4103.00    1.47146   0.98255    0.000
 4104.00    1.43567   0.93178    0.000
 4105.00    1.33418   0.87628    0.000
 4106.00    1.27603   0.82486    0.000
 4107.00    1.28229   0.79376    0.000
 4108.00    1.27839   0.79622    0.000
 4109.00    1.26123   0.83205    0.000
 4110.00    1.44114   0.88939    0.000
 4111.00    1.84790   0.95206    0.000
 4112.00    1.89611   1.00807    0.000
 4113.00    1.58035   1.05211   -1.000
 4114.00    1.28607   1.08358   -1.000
 4115.00    1.01104   1.10478   -1.000
 4116.00    0.93992   1.11990    0.039
 4117.00    1.02969   1.13215    0.014
 4118.00    1.12111   1.14302    0.011
 4119.00    1.21369   1.15171    0.011
 4120.00    1.39068   1.15738    0.016
 4121.00    1.61902   1.15955    0.062
 4122.00    1.50109   1.15757   -1.000
 4123.00    1.19920   1.14903   -1.000
 4124.00    1.40723   1.13348   -1.000
 4125.00    1.85039   1.11598   -1.000
 4126.00    1.87998   1.10642   -1.000
 4127.00    1.74535   1.11290   -1.000
 4128.00    1.56391   1.13405    0.029
 4129.00    1.36664   1.16054    0.013
 4130.00    1.70831   1.18186    0.011
 4131.00    2.20333   1.19196    0.011
 4132.00    1.61860   1.19132    0.011
 4133.00    0.78036   1.18390    0.011
 4134.00    0.84919   1.17492    0.011
 4135.00    1.08923   1.16707    0.011
 4136.00    1.09167   1.16206    0.011
 4137.00    1.05941   1.16073    0.011
 4138.00    1.21824   1.16395    0.011
 4139.00    1.39737   1.17137    0.011
 4140.00    1.27669   1.18044    0.011
 4141.00    1.13528   1.18748    0.012
 4142.00    0.97224   1.19028    0.012
 4143.00    0.80844   1.18879    0.011
 4144.00    1.25509   1.18379    0.011
 4145.00    1.67505   1.17459    0.011
 4146.00    1.17346   1.15893    0.012
 4147.00    0.69513   1.13574    0.012
 4148.00    0.57649   1.10969    0.011
 4149.00    0.47481   1.09166    0.011
 4150.00    0.54037   1.09139    0.011
 4151.00    0.57774   1.10852    0.011
 4152.00    0.41501   1.13364    0.011
 4153.00    0.36366   1.15525    0.011
 4154.00    0.92031   1.16728    0.011
 4155.00    1.27252   1.17044    0.011
 4156.00    0.73108   1.16872    0.011
 4157.00    0.33784   1.16536    0.011
 4158.00    0.47767   1.16265    0.011
 4159.00    0.58906   1.16256    0.011
 4160.00    0.61463   1.16563    0.011
 4161.00    0.59283   1.17093    0.011
 4162.00    0.44933   1.17741    0.011
 4163.00    0.32904   1.18372    0.011
 4164.00    0.25999   1.18871    0.011
 4165.00    0.11940   1.19095    0.011
 4166.00   -0.15826   1.18954    0.000
 4167.00   -0.23025   1.18484    0.000
 4168.00    0.04151   1.17862    0.012
 4169.00    0.34145   1.17284    0.012
 4170.00    0.68267   1.16875    0.012
 4171.00    0.62431   1.16597    0.012
 4172.00    0.05130   1.16304    0.012
 4173.00   -0.27671   1.15893    0.000
 4174.00   -0.32669   1.15479    0.000
 4175.00    0.04316   1.15296    0.011
 4176.00    0.83321   1.15383    0.011
 4177.00    1.38233   1.15582    0.011
 4178.00    1.71878   1.15721    0.011
 4179.00    1.58489   1.15748    0.011
 4180.00    1.08521   1.15745    0.010
 4181.00    0.96245   1.15802    0.010
 4182.00    1.09747   1.15973    0.011
 4183.00    1.28839   1.16273    0.011
 4184.00    1.51283   1.16648    0.010
 4185.00    1.26502   1.17025    0.010
 4186.00    0.77021   1.17315    0.010
 4187.00    0.71098   1.17428    0.010
 4188.00    0.84931   1.17305    0.010
 4189.00    1.10062   1.16942    0.010
 4190.00    1.39601   1.16429    0.010
 4191.00    1.36722   1.15948    0.010
 4192.00    1.23076   1.15593    0.010
 4193.00    0.99765   1.15330    0.010
 4194.00    0.73760   1.15085    0.010
 4195.00    1.09390   1.14948    0.010
 4196.00    1.59160   1.15128    0.010
 4197.00    1.35714   1.15642    0.010
 4198.00    0.98812   1.16249    0.010
 4199.00    0.60601   1.16653    0.010
 4200.00    0.22204   1.16707    0.010
 4201.00    0.68001   1.16483    0.010
 4202.00    1.22382   1.16114    0.010
 4203.00    1.00635   1.15668    0.010
 4204.00    0.73929   1.15195    0.010
 4205.00    0.82441   1.14787    0.010
 4206.00    0.92042   1.14590    0.010
 4207.00    1.05640   1.14672    0.010
 4208.00    1.19455   1.14963    0.010
 4209.00    1.39681   1.15329    0.010
 4210.00    1.56405   1.15657    0.011
 4211.00    1.22168   1.15935    0.011
 4212.00    0.91357   1.16176    0.011
 4213.00    0.92952   1.16363    0.010
 4214.00    0.97676   1.16446    0.010
 4215.00    1.23909   1.16384    0.010
 4216.00    1.40128   1.16201    0.010
 4217.00    1.03134   1.15959    0.010
 4218.00    0.72779   1.15707    0.010
 4219.00    0.70782   1.15451    0.010
 4220.00    0.74122   1.15192    0.010
 4221.00    0.96268   1.14959    0.010
 4222.00    1.17671   1.14806    0.010
 4223.00    1.36872   1.14730    0.010
 4224.00    1.44206   1.14639    0.010
 4225.00    1.21592   1.14424    0.010
 4226.00    1.16107   1.14026    0.010
 4227.00    1.47845   1.13489    0.010
 4228.00    1.42588   1.12926    0.010
 4229.00    0.67565   1.12422    0.010
 4230.00    0.40146   1.11952    0.010
 4231.00    0.91101   1.11514    0.010
 4232.00    1.18085   1.11168    0.010
 4233.00    1.10465   1.11040    0.010
 4234.00    0.93058   1.11222    0.010
 4235.00    0.63224   1.11619    0.009
 4236.00    0.70547   1.12046    0.009
 4237.00    1.19441   1.12361    0.010
 4238.00    1.38365   1.12531    0.010
 4239.00    1.27714   1.12570    0.010
 4240.00    1.16184   1.12502    0.009
 4241.00    1.03890   1.12320    0.009
 4242.00    0.98250   1.12091    0.009
 4243.00    0.97711   1.11967    0.009
 4244.00    0.88053   1.11981    0.010
 4245.00    0.72249   1.12032    0.010
 4246.00    0.70931   1.12043    0.010
 4247.00    0.78166   1.12092    0.010
 4248.00    0.90360   1.12354    0.010
 4249.00    1.05107   1.12811    0.010
 4250.00    0.67198   1.13224    0.010
 4251.00    0.05795   1.13384    0.010
 4252.00   -0.17806   1.13280    0.000
 4253.00   -0.26912   1.13062    0.000
 4254.00    0.30709   1.12809    0.010
 4255.00    1.10077   1.12464    0.010
 4256.00    1.01678   1.11889    0.010
 4257.00    0.69320   1.11033    0.009
 4258.00    0.47837   1.10020    0.010
 4259.00    0.28792   1.09185    0.010
 4260.00    0.46499   1.08972    0.010
 4261.00    0.70780   1.09446    0.010
 4262.00    0.64027   1.10251    0.010
 4263.00    0.53028   1.10992    0.010
 4264.00    0.85446   1.11443    0.010
 4265.00    1.22105   1.11667    0.010
 4266.00    0.86583   1.11820    0.010
 4267.00    0.46647   1.11977    0.010
 4268.00    0.31580   1.12025    0.010
 4269.00    0.17395   1.11650    0.010
 4270.00    0.44588   1.10485    0.009
 4271.00    0.71956   1.08521    0.009
 4272.00    1.03919   1.06341    0.009
 4273.00    1.31208   1.05043    0.009
 4274.00    0.94246   1.05320    0.010
 4275.00    0.59108   1.06720    0.010
 4276.00    0.40548   1.08282    0.010
 4277.00    0.26373   1.09226    0.010
 4278.00    0.41404   1.09286    0.010
 4279.00    0.53077   1.08695    0.010
 4280.00    0.47361   1.07796    0.010
 4281.00    0.50339   1.06982    0.010
 4282.00    0.89606   1.06711   -2.000
 4283.00    1.26135   1.07214   -2.000
 4284.00    1.53214   1.08276   -2.000
 4285.00    1.67771   1.09304   -2.000
 4286.00    1.45931   1.09748   -2.000
 4287.00    1.27644   1.09468   -2.000
 4288.00    1.18170   1.08743   -2.000
 4289.00    1.00657   1.08055   -2.000
 4290.00    0.65957   1.07756   -2.000
 4291.00    0.45252   1.07887   -2.000
 4292.00    0.50531   1.08222   -2.000
 4293.00    0.62487   1.08431   -2.000
 4294.00    0.85275   1.08341   -2.000
 4295.00    0.92899   1.08130   -2.000
 4296.00    0.78953   1.08073   -2.000
 4297.00    0.80118   1.08270   -2.000
 4298.00    1.00198   1.08604    0.010
 4299.00    1.19587   1.08842    0.010
 4300.00    1.38215   1.08886    0.010
 4301.00    1.36773   1.08928    0.010
 4302.00    1.15805   1.09075    0.010
 4303.00    0.94654   1.09256    0.010
 4304.00    0.73346   1.09337    0.010
 4305.00    0.62409   1.09198    0.010
 4306.00    0.59308   1.08799    0.010
 4307.00    0.44620   1.08175    0.010
 4308.00    0.22238   1.07407    0.010
 4309.00    0.36321   1.06700    0.010
 4310.00    0.71610   1.06346    0.010
 4311.00    0.82002   1.06362    0.010
 4312.00    0.79775   1.06520    0.010
 4313.00    0.82595   1.06653    0.010
 4314.00    0.87628   1.06802    0.010
 4315.00    1.15045   1.07077    0.010
 4316.00    1.50893   1.07490    0.010
 4317.00    1.30441   1.07842    0.010
 4318.00    0.91989   1.07899    0.010
 4319.00    0.75375   1.07615    0.010
 4320.00    0.64599   1.07169    0.010
 4321.00    0.44762   1.06748    0.011
 4322.00    0.22942   1.06411    0.012
 4323.00    0.49761   1.06183    0.012
 4324.00    0.85040   1.06124    0.013
 4325.00    1.26989   1.06293    0.013
 4326.00    1.69821   1.06708    0.013
 4327.00    1.24978   1.07238    0.011
 4328.00    0.71942   1.07504    0.010
 4329.00    1.20978   1.07259    0.010
 4330.00    1.75852   1.06521    0.000
 4331.00    1.72467   1.05586    0.000
 4332.00    1.67460   1.04949    0.000
 4333.00    1.31801   1.04810    0.000
 4334.00    0.96232   1.04903    0.000
 4335.00    0.62813   1.04824    0.000
 4336.00    0.36148   1.04332    0.000
 4337.00    0.97391   1.03367    0.000
 4338.00    1.48962   1.02042    0.000
 4339.00    1.16022   1.00413    0.000
 4340.00    0.88092   0.98308    0.000
 4341.00    0.92514   0.95383    0.000
 4342.00    0.87661   0.91330    0.000
 4343.00    0.36010   0.86206    0.000
 4344.00    0.02086   0.80675    0.000
 4345.00    0.40521   0.75869    0.000
 4346.00    0.72924   0.73094    0.000
 4347.00    0.84918   0.73361    0.000
 4348.00    0.77428   0.76455    0.000
 4349.00    0.14337   0.81067    0.000
 4350.00   -0.09850   0.85823    0.000
 4351.00    0.60810   0.89896    0.010
 4352.00    1.05335   0.93073    0.010
 4353.00    0.94891   0.95497    0.010
 4354.00    0.80464   0.97326    0.012
 4355.00    0.58759   0.98647    0.030
 4356.00    0.52521   0.99600   -1.000
 4357.00    0.70997   1.00407   -1.000
 4358.00    0.83193   1.01375   -1.000
 4359.00    0.86586   1.02646   -1.000
 4360.00    1.06627   1.04099   -1.000
 4361.00    1.47209   1.05511   -1.000
 4362.00    1.55790   1.06606    0.040
 4363.00    1.29569   1.07220    0.013
 4364.00    1.16127   1.07382    0.010
 4365.00    1.14944   1.07284    0.009
 4366.00    0.89859   1.07178    0.009
 4367.00    0.44557   1.07201    0.009
 4368.00    0.28082   1.07372    0.009
 4369.00    0.33080   1.07544    0.010
 4370.00    0.55016   1.07461    0.010
 4371.00    0.88036   1.07101    0.010
 4372.00    0.90803   1.06569    0.010
 4373.00    0.76243   1.06099    0.009
 4374.00    0.74302   1.05881    0.009
 4375.00    0.78657   1.05803    0.009
 4376.00    0.84238   1.05694    0.009
 4377.00    0.90347   1.05445    0.009
 4378.00    0.85521   1.05115    0.009
 4379.00    0.76649   1.04940    0.010
 4380.00    0.47468   1.05033    0.009
 4381.00    0.11919   1.05345    0.009
 4382.00    0.18520   1.05763    0.009
 4383.00    0.36148   1.06136    0.009
 4384.00    0.50664   1.06361    0.009
 4385.00    0.64515   1.06410    0.009
 4386.00    0.72830   1.06278    0.009
 4387.00    0.80209   1.05876    0.009
 4388.00    0.65949   1.05137    0.009
 4389.00    0.48925   1.04142    0.009
 4390.00    0.50704   1.02981    0.009
 4391.00    0.54162   1.01660    0.010
 4392.00    0.73104   1.00281    0.010
 4393.00    0.92872   0.99131    0.010
 4394.00    0.80369   0.98763    0.010
 4395.00    0.67314   0.99629    0.010
 4396.00    0.60797   1.01396    0.010
 4397.00    0.54250   1.03322    0.010
 4398.00    0.47021   1.04855    0.009
 4399.00    0.40543   1.05690    0.009
 4400.00    0.43353   1.05944    0.009
 4401.00    0.47222   1.05987    0.009
 4402.00    0.59995   1.06160    0.009
 4403.00    0.72459   1.06558    0.009
 4404.00    0.82980   1.06967    0.009
 4405.00    0.88526   1.07180    0.009
 4406.00    0.69594   1.07170    0.009
 4407.00    0.57173   1.06971    0.009
 4408.00    0.70742   1.06601    0.009
 4409.00    0.71804   1.06030    0.009
 4410.00    0.31392   1.05322    0.009
 4411.00    0.05649   1.04710    0.009
 4412.00    0.21004   1.04391    0.009
 4413.00    0.41020   1.04415    0.009
 4414.00    0.72209   1.04651    0.009
 4415.00    0.85611   1.04904    0.009
 4416.00    0.62200   1.05056    0.009
 4417.00    0.46843   1.04957    0.009
 4418.00    0.45985   1.04505    0.009
 4419.00    0.53382   1.03736    0.009
 4420.00    0.73775   1.02745    0.009
 4421.00    0.82331   1.01907    0.009
 4422.00    0.74531   1.01694    0.009
 4423.00    0.52854   1.02180    0.009
 4424.00    0.14299   1.03168    0.009
 4425.00    0.11716   1.04296    0.009
 4426.00    0.47705   1.05188    0.009
 4427.00    0.65658   1.05768    0.009
 4428.00    0.66551   1.06075    0.009
 4429.00    0.75048   1.06152    0.009
 4430.00    0.89885   1.06067    0.009
 4431.00    0.97546   1.05808    0.009
 4432.00    0.99939   1.05417    0.009
 4433.00    0.86269   1.05003    0.009
 4434.00    0.62242   1.04644    0.009
 4435.00    0.49592   1.04384    0.009
 4436.00    0.43359   1.04177    0.009
 4437.00    0.59345   1.03968    0.009
 4438.00    0.86238   1.03771    0.010
 4439.00    0.69515   1.03544    0.010
 4440.00    0.34285   1.03271    0.010
 4441.00    0.38705   1.03029    0.010
 4442.00    0.57534   1.02959    0.009
 4443.00    0.76331   1.03194    0.009
 4444.00    0.95118   1.03711    0.010
 4445.00    1.02593   1.04304    0.010
 4446.00    1.07172   1.04633    0.010
 4447.00    0.92801   1.04559    0.010
 4448.00    0.74481   1.04284    0.010
 4449.00    0.74315   1.04093    0.010
 4450.00    0.77132   1.04105    0.010
 4451.00    0.66262   1.04210    0.010
 4452.00    0.53704   1.04237    0.010
 4453.00    0.48804   1.04172    0.009
 4454.00    0.44555   1.04182    0.009
 4455.00    0.49505   1.04357    0.009
 4456.00    0.54908   1.04558    0.009
 4457.00    0.67691   1.04636    0.009
 4458.00    0.80652   1.04532    0.009
 4459.00    0.97413   1.04279    0.009
 4460.00    1.12597   1.04030    0.009
 4461.00    0.95848   1.03848    0.000
 4462.00    0.77757   1.03746    0.000
 4463.00    0.43887   1.03732    0.000
 4464.00    0.15132   1.03733    0.000
 4465.00    0.27857   1.03673    0.000
 4466.00    0.40839   1.03544    0.000
 4467.00    0.55383   1.03415    0.000
 4468.00    0.75092   1.03322    0.000
 4469.00    1.19575   1.03218    0.000
 4470.00    1.46503   1.03004    0.000
 4471.00    1.04867   1.02530    0.000
 4472.00    0.84109   1.01712    0.000
 4473.00    1.31231   1.00511    0.000
 4474.00    1.54090   0.98775    0.000
 4475.00    1.10194   0.96473    0.000
 4476.00    0.84172   0.94140    0.000
 4477.00    1.00266   0.92644    0.000
 4478.00    1.02016   0.92745    0.000
 4479.00    0.74551   0.94732    0.000
 4480.00    0.51176   0.97821    0.000
 4481.00    0.35053   1.00729    0.000
 4482.00    0.30755   1.02734    0.009
 4483.00    0.44799   1.03604    0.009
 4484.00    0.54606   1.03357    0.009
 4485.00    0.58643   1.02322    0.009
 4486.00    0.86972   1.01118    0.009
 4487.00    1.44429   1.00420    0.009
 4488.00    1.47394   1.00697    0.009
 4489.00    0.92752   1.01897    0.009
 4490.00    0.76044   1.03382    0.009
 4491.00    0.94711   1.04461    0.009
 4492.00    0.98153   1.04851    0.009
 4493.00    0.89078   1.04616    0.009
 4494.00    0.50900   1.04069    0.009
 4495.00   -0.08338   1.03613    0.000
 4496.00    0.07688   1.03500    0.009
 4497.00    0.71524   1.03717    0.009
 4498.00    0.95661   1.04010    0.009
 4499.00    0.97747   1.04115    0.009
 4500.00    1.06773   1.03978    0.009
 4501.00    1.19151   1.03718    0.009
 4502.00    1.21011   1.03552    0.009
 4503.00    1.18482   1.03597    0.009
 4504.00    0.86620   1.03804    0.009
 4505.00    0.44290   1.04082    0.009
 4506.00    0.84265   1.04351    0.009
 4507.00    1.49055   1.04642    0.009
 4508.00    1.45364   1.05006    0.009
 4509.00    1.24521   1.05406    0.009
 4510.00    1.28856   1.05683    0.009
 4511.00    1.38310   1.05660    0.009
 4512.00    1.30459   1.05359    0.009
 4513.00    1.19848   1.04957    0.009
 4514.00    1.04117   1.04606    0.009
 4515.00    0.87779   1.04328    0.009
 4516.00    0.91727   1.04011    0.009
 4517.00    0.97317   1.03563    0.009
 4518.00    0.86287   1.03028    0.009
 4519.00    0.74501   1.02563    0.009
 4520.00    1.01256   1.02363    0.009
 4521.00    1.27625   1.02451    0.009
 4522.00    1.10203   1.02707    0.009
 4523.00    0.93353   1.03052    0.009
 4524.00    0.87245   1.03396    0.009
 4525.00    0.81186   1.03703    0.009
 4526.00    0.75687   1.03926    0.009
 4527.00    0.75553   1.03947    0.009
 4528.00    1.17401   1.03693    0.009
 4529.00    1.53501   1.03190    0.009
 4530.00    1.55616   1.02582    0.009
 4531.00    1.54062   1.01967    0.009
 4532.00    1.35333   1.01297    0.009
 4533.00    1.17437   1.00550    0.010
 4534.00    1.02726   0.99834    0.009
 4535.00    0.91497   0.99366    0.009
 4536.00    0.91368   0.99349    0.009
 4537.00    0.93371   0.99741    0.009
 4538.00    1.01138   1.00254    0.009
 4539.00    1.11563   1.00593    0.009
 4540.00    1.28148   1.00729    0.009
 4541.00    1.39708   1.00886    0.009
 4542.00    1.41196   1.01275    0.009
 4543.00    1.25235   1.01870    0.009
 4544.00    0.78810   1.02414    0.009
 4545.00    0.79734   1.02637    0.009
 4546.00    1.53015   1.02555    0.009
 4547.00    1.70625   1.02372    0.009
 4548.00    1.13500   1.02258    0.009
 4549.00    0.82311   1.02268    0.009
 4550.00    0.81781   1.02338    0.000
 4551.00    0.77238   1.02357    0.000
 4552.00    0.68514   1.02307    0.000
 4553.00    0.75942   1.02208    0.000
 4554.00    0.98221   1.02036    0.000
 4555.00    1.19357   1.01718    0.000
 4556.00    1.39568   1.01163    0.000
 4557.00    1.31240   1.00462    0.000
 4558.00    1.02559   0.99764    0.000
 4559.00    1.01896   0.99263    0.000
 4560.00    1.18767   0.99307    0.000
 4561.00    1.15902   0.99984    0.000
 4562.00    1.02242   1.00995    0.000
 4563.00    0.99285   1.02039    0.000
 4564.00    1.01416   1.02899    0.000
 4565.00    0.83500   1.03416    0.000
 4566.00    0.57362   1.03591    0.000
 4567.00    0.84405   1.03500    0.000
 4568.00    1.30084   1.03232    0.000
 4569.00    1.07625   1.02899    0.000
 4570.00    0.65029   1.02575    0.000
 4571.00    0.63451   1.02317    0.000
 4572.00    0.71921   1.02158    0.000
 4573.00    0.77424   1.02101    0.000
 4574.00    0.82339   1.02107    0.000
 4575.00    0.81567   1.02150    0.000
 4576.00    0.79913   1.02233    0.000
 4577.00    0.82302   1.02288    0.000
 4578.00    0.85153   1.02248    0.000
 4579.00    0.98906   1.02182    0.000
 4580.00    1.13495   1.02166    0.000
 4581.00    1.41117   1.02182    0.000
 4582.00    1.69281   1.02227    0.000
 4583.00    1.15374   1.02284    0.000
 4584.00    0.61478   1.02234    0.000
 4585.00    0.38633   1.02058    0.000
 4586.00    0.20461   1.01879    0.000
 4587.00    0.83946   1.01812    0.000
 4588.00    1.38308   1.01850    0.000
 4589.00    0.95064   1.01869    0.000
 4590.00    0.57930   1.01763    0.000
 4591.00    0.66977   1.01565    0.000
 4592.00    0.77271   1.01383    0.000
 4593.00    0.94730   1.01264    0.000
 4594.00    1.10604   1.01118    0.000
 4595.00    1.19232   1.00826    0.000
 4596.00    1.27101   1.00394    0.000
 4597.00    1.32128   0.99931    0.000
 4598.00    1.33689   0.99576    0.000
 4599.00    1.24405   0.99392    0.000
 4600.00    1.15254   0.99284    0.000
 4601.00    1.06452   0.99181    0.000
 4602.00    1.02423   0.99166    0.000
 4603.00    1.09266   0.99319    0.000
 4604.00    1.00106   0.99575    0.000
 4605.00    0.59370   0.99719    0.000
 4606.00    0.45157   0.99591    0.000
 4607.00    0.76548   0.99316    0.000
 4608.00    0.98977   0.99121    0.000
 4609.00    1.07913   0.99160    0.000
 4610.00    1.13936   0.99397    0.000
 4611.00    1.16106   0.99630    0.000
 4612.00    1.12203   0.99757    0.000
 4613.00    1.01222   0.99849    0.000
 4614.00    1.01176   1.00013    0.000
 4615.00    1.12369   1.00313    0.000
 4616.00    1.12243   1.00670    0.000
 4617.00    1.01857   1.00928    0.000
 4618.00    1.03994   1.01077    0.000
 4619.00    1.16137   1.01196    0.000
 4620.00    1.18671   1.01322    0.000
 4621.00    1.14452   1.01470    0.000
 4622.00    1.04234   1.01552    0.000
 4623.00    0.90318   1.01355    0.000
 4624.00    0.87923   1.00886    0.000
 4625.00    0.91733   1.00383    0.000
 4626.00    0.86019   1.00087    0.000
 4627.00    0.75850   1.00172    0.000
 4628.00    0.70754   1.00587    0.000
 4629.00    0.67704   1.01037    0.000
 4630.00    0.74761   1.01286    0.000
 4631.00    0.85295   1.01251    0.000
 4632.00    0.97963   1.00933    0.000
 4633.00    1.11250   1.00409    0.000
 4634.00    1.21622   0.99777    0.000
 4635.00    1.31296   0.99178    0.000
 4636.00    1.12549   0.98766    0.000
 4637.00    0.88313   0.98585    0.000
 4638.00    1.12707   0.98597    0.000
 4639.00    1.44401   0.98717    0.000
 4640.00    0.88906   0.98776    0.000
 4641.00    0.23815   0.98643    0.000
 4642.00    0.63622   0.98274    0.000
 4643.00    1.11057   0.97640    0.000
 4644.00    0.56023   0.96796    0.000
 4645.00   -0.02885   0.95890    0.000
 4646.00    0.81251   0.95132    0.000
 4647.00    1.62411   0.94763    0.000
 4648.00    1.06401   0.94854    0.000
 4649.00    0.55028   0.95236    0.000
 4650.00    0.79438   0.95637    0.000
 4651.00    1.02041   0.95738    0.000
 4652.00    1.06152   0.95325    0.000
 4653.00    1.04962   0.94453    0.000
 4654.00    0.65035   0.93432    0.000
 4655.00    0.39432   0.92700    0.000
 4656.00    0.93904   0.92603    0.000
 4657.00    1.37014   0.93206    0.000
 4658.00    1.29428   0.94287    0.000
 4659.00    1.26070   0.95488    0.000
 4660.00    1.38203   0.96517    0.000
 4661.00    1.45449   0.97247    0.000
 4662.00    1.37704   0.97781    0.000
 4663.00    1.26192   0.98340    0.000
 4664.00    1.04859   0.98926    0.000
 4665.00    0.93887   0.99350    0.000
 4666.00    1.06136   0.99443    0.000
 4667.00    1.14141   0.99216    0.000
 4668.00    1.13902   0.98830    0.000
 4669.00    1.15785   0.98456    0.000
 4670.00    1.21263   0.98180    0.000
 4671.00    1.15038   0.97912    0.000
 4672.00    0.91447   0.97501    0.000
 4673.00    0.91782   0.96978    0.000
 4674.00    1.23322   0.96536    0.000
 4675.00    1.21844   0.96344    0.000
 4676.00    0.82431   0.96424    0.000
 4677.00    0.69917   0.96604    0.000
 4678.00    0.84660   0.96661    0.000
 4679.00    0.87715   0.96508    0.000
 4680.00    0.80322   0.96194    0.000
 4681.00    0.88406   0.95900    0.000
 4682.00    1.08681   0.95816    0.000
 4683.00    1.15281   0.95965    0.000
 4684.00    1.12410   0.96243    0.000
 4685.00    1.28035   0.96518    0.000
 4686.00    1.54895   0.96674    0.000
 4687.00    1.34129   0.96676    0.000
 4688.00    0.88110   0.96603    0.000
 4689.00    0.82849   0.96493    0.000
 4690.00    0.96343   0.96374    0.000
 4691.00    0.90667   0.96301    0.000
 4692.00    0.77396   0.96316    0.000
 4693.00    0.83328   0.96434    0.000
 4694.00    0.95744   0.96665    0.000
 4695.00    1.07727   0.96918    0.000
 4696.00    1.19588   0.97092    0.000
 4697.00    0.99239   0.97211    0.000
 4698.00    0.71348   0.97317    0.000
 4699.00    0.70718   0.97453    0.000
 4700.00    0.75216   0.97633    0.000
 4701.00    0.65152   0.97744    0.000
 4702.00    0.52970   0.97631    0.000
 4703.00    0.64165   0.97201    0.000
 4704.00    0.77831   0.96566    0.000
 4705.00    0.91414   0.95983    0.000
 4706.00    1.04992   0.95600    0.000
 4707.00    0.75928   0.95468    0.000
 4708.00    0.45413   0.95564    0.000
 4709.00    0.77061   0.95676    0.000
 4710.00    1.06719   0.95678    0.000
 4711.00    0.68493   0.95645    0.000
 4712.00    0.36152   0.95647    0.000
 4713.00    0.94109   0.95678    0.000
 4714.00    1.45355   0.95709    0.000
 4715.00    1.30798   0.95705    0.000
 4716.00    1.14325   0.95568    0.000
 4717.00    0.84318   0.95094    0.000
 4718.00    0.66755   0.94353    0.000
 4719.00    1.16892   0.93721    0.000
 4720.00    1.50044   0.93416    0.000
 4721.00    1.09169   0.93530    0.000
 4722.00    0.75861   0.94199    0.000
 4723.00    0.69694   0.95194    0.000
 4724.00    0.64322   0.96166    0.000
 4725.00    0.61347   0.97003    0.000
 4726.00    0.55081   0.97627    0.000
 4727.00    0.40381   0.97966    0.000
 4728.00    0.43243   0.98078    0.000
 4729.00    0.84818   0.98084    0.000
 4730.00    1.11195   0.98036    0.000
 4731.00    1.08516   0.97890    0.000
 4732.00    0.99568   0.97565    0.000
 4733.00    0.80163   0.97061    0.000
 4734.00    0.74279   0.96489    0.000
 4735.00    0.88165   0.96013    0.000
 4736.00    0.90977   0.95779    0.000
 4737.00    0.79552   0.95825    0.000
 4738.00    0.95112   0.96056    0.000
 4739.00    1.41238   0.96358    0.000
 4740.00    1.44891   0.96661    0.000
 4741.00    1.06109   0.96885    0.000
 4742.00    0.88074   0.96997    0.000
 4743.00    0.88320   0.97033    0.000
 4744.00    0.90805   0.96991    0.000
 4745.00    0.95029   0.96857    0.000
 4746.00    1.03227   0.96654    0.000
 4747.00    1.14137   0.96451    0.000
 4748.00    1.20519   0.96341    0.000
 4749.00    1.24190   0.96373    0.000
 4750.00    0.98209   0.96539    0.000
 4751.00    0.56750   0.96810    0.000
 4752.00    0.64564   0.97092    0.000
 4753.00    0.94682   0.97297    0.000
 4754.00    1.15146   0.97415    0.000
 4755.00    1.31851   0.97448    0.000
 4756.00    1.44116   0.97383    0.000
 4757.00    1.54910   0.97249    0.000
 4758.00    1.27623   0.97115    0.000
 4759.00    0.89750   0.97019    0.000
 4760.00    0.96423   0.96976    0.000
 4761.00    1.13286   0.96949    0.009
 4762.00    0.95396   0.96855    0.009
 4763.00    0.71140   0.96633    0.008
 4764.00    0.61389   0.96280    0.008
 4765.00    0.53680   0.95829    0.008
 4766.00    0.52158   0.95296    0.008
 4767.00    0.51263   0.94703    0.008
 4768.00    0.47932   0.94092    0.008
 4769.00    0.44443   0.93499    0.008
 4770.00    0.68427   0.92965    0.008
 4771.00    0.93254   0.92562    0.009
 4772.00    1.24119   0.92344    0.008
 4773.00    1.53166   0.92310    0.008
 4774.00    1.29550   0.92415    0.009
 4775.00    1.05511   0.92582    0.009
 4776.00    0.75374   0.92728    0.009
 4777.00    0.46968   0.92809    0.008
 4778.00    0.34843   0.92862    0.008
 4779.00    0.28360   0.92953    0.008
 4780.00    0.60502   0.93109    0.008
 4781.00    0.91184   0.93298    0.008
 4782.00    1.14131   0.93446    0.008
 4783.00    1.33504   0.93464    0.008
 4784.00    1.37656   0.93304    0.008
 4785.00    1.39960   0.93015    0.008
 4786.00    1.35764   0.92691    0.008
 4787.00    1.31076   0.92409    0.008
 4788.00    1.24934   0.92211    0.008
 4789.00    1.10643   0.92127    0.008
 4790.00    0.75830   0.92143    0.008
 4791.00    0.57047   0.92197    0.008
 4792.00    0.73027   0.92234    0.008
 4793.00    0.86462   0.92244    0.008
 4794.00    0.95109   0.92244    0.008
 4795.00    1.06072   0.92281    0.008
 4796.00    1.20841   0.92400    0.008
 4797.00    1.22262   0.92623    0.008
 4798.00    1.04449   0.92958    0.008
 4799.00    1.01347   0.93380    0.008
 4800.00    1.16888   0.93801    0.008
 4801.00    1.19001   0.94124    0.008
 4802.00    1.06119   0.94276    0.008
 4803.00    0.97244   0.94228    0.008
 4804.00    0.92317   0.94019    0.008
 4805.00    0.92988   0.93757    0.008
 4806.00    0.98521   0.93542    0.008
 4807.00    0.85856   0.93378    0.008
 4808.00    0.59263   0.93208    0.008
 4809.00    0.75058   0.92994    0.008
 4810.00    1.19365   0.92705    0.008
 4811.00    1.29725   0.92338    0.008
 4812.00    1.20080   0.91970    0.008
 4813.00    1.05676   0.91674    0.008
 4814.00    0.88827   0.91481    0.008
 4815.00    0.90095   0.91389    0.008
 4816.00    0.99428   0.91355    0.008
 4817.00    1.02764   0.91303    0.008
 4818.00    1.03806   0.91195    0.008
 4819.00    1.18071   0.91075    0.008
 4820.00    1.36636   0.91016    0.008
 4821.00    1.26693   0.91064    0.008
 4822.00    1.08988   0.91246    0.008
 4823.00    0.93343   0.91496    0.008
 4824.00    0.78157   0.91672    0.008
 4825.00    0.65308   0.91729    0.008
 4826.00    0.52875   0.91750    0.008
 4827.00    0.79276   0.91766    0.008
 4828.00    1.10967   0.91747    0.008
 4829.00    0.99653   0.91718    0.008
 4830.00    0.84161   0.91721    0.008
 4831.00    0.85087   0.91717    0.008
 4832.00    0.87009   0.91637    0.008
 4833.00    0.93112   0.91444    0.008
 4834.00    0.99297   0.91161    0.008
 4835.00    1.00252   0.90901    0.008
 4836.00    1.00488   0.90749    0.008
 4837.00    0.81972   0.90707    0.008
 4838.00    0.65167   0.90793    0.008
 4839.00    0.71720   0.91020    0.008
 4840.00    0.77277   0.91296    0.008
 4841.00    0.73828   0.91533    0.008
 4842.00    0.72493   0.91708    0.008
 4843.00    0.85187   0.91787    0.008
 4844.00    0.94910   0.91734    0.008
 4845.00    0.89305   0.91574    0.008
 4846.00    0.83783   0.91361    0.008
 4847.00    0.78613   0.91106    0.008
 4848.00    0.73315   0.90797    0.000
 4849.00    0.67579   0.90485    0.000
 4850.00    0.71392   0.90254    0.000
 4851.00    1.02895   0.90100    0.000
 4852.00    1.16383   0.89922    0.000
 4853.00    0.85287   0.89618    0.000
 4854.00    0.61394   0.89154    0.000
 4855.00    0.52869   0.88566    0.000
 4856.00    0.54379   0.87897    0.000
 4857.00    0.74487   0.87161    0.000
 4858.00    0.79152   0.86348    0.000
 4859.00    0.58819   0.85369    0.000
 4860.00    0.60048   0.84098    0.000
 4861.00    0.91896   0.82487    0.000
 4862.00    1.03392   0.80525    0.000
 4863.00    0.89463   0.78136    0.000
 4864.00    0.69610   0.75223    0.000
 4865.00    0.43234   0.71833    0.000
 4866.00    0.38936   0.68319    0.000
 4867.00    0.56082   0.65527    0.000
 4868.00    0.56452   0.64424    0.000
 4869.00    0.42455   0.65337    0.000
 4870.00    0.38013   0.67861    0.000
 4871.00    0.40777   0.71308    0.000
 4872.00    0.57859   0.74912    0.000
 4873.00    0.84431   0.78064    0.000
 4874.00    0.81648   0.80552    0.000
 4875.00    0.61826   0.82419    0.009
 4876.00    0.71494   0.83734    0.009
 4877.00    0.96078   0.84646    0.009
 4878.00    0.97742   0.85411    0.009
 4879.00    0.89369   0.86173    0.009
 4880.00    0.88006   0.86918    0.009
 4881.00    0.89277   0.87628    0.009
 4882.00    0.98927   0.88316    0.009
 4883.00    1.11249   0.88927    0.009
 4884.00    1.04506   0.89401    0.009
 4885.00    0.92680   0.89718    0.009
 4886.00    0.72869   0.89839    0.009
 4887.00    0.51315   0.89798    0.009
 4888.00    0.70069   0.89731    0.009
 4889.00    0.95811   0.89708    0.009
 4890.00    0.89998   0.89694    0.009
 4891.00    0.80028   0.89671    0.009
 4892.00    0.85526   0.89663    0.009
 4893.00    0.92461   0.89680    0.009
 4894.00    0.95827   0.89685    0.009
 4895.00    0.98990   0.89619    0.009
 4896.00    0.86367   0.89484    0.009
 4897.00    0.73648   0.89432    0.009
 4898.00    0.89645   0.89659    0.009
 4899.00    1.04226   0.90190    0.009
 4900.00    0.85180   0.90916    0.009
 4901.00    0.67751   0.91702    0.009
 4902.00    0.71249   0.92355    0.009
 4903.00    0.73899   0.92728    0.009
 4904.00    0.69186   0.92775    0.009
 4905.00    0.66634   0.92528    0.009
 4906.00    0.77981   0.92131    0.009
 4907.00    0.83495   0.91786    0.009
 4908.00    0.59676   0.91562    0.009
 4909.00    0.49565   0.91452    0.009
 4910.00    0.95250   0.91477    0.009
 4911.00    1.29766   0.91615    0.009
 4912.00    1.26592   0.91741    0.009
 4913.00    1.17773   0.91794    0.009
 4914.00    0.92885   0.91801    0.009
 4915.00    0.82456   0.91789    0.009
 4916.00    1.07199   0.91786    0.009
 4917.00    1.16213   0.91865    0.009
 4918.00    0.92209   0.92014    0.008
 4919.00    0.65949   0.92178    0.008
 4920.00    0.35574   0.92323    0.008
 4921.00    0.26982   0.92396    0.008
 4922.00    0.53128   0.92251    0.008
 4923.00    0.64798   0.91725    0.008
 4924.00    0.56208   0.90721    0.008
 4925.00    0.72946   0.89250    0.008
 4926.00    1.20878   0.87461    0.008
 4927.00    1.39106   0.85674    0.008
 4928.00    1.25089   0.84527    0.008
 4929.00    1.11254   0.84401    0.008
 4930.00    0.97592   0.85208    0.008
 4931.00    0.82404   0.86639    0.008
 4932.00    0.65926   0.88495    0.008
 4933.00    0.64973   0.90388    0.008
 4934.00    0.75564   0.91969    0.008
 4935.00    0.82752   0.93100    0.008
 4936.00    0.87717   0.93745    0.008
 4937.00    0.91594   0.93900    0.008
 4938.00    0.94849   0.93651    0.008
 4939.00    1.03437   0.93161    0.008
 4940.00    1.14680   0.92658    0.000
 4941.00    1.06910   0.92315    0.000
 4942.00    0.90953   0.92078    0.000
 4943.00    0.90664   0.91787    0.000
 4944.00    0.96160   0.91389    0.000
 4945.00    1.02175   0.90980    0.000
 4946.00    1.08353   0.90667    0.000
 4947.00    0.88805   0.90523    0.000
 4948.00    0.62546   0.90576    0.000
 4949.00    0.66860   0.90892    0.000
 4950.00    0.77685   0.91456    0.000
 4951.00    0.88145   0.92141    0.000
 4952.00    0.98543   0.92804    0.000
 4953.00    0.92879   0.93385    0.000
 4954.00    0.85171   0.93843    0.000
 4955.00    0.71892   0.94171    0.000
 4956.00    0.58120   0.94370    0.000
 4957.00    0.64171   0.94363    0.000
 4958.00    0.71268   0.93994    0.000
 4959.00    0.80802   0.93141    0.000
 4960.00    0.90388   0.91794    0.000
 4961.00    1.00489   0.90106    0.000
 4962.00    1.08749   0.88374    0.000
 4963.00    0.76963   0.86925    0.000
 4964.00    0.47229   0.85999    0.000
 4965.00    0.42686   0.85665    0.000
 4966.00    0.41022   0.85785    0.000
 4967.00    0.63466   0.86087    0.000
 4968.00    0.82117   0.86347    0.000
 4969.00    0.77079   0.86459    0.000
 4970.00    0.73068   0.86405    0.000
 4971.00    0.74088   0.86245    0.000
 4972.00    0.75557   0.86090    0.000
 4973.00    0.78815   0.86042    0.000
 4974.00    0.80928   0.86151    0.000
 4975.00    0.79256   0.86422    0.000
 4976.00    0.78901   0.86805    0.000
 4977.00    0.82228   0.87222    0.000
 4978.00    0.79531   0.87614    0.000
 4979.00    0.62429   0.87948    0.000
 4980.00    0.60742   0.88202    0.000
 4981.00    0.90895   0.88352    0.000
 4982.00    1.12494   0.88367    0.000
 4983.00    1.18725   0.88220    0.000
 4984.00    1.24670   0.87909    0.000
 4985.00    1.30167   0.87469    0.000
 4986.00    1.30925   0.86962    0.000
 4987.00    1.25148   0.86436    0.000
 4988.00    1.18973   0.85970    0.000
 4989.00    1.12313   0.85702    0.000
 4990.00    0.99494   0.85726    0.000
 4991.00    0.80080   0.85993    0.000
 4992.00    0.74843   0.86363    0.000
 4993.00    0.82990   0.86723    0.000
 4994.00    0.68353   0.87000    0.000
 4995.00    0.34750   0.87140    0.000
 4996.00    0.34310   0.87134    0.000
 4997.00    0.58174   0.87047    0.000
 4998.00    0.80048   0.86973    0.000
 4999.00    1.00643   0.86948    0.000
 5000.00    0.97418   0.86939    0.000
 5001.00    0.80785   0.86948    0.000
 5002.00    0.75007   0.86967    0.000
 5003.00    0.74547   0.86881    0.000
 5004.00    0.73077   0.86535    0.000
 5005.00    0.71179   0.85875    0.000
 5006.00    1.04959   0.84970    0.000
 5007.00    1.51676   0.84022    0.000
 5008.00    1.29264   0.83297    0.000
 5009.00    0.85646   0.82929    0.000
 5010.00    0.85178   0.82820    0.000
 5011.00    0.95726   0.82787    0.000
 5012.00    0.87581   0.82793    0.000
 5013.00    0.75553   0.82880    0.000
 5014.00    0.24114   0.83085    0.000
 5015.00   -0.33777   0.83344    0.000
 5016.00   -0.01589   0.83527    0.000
 5017.00    0.41654   0.83495    0.000
 5018.00    0.29379   0.83175    0.000
 5019.00    0.12410   0.82551    0.000
 5020.00    0.45878   0.81716    0.000
 5021.00    0.81811   0.80907    0.000
 5022.00    0.67767   0.80488    0.000
 5023.00    0.53183   0.80779    0.000
 5024.00    0.52812   0.81667    0.000
 5025.00    0.53667   0.82740    0.000
 5026.00    0.79083   0.83649    0.000
 5027.00    1.01148   0.84266    0.000
 5028.00    0.84074   0.84566    0.000
 5029.00    0.69197   0.84667    0.008
 5030.00    0.72060   0.84740    0.008
 5031.00    0.72575   0.84848    0.008
 5032.00    0.58853   0.84963    0.008
 5033.00    0.50487   0.85086    0.008
 5034.00    0.67738   0.85253    0.008
 5035.00    0.86882   0.85498    0.008
 5036.00    1.13400   0.85813    0.008
 5037.00    1.29490   0.86122    0.008
 5038.00    1.11752   0.86362    0.008
 5039.00    0.89215   0.86492    0.008
 5040.00    0.53502   0.86484    0.008
 5041.00    0.37474   0.86279    0.008
 5042.00    0.67733   0.85873    0.008
 5043.00    0.90577   0.85360    0.008
 5044.00    0.98345   0.84827    0.008
 5045.00    0.92063   0.84242    0.008
 5046.00    0.60922   0.83632    0.008
 5047.00    0.43799   0.83175    0.008
 5048.00    0.48375   0.83152    0.008
 5049.00    0.53270   0.83644    0.008
 5050.00    0.58598   0.84420    0.008
 5051.00    0.56783   0.85115    0.008
 5052.00    0.46418   0.85553    0.008
 5053.00    0.46391   0.85640    0.008
 5054.00    0.57273   0.85407    0.008
 5055.00    0.72186   0.85077    0.008
 5056.00    0.90849   0.84882    0.008
 5057.00    0.95588   0.84862    0.008
 5058.00    0.88901   0.84942    0.008
 5059.00    0.76933   0.85090    0.008
 5060.00    0.61152   0.85232    0.008
 5061.00    0.62783   0.85338    0.008
 5062.00    0.75454   0.85408    0.008
 5063.00    0.96500   0.85609    0.008
 5064.00    1.22188   0.86033    0.008
 5065.00    1.09643   0.86600    0.008
 5066.00    0.78663   0.87079    0.008
 5067.00    0.49095   0.87371    0.008
 5068.00    0.20114   0.87391    0.008
 5069.00    0.43513   0.87095    0.008
 5070.00    0.85562   0.86545    0.008
 5071.00    0.85237   0.85926    0.008
 5072.00    0.72166   0.85475    0.008
 5073.00    0.54302   0.85312    0.008
 5074.00    0.35239   0.85352    0.008
 5075.00    0.36322   0.85476    0.008
 5076.00    0.41487   0.85626    0.008
 5077.00    0.40807   0.85750    0.008
 5078.00    0.39198   0.85790    0.008
 5079.00    0.58724   0.85761    0.008
 5080.00    0.80751   0.85741    0.008
 5081.00    0.71524   0.85752    0.008
 5082.00    0.59784   0.85713    0.008
 5083.00    0.55915   0.85575    0.008
 5084.00    0.52399   0.85331    0.008
 5085.00    0.84695   0.84978    0.008
 5086.00    1.16730   0.84535    0.008
 5087.00    1.14592   0.84148    0.008
 5088.00    1.11564   0.83950    0.008
 5089.00    0.91985   0.83952    0.008
 5090.00    0.76869   0.84111    0.008
 5091.00    1.11475   0.84388    0.008
 5092.00    1.37963   0.84722    0.008
 5093.00    1.01193   0.85036    0.008
 5094.00    0.71039   0.85298    0.008
 5095.00    0.79856   0.85509    0.008
 5096.00    0.89542   0.85670    0.008
 5097.00    1.03280   0.85774    0.008
 5098.00    1.04979   0.85860    0.008
 5099.00    0.60787   0.85959    0.008
 5100.00    0.33073   0.86032    0.008
 5101.00    0.57770   0.85983    0.008
 5102.00    0.77917   0.85780    0.008
 5103.00    0.85795   0.85490    0.008
 5104.00    1.00719   0.85183    0.008
 5105.00    1.31933   0.84885    0.008
 5106.00    1.38983   0.84623    0.008
 5107.00    0.97690   0.84466    0.008
 5108.00    0.68838   0.84438    0.008
 5109.00    0.61664   0.84471    0.008
 5110.00    0.64001   0.84481    0.008
 5111.00    0.80846   0.84442    0.008
 5112.00    0.88728   0.84368    0.008
 5113.00    0.84602   0.84267    0.008
 5114.00    0.81231   0.84144    0.008
 5115.00    0.78750   0.84027    0.008
 5116.00    0.78033   0.83943    0.008
 5117.00    0.79150   0.83899    0.008
 5118.00    0.69244   0.83927    0.008
 5119.00    0.49220   0.84070    0.008
 5120.00    0.46585   0.84344    0.008
 5121.00    0.58018   0.84765    0.008
 5122.00    0.75733   0.85300    0.008
 5123.00    0.97921   0.85816    0.008
 5124.00    0.97959   0.86148    0.008
 5125.00    0.84161   0.86179    0.008
 5126.00    0.76593   0.85868    0.008
 5127.00    0.72427   0.85274    0.008
 5128.00    0.76226   0.84531    0.008
 5129.00    0.83803   0.83785    0.008
 5130.00    0.84315   0.83170    0.008
 5131.00    0.81935   0.82755    0.008
 5132.00    0.81191   0.82538    0.008
 5133.00    0.81018   0.82437    0.008
 5134.00    0.91448   0.82404    0.008
 5135.00    1.05004   0.82492    0.008
 5136.00    0.88659   0.82752    0.008
 5137.00    0.65010   0.83133    0.008
 5138.00    0.56104   0.83549    0.008
 5139.00    0.50110   0.83945    0.008
 5140.00    0.63803   0.84295    0.008
 5141.00    0.80532   0.84626    0.008
 5142.00    0.86654   0.84931    0.008
 5143.00    0.91567   0.85107    0.008
 5144.00    0.67405   0.85070    0.008
 5145.00    0.41025   0.84874    0.008
 5146.00    0.49146   0.84612    0.008
 5147.00    0.58686   0.84341    0.008
 5148.00    0.42461   0.84039    0.008
 5149.00    0.25963   0.83634    0.008
 5150.00    0.06912   0.83141    0.008
 5151.00   -0.08689   0.82725    0.000
 5152.00    0.35501   0.82498    0.008
 5153.00    0.75905   0.82454    0.008
 5154.00    0.76024   0.82531    0.008
 5155.00    0.76914   0.82625    0.008
 5156.00    0.83612   0.82600    0.008
 5157.00    0.86246   0.82423    0.008
 5158.00    0.65610   0.82160    0.008
 5159.00    0.47701   0.81998    0.008
 5160.00    0.42213   0.82095    0.008
 5161.00    0.39908   0.82501    0.008
 5162.00    0.49482   0.83157    0.008
 5163.00    0.58320   0.83959    0.008
 5164.00    0.64859   0.84786    0.008
 5165.00    0.69940   0.85491    0.008
 5166.00    0.71156   0.85972    0.008
 5167.00    0.72258   0.86186    0.008
 5168.00    0.73096   0.86186    0.008
 5169.00    0.71687   0.85913    0.008
 5170.00    0.65849   0.85219    0.008
 5171.00    0.53237   0.84036    0.008
 5172.00    0.28996   0.82413    0.008
 5173.00    0.32739   0.80501    0.008
 5174.00    0.78540   0.78608    0.008
 5175.00    0.94384   0.77078    0.008
 5176.00    0.70662   0.76083    0.008
 5177.00    0.60992   0.75577    0.008
 5178.00    0.67669   0.75387    0.008
 5179.00    0.76107   0.75362    0.008
 5180.00    0.86350   0.75472    0.008
 5181.00    0.83362   0.75770    0.008
 5182.00    0.68399   0.76238    0.008
 5183.00    0.69432   0.76738    0.008
 5184.00    0.83221   0.77154    0.008
 5185.00    0.75458   0.77406    0.008
 5186.00    0.52575   0.77449    0.008
 5187.00    0.36010   0.77290    0.008
 5188.00    0.23334   0.77029    0.008
 5189.00    0.37954   0.76803    0.008
 5190.00    0.67246   0.76757    0.000
 5191.00    0.81205   0.77015    0.000
 5192.00    0.88008   0.77620    0.000
 5193.00    0.86563   0.78444    0.000
 5194.00    0.81799   0.79228    0.000
 5195.00    0.64323   0.79744    0.000
 5196.00    0.42483   0.79895    0.000
 5197.00    0.52657   0.79715    0.000
 5198.00    0.72082   0.79337    0.000
 5199.00    0.76223   0.78946    0.000
 5200.00    0.76715   0.78757    0.000
 5201.00    0.70893   0.78904    0.000
 5202.00    0.63856   0.79366    0.000
 5203.00    0.75288   0.79980    0.000
 5204.00    0.89482   0.80548    0.000
 5205.00    0.67621   0.80901    0.000
 5206.00    0.41810   0.80948    0.000
 5207.00    0.53313   0.80700    0.000
 5208.00    0.67509   0.80203    0.000
 5209.00    0.68408   0.79528    0.000
 5210.00    0.68810   0.78734    0.000
 5211.00    0.77727   0.77862    0.008
 5212.00    0.86278   0.76978    0.008
 5213.00    0.80074   0.76230    0.008
 5214.00    0.73939   0.75787    0.008
 5215.00    0.68901   0.75730    0.008
 5216.00    0.64974   0.76050    0.008
 5217.00    0.72352   0.76705    0.008
 5218.00    0.77856   0.77626    0.008
 5219.00    0.69728   0.78692    0.008
 5220.00    0.65921   0.79750    0.008
 5221.00    0.86183   0.80667    0.008
 5222.00    0.98444   0.81366    0.008
 5223.00    0.75114   0.81848    0.008
 5224.00    0.60383   0.82193    0.008
 5225.00    0.77071   0.82495    0.008
 5226.00    0.83377   0.82764    0.008
 5227.00    0.57903   0.82918    0.008
 5228.00    0.40684   0.82865    0.008
 5229.00    0.44945   0.82540    0.008
 5230.00    0.53305   0.81946    0.008
 5231.00    0.70835   0.81194    0.008
 5232.00    0.80115   0.80517    0.008
 5233.00    0.73406   0.80173    0.008
 5234.00    0.74162   0.80329    0.008
 5235.00    0.87537   0.80963    0.008
 5236.00    0.77918   0.81876    0.008
 5237.00    0.34243   0.82761    0.008
 5238.00    0.18823   0.83353    0.008
 5239.00    0.40190   0.83579    0.008
 5240.00    0.65675   0.83562    0.008
 5241.00    0.95881   0.83497    0.008
 5242.00    0.90509   0.83546    0.008
 5243.00    0.49147   0.83742    0.008
 5244.00    0.41477   0.83973    0.008
 5245.00    0.63863   0.84081    0.008
 5246.00    0.79328   0.83994    0.008
 5247.00    0.89352   0.83763    0.008
 5248.00    0.76420   0.83500    0.008
 5249.00    0.47616   0.83271    0.008
 5250.00    0.39452   0.83055    0.008
 5251.00    0.43801   0.82760    0.008
 5252.00    0.42158   0.82306    0.008
 5253.00    0.37346   0.81699    0.008
 5254.00    0.44048   0.81038    0.008
 5255.00    0.56039   0.80478    0.008
 5256.00    0.52764   0.80187    0.008
 5257.00    0.43452   0.80188    0.008
 5258.00    0.54135   0.80372    0.008
 5259.00    0.71553   0.80663    0.008
 5260.00    0.85071   0.81065    0.008
 5261.00    0.97486   0.81560    0.008
 5262.00    0.79306   0.82091    0.008
 5263.00    0.53986   0.82612    0.008
 5264.00    0.43764   0.83086    0.008
 5265.00    0.36372   0.83429    0.008
 5266.00    0.45653   0.83482    0.008
 5267.00    0.57349   0.83140    0.008
 5268.00    0.53506   0.82431    0.008
 5269.00    0.48029   0.81496    0.008
 5270.00    0.58976   0.80519    0.008
 5271.00    0.71043   0.79656    0.008
 5272.00    0.68440   0.78990    0.008
 5273.00    0.65345   0.78556    0.008
 5274.00    0.51078   0.78293    0.008
 5275.00    0.37933   0.78119    0.008
 5276.00    0.61174   0.78033    0.008
 5277.00    0.83608   0.78112    0.008
 5278.00    0.93752   0.78476    0.008
 5279.00    1.01911   0.79197    0.008
 5280.00    0.90709   0.80148    0.008
 5281.00    0.82943   0.81083    0.008
 5282.00    0.99365   0.81864    0.008
 5283.00    1.06521   0.82504    0.008
 5284.00    0.63427   0.83040    0.008
 5285.00    0.28256   0.83461    0.008
 5286.00    0.27518   0.83701    0.008
 5287.00    0.32543   0.83685    0.008
 5288.00    0.58192   0.83452    0.008
 5289.00    0.71996   0.83183    0.008
 5290.00    0.50230   0.83088    0.008
 5291.00    0.38951   0.83289    0.008
 5292.00    0.54490   0.83758    0.008
 5293.00    0.52754   0.84336    0.008
 5294.00    0.13017   0.84834    0.008
 5295.00    0.00235   0.85117    0.008
 5296.00    0.38887   0.85178    0.008
 5297.00    0.66270   0.85114    0.008
 5298.00    0.74892   0.85023    0.008
 5299.00    0.76843   0.84914    0.008
 5300.00    0.69059   0.84708    0.008
 5301.00    0.57245   0.84312    0.008
 5302.00    0.40259   0.83690    0.008
 5303.00    0.35890   0.82911    0.008
 5304.00    0.45787   0.82124    0.008
 5305.00    0.65145   0.81531    0.008
 5306.00    0.93938   0.81296    0.008
 5307.00    0.90204   0.81479    0.008
 5308.00    0.57859   0.82005    0.008
 5309.00    0.49290   0.82727    0.008
 5310.00    0.59147   0.83495    0.008
 5311.00    0.79074   0.84196    0.008
 5312.00    1.05863   0.84723    0.008
 5313.00    1.19213   0.85004    0.008
 5314.00    1.24539   0.85045    0.008
 5315.00    1.06091   0.84939    0.008
 5316.00    0.75257   0.84794    0.008
 5317.00    0.79500   0.84675    0.008
 5318.00    0.99587   0.84574    0.008
 5319.00    1.02171   0.84461    0.008
 5320.00    0.97953   0.84336    0.008
 5321.00    0.99901   0.84224    0.008
 5322.00    1.03886   0.84134    0.008
 5323.00    1.00418   0.84045    0.008
 5324.00    0.94883   0.83935    0.008
 5325.00    0.85720   0.83793    0.008
 5326.00    0.75729   0.83626    0.007
 5327.00    0.58021   0.83454    0.007
 5328.00    0.38904   0.83294    0.008
 5329.00    0.20281   0.83133    0.008
 5330.00    0.01728   0.82925    0.008
 5331.00    0.31331   0.82592    0.008
 5332.00    0.65791   0.82049    0.008
 5333.00    0.72341   0.81291    0.008
 5334.00    0.77100   0.80430    0.008
 5335.00    0.81145   0.79690    0.008
 5336.00    0.85135   0.79306    0.008
 5337.00    0.75160   0.79418    0.008
 5338.00    0.65715   0.80008    0.008
 5339.00    0.71441   0.80883    0.008
 5340.00    0.76423   0.81773    0.008
 5341.00    0.70751   0.82482    0.008
 5342.00    0.66422   0.82942    0.008
 5343.00    0.74664   0.83140    0.008
 5344.00    0.79711   0.83078    0.008
 5345.00    0.62962   0.82781    0.008
 5346.00    0.53845   0.82328    0.008
 5347.00    0.85028   0.81857    0.008
 5348.00    1.09572   0.81491    0.008
 5349.00    1.05919   0.81291    0.008
 5350.00    0.96593   0.81252    0.008
 5351.00    0.67379   0.81315    0.008
 5352.00    0.49659   0.81397    0.008
 5353.00    0.65818   0.81447    0.008
 5354.00    0.74150   0.81502    0.008
 5355.00    0.62820   0.81627    0.008
 5356.00    0.58751   0.81915    0.008
 5357.00    0.70399   0.82410    0.008
 5358.00    0.78591   0.83093    0.008
 5359.00    0.80292   0.83896    0.008
 5360.00    0.79387   0.84714    0.008
 5361.00    0.74204   0.85411    0.008
 5362.00    0.70534   0.85893    0.008
 5363.00    0.69039   0.86135    0.008
 5364.00    0.67508   0.86162    0.008
 5365.00    0.65932   0.86000    0.008
 5366.00    0.74068   0.85676    0.008
 5367.00    0.93032   0.85241    0.008
 5368.00    0.94302   0.84758   -2.000
 5369.00    0.78174   0.84299   -2.000
 5370.00    0.73155   0.83927   -2.000
 5371.00    0.77768   0.83666   -2.000
 5372.00    0.60992   0.83486   -2.000
 5373.00    0.27875   0.83310   -2.000
 5374.00    0.26495   0.83039   -2.000
 5375.00    0.46423   0.82610   -2.000
 5376.00    0.65550   0.82059   -2.000
 5377.00    0.84205   0.81522   -2.000
 5378.00    0.85580   0.81201   -2.000
 5379.00    0.78093   0.81258   -2.000
 5380.00    0.74704   0.81717   -2.000
 5381.00    0.73136   0.82451   -2.000
 5382.00    0.80886   0.83249   -2.000
 5383.00    0.92192   0.83930    0.008
 5384.00    0.86322   0.84409    0.008
 5385.00    0.74881   0.84696    0.008
 5386.00    0.65118   0.84828    0.008
 5387.00    0.55810   0.84818    0.008
 5388.00    0.52159   0.84679    0.008
 5389.00    0.49769   0.84451    0.008
 5390.00    0.53577   0.84204    0.008
 5391.00    0.58487   0.84009    0.008
 5392.00    0.67418   0.83884    0.008
 5393.00    0.76894   0.83784    0.008
 5394.00    0.89171   0.83630    0.008
 5395.00    1.01718   0.83374    0.008
 5396.00    1.08179   0.83025    0.008
 5397.00    1.14273   0.82641    0.008
 5398.00    0.92197   0.82297    0.008
 5399.00    0.69555   0.82026    0.008
 5400.00    0.74790   0.81787    0.008
 5401.00    0.79968   0.81515    0.008
 5402.00    0.83686   0.81204    0.008
 5403.00    0.87260   0.80922    0.008
 5404.00    0.88871   0.80786    0.008
 5405.00    0.91285   0.80893    0.008
 5406.00    1.00904   0.81233    0.008
 5407.00    1.08021   0.81657    0.008
 5408.00    0.98593   0.81968    0.008
 5409.00    0.86218   0.82009    0.008
 5410.00    0.58679   0.81720    0.008
 5411.00    0.36558   0.81169    0.008
 5412.00    0.36927   0.80514    0.008
 5413.00    0.40407   0.79927    0.008
 5414.00    0.54573   0.79523    0.008
 5415.00    0.67138   0.79358    0.008
 5416.00    0.75068   0.79437    0.008
 5417.00    0.77312   0.79753    0.008
 5418.00    0.65515   0.80290    0.007
 5419.00    0.67572   0.81006    0.007
 5420.00    0.99127   0.81824    0.008
 5421.00    1.13219   0.82651    0.008
 5422.00    0.95016   0.83389    0.007
 5423.00    0.79490   0.83962    0.007
 5424.00    0.68293   0.84339    0.007
 5425.00    0.55535   0.84525    0.007
 5426.00    0.40566   0.84555    0.007
 5427.00    0.45060   0.84479    0.007
 5428.00    0.73828   0.84355    0.007
 5429.00    0.90750   0.84231    0.007
 5430.00    0.94652   0.84133    0.007
 5431.00    0.95521   0.84061    0.007
 5432.00    0.93452   0.83977    0.007
 5433.00    0.97936   0.83804    0.007
 5434.00    1.08023   0.83470    0.007
 5435.00    0.93468   0.82945    0.007
 5436.00    0.60359   0.82263    0.007
 5437.00    0.55022   0.81535    0.007
 5438.00    0.68061   0.80895    0.007
 5439.00    0.60946   0.80421    0.007
 5440.00    0.42157   0.80136    0.007
 5441.00    0.40987   0.80052    0.007
 5442.00    0.48711   0.80187    0.008
 5443.00    0.47312   0.80568    0.008
 5444.00    0.41926   0.81198    0.008
 5445.00    0.50505   0.82032    0.008
 5446.00    0.64322   0.82964    0.008
 5447.00    0.74305   0.83862    0.008
 5448.00    0.83069   0.84585    0.008
 5449.00    0.59216   0.84988    0.008
 5450.00    0.26691   0.84939    0.008
 5451.00    0.35101   0.84358    0.008
 5452.00    0.52415   0.83270    0.008
 5453.00    0.60633   0.81824    0.008
 5454.00    0.67281   0.80272    0.008
 5455.00    0.89171   0.78875    0.008
 5456.00    1.13059   0.77792    0.008
 5457.00    0.95710   0.77029    0.008
 5458.00    0.74551   0.76485    0.008
 5459.00    0.66814   0.76033    0.008
 5460.00    0.59831   0.75614    0.008
 5461.00    0.65562   0.75254    0.008
 5462.00    0.71521   0.75040    0.007
 5463.00    0.71573   0.75045    0.007
 5464.00    0.71700   0.75270    0.008
 5465.00    0.73563   0.75644    0.007
 5466.00    0.76492   0.76055    0.007
 5467.00    0.93096   0.76404    0.007
 5468.00    1.05997   0.76660    0.007
 5469.00    0.86858   0.76846    0.007
 5470.00    0.69742   0.77001    0.007
 5471.00    0.65596   0.77159    0.007
 5472.00    0.64371   0.77338    0.007
 5473.00    0.77784   0.77530    0.007
 5474.00    0.83583   0.77708    0.007
 5475.00    0.58477   0.77834    0.007
 5476.00    0.38739   0.77875    0.007
 5477.00    0.37076   0.77802    0.007
 5478.00    0.36162   0.77624   -2.000
 5479.00    0.37380   0.77384   -2.000
 5480.00    0.36103   0.77129   -2.000
 5481.00    0.28774   0.76900   -2.000
 5482.00    0.35074   0.76749   -2.000
 5483.00    0.69927   0.76712   -2.000
 5484.00    0.86594   0.76798   -2.000
 5485.00    0.70143   0.76974   -2.000
 5486.00   -0.02717   0.77187   -2.000
 5487.00   -1.65366   0.77389   -2.000
 5488.00   -2.53119   0.77564   -2.000
 5489.00   -2.36244   0.77745   -2.000
 5490.00   -1.65811   0.77977   -2.000
 5491.00   -0.29535   0.78263   -2.000
 5492.00    0.98540   0.78546   -2.000
 5493.00    2.17727   0.78756   -2.000
 5494.00    2.34448   0.78851   -2.000
 5495.00    1.53221   0.78851   -2.000
 5496.00    1.07075   0.78820   -2.000
 5497.00    0.90498   0.78814   -2.000
 5498.00    0.70825   0.78850   -2.000
 5499.00    0.48856   0.78902   -2.000
 5500.00    0.49713   0.78921   -2.000
 5501.00    0.65451   0.78849   -2.000
 5502.00    0.67624   0.78664   -1.000
 5503.00    0.62057   0.78396   -1.000
 5504.00    0.59808   0.78104   -1.000
 5505.00    0.59205   0.77835   -1.000
 5506.00    0.57472   0.77614   -1.000
 5507.00    0.55253   0.77442   -1.000
 5508.00    0.62310   0.77299    0.020
 5509.00    0.72785   0.77169    0.008
 5510.00    0.69655   0.77041    0.007
 5511.00    0.62278   0.76916    0.007
 5512.00    0.65690   0.76811    0.007
 5513.00    0.71908   0.76753    0.007
 5514.00    0.67825   0.76763    0.007
 5515.00    0.61555   0.76835    0.007
 5516.00    0.62403   0.76908    0.007
 5517.00    0.64446   0.76898    0.007
 5518.00    0.64866   0.76747    0.007
 5519.00    0.65080   0.76473    0.007
 5520.00    0.74847   0.76175    0.007
 5521.00    0.85456   0.75999    0.007
 5522.00    0.80685   0.76063    0.007
 5523.00    0.75110   0.76422    0.007
 5524.00    0.81424   0.77033    0.007
 5525.00    0.87733   0.77775    0.007
 5526.00    0.76925   0.78499    0.007
 5527.00    0.67571   0.79079    0.007
 5528.00    0.89541   0.79452    0.007
 5529.00    1.08768   0.79615    0.007
 5530.00    0.94550   0.79605    0.007
 5531.00    0.80231   0.79458    0.007
 5532.00    0.65077   0.79207    0.007
 5533.00    0.52090   0.78900    0.007
 5534.00    0.52591   0.78615    0.007
 5535.00    0.53095   0.78431    0.007
 5536.00    0.53623   0.78395    0.007
 5537.00    0.56747   0.78488    0.007
 5538.00    0.70176   0.78640    0.007
 5539.00    0.77170   0.78755    0.007
 5540.00    0.62925   0.78780    0.007
 5541.00    0.51921   0.78728    0.007
 5542.00    0.49958   0.78661    0.007
 5543.00    0.54987   0.78644    0.008
 5544.00    0.76700   0.78723    0.008
 5545.00    0.87084   0.78912    0.007
 5546.00    0.74114   0.79177    0.007
 5547.00    0.64070   0.79457    0.007
 5548.00    0.59272   0.79683    0.007
 5549.00    0.58810   0.79804    0.007
 5550.00    0.65151   0.79803    0.007
 5551.00    0.72993   0.79712    0.007
 5552.00    0.82902   0.79601    0.007
 5553.00    0.83846   0.79548    0.007
 5554.00    0.73923   0.79588    0.007
 5555.00    0.76705   0.79708    0.007
 5556.00    0.93062   0.79851    0.007
 5557.00    0.88865   0.79944    0.007
 5558.00    0.65297   0.79927    0.007
 5559.00    0.61128   0.79783    0.007
 5560.00    0.73078   0.79534    0.007
 5561.00    0.78792   0.79226    0.007
 5562.00    0.79944   0.78907    0.007
 5563.00    0.74026   0.78627    0.007
 5564.00    0.63567   0.78417    0.007
 5565.00    0.66749   0.78285    0.007
 5566.00    0.77596   0.78213    0.007
 5567.00    0.81309   0.78171    0.007
 5568.00    0.81533   0.78126    0.007
 5569.00    0.84023   0.78050    0.007
 5570.00    0.87469   0.77935    0.007
 5571.00    0.94100   0.77787    0.007
 5572.00    1.01882   0.77635    0.007
 5573.00    0.96760   0.77515    0.007
 5574.00    0.87688   0.77453    0.007
 5575.00    0.76038   0.77466    0.007
 5576.00    0.63731   0.77549    0.007
 5577.00    0.57893   0.77662    0.007
 5578.00    0.53396   0.77763    0.007
 5579.00    0.53667   0.77841    0.007
 5580.00    0.54715   0.77898    0.007
 5581.00    0.63102   0.77949    0.007
 5582.00    0.72386   0.78013    0.007
 5583.00    0.75327   0.78085    0.007
 5584.00    0.77736   0.78147    0.007
 5585.00    0.65130   0.78187    0.007
 5586.00    0.51799   0.78187    0.007
 5587.00    0.67299   0.78136    0.007
 5588.00    0.83029   0.78036    0.007
 5589.00    0.86692   0.77888    0.007
 5590.00    0.89328   0.77685    0.007
 5591.00    0.71584   0.77424    0.007
 5592.00    0.55273   0.77091    0.007
 5593.00    0.55583   0.76693    0.007
 5594.00    0.56783   0.76268    0.007
 5595.00    0.65134   0.75888    0.007
 5596.00    0.70299   0.75626    0.007
 5597.00    0.56214   0.75524    0.007
 5598.00    0.45594   0.75577    0.007
 5599.00    0.51494   0.75748    0.007
 5600.00    0.56768   0.75983    0.007
 5601.00    0.59613   0.76218    0.007
 5602.00    0.63216   0.76363    0.007
 5603.00    0.69269   0.76317    0.007
 5604.00    0.74665   0.76029    0.007
 5605.00    0.78261   0.75545    0.007
 5606.00    0.84474   0.74988    0.007
 5607.00    0.96830   0.74510    0.007
 5608.00    0.99170   0.74218    0.007
 5609.00    0.81192   0.74138    0.007
 5610.00    0.67479   0.74227    0.007
 5611.00    0.61300   0.74433    0.007
 5612.00    0.61966   0.74722    0.007
 5613.00    0.73212   0.75069    0.007
 5614.00    0.79209   0.75439    0.007
 5615.00    0.78085   0.75789    0.007
 5616.00    0.76657   0.76080    0.007
 5617.00    0.74868   0.76296    0.007
 5618.00    0.78367   0.76426    0.007
 5619.00    0.87438   0.76441    0.007
 5620.00    0.92625   0.76299    0.007
 5621.00    0.94205   0.75988    0.007
 5622.00    0.97287   0.75561    0.007
 5623.00    1.01600   0.75118    0.007
 5624.00    0.97285   0.74754    0.007
 5625.00    0.86750   0.74529    0.007
 5626.00    0.82795   0.74451    0.007
 5627.00    0.83006   0.74483    0.007
 5628.00    0.87687   0.74557    0.007
 5629.00    0.94840   0.74602    0.007
 5630.00    0.99590   0.74573    0.007
 5631.00    1.03183   0.74482    0.007
 5632.00    0.95838   0.74379    0.007
 5633.00    0.83948   0.74307    0.007
 5634.00    0.87195   0.74278    0.007
 5635.00    0.95820   0.74279    0.007
 5636.00    0.70774   0.74294    0.007
 5637.00    0.35626   0.74333    0.007
 5638.00    0.41183   0.74420    0.007
 5639.00    0.56879   0.74560    0.007
 5640.00    0.67619   0.74716    0.007
 5641.00    0.77359   0.74814    0.006
 5642.00    0.78466   0.74789    0.006
 5643.00    0.78207   0.74618    0.006
 5644.00    0.76457   0.74324    0.006
 5645.00    0.74533   0.73955    0.006
 5646.00    0.66654   0.73591    0.006
 5647.00    0.58300   0.73308    0.006
 5648.00    0.56738   0.73163    0.006
 5649.00    0.55479   0.73157    0.006
 5650.00    0.58497   0.73258    0.006
 5651.00    0.61454   0.73411    0.006
 5652.00    0.58997   0.73572    0.006
 5653.00    0.56753   0.73726    0.007
 5654.00    0.58418   0.73903    0.007
 5655.00    0.60239   0.74147    0.007
 5656.00    0.63782   0.74494    0.007
 5657.00    0.67633   0.74939    0.007
 5658.00    0.73877   0.75436    0.007
 5659.00    0.79393   0.75909    0.007
 5660.00    0.80647   0.76268    0.007
 5661.00    0.80513   0.76449    0.007
 5662.00    0.73929   0.76424    0.007
 5663.00    0.69224   0.76183    0.007
 5664.00    0.71660   0.75761    0.007
 5665.00    0.75267   0.75261    0.007
 5666.00    0.82590   0.74797    0.007
 5667.00    0.90273   0.74414    0.007
 5668.00    0.98921   0.74121    0.007
 5669.00    0.98563   0.73922    0.007
 5670.00    0.77424   0.73810    0.007
 5671.00    0.64377   0.73758    0.007
 5672.00    0.67485   0.73740    0.007
 5673.00    0.68284   0.73732    0.007
 5674.00    0.65070   0.73714    0.007
 5675.00    0.55573   0.73700    0.007
 5676.00    0.36513   0.73716    0.007
 5677.00    0.32122   0.73798    0.007
 5678.00    0.47352   0.73976    0.007
 5679.00    0.59921   0.74249    0.007
 5680.00    0.69356   0.74570    0.007
 5681.00    0.73099   0.74872    0.007
 5682.00    0.70930   0.75112    0.007
 5683.00    0.62509   0.75271    0.006
 5684.00    0.48359   0.75340    0.006
 5685.00    0.47020   0.75326    0.006
 5686.00    0.56026   0.75275    0.006
 5687.00    0.70651   0.75244    0.006
 5688.00    0.89268   0.75270    0.006
 5689.00    0.96716   0.75367    0.006
 5690.00    0.97202   0.75523    0.006
 5691.00    0.88744   0.75681    0.006
 5692.00    0.75414   0.75764    0.007
 5693.00    0.70629   0.75738    0.007
 5694.00    0.69889   0.75643    0.006
 5695.00    0.57365   0.75571    0.006
 5696.00    0.40029   0.75611    0.007
 5697.00    0.29429   0.75804    0.007
 5698.00    0.21178   0.76107    0.007
 5699.00    0.44118   0.76414    0.007
 5700.00    0.76229   0.76596    0.007
 5701.00    0.89746   0.76566    0.007
 5702.00    0.98733   0.76326    0.007
 5703.00    0.95477   0.75968    0.007
 5704.00    0.89811   0.75605    0.007
 5705.00    0.68103   0.75320    0.007
 5706.00    0.43931   0.75137    0.007
 5707.00    0.43776   0.75032    0.007
 5708.00    0.46342   0.74970    0.007
 5709.00    0.60208   0.74942    0.007
 5710.00    0.74930   0.74961    0.007
 5711.00    0.87804   0.75024    0.007
 5712.00    1.00603   0.75079    0.007
 5713.00    0.74301   0.75058    0.007
 5714.00    0.48196   0.74931    0.006
 5715.00    0.42794   0.74733    0.007
 5716.00    0.38296   0.74539    0.007
 5717.00    0.49351   0.74441    0.006
 5718.00    0.60283   0.74486    0.006
 5719.00    0.69921   0.74682    0.006
 5720.00    0.77028   0.75016    0.006
 5721.00    0.65165   0.75417    0.006
 5722.00    0.56495   0.75794    0.006
 5723.00    0.66040   0.76068    0.006
 5724.00    0.74626   0.76205    0.006
 5725.00    0.78854   0.76229    0.006
 5726.00    0.80234   0.76216    0.006
 5727.00    0.71015   0.76236    0.006
 5728.00    0.65676   0.76305    0.006
 5729.00    0.72414   0.76398    0.006
 5730.00    0.75966   0.76458    0.006
 5731.00    0.71095   0.76421    0.006
 5732.00    0.70482   0.76260    0.006
 5733.00    0.79529   0.75988    0.006
 5734.00    0.87350   0.75685    0.006
 5735.00    0.92763   0.75464    0.006
 5736.00    0.93957   0.75399    0.007
 5737.00    0.87927   0.75478    0.007
 5738.00    0.84016   0.75654    0.007
 5739.00    0.83284   0.75891    0.007
 5740.00    0.75528   0.76157    0.000
 5741.00    0.58514   0.76399    0.000
 5742.00    0.56315   0.76561    0.000
 5743.00    0.71322   0.76607    0.000
 5744.00    0.75227   0.76534    0.000
 5745.00    0.67763   0.76380    0.000
 5746.00    0.57304   0.76214    0.000
 5747.00    0.44139   0.76116    0.000
 5748.00    0.41254   0.76143    0.000
 5749.00    0.46553   0.76298    0.000
 5750.00    0.44270   0.76534    0.000
 5751.00    0.36679   0.76806    0.000
 5752.00    0.40687   0.77071    0.000
 5753.00    0.51820   0.77275    0.000
 5754.00    0.51279   0.77375    0.000
 5755.00    0.44475   0.77378    0.000
 5756.00    0.49580   0.77350    0.000
 5757.00    0.60234   0.77353    0.000
 5758.00    0.67822   0.77389    0.000
 5759.00    0.74179   0.77414    0.000
 5760.00    0.88928   0.77404    0.000
 5761.00    1.06550   0.77389    0.000
 5762.00    0.96450   0.77427    0.000
 5763.00    0.78362   0.77536    0.000
 5764.00    0.73189   0.77652    0.000
 5765.00    0.71093   0.77653    0.000
 5766.00    0.71948   0.77431    0.000
 5767.00    0.73371   0.76963    0.000
 5768.00    0.69559   0.76342    0.000
 5769.00    0.64968   0.75740    0.000
 5770.00    0.69865   0.75323    0.000
 5771.00    0.75795   0.75182    0.000
 5772.00    0.74237   0.75294    0.000
 5773.00    0.72143   0.75549    0.000
 5774.00    0.75189   0.75827    0.000
 5775.00    0.78425   0.76053    0.000
 5776.00    0.72329   0.76201    0.000
 5777.00    0.66504   0.76277    0.000
 5778.00    0.71766   0.76305    0.000
 5779.00    0.76959   0.76302    0.000
 5780.00    0.81032   0.76284    0.000
 5781.00    0.83210   0.76262    0.000
 5782.00    0.66201   0.76243    0.000
 5783.00    0.51350   0.76223    0.000
 5784.00    0.52134   0.76184    0.000
 5785.00    0.53665   0.76095    0.000
 5786.00    0.59351   0.75918    0.000
 5787.00    0.65210   0.75628    0.000
 5788.00    0.71843   0.75237    0.000
 5789.00    0.77386   0.74805    0.000
 5790.00    0.78958   0.74424    0.000
 5791.00    0.81464   0.74170   -2.000
 5792.00    0.86817   0.74072   -2.000
 5793.00    0.81539   0.74132   -2.000
 5794.00    0.48655   0.74334   -2.000
 5795.00    0.21471   0.74639   -2.000
 5796.00    0.07012   0.74978   -2.000
 5797.00    0.05278   0.75307   -2.000
 5798.00    0.28163   0.75632   -2.000
 5799.00    0.47601   0.75997   -2.000
 5800.00    0.61226   0.76443   -2.000
 5801.00    0.68168   0.76945   -2.000
 5802.00    0.65230   0.77407   -2.000
 5803.00    0.58722   0.77733   -2.000
 5804.00    0.47575   0.77901   -2.000
 5805.00    0.48692   0.77982   -2.000
 5806.00    0.63853   0.78097   -2.000
 5807.00    0.76516   0.78336   -2.000
 5808.00    0.86657   0.78687   -2.000
 5809.00    0.90287   0.79038   -2.000
 5810.00    0.88119   0.79268   -2.000
 5811.00    0.89357   0.79328    0.000
 5812.00    0.93269   0.79241    0.000
 5813.00    0.91691   0.79078    0.000
 5814.00    0.86326   0.78909    0.000
 5815.00    0.76811   0.78746    0.000
 5816.00    0.64785   0.78554    0.000
 5817.00    0.61071   0.78292    0.000
 5818.00    0.61747   0.77933    0.000
 5819.00    0.60745   0.77480    0.000
 5820.00    0.58975   0.76967    0.000
 5821.00    0.50184   0.76442    0.000
 5822.00    0.38623   0.75963    0.000
 5823.00    0.52870   0.75585    0.000
 5824.00    0.75790   0.75350    0.000
 5825.00    0.87163   0.75276    0.000
 5826.00    0.95275   0.75335    0.000
 5827.00    0.98327   0.75466    0.000
 5828.00    1.00201   0.75601    0.000
 5829.00    0.94661   0.75697    0.000
 5830.00    0.87735   0.75750    0.000
 5831.00    0.84266   0.75780    0.000
 5832.00    0.81296   0.75826    0.000
 5833.00    0.73544   0.75922    0.000
 5834.00    0.65291   0.76077    0.000
 5835.00    0.59211   0.76275    0.000
 5836.00    0.53278   0.76487    0.000
 5837.00    0.55544   0.76681    0.000
 5838.00    0.58081   0.76824    0.000
 5839.00    0.57420   0.76887    0.000
 5840.00    0.56886   0.76859    0.000
 5841.00    0.60437   0.76758    0.000
 5842.00    0.64435   0.76622    0.000
 5843.00    0.75194   0.76487    0.000
 5844.00    0.83269   0.76377    0.000
 5845.00    0.65296   0.76300    0.000
 5846.00    0.49855   0.76263    0.000
 5847.00    0.52180   0.76280    0.000
 5848.00    0.54798   0.76371    0.000
 5849.00    0.59003   0.76525    0.000
 5850.00    0.62213   0.76679    0.000
 5851.00    0.61113   0.76731    0.000
 5852.00    0.59542   0.76601    0.000
 5853.00    0.56289   0.76262    0.000
 5854.00    0.52951   0.75743    0.000
 5855.00    0.49361   0.75107    0.000
 5856.00    0.48814   0.74424    0.000
 5857.00    0.56030   0.73753    0.000
 5858.00    0.61699   0.73137    0.000
 5859.00    0.63971   0.72600    0.000
 5860.00    0.66748   0.72164    0.000
 5861.00    0.70488   0.71843    0.000
 5862.00    0.72238   0.71639    0.000
 5863.00    0.70683   0.71533    0.000
 5864.00    0.70036   0.71495    0.000
 5865.00    0.70713   0.71501    0.000
 5866.00    0.69915   0.71537    0.000
 5867.00    0.67228   0.71592    0.000
 5868.00    0.64676   0.71640    0.000
 5869.00    0.62276   0.71643    0.000
 5870.00    0.64267   0.71574    0.000
 5871.00    0.70627   0.71441    0.000
 5872.00    0.71563   0.71286    0.000
 5873.00    0.67737   0.71159    0.000
 5874.00    0.67576   0.71098    0.000
 5875.00    0.70250   0.71108    0.000
 5876.00    0.79350   0.71159    0.000
 5877.00    0.92822   0.71177    0.000
 5878.00    1.02780   0.71057    0.000
 5879.00    1.10646   0.70687    0.000
 5880.00    0.98874   0.70004    0.000
 5881.00    0.76893   0.69054    0.000
 5882.00    0.69191   0.68014    0.000
 5883.00    0.67926   0.67134    0.000
 5884.00    0.62998   0.66638    0.000
 5885.00    0.56650   0.66605    0.000
 5886.00    0.50792   0.66960    0.000
 5887.00    0.45097   0.67523    0.000
 5888.00    0.50993   0.68108    0.000
 5889.00    0.60094   0.68591    0.000
 5890.00    0.69989   0.68908    0.000
 5891.00    0.80064   0.69025    0.000
 5892.00    0.74401   0.68885    0.000
 5893.00    0.65875   0.68406    0.000
 5894.00    0.62143   0.67530    0.000
 5895.00    0.59081   0.66278    0.000
 5896.00    0.58315   0.64806    0.000
 5897.00    0.57778   0.63391    0.000
 5898.00    0.60330   0.62338    0.000
 5899.00    0.63077   0.61823    0.000
 5900.00    0.61599   0.61808    0.000
 5901.00    0.60016   0.62073    0.006
 5902.00    0.64776   0.62378    0.006
 5903.00    0.69187   0.62601    0.006
 5904.00    0.63735   0.62782    0.006
 5905.00    0.58170   0.63045    0.006
 5906.00    0.51003   0.63483    0.006
 5907.00    0.45130   0.64093    0.006
 5908.00    0.51307   0.64802    0.006
 5909.00    0.57701   0.65511    0.006
 5910.00    0.65566   0.66137    0.006
 5911.00    0.71324   0.66630    0.006
 5912.00    0.65996   0.66980    0.006
 5913.00    0.63259   0.67205    0.006
 5914.00    0.71497   0.67348    0.006
 5915.00    0.82327   0.67458    0.006
 5916.00    1.02220   0.67565    0.006
 5917.00    1.14549   0.67670    0.006
 5918.00    1.04634   0.67750    0.006
 5919.00    0.94189   0.67777    0.006
 5920.00    0.82415   0.67739    0.006
 5921.00    0.75907   0.67650    0.006
 5922.00    0.80770   0.67548    0.006
 5923.00    0.78725   0.67474    0.006
 5924.00    0.63729   0.67450    0.006
 5925.00    0.54595   0.67472    0.006
 5926.00    0.55054   0.67517    0.006
 5927.00    0.60804   0.67560    0.006
 5928.00    0.74149   0.67585    0.006
 5929.00    0.85161   0.67594    0.006
 5930.00    0.93226   0.67599    0.006
 5931.00    1.01258   0.67618    0.006
 5932.00    1.09253   0.67661    0.006
 5933.00    1.06945   0.67724    0.006
 5934.00    0.94521   0.67792    0.006
 5935.00    0.88125   0.67850    0.006
 5936.00    0.86945   0.67895    0.006
 5937.00    0.85481   0.67942    0.006
 5938.00    0.83800   0.68007    0.006
 5939.00    0.75041   0.68101    0.006
 5940.00    0.61539   0.68216    0.006
 5941.00    0.54248   0.68337    0.006
 5942.00    0.50604   0.68456    0.006
 5943.00    0.52777   0.68576    0.006
 5944.00    0.57927   0.68697    0.006
 5945.00    0.61119   0.68802    0.006
 5946.00    0.63443   0.68858    0.006
 5947.00    0.65576   0.68848    0.006
 5948.00    0.67637   0.68788    0.006
 5949.00    0.74537   0.68740    0.006
 5950.00    0.83002   0.68775    0.006
 5951.00    0.82636   0.68928    0.006
 5952.00    0.79878   0.69167    0.006
 5953.00    0.83988   0.69408    0.006
 5954.00    0.89624   0.69549    0.006
 5955.00    0.89419   0.69525    0.006
 5956.00    0.88181   0.69333    0.006
 5957.00    0.83444   0.69035    0.006
 5958.00    0.78235   0.68713    0.006
 5959.00    0.76617   0.68438    0.006
 5960.00    0.75344   0.68230    0.006
 5961.00    0.66565   0.68073    0.006
 5962.00    0.57338   0.67934    0.006
 5963.00    0.70602   0.67801    0.006
 5964.00    0.84414   0.67698    0.006
 5965.00    0.93913   0.67681    0.006
 5966.00    1.02990   0.67795    0.006
 5967.00    1.01329   0.68044    0.006
 5968.00    0.99032   0.68377    0.006
 5969.00    0.88186   0.68718    0.006
 5970.00    0.78509   0.68998    0.006
 5971.00    0.79304   0.69190    0.006
 5972.00    0.81377   0.69314    0.006
 5973.00    0.91860   0.69416    0.006
 5974.00    0.98938   0.69542    0.006
 5975.00    0.88559   0.69711    0.006
 5976.00    0.79093   0.69908    0.006
 5977.00    0.73405   0.70092    0.006
 5978.00    0.70170   0.70217    0.006
 5979.00    0.75335   0.70252    0.006
 5980.00    0.80010   0.70188    0.006
 5981.00    0.83273   0.70035    0.006
 5982.00    0.85100   0.69808    0.006
 5983.00    0.83392   0.69529    0.006
 5984.00    0.81634   0.69227    0.006
 5985.00    0.79773   0.68943    0.006
 5986.00    0.76667   0.68729    0.006
 5987.00    0.71263   0.68625    0.006
 5988.00    0.72498   0.68634    0.006
 5989.00    0.84442   0.68725    0.006
 5990.00    0.91126   0.68853    0.006
 5991.00    0.90370   0.68991    0.006
 5992.00    0.86586   0.69145    0.006
 5993.00    0.79035   0.69336    0.006
 5994.00    0.78292   0.69572    0.006
 5995.00    0.85019   0.69837    0.006
 5996.00    0.92075   0.70109    0.006
 5997.00    0.99450   0.70379    0.006
 5998.00    1.05790   0.70658    0.006
 5999.00    1.11249   0.70961    0.006
 6000.00    1.04394   0.71284    0.006
 6001.00    0.88284   0.71591    0.006
 6002.00    0.75596   0.71826    0.006
 6003.00    0.65170   0.71932    0.006
 6004.00    0.62311   0.71882    0.006
 6005.00    0.63828   0.71691    0.006
 6006.00    0.64879   0.71405    0.006
 6007.00    0.65696   0.71089    0.006
 6008.00    0.66781   0.70801    0.006
 6009.00    0.67983   0.70584    0.006
 6010.00    0.72493   0.70451    0.006
 6011.00    0.78241   0.70389    0.006
 6012.00    0.69265   0.70360    0.006
 6013.00    0.55616   0.70329    0.006
 6014.00    0.55919   0.70279    0.006
 6015.00    0.59922   0.70232    0.006
 6016.00    0.62788   0.70230    0.006
 6017.00    0.65408   0.70301    0.006
 6018.00    0.61975   0.70436    0.006
 6019.00    0.57500   0.70593    0.006
 6020.00    0.60829   0.70723    0.006
 6021.00    0.65176   0.70801    0.006
 6022.00    0.65703   0.70830    0.006
 6023.00    0.65880   0.70829    0.006
 6024.00    0.70415   0.70823    0.006
 6025.00    0.75192   0.70835    0.006
 6026.00    0.76484   0.70883    0.006
 6027.00    0.77691   0.70981    0.006
 6028.00    0.78082   0.71127    0.006
 6029.00    0.78377   0.71306    0.006
 6030.00    0.76445   0.71503    0.006
 6031.00    0.74495   0.71709    0.006
 6032.00    0.72308   0.71923    0.006
 6033.00    0.71649   0.72144    0.006
 6034.00    0.84148   0.72364    0.006
 6035.00    0.94917   0.72567    0.006
 6036.00    0.94639   0.72731    0.006
 6037.00    0.91483   0.72840    0.006
 6038.00    0.73947   0.72900    0.006
 6039.00    0.59573   0.72935    0.006
 6040.00    0.57994   0.72979    0.006
 6041.00    0.59948   0.73050    0.006
 6042.00    0.73760   0.73138    0.006
 6043.00    0.84332   0.73214    0.006
 6044.00    0.85721   0.73254    0.006
 6045.00    0.90192   0.73260    0.006
 6046.00    1.02129   0.73265    0.006
 6047.00    1.10844   0.73309    0.006
 6048.00    1.12822   0.73427    0.006
 6049.00    1.10671   0.73630    0.006
 6050.00    1.01019   0.73906    0.006
 6051.00    0.89486   0.74223    0.006
 6052.00    0.74965   0.74534    0.006
 6053.00    0.66266   0.74795    0.006
 6054.00    0.65685   0.74974    0.006
 6055.00    0.67281   0.75066    0.006
 6056.00    0.71545   0.75083    0.006
 6057.00    0.79543   0.75049    0.006
 6058.00    0.91578   0.74983    0.006
 6059.00    1.00185   0.74886    0.006
 6060.00    1.05522   0.74752    0.006
 6061.00    1.08626   0.74572    0.006
 6062.00    1.09851   0.74351    0.006
 6063.00    1.06381   0.74108    0.006
 6064.00    0.99433   0.73878    0.006
 6065.00    0.91498   0.73700    0.006
 6066.00    0.82921   0.73600    0.006
 6067.00    0.84098   0.73574    0.006
 6068.00    0.90831   0.73577    0.006
 6069.00    0.97129   0.73548    0.006
 6070.00    1.03212   0.73445    0.006
 6071.00    1.01296   0.73282    0.006
 6072.00    0.95949   0.73139    0.006
 6073.00    0.83586   0.73126    0.006
 6074.00    0.68645   0.73321    0.006
 6075.00    0.77722   0.73729    0.006
 6076.00    0.94276   0.74275    0.006
 6077.00    1.02901   0.74847    0.006
 6078.00    1.09468   0.75340    0.006
 6079.00    1.10241   0.75697    0.006
 6080.00    1.09788   0.75911    0.006
 6081.00    1.07029   0.76000    0.006
 6082.00    1.03886   0.75989    0.006
 6083.00    0.99524   0.75890    0.006
 6084.00    0.95009   0.75703    0.006
 6085.00    0.88386   0.75426    0.006
 6086.00    0.81579   0.75071    0.006
 6087.00    0.83411   0.74672    0.006
 6088.00    0.85691   0.74285    0.006
 6089.00    0.81539   0.73971    0.006
 6090.00    0.77360   0.73780    0.006
 6091.00    0.79816   0.73731    0.006
 6092.00    0.82580   0.73801    0.006
 6093.00    0.91893   0.73937    0.006
 6094.00    0.99826   0.74073    0.006
 6095.00    0.91045   0.74157    0.006
 6096.00    0.81927   0.74160    0.006
 6097.00    0.70012   0.74095    0.006
 6098.00    0.59768   0.74007    0.006
 6099.00    0.59885   0.73962    0.006
 6100.00    0.59644   0.74016    0.006
 6101.00    0.57661   0.74188    0.006
 6102.00    0.59575   0.74454    0.006
 6103.00    0.76922   0.74754    0.006
 6104.00    0.89811   0.75021    0.006
 6105.00    0.88027   0.75205    0.006
 6106.00    0.87762   0.75270    0.006
 6107.00    0.91722   0.75194    0.006
 6108.00    0.97706   0.74964    0.006
 6109.00    1.08512   0.74602    0.006
 6110.00    1.14810   0.74189    0.006
 6111.00    1.11835   0.73845    0.006
 6112.00    1.07161   0.73680    0.006
 6113.00    0.99445   0.73729    0.006
 6114.00    0.94606   0.73944    0.006
 6115.00    0.94269   0.74224    0.006
 6116.00    0.97319   0.74483    0.006
 6117.00    1.05023   0.74684    0.006
 6118.00    1.10636   0.74841    0.006
 6119.00    1.13720   0.74999    0.006
 6120.00    1.06388   0.75189    0.006
 6121.00    0.87947   0.75407    0.006
 6122.00    0.73753   0.75605    0.006
 6123.00    0.63554   0.75712    0.006
 6124.00    0.56504   0.75662    0.006
 6125.00    0.52066   0.75415    0.006
 6126.00    0.55404   0.74976    0.006
 6127.00    0.64420   0.74395    0.006
 6128.00    0.74958   0.73776    0.006
 6129.00    0.86471   0.73258    0.006
 6130.00    0.88191   0.72967    0.006
 6131.00    0.84420   0.72958    0.006
 6132.00    0.79312   0.73184    0.006
 6133.00    0.73552   0.73530    0.006
 6134.00    0.76506   0.73882    0.006
 6135.00    0.83135   0.74188    0.006
 6136.00    0.83623   0.74462    0.006
 6137.00    0.81894   0.74735    0.006
 6138.00    0.80062   0.74992    0.006
 6139.00    0.78199   0.75151    0.006
 6140.00    0.74208   0.75100    0.006
 6141.00    0.69676   0.74763    0.006
 6142.00    0.72232   0.74159    0.006
 6143.00    0.76251   0.73420    0.006
 6144.00    0.76970   0.72755    0.006
 6145.00    0.77153   0.72367    0.006
 6146.00    0.73006   0.72369    0.006
 6147.00    0.68332   0.72736    0.006
 6148.00    0.69281   0.73336    0.005
 6149.00    0.70699   0.74013    0.005
 6150.00    0.72075   0.74651    0.006
 6151.00    0.73449   0.75193    0.006
 6152.00    0.70430   0.75601    0.006
 6153.00    0.67403   0.75817    0.006
 6154.00    0.67618   0.75763    0.006
 6155.00    0.67722   0.75394    0.006
 6156.00    0.65626   0.74746    0.006
 6157.00    0.63558   0.73956    0.006
 6158.00    0.61804   0.73208    0.006
 6159.00    0.60058   0.72653    0.006
 6160.00    0.58381   0.72333    0.006
 6161.00    0.58908   0.72169    0.006
 6162.00    0.72707   0.72007    0.006
 6163.00    0.85470   0.71690    0.006
 6164.00    0.93308   0.71110    0.006
 6165.00    0.97967   0.70226    0.006
 6166.00    0.90310   0.69062    0.006
 6167.00    0.84750   0.67698    0.006
 6168.00    0.85956   0.66265    0.006
 6169.00    0.86699   0.64927    0.006
 6170.00    0.86178   0.63846    0.006
 6171.00    0.85127   0.63135    0.006
 6172.00    0.82836   0.62818    0.006
 6173.00    0.79600   0.62828    0.006
 6174.00    0.74451   0.63033    0.005
 6175.00    0.70227   0.63300    0.005
 6176.00    0.67633   0.63540    0.006
 6177.00    0.61262   0.63732    0.006
 6178.00    0.49062   0.63897    0.006
 6179.00    0.46774   0.64064    0.006
 6180.00    0.57910   0.64234    0.006
 6181.00    0.69123   0.64390    0.006
 6182.00    0.80426   0.64521    0.006
 6183.00    0.81265   0.64643    0.006
 6184.00    0.71101   0.64793    0.006
 6185.00    0.61545   0.64999    0.006
 6186.00    0.52554   0.65260    0.006
 6187.00    0.57650   0.65540    0.006
 6188.00    0.74265   0.65780    0.006
 6189.00    0.84286   0.65919    0.006
 6190.00    0.89561   0.65911    0.006
 6191.00    0.90586   0.65725    0.006
 6192.00    0.88926   0.65352    0.006
 6193.00    0.94985   0.64811    0.006
 6194.00    1.05306   0.64150    0.006
 6195.00    1.08592   0.63436    0.006
 6196.00    1.08499   0.62740   -2.000
 6197.00    0.73527   0.62128   -2.000
 6198.00    0.24095   0.61650   -2.000
 6199.00   -0.00655   0.61349   -2.000
 6200.00   -0.16656   0.61251   -2.000
 6201.00    0.16249   0.61358   -2.000
 6202.00    0.63789   0.61635   -2.000
 6203.00    1.35004   0.62010   -2.000
 6204.00    2.12099   0.62399   -2.000
 6205.00    2.10037   0.62729   -2.000
 6206.00    1.92035   0.62969   -2.000
 6207.00    1.43105   0.63135   -2.000
 6208.00    0.89297   0.63273    0.006
 6209.00    0.66071   0.63433    0.006
 6210.00    0.46429   0.63640    0.006
 6211.00    0.49647   0.63886    0.006
 6212.00    0.54679   0.64139    0.006
 6213.00    0.61138   0.64363    0.006
 6214.00    0.67659   0.64529    0.006
 6215.00    0.65614   0.64614    0.006
 6216.00    0.63706   0.64592    0.006
 6217.00    0.72803   0.64435    0.006
 6218.00    0.81789   0.64121    0.006
 6219.00    0.88741   0.63651    0.006
 6220.00    0.94610   0.63048    0.006
 6221.00    0.88552   0.62370    0.006
 6222.00    0.83698   0.61692    0.006
 6223.00    0.88147   0.61104    0.006
 6224.00    0.91355   0.60675    0.006
 6225.00    0.87301   0.60434    0.006
 6226.00    0.82440   0.60356    0.006
 6227.00    0.73838   0.60365    0.006
 6228.00    0.68442   0.60372    0.006
 6229.00    0.75201   0.60310    0.006
 6230.00    0.79532   0.60156    0.006
 6231.00    0.76181   0.59937    0.006
 6232.00    0.73451   0.59708    0.005
 6233.00    0.72391   0.59521    0.006
 6234.00    0.72203   0.59399    0.006
 6235.00    0.74023   0.59325    0.006
 6236.00    0.77246   0.59268    0.006
 6237.00    0.83264   0.59206    0.006
 6238.00    0.87748   0.59159    0.006
 6239.00    0.89568   0.59173    0.006
 6240.00    0.87488   0.59298    0.006
 6241.00    0.79481   0.59546    0.006
 6242.00    0.74245   0.59876    0.006
 6243.00    0.72709   0.60198    0.006
 6244.00    0.70658   0.60417    0.006
 6245.00    0.68003   0.60468    0.006
 6246.00    0.63980   0.60344    0.006
 6247.00    0.58539   0.60097    0.006
 6248.00    0.58849   0.59812    0.006
 6249.00    0.64417   0.59572    0.006
 6250.00    0.70030   0.59440    0.006
 6251.00    0.75677   0.59445    0.006
 6252.00    0.80384   0.59596    0.006
 6253.00    0.84424   0.59878    0.006
 6254.00    0.89146   0.60257    0.006
 6255.00    0.94292   0.60679    0.006
 6256.00    0.93039   0.61077    0.006
 6257.00    0.88307   0.61390    0.006
 6258.00    0.92259   0.61584    0.006
 6259.00    1.00314   0.61654    0.006
 6260.00    0.84689   0.61623    0.006
 6261.00    0.59414   0.61518    0.007
 6262.00    0.39155   0.61359    0.007
 6263.00    0.20641   0.61150    0.007
 6264.00    0.34621   0.60903    0.007
 6265.00    0.58132   0.60661    0.007
 6266.00    0.83989   0.60496    0.007
 6267.00    1.10416   0.60494    0.006
 6268.00    1.10374   0.60706    0.006
 6269.00    1.05135   0.61115    0.006
 6270.00    0.96341   0.61641    0.006
 6271.00    0.87003   0.62169    0.006
 6272.00    0.76382   0.62597    0.006
 6273.00    0.65617   0.62866    0.006
 6274.00    0.73029   0.62976    0.006
 6275.00    0.81809   0.62975    0.006
 6276.00    0.93027   0.62935    0.006
 6277.00    1.04343   0.62919    0.006
 6278.00    0.95942   0.62961    0.006
 6279.00    0.87503   0.63057    0.006
 6280.00    0.83415   0.63172    0.000
 6281.00    0.79872   0.63267    0.000
 6282.00    0.85594   0.63319    0.000
 6283.00    0.90510   0.63338    0.000
 6284.00    0.86946   0.63349    0.000
 6285.00    0.83101   0.63377    0.000
 6286.00    0.77170   0.63428    0.000
 6287.00    0.73347   0.63501    0.000
 6288.00    0.81509   0.63593    0.000
 6289.00    0.88890   0.63717    0.000
 6290.00    0.92728   0.63893    0.000
 6291.00    0.94719   0.64138    0.000
 6292.00    0.89856   0.64454    0.000
 6293.00    0.85471   0.64823    0.000
 6294.00    0.82573   0.65219    0.000
 6295.00    0.80767   0.65603    0.000
 6296.00    0.81838   0.65934    0.000
 6297.00    0.81296   0.66165    0.000
 6298.00    0.77104   0.66260    0.000
 6299.00    0.76210   0.66200    0.000
 6300.00    0.81784   0.66000    0.000
 6301.00    0.85034   0.65700    0.000
 6302.00    0.84311   0.65360    0.000
 6303.00    0.82290   0.65043    0.000
 6304.00    0.78328   0.64812    0.000
 6305.00    0.79562   0.64715    0.000
 6306.00    0.87633   0.64770    0.000
 6307.00    0.94129   0.64955    0.000
 6308.00    0.98798   0.65214    0.000
 6309.00    0.99324   0.65483    0.000
 6310.00    0.95613   0.65715    0.000
 6311.00    0.93918   0.65904    0.000
 6312.00    0.94041   0.66079    0.000
 6313.00    0.91169   0.66284    0.000
 6314.00    0.85917   0.66554    0.000
 6315.00    0.82648   0.66889    0.000
 6316.00    0.80765   0.67249    0.000
 6317.00    0.81086   0.67570    0.000
 6318.00    0.82759   0.67796    0.000
 6319.00    0.83029   0.67909    0.000
 6320.00    0.82548   0.67934    0.000
 6321.00    0.78996   0.67922    0.006
 6322.00    0.74015   0.67914    0.006
 6323.00    0.73054   0.67932    0.006
 6324.00    0.73702   0.67969    0.006
 6325.00    0.75546   0.68017    0.006
 6326.00    0.77799   0.68068    0.006
 6327.00    0.81361   0.68127    0.006
 6328.00    0.85301   0.68199    0.005
 6329.00    0.87283   0.68285    0.009
 6330.00    0.88800   0.68384    0.067
 6331.00    0.91562   0.68490   -1.000
 6332.00    0.94563   0.68607   -1.000
 6333.00    0.88601   0.68739   -1.000
 6334.00    0.81309   0.68895   -1.000
 6335.00    0.76036   0.69077   -1.000
 6336.00    0.70981   0.69280   -1.000
 6337.00    0.64779   0.69495   -1.000
 6338.00    0.58495   0.69707   -1.000
 6339.00    0.68097   0.69893   -1.000
 6340.00    0.78277   0.70025   -1.000
 6341.00    0.86383   0.70073    0.011
 6342.00    0.94314   0.70027    0.006
 6343.00    0.96359   0.69916    0.006
 6344.00    0.98396   0.69806    0.006
 6345.00    1.00318   0.69778    0.006
 6346.00    1.01465   0.69875    0.006
 6347.00    0.94818   0.70070    0.006
 6348.00    0.89138   0.70276    0.006
 6349.00    0.90439   0.70383    0.006
 6350.00    0.91583   0.70310    0.006
 6351.00    0.91856   0.70047    0.006
 6352.00    0.90993   0.69663    0.005
 6353.00    0.85107   0.69282    0.005
 6354.00    0.81258   0.69034    0.005
 6355.00    0.84813   0.69000    0.005
 6356.00    0.89263   0.69179    0.005
 6357.00    0.96438   0.69488    0.005
 6358.00    1.02590   0.69798    0.005
 6359.00    1.06093   0.69989    0.005
 6360.00    1.06503   0.69988    0.006
 6361.00    1.00026   0.69787    0.006
 6362.00    0.93239   0.69424    0.006
 6363.00    0.85854   0.68959    0.006
 6364.00    0.80831   0.68450    0.006
 6365.00    0.79785   0.67935    0.006
 6366.00    0.80145   0.67446    0.006
 6367.00    0.82576   0.67017    0.006
 6368.00    0.82419   0.66688    0.006
 6369.00    0.78905   0.66497    0.006
 6370.00    0.75472   0.66473    0.006
 6371.00    0.72132   0.66627    0.006
 6372.00    0.77259   0.66952    0.006
 6373.00    0.90919   0.67430    0.006
 6374.00    0.95768   0.68023    0.006
 6375.00    0.92784   0.68674    0.006
 6376.00    0.95304   0.69320    0.006
 6377.00    1.02136   0.69903    0.006
 6378.00    1.02797   0.70395    0.006
 6379.00    0.99207   0.70801    0.005
 6380.00    0.94523   0.71143    0.005
 6381.00    0.89179   0.71437    0.005
 6382.00    0.86250   0.71669    0.005
 6383.00    0.84592   0.71804    0.005
 6384.00    0.85944   0.71801    0.005
 6385.00    0.88672   0.71649    0.005
 6386.00    0.89138   0.71377    0.005
 6387.00    0.88714   0.71048    0.005
 6388.00    0.92704   0.70743    0.005
 6389.00    0.98174   0.70522    0.005
 6390.00    0.94706   0.70401    0.005
 6391.00    0.88720   0.70357    0.005
 6392.00    0.86039   0.70349    0.006
 6393.00    0.84125   0.70348    0.006
 6394.00    0.89450   0.70342    0.006
 6395.00    0.96124   0.70338    0.006
 6396.00    0.92704   0.70344    0.006
 6397.00    0.87834   0.70353    0.006
 6398.00    0.89227   0.70351    0.006
 6399.00    0.91271   0.70324    0.006
 6400.00    0.94706   0.70283    0.006
 6401.00    0.98234   0.70269    0.006
 6402.00    0.92731   0.70338    0.006
 6403.00    0.86935   0.70522    0.006
 6404.00    0.75252   0.70801    0.006
 6405.00    0.64056   0.71108    0.006
 6406.00    0.68054   0.71363    0.005
 6407.00    0.72504   0.71527    0.005
 6408.00    0.83747   0.71630    0.005
 6409.00    0.94106   0.71759    0.005
 6410.00    0.95921   0.71994    0.005
 6411.00    0.97560   0.72352    0.005
 6412.00    0.97968   0.72774    0.005
 6413.00    0.98867   0.73165    0.005
 6414.00    1.02413   0.73439    0.005
 6415.00    1.03171   0.73559    0.005
 6416.00    0.91880   0.73544    0.005
 6417.00    0.83943   0.73431    0.005
 6418.00    0.87939   0.73248    0.006
 6419.00    0.91220   0.73015    0.006
 6420.00    0.92364   0.72759    0.006
 6421.00    0.93776   0.72524    0.006
 6422.00    0.95871   0.72351    0.006
 6423.00    0.98317   0.72258    0.006
 6424.00    1.01527   0.72217    0.006
 6425.00    1.04540   0.72161    0.006
 6426.00    1.07180   0.72025    0.006
 6427.00    1.10975   0.71793    0.006
 6428.00    1.16690   0.71523    0.006
 6429.00    1.21403   0.71314    0.006
 6430.00    1.24661   0.71258    0.006
 6431.00    1.21606   0.71390    0.006
 6432.00    1.10478   0.71673    0.006
 6433.00    0.98212   0.72017    0.005
 6434.00    0.84664   0.72311    0.005
 6435.00    0.79888   0.72465    0.005
 6436.00    0.83832   0.72446    0.005
 6437.00    0.87446   0.72283    0.005
 6438.00    0.90772   0.72040    0.005
 6439.00    0.91427   0.71814    0.005
 6440.00    0.90021   0.71704    0.005
 6441.00    0.91878   0.71769    0.006
 6442.00    0.95950   0.72000    0.006
 6443.00    0.98918   0.72320    0.006
 6444.00    1.01231   0.72626    0.006
 6445.00    1.00276   0.72862    0.006
 6446.00    0.97626   0.73042    0.006
 6447.00    0.93326   0.73230    0.006
 6448.00    0.88285   0.73488    0.006
 6449.00    0.85262   0.73855    0.006
 6450.00    0.83020   0.74317    0.006
 6451.00    0.83705   0.74783    0.006
 6452.00    0.85353   0.75116    0.006
 6453.00    0.88394   0.75202    0.006
 6454.00    0.91819   0.74984    0.005
 6455.00    0.91046   0.74465    0.005
 6456.00    0.89321   0.73721    0.005
 6457.00    0.83014   0.72895    0.005
 6458.00    0.75875   0.72172    0.005
 6459.00    0.75983   0.71729    0.005
 6460.00    0.77098   0.71673    0.005
 6461.00    0.79301   0.71993    0.005
 6462.00    0.81612   0.72557    0.006
 6463.00    0.75875   0.73199    0.006
 6464.00    0.69630   0.73798    0.006
 6465.00    0.74927   0.74293    0.006
 6466.00    0.80557   0.74664    0.006
 6467.00    0.86115   0.74889    0.006
 6468.00    0.91090   0.74924    0.006
 6469.00    0.79846   0.74760    0.006
 6470.00    0.69334   0.74461    0.006
 6471.00    0.69173   0.74159    0.006
 6472.00    0.69002   0.74002    0.006
 6473.00    0.68727   0.74096    0.006
 6474.00    0.68008   0.74422    0.006
 6475.00    0.64281   0.74848    0.006
 6476.00    0.62386   0.75232    0.006
 6477.00    0.70101   0.75474    0.006
 6478.00    0.75563   0.75516    0.005
 6479.00    0.71511   0.75348    0.005
 6480.00    0.67622   0.75005    0.005
 6481.00    0.64301   0.74555    0.005
 6482.00    0.62557   0.74080    0.005
 6483.00    0.65439   0.73657    0.005
 6484.00    0.68959   0.73351    0.005
 6485.00    0.74075   0.73179    0.005
 6486.00    0.78747   0.73066    0.005
 6487.00    0.82464   0.72884    0.005
 6488.00    0.85739   0.72540    0.005
 6489.00    0.88189   0.72035    0.005
 6490.00    0.91626   0.71449    0.005
 6491.00    0.96676   0.70917    0.005
 6492.00    1.00915   0.70566    0.006
 6493.00    1.03993   0.70459    0.006
 6494.00    1.04215   0.70555    0.006
 6495.00    1.00836   0.70758    0.006
 6496.00    0.97239   0.70952    0.006
 6497.00    0.93399   0.71032    0.006
 6498.00    0.90938   0.70931    0.006
 6499.00    0.89826   0.70617    0.006
 6500.00    0.90068   0.70096    0.006
 6501.00    0.91479   0.69391    0.006
 6502.00    0.95574   0.68546    0.005
 6503.00    1.01711   0.67670    0.006
 6504.00    1.02547   0.66932    0.005
 6505.00    0.99836   0.66486    0.005
 6506.00    0.96947   0.66403    0.005
 6507.00    0.93955   0.66679    0.005
 6508.00    0.97073   0.67237    0.005
 6509.00    1.03314   0.67980    0.005
 6510.00    1.03626   0.68795    0.005
 6511.00    1.01315   0.69572    0.005
 6512.00    0.98295   0.70233    0.005
 6513.00    0.95006   0.70732    0.005
 6514.00    0.90588   0.71064    0.006
 6515.00    0.85807   0.71243    0.006
 6516.00    0.85495   0.71306    0.006
 6517.00    0.86390   0.71325    0.006
 6518.00    0.87130   0.71373    0.006
 6519.00    0.87836   0.71476    0.006
 6520.00    0.89790   0.71596    0.006
 6521.00    0.91965   0.71680    0.006
 6522.00    0.83249   0.71697    0.006
 6523.00    0.73068   0.71645    0.006
 6524.00    0.64814   0.71547    0.006
 6525.00    0.56744   0.71456    0.005
 6526.00    0.68025   0.71425    0.005
 6527.00    0.80451   0.71493    0.005
 6528.00    0.83901   0.71675    0.000
 6529.00    0.87107   0.71947    0.000
 6530.00    0.87724   0.72253    0.000
 6531.00    0.88389   0.72544    0.000
 6532.00    0.90267   0.72790    0.000
 6533.00    0.91710   0.72984    0.000
 6534.00    0.87330   0.73133    0.000
 6535.00    0.82761   0.73257    0.000
 6536.00    0.76498   0.73376    0.000
 6537.00    0.73800   0.73499    0.000
 6538.00    0.94480   0.73609    0.000
 6539.00    1.10960   0.73692    0.000
 6540.00    1.05978   0.73761    0.000
 6541.00    1.00262   0.73857    0.000
 6542.00    0.91513   0.74015    0.000
 6543.00    0.87436   0.74231    0.000
 6544.00    0.99317   0.74471    0.000
 6545.00    1.08703   0.74689    0.000
 6546.00    1.10902   0.74859    0.000
 6547.00    1.10373   0.74970    0.000
 6548.00    1.03138   0.74979    0.000
 6549.00    0.97406   0.74825    0.000
 6550.00    0.94860   0.74468    0.000
 6551.00    0.93140   0.73918    0.000
 6552.00    0.92940   0.73246    0.000
 6553.00    0.94242   0.72544    0.000
 6554.00    0.97962   0.71899    0.000
 6555.00    0.99826   0.71374    0.000
 6556.00    0.99068   0.70975    0.000
 6557.00    1.01721   0.70638    0.000
 6558.00    1.08611   0.70301    0.000
 6559.00    1.23298   0.69933    0.000
 6560.00    1.46522   0.69529    0.000
 6561.00    1.70576   0.69092    0.000
 6562.00    1.95429   0.68621    0.000
 6563.00    2.07727   0.68132    0.000
 6564.00    2.09328   0.67632    0.000
 6565.00    2.00267   0.67088    0.000
 6566.00    1.83206   0.66413    0.000
 6567.00    1.66546   0.65486    0.000
 6568.00    1.50150   0.64203    0.000
 6569.00    1.29767   0.62567    0.000
 6570.00    1.07082   0.60820    0.000
 6571.00    0.93079   0.59447    0.000
 6572.00    0.83441   0.58901    0.000
 6573.00    0.79261   0.59327    0.000
 6574.00    0.77458   0.60564    0.000
 6575.00    0.71226   0.62279    0.000
 6576.00    0.63342   0.64084    0.000
 6577.00    0.61390   0.65656    0.000
 6578.00    0.61315   0.66832    0.000
 6579.00    0.70446   0.67578    0.000
 6580.00    0.82012   0.67955    0.000
 6581.00    0.99639   0.68097    0.000
 6582.00    1.18577   0.68145    0.000
 6583.00    1.34500   0.68199    0.000
 6584.00    1.49906   0.68295    0.000
 6585.00    1.46926   0.68431    0.000
 6586.00    1.41556   0.68584    0.000
 6587.00    1.30545   0.68739    0.000
 6588.00    1.19018   0.68897    0.000
 6589.00    1.12660   0.69085    0.000
 6590.00    1.06586   0.69355    0.000
 6591.00    0.99498   0.69728    0.000
 6592.00    0.92485   0.70198    0.000
 6593.00    0.94624   0.70728    0.000
 6594.00    0.96892   0.71273    0.000
 6595.00    1.02135   0.71778    0.000
 6596.00    1.06923   0.72171    0.000
 6597.00    1.05944   0.72382    0.000
 6598.00    1.05003   0.72359    0.000
 6599.00    1.04387   0.72088    0.000
 6600.00    1.04429   0.71624    0.000
 6601.00    1.08650   0.71099    0.000
 6602.00    1.12411   0.70660    0.000
 6603.00    1.13878   0.70396    0.000
 6604.00    1.15291   0.70315    0.000
 6605.00    1.16481   0.70377    0.000
 6606.00    1.15544   0.70529    0.000
 6607.00    1.07478   0.70747    0.000
 6608.00    1.00988   0.71007    0.000
 6609.00    0.98956   0.71269    0.006
 6610.00    0.97657   0.71488    0.006
 6611.00    0.98131   0.71611    0.006
 6612.00    0.98683   0.71590    0.006
 6613.00    0.99396   0.71418    0.006
 6614.00    0.99605   0.71129    0.006
 6615.00    0.98898   0.70781    0.006
 6616.00    0.95634   0.70450    0.006
 6617.00    0.88314   0.70234    0.005
 6618.00    0.88229   0.70192    0.005
 6619.00    0.98215   0.70313    0.005
 6620.00    1.05270   0.70545    0.006
 6621.00    1.08734   0.70834    0.005
 6622.00    1.07752   0.71134    0.005
 6623.00    1.01969   0.71394    0.005
 6624.00    0.99313   0.71579    0.005
 6625.00    0.99635   0.71677    0.005
 6626.00    1.01201   0.71692    0.005
 6627.00    1.03812   0.71633    0.005
 6628.00    1.05362   0.71499    0.005
 6629.00    1.06128   0.71277    0.005
 6630.00    1.02514   0.70959    0.005
 6631.00    0.96056   0.70552    0.006
 6632.00    0.94554   0.70102    0.006
 6633.00    0.95868   0.69682    0.006
 6634.00    0.91282   0.69357    0.006
 6635.00    0.83776   0.69161    0.006
 6636.00    0.81683   0.69095    0.006
 6637.00    0.81905   0.69129    0.006
 6638.00    0.80576   0.69220    0.006
 6639.00    0.78678   0.69316    0.006
 6640.00    0.81074   0.69379    0.006
 6641.00    0.84804   0.69395    0.006
 6642.00    0.92494   0.69377    0.006
 6643.00    1.01208   0.69345    0.006
 6644.00    1.02543   0.69324    0.006
 6645.00    1.02321   0.69328    0.005
 6646.00    1.06493   0.69358    0.005
 6647.00    1.11397   0.69409    0.005
 6648.00    1.10812   0.69468    0.005
 6649.00    1.09538   0.69512    0.005
 6650.00    1.03992   0.69523    0.005
 6651.00    0.98074   0.69509    0.005
 6652.00    1.00667   0.69487    0.005
 6653.00    1.03697   0.69456    0.005
 6654.00    1.03085   0.69399    0.006
 6655.00    1.02389   0.69286    0.006
 6656.00    1.00292   0.69075    0.006
 6657.00    0.98440   0.68726    0.006
 6658.00    1.01748   0.68236    0.006
 6659.00    1.05288   0.67661    0.006
 6660.00    1.11628   0.67087    0.006
 6661.00    1.16087   0.66596    0.006
 6662.00    1.05019   0.66241    0.006
 6663.00    0.94957   0.66035    0.006
 6664.00    0.91104   0.65958    0.006
 6665.00    0.90462   0.65967    0.005
 6666.00    1.05412   0.66016    0.006
 6667.00    1.16704   0.66070    0.006
 6668.00    1.13555   0.66105    0.005
 6669.00    1.11839   0.66110    0.005
 6670.00    1.14831   0.66094    0.005
 6671.00    1.16916   0.66081    0.005
 6672.00    1.16484   0.66089    0.005
 6673.00    1.13359   0.66134    0.005
 6674.00    1.03832   0.66239    0.005
 6675.00    0.98218   0.66423    0.006
 6676.00    1.00636   0.66687    0.006
 6677.00    1.04655   0.67014    0.006
 6678.00    1.11533   0.67368    0.006
 6679.00    1.16424   0.67693    0.006
 6680.00    1.18208   0.67926    0.006
 6681.00    1.19989   0.68003    0.006
 6682.00    1.21764   0.67862    0.006
 6683.00    1.20316   0.67454    0.006
 6684.00    1.14977   0.66796    0.006
 6685.00    1.12638   0.65983    0.006
 6686.00    1.13492   0.65142    0.006
 6687.00    1.12444   0.64383    0.006
 6688.00    1.09609   0.63792    0.006
 6689.00    1.05030   0.63425    0.006
 6690.00    0.99007   0.63276    0.006
 6691.00    0.99324   0.63293    0.005
 6692.00    1.04263   0.63412    0.005
 6693.00    1.07718   0.63576    0.005
 6694.00    1.10225   0.63744    0.005
 6695.00    1.10494   0.63900    0.005
 6696.00    1.09509   0.64039    0.000
 6697.00    1.07223   0.64163    0.000
 6698.00    1.04304   0.64275    0.000
 6699.00    1.02305   0.64375    0.000
 6700.00    1.00694   0.64455    0.000
 6701.00    1.01497   0.64506    0.000
 6702.00    1.03169   0.64528    0.000
 6703.00    1.00447   0.64535    0.000
 6704.00    0.96387   0.64555    0.000
 6705.00    0.97215   0.64617    0.000
 6706.00    0.99281   0.64741    0.000
 6707.00    1.00747   0.64932    0.000
 6708.00    1.02089   0.65167    0.000
 6709.00    1.02278   0.65411    0.000
 6710.00    1.02281   0.65623    0.000
 6711.00    0.96283   0.65779    0.000
 6712.00    0.89560   0.65872    0.000
 6713.00    0.98128   0.65913    0.000
 6714.00    1.07965   0.65922    0.000
 6715.00    1.18950   0.65913    0.000
 6716.00    1.29989   0.65890    0.000
 6717.00    1.29633   0.65844    0.000
 6718.00    1.28926   0.65751    0.000
 6719.00    1.17464   0.65571    0.000
 6720.00    1.06170   0.65261    0.000
 6721.00    0.98151   0.64796    0.000
 6722.00    0.91137   0.64181    0.000
 6723.00    0.95665   0.63452    0.000
 6724.00    0.99581   0.62682    0.000
 6725.00    0.98626   0.61963    0.000
 6726.00    0.99833   0.61375    0.000
 6727.00    1.14008   0.60967    0.000
 6728.00    1.25696   0.60753    0.000
 6729.00    1.25597   0.60712    0.000
 6730.00    1.24760   0.60802    0.000
 6731.00    1.21067   0.60971    0.000
 6732.00    1.17214   0.61182    0.000
 6733.00    1.12841   0.61408    0.000
 6734.00    1.10815   0.61638    0.000
 6735.00    1.15182   0.61865    0.000
 6736.00    1.16579   0.62087    0.000
 6737.00    1.11036   0.62300    0.000
 6738.00    1.03532   0.62499    0.000
 6739.00    0.92063   0.62676    0.000
 6740.00    0.83888   0.62827    0.000
 6741.00    0.81505   0.62951    0.000
 6742.00    0.80297   0.63049    0.000
 6743.00    0.80897   0.63121    0.000
 6744.00    0.87111   0.63167    0.000
 6745.00    1.00916   0.63187    0.000
 6746.00    1.05832   0.63188    0.000
 6747.00    1.00167   0.63178    0.000
 6748.00    1.01427   0.63159    0.000
 6749.00    1.09957   0.63135    0.000
 6750.00    1.11426   0.63117    0.000
 6751.00    1.06355   0.63096    0.000
 6752.00    0.96033   0.63053    0.000
 6753.00    0.81424   0.62962    0.006
 6754.00    0.70810   0.62808    0.006
 6755.00    0.63067   0.62591    0.006
 6756.00    0.74645   0.62331    0.006
 6757.00    0.98406   0.62058    0.006
 6758.00    1.12668   0.61804    0.006
 6759.00    1.21695   0.61603    0.006
 6760.00    1.20297   0.61492    0.006
 6761.00    1.13903   0.61491    0.006
 6762.00    1.16414   0.61610    0.007
 6763.00    1.22608   0.61847    0.007
 6764.00    1.14451   0.62180    0.007
 6765.00    1.01220   0.62574    0.006
 6766.00    1.06631   0.62982    0.007
 6767.00    1.17608   0.63360    0.007
 6768.00    1.25666   0.63675    0.007
 6769.00    1.33000   0.63916    0.007
 6770.00    1.19810   0.64087    0.006
 6771.00    1.02500   0.64198    0.006
 6772.00    0.98485   0.64261    0.006
 6773.00    0.96559   0.64296    0.006
 6774.00    1.01320   0.64321    0.006
 6775.00    1.06860   0.64351    0.006
 6776.00    1.09827   0.64400    0.006
 6777.00    1.12591   0.64483    0.006
 6778.00    1.14877   0.64614    0.006
 6779.00    1.17143   0.64797    0.006
 6780.00    1.19766   0.65028    0.006
 6781.00    1.22145   0.65300    0.006
 6782.00    1.12920   0.65592    0.006
 6783.00    1.04270   0.65875    0.006
 6784.00    1.06012   0.66114    0.006
 6785.00    1.06707   0.66266    0.006
 6786.00    0.95947   0.66282    0.006
 6787.00    0.86987   0.66118    0.006
 6788.00    0.91866   0.65745    0.006
 6789.00    0.96135   0.65171    0.006
 6790.00    0.96850   0.64439    0.006
 6791.00    0.96178   0.63635    0.006
 6792.00    0.89085   0.62868    0.006
 6793.00    0.85126   0.62241    0.006
 6794.00    0.93017   0.61820    0.006
 6795.00    0.98170   0.61623    0.006
 6796.00    0.94679   0.61617    0.006
 6797.00    0.92680   0.61743    0.006
 6798.00    0.94679   0.61930    0.006
 6799.00    0.91773   0.62123    0.006
 6800.00    0.77597   0.62301    0.006
 6801.00    0.72051   0.62468    0.006
 6802.00    0.83667   0.62638    0.006
 6803.00    0.88997   0.62831    0.006
 6804.00    0.83439   0.63053    0.006
 6805.00    0.80672   0.63306    0.006
 6806.00    0.82142   0.63583    0.006
 6807.00    0.82997   0.63869    0.006
 6808.00    0.83033   0.64149    0.006
 6809.00    0.80167   0.64409    0.006
 6810.00    0.73892   0.64636    0.006
 6811.00    0.71787   0.64820    0.006
 6812.00    0.73996   0.64956    0.006
 6813.00    0.85015   0.65052    0.006
 6814.00    1.04076   0.65120    0.006
 6815.00    1.11686   0.65175    0.007
 6816.00    1.10081   0.65231    0.007
 6817.00    1.11154   0.65294    0.006
 6818.00    1.14123   0.65356    0.006
 6819.00    1.16177   0.65400    0.006
 6820.00    1.17662   0.65399    0.006
 6821.00    1.19247   0.65342    0.006
 6822.00    1.20886   0.65239    0.006
 6823.00    1.14046   0.65113    0.006
 6824.00    1.03207   0.64995    0.006
 6825.00    1.04824   0.64918    0.006
 6826.00    1.11505   0.64904    0.006
 6827.00    1.11000   0.64961    0.006
 6828.00    1.08000   0.65076    0.006
 6829.00    1.09740   0.65231    0.006
 6830.00    1.12866   0.65407    0.006
 6831.00    1.10973   0.65588    0.006
 6832.00    1.07863   0.65756    0.006
 6833.00    1.04916   0.65889    0.006
 6834.00    1.02001   0.65979    0.006
 6835.00    0.89100   0.66024    0.006
 6836.00    0.74676   0.66029    0.006
 6837.00    0.80835   0.66006    0.006
 6838.00    0.89305   0.65980    0.007
 6839.00    0.99604   0.65985    0.007
 6840.00    1.10041   0.66049    0.007
 6841.00    0.98706   0.66180    0.007
 6842.00    0.86506   0.66376    0.007
 6843.00    0.87370   0.66615    0.006
 6844.00    0.88527   0.66857    0.006
 6845.00    0.97773   0.67057    0.006
 6846.00    1.05392   0.67178    0.006
 6847.00    0.85536   0.67207    0.006
 6848.00    0.68058   0.67166    0.006
 6849.00    0.75464   0.67096    0.006
 6850.00    0.83681   0.67043    0.006
 6851.00    0.97927   0.67047    0.006
 6852.00    1.10371   0.67120    0.006
 6853.00    1.12604   0.67239    0.006
 6854.00    1.13644   0.67353    0.006
 6855.00    1.09297   0.67404    0.006
 6856.00    1.03360   0.67354    0.006
 6857.00    0.91540   0.67187    0.006
 6858.00    0.81117   0.66919    0.006
 6859.00    0.75023   0.66587    0.006
 6860.00    0.75356   0.66239    0.006
 6861.00    0.92600   0.65921    0.006
 6862.00    1.07268   0.65666    0.006
 6863.00    1.16116   0.65487    0.006
 6864.00    1.21822   0.65384    0.006
 6865.00    1.21380   0.65342    0.006
 6866.00    1.09224   0.65335    0.006
 6867.00    0.77080   0.65346    0.006
 6868.00    0.63808   0.65379    0.006
 6869.00    0.78744   0.65443    0.006
 6870.00    0.91243   0.65551    0.006
 6871.00    1.00541   0.65709    0.006
 6872.00    0.97982   0.65900    0.006
 6873.00    0.81706   0.66093    0.006
 6874.00    0.74337   0.66249    0.006
 6875.00    0.76057   0.66338    0.006
 6876.00    0.79109   0.66344    0.006
 6877.00    0.83360   0.66284    0.006
 6878.00    0.88678   0.66196    0.006
 6879.00    0.94845   0.66130    0.006
 6880.00    0.90672   0.66136    0.006
 6881.00    0.79287   0.66238    0.006
 6882.00    0.82023   0.66440    0.006
 6883.00    0.93400   0.66730    0.006
 6884.00    1.03665   0.67078    0.006
 6885.00    1.13337   0.67444    0.006
 6886.00    1.14539   0.67786    0.006
 6887.00    1.11812   0.68058    0.006
 6888.00    1.14009   0.68217    0.006
 6889.00    1.18174   0.68247    0.006
 6890.00    1.21002   0.68170    0.006
 6891.00    1.23374   0.68025    0.006
 6892.00    1.12087   0.67876    0.006
 6893.00    0.96884   0.67781    0.006
 6894.00    0.95409   0.67784    0.006
 6895.00    0.97185   0.67904    0.006
 6896.00    1.05110   0.68125    0.006
 6897.00    1.14207   0.68410    0.006
 6898.00    1.06401   0.68719    0.006
 6899.00    0.96098   0.69012    0.006
 6900.00    0.93381   0.69263    0.006
 6901.00    0.91482   0.69467    0.006
 6902.00    0.99483   0.69627    0.007
 6903.00    1.08184   0.69749    0.007
 6904.00    1.09964   0.69835    0.007
 6905.00    1.11495   0.69884    0.006
 6906.00    1.22354   0.69907    0.006
 6907.00    1.32443   0.69919    0.006
 6908.00    1.14756   0.69929    0.006
 6909.00    0.97701   0.69955    0.006
 6910.00    0.90641   0.70019    0.006
 6911.00    0.84300   0.70141    0.006
 6912.00    0.85150   0.70321    0.006
 6913.00    0.85910   0.70550    0.006
 6914.00    0.86023   0.70819    0.006
 6915.00    0.85648   0.71104    0.006
 6916.00    0.82582   0.71361    0.006
 6917.00    0.78719   0.71559    0.006
 6918.00    0.71346   0.71688    0.006
 6919.00    0.68929   0.71745    0.006
 6920.00    0.84475   0.71733    0.006
 6921.00    0.94187   0.71668    0.006
 6922.00    0.86174   0.71587    0.006
 6923.00    0.82567   0.71513    0.006
 6924.00    0.90354   0.71451    0.006
 6925.00    1.00209   0.71398    0.006
 6926.00    1.14663   0.71346    0.006
 6927.00    1.21723   0.71279    0.006
 6928.00    1.14537   0.71185    0.006
 6929.00    1.06565   0.71058    0.006
 6930.00    0.97271   0.70905    0.006
 6931.00    0.92099   0.70748    0.006
 6932.00    0.92999   0.70609    0.006
 6933.00    0.88789   0.70517    0.006
 6934.00    0.77961   0.70488    0.006
 6935.00    0.72174   0.70530    0.006
 6936.00    0.72138   0.70645    0.006
 6937.00    0.78031   0.70818    0.006
 6938.00    0.89890   0.71023    0.006
 6939.00    0.92069   0.71220    0.006
 6940.00    0.85658   0.71376    0.006
 6941.00    0.84415   0.71478    0.006
 6942.00    0.87212   0.71543    0.006
 6943.00    0.90654   0.71605    0.007
 6944.00    0.94540   0.71698    0.007
 6945.00    1.00320   0.71833    0.007
 6946.00    1.07241   0.72007    0.007
 6947.00    1.15396   0.72212    0.007
 6948.00    1.24199   0.72421    0.007
 6949.00    1.18410   0.72601    0.007
 6950.00    1.05961   0.72743    0.007
 6951.00    1.01306   0.72854    0.007
 6952.00    0.99712   0.72943    0.007
 6953.00    1.04212   0.73027    0.006
 6954.00    1.10749   0.73125    0.006
 6955.00    0.97495   0.73252    0.006
 6956.00    0.78682   0.73413    0.006
 6957.00    0.70677   0.73577    0.006
 6958.00    0.65173   0.73697    0.006
 6959.00    0.76391   0.73739    0.006
 6960.00    0.90713   0.73684    0.007
 6961.00    0.80792   0.73546    0.006
 6962.00    0.67402   0.73389    0.006
 6963.00    0.73044   0.73283    0.007
 6964.00    0.80657   0.73277    0.007
 6965.00    0.73276   0.73392    0.007
 6966.00    0.64895   0.73617    0.007
 6967.00    0.67656   0.73921    0.007
 6968.00    0.70779   0.74260    0.007
 6969.00    0.88114   0.74590    0.007
 6970.00    1.05501   0.74889    0.007
 6971.00    1.24453   0.75158    0.007
 6972.00    1.41439   0.75403    0.007
 6973.00    1.29159   0.75619    0.007
 6974.00    1.17878   0.75801    0.007
 6975.00    1.16190   0.75951    0.007
 6976.00    1.14913   0.76073    0.007
 6977.00    1.16484   0.76163    0.007
 6978.00    1.16507   0.76220    0.007
 6979.00    1.08216   0.76246    0.007
 6980.00    1.02411   0.76234    0.007
 6981.00    1.07314   0.76165    0.007
 6982.00    1.07042   0.76024    0.007
 6983.00    0.88395   0.75814    0.007
 6984.00    0.76100   0.75545    0.007
 6985.00    0.82752   0.75232    0.007
 6986.00    0.90309   0.74909    0.007
 6987.00    1.00168   0.74641    0.007
 6988.00    1.02490   0.74508    0.007
 6989.00    0.88333   0.74569    0.007
 6990.00    0.83667   0.74839    0.007
 6991.00    0.97005   0.75292    0.007
 6992.00    1.04857   0.75848    0.007
 6993.00    1.03626   0.76364    0.007
 6994.00    0.98595   0.76715    0.007
 6995.00    0.88047   0.76853    0.007
 6996.00    0.84160   0.76789    0.007
 6997.00    0.88777   0.76577    0.007
 6998.00    0.88421   0.76279    0.007
 6999.00    0.82472   0.75967    0.007
 7000.00    0.85997   0.75716    0.006
 7001.00    0.98920   0.75577    0.007
 7002.00    0.93140   0.75567    0.007
 7003.00    0.70995   0.75650    0.007
 7004.00    0.71349   0.75764    0.007
 7005.00    0.89043   0.75850    0.007
 7006.00    0.80706   0.75896    0.007
 7007.00    0.54730   0.75926    0.007
 7008.00    0.70309   0.75961    0.007
 7009.00    1.10562   0.76004    0.007
 7010.00    1.16020   0.76055    0.007
 7011.00    1.03458   0.76103    0.007
 7012.00    0.92563   0.76162    0.007
 7013.00    0.82416   0.76241    0.007
 7014.00    0.77125   0.76321    0.007
 7015.00    0.73706   0.76385    0.007
 7016.00    0.76848   0.76446    0.007
 7017.00    0.82142   0.76549    0.007
 7018.00    0.87851   0.76700    0.007
 7019.00    0.93674   0.76850    0.007
 7020.00    1.00172   0.76952    0.007
 7021.00    1.06821   0.76993    0.007
 7022.00    1.17631   0.76962    0.007
 7023.00    1.29192   0.76875    0.007
 7024.00    1.16545   0.76800    0.007
 7025.00    1.00545   0.76779    0.007
 7026.00    0.93609   0.76827    0.007
 7027.00    0.87573   0.76977    0.007
 7028.00    0.93240   0.77249    0.007
 7029.00    0.99641   0.77598    0.007
 7030.00    0.99293   0.77899    0.007
 7031.00    0.98716   0.78037    0.007
 7032.00    0.88316   0.78001    0.007
 7033.00    0.78148   0.77865    0.007
 7034.00    0.74378   0.77695    0.007
 7035.00    0.71088   0.77563    0.007
 7036.00    0.74544   0.77535    0.007
 7037.00    0.78491   0.77626    0.007
 7038.00    0.86969   0.77795    0.007
 7039.00    0.95842   0.78001    0.007
 7040.00    1.07384   0.78232    0.007
 7041.00    1.14209   0.78458    0.007
 7042.00    0.96380   0.78614    0.007
 7043.00    0.84451   0.78671    0.007
 7044.00    0.97366   0.78649    0.007
 7045.00    1.03863   0.78596    0.007
 7046.00    0.88036   0.78571    0.007
 7047.00    0.78667   0.78620    0.007
 7048.00    0.88198   0.78776    0.007
 7049.00    0.95276   0.79059    0.007
 7050.00    0.96234   0.79499   -2.000
 7051.00    0.94118   0.80087   -2.000
 7052.00    0.85391   0.80715   -2.000
 7053.00    0.84736   0.81249   -2.000
 7054.00    0.99157   0.81634   -2.000
 7055.00    1.00817   0.81868   -2.000
 7056.00    0.81668   0.81943   -2.000
 7057.00    0.75893   0.81830   -2.000
 7058.00    0.89250   0.81456   -2.000
 7059.00    0.96080   0.80704   -2.000
 7060.00    0.94697   0.79496   -2.000
 7061.00    0.97907   0.77831   -2.000
 7062.00    1.06211   0.75814   -2.000
 7063.00    1.08137   0.73622   -2.000
 7064.00    1.03824   0.71453   -2.000
 7065.00    0.96631   0.69507   -2.000
 7066.00    0.86953   0.67967   -2.000
 7067.00    0.79445   0.66928   -2.000
 7068.00    0.73587   0.66309   -2.000
 7069.00    0.75103   0.65901   -2.000
 7070.00    0.81545   0.65565   -2.000
 7071.00    0.81371   0.65287   -2.000
 7072.00    0.77328   0.65108   -2.000
 7073.00    0.96089   0.65042   -2.000
 7074.00    1.26474   0.65073   -2.000
 7075.00    1.20427   0.65183   -2.000
 7076.00    0.98294   0.65367   -2.000
 7077.00    1.02504   0.65634   -2.000
 7078.00    1.16702   0.66002   -2.000
 7079.00    1.05267   0.66468   -2.000
 7080.00    0.85579   0.67004   -2.000
 7081.00    0.92967   0.67575   -2.000
 7082.00    1.07649   0.68131   -2.000
 7083.00    1.18609   0.68610   -2.000
 7084.00    1.28748   0.68992   -2.000
 7085.00    1.15770   0.69296   -2.000
 7086.00    0.98729   0.69547   -2.000
 7087.00    0.93975   0.69757   -2.000
 7088.00    0.90866   0.69915   -2.000
 7089.00    1.01139   0.69988   -2.000
 7090.00    1.12684   0.69927   -2.000
 7091.00    1.07421   0.69672   -2.000
 7092.00    1.01173   0.69160   -2.000
 7093.00    1.08555   0.68354   -2.000
 7094.00    1.16029   0.67275   -2.000
 7095.00    0.90351   0.66005   -2.000
 7096.00    0.66740   0.64667   -2.000
 7097.00    0.94486   0.63366   -2.000
 7098.00    1.18891   0.62154   -2.000
 7099.00    0.98926   0.61139   -2.000
 7100.00    0.81615   0.60475   -2.000
 7101.00    0.87825   0.60164   -2.000
 7102.00    0.92325   0.60064   -2.000
 7103.00    0.85653   0.60058   -2.000
 7104.00    0.78474   0.60069   -2.000
 7105.00    0.68707   0.60103   -2.000
 7106.00    0.61933   0.60180   -2.000
 7107.00    0.67482   0.60302   -2.000
 7108.00    0.67015   0.60459   -2.000
 7109.00    0.46044   0.60630   -2.000
 7110.00    0.45151   0.60806   -2.000
 7111.00    1.01945   0.60983   -2.000
 7112.00    1.41727   0.61171   -2.000
 7113.00    1.39767   0.61404   -2.000
 7114.00    1.22642   0.61706   -2.000
 7115.00    0.73422   0.62078   -2.000
 7116.00    0.48929   0.62478   -2.000
 7117.00    0.69900   0.62829   -2.000
 7118.00    0.81718   0.63091   -2.000
 7119.00    0.78828   0.63275   -2.000
 7120.00    1.03317   0.63395   -2.000
 7121.00    1.66401   0.63486   -2.000
 7122.00    1.75777   0.63610   -2.000
 7123.00    1.18534   0.63833   -2.000
 7124.00    0.72930   0.64150   -2.000
 7125.00    0.40050   0.64506   -2.000
 7126.00    0.40672   0.64864   -2.000
 7127.00    0.73603   0.65210   -2.000
 7128.00    0.73580   0.65485   -2.000
 7129.00    0.45533   0.65598   -2.000
 7130.00    0.38932   0.65491   -2.000
 7131.00    0.48390   0.65116   -2.000
 7132.00    0.54894   0.64435   -2.000
 7133.00    0.59453   0.63441   -2.000
 7134.00    0.93517   0.62191   -2.000
 7135.00    1.44577   0.60764   -2.000
 7136.00    1.55361   0.59298   -2.000
 7137.00    1.45936   0.58028   -2.000
 7138.00    1.05585   0.57130   -2.000
 7139.00    0.51806   0.56582   -2.000
 7140.00    0.59791   0.56263   -2.000
 7141.00    0.90784   0.56105   -2.000
 7142.00    0.85849   0.56081   -2.000
 7143.00    0.69566   0.56173   -2.000
 7144.00    0.71252   0.56346   -2.000
 7145.00    0.77676   0.56562   -2.000
 7146.00    0.88950   0.56789   -2.000
 7147.00    1.01270   0.57024   -2.000
 7148.00    1.01901   0.57272   -2.000
 7149.00    1.00533   0.57543   -2.000
 7150.00    0.90589   0.57853   -2.000
 7151.00    0.79535   0.58202   -2.000
 7152.00    0.77251   0.58552   -2.000
 7153.00    0.75764   0.58868   -2.000
 7154.00    0.79189   0.59136   -2.000
 7155.00    0.82883   0.59350   -2.000
 7156.00    0.90149   0.59522   -2.000
 7157.00    0.97231   0.59675   -2.000
 7158.00    0.80665   0.59832   -2.000
 7159.00    0.63378   0.60029   -2.000
 7160.00    0.29730   0.60302   -2.000
 7161.00   -0.03112   0.60656   -2.000
 7162.00   -0.25806   0.61062   -2.000
 7163.00   -0.38341   0.61475   -2.000
 7164.00    0.35790   0.61833   -2.000
 7165.00    1.08069   0.62079   -2.000
 7166.00    1.68605   0.62194   -2.000
 7167.00    2.07595   0.62188   -2.000
 7168.00    1.39604   0.62059   -2.000
 7169.00    0.78235   0.61838   -2.000
 7170.00    0.43521   0.61629   -2.000
 7171.00    0.28434   0.61522   -2.000
 7172.00    0.78921   0.61524   -2.000
 7173.00    1.14813   0.61582   -2.000
 7174.00    1.09540   0.61654   -2.000
 7175.00    0.96268   0.61750   -2.000
 7176.00    0.63703   0.61900   -2.000
 7177.00    0.39128   0.62103   -2.000
 7178.00    0.31190   0.62320   -2.000
 7179.00    0.24074   0.62521   -2.000
 7180.00    0.18446   0.62731   -2.000
 7181.00    0.22113   0.62969   -2.000
 7182.00    0.40494   0.63202   -2.000
 7183.00    0.61450   0.63397   -2.000
 7184.00    0.85983   0.63552   -2.000
 7185.00    0.97846   0.63686   -2.000
 7186.00    0.94216   0.63814   -2.000
 7187.00    0.77295   0.63944   -2.000
 7188.00    0.46048   0.64087   -2.000
 7189.00    0.37641   0.64241   -2.000
 7190.00    0.50952   0.64403   -2.000
 7191.00    0.66262   0.64583   -2.000
 7192.00    0.83248   0.64780   -2.000
 7193.00    0.87439   0.64970   -2.000
 7194.00    0.82186   0.65105   -2.000
 7195.00    0.83977   0.65132   -2.000
 7196.00    0.90336   0.65031   -2.000
 7197.00    0.97610   0.64861   -2.000
 7198.00    1.05404   0.64721   -2.000
 7199.00    0.58105   0.64703   -2.000
 7200.00   -0.16400   0.64835   -2.000
 7201.00   -0.15031   0.65044   -2.000
 7202.00    0.18736   0.65219   -2.000
 7203.00    0.50155   0.65306   -2.000
 7204.00    0.80713   0.65313   -2.000
 7205.00    1.14539   0.65219   -2.000
 7206.00    1.49376   0.65002   -2.000
 7207.00    1.35206   0.64692   -2.000
 7208.00    1.08388   0.64393   -2.000
 7209.00    0.85698   0.64215   -2.000
 7210.00    0.63876   0.64152   -2.000
 7211.00    0.58719   0.64130   -2.000
 7212.00    0.56329   0.64126   -2.000
 7213.00    0.19609   0.64160   -2.000
 7214.00   -0.21399   0.64209   -2.000
 7215.00   -0.14172   0.64210   -2.000
 7216.00   -0.02767   0.64143   -2.000
 7217.00    0.36011   0.64055   -2.000
 7218.00    0.76179   0.64034   -2.000
