###################################################################
## OUTPUT of StarlightChains_v04.for    [Cid@UFSC - 01/Apr/2007] ##
###################################################################

## Some input info
KUG0210-078._34_24.txt                   [arq_obs]
Base.CB07.vall.4m                        [arq_base]
Masks.EmLines.NEW.gm                     [arq_masks]
StCv04.C11.config                        [arq_config]
   66                                    [N_base]
    0                                    [N_YAV_components = # of components with extra extinction!]
    0                                    [i_FitPowerLaw (1/0 = Yes/No)]
-9.99                                    [alpha_PowerLaw]
CCM                                      [red_law_option]
 1.458241                                [q_norm = A(l_norm)/A(V)]

## (Re)Sampling Parameters
 3741.00                                 [l_ini (A)]
 7218.00                                 [l_fin (A)]
    1.00                                 [dl    (A)]     (OBS: dl_cushion =    50.00 A)

## Normalization info
 4020.00                                 [l_norm (A) - for base]
 4010.00                                 [llow_norm (A) - window for f_obs]
 4060.00                                 [lupp_norm (A) - window for f_obs]
1.290037E-17                             [fobs_norm (in input units)]

## S/N
 3691.00                                 [llow_SN (A) - window for S/N]
 7268.00                                 [lupp_SN (A) - window for S/N]
   2.484                                 [S/N in S/N window]
   3.577                                 [S/N in norm. window]
   0.013                                 [S/N_err in S/N window]
   0.019                                 [S/N_err in norm. window]
  1.0000                                 [fscale_chi2]

## etc...
    -2007529                             [idum_orig]
  2397                                   [NOl_eff]
  2070                                   [Nl_eff]
   327    NSIGMA                         [Ntot_cliped & clip_method]
 11132730                                [Nglobal_steps]
   7                                     [N_chains]
  39                                     [NEX0s_base = N_base in EX0s-fits]
 0   0   1      327   2.0   1.045E+04    [Clip-Bug, RC-Crash & Burn-In warning-flags, n_censored_weights, wei_nsig_threshold & wei_limit]
   106    105.500    104.568      0.932  [idt_all, wdt_TotTime, wdt_UsrTime & wdt_SysTime (sec)]

## Synthesis Results - Best model ##

 5.81104E-05                             [chi2/Nl_eff]
    21.99419                             [adev (%)]

   118.89632                             [sum-of-x (%)]
 9.85043E-18                             [Flux_tot (units of input spectrum!)]
 1.15821E-13                             [Mini_tot (???)]
 6.03324E-14                             [Mcor_tot (???)]

 209.61                                  [v0_min  (km/s)]
 149.99                                  [vd_min  (km/s)]
-0.3297                                  [AV_min  (mag)]
 0.0000                                  [YAV_min (mag)]

# j     x_j(%)      Mini_j(%)     Mcor_j(%)     age_j(yr)     Z_j      (L/M)_j    YAV?  Mstars   component_j        a/Fe...       SSP_chi2r SSP_adev(%)   SSP_AV   SSP_x(%)
  1     37.9936     2.4842E-01    4.7690E-01    1.000000E+06  0.00400  1.094E-02    0   1.0000   age020_m42            0.0000     6.1859E-05    25.4653   1.7627   111.0648
  2      0.0000     0.0000E+00    0.0000E+00    3.160000E+06  0.00400  4.007E-02    0   0.9999   age045_m42            0.0000     6.1411E-05    24.6679   1.1374   113.8601
  3      0.0450     1.2674E-04    2.3085E-04    5.010000E+06  0.00400  2.539E-02    0   0.9488   age055_m42            0.0000     6.1387E-05    24.9487   1.4095   113.2778
  4      0.0000     0.0000E+00    0.0000E+00    6.610000E+06  0.00400  2.620E-02    0   0.9220   age061_m42            0.0000     6.1048E-05    24.4407   1.0656   113.9920
  5      0.0000     0.0000E+00    0.0000E+00    1.000000E+07  0.00400  1.322E-02    0   0.8862   age070_m42            0.0000     5.9830E-05    23.2456   0.8029   115.8593
  6      3.3907     3.0768E-02    5.0625E-02    1.445000E+07  0.00400  7.883E-03    0   0.8571   age078_m42            0.0000     5.9993E-05    23.6268   1.0953   114.4688
  7      5.0904     6.9345E-02    1.0881E-01    2.512000E+07  0.00400  5.251E-03    0   0.8174   age090_m42            0.0000     5.9469E-05    22.9746   0.6851   116.0684
  8      0.0000     0.0000E+00    0.0000E+00    4.000000E+07  0.00400  3.649E-03    0   0.7851   age104_m42            0.0000     5.9467E-05    22.9277   0.4708   116.3531
  9      0.0000     0.0000E+00    0.0000E+00    5.500000E+07  0.00400  3.098E-03    0   0.7629   age110_m42            0.0000     6.0160E-05    23.3151   0.6298   115.7990
 10      0.0000     0.0000E+00    0.0000E+00    1.015200E+08  0.00400  2.228E-03    0   0.7207   age116_m42            0.0000     6.0558E-05    23.5356   0.6586   115.5143
 11      0.0000     0.0000E+00    0.0000E+00    2.861200E+08  0.00400  1.093E-03    0   0.6648   age125_m42            0.0000     5.9744E-05    22.8129   0.1227   117.2193
 12      0.0000     0.0000E+00    0.0000E+00    5.088000E+08  0.00400  6.597E-04    0   0.6365   age130_m42            0.0000     6.0172E-05    23.1596   0.1218   117.6813
 13      0.0000     0.0000E+00    0.0000E+00    1.434000E+09  0.00400  2.132E-04    0   0.5798   age139_m42            0.0000     5.9331E-05    22.9287  -0.8273   119.2580
 14     10.2236     1.2406E+01    1.2805E+01    4.250000E+09  0.00400  5.895E-05    0   0.5377   age158_m42            0.0000     6.0964E-05    26.7142  -1.0000   110.4188
 15      0.0000     0.0000E+00    0.0000E+00    7.500000E+09  0.00400  3.510E-05    0   0.5212   age171_m42            0.0000     6.3840E-05    29.7960  -1.0000   105.3431
 16      0.0000     0.0000E+00    0.0000E+00    1.300000E+10  0.00400  2.005E-05    0   0.5034   age193_m42            0.0000     6.7790E-05    32.6873  -1.0000   100.6214
 17      0.0000     0.0000E+00    0.0000E+00    1.800000E+10  0.00400  1.525E-05    0   0.4967   age213_m42            0.0000     6.8269E-05    33.1995  -1.0000    99.6981
 18      0.0000     0.0000E+00    0.0000E+00    1.000000E+06  0.00800  1.238E-02    0   1.0000   age020_m52            0.0000     6.1931E-05    25.4821   1.7590   111.3214
 19      0.0000     0.0000E+00    0.0000E+00    3.160000E+06  0.00800  3.074E-02    0   0.9966   age045_m52            0.0000     6.1935E-05    25.4598   1.6831   112.1984
 20      6.9799     1.8714E-02    3.3924E-02    5.010000E+06  0.00800  2.668E-02    0   0.9443   age055_m52            0.0000     6.1459E-05    25.0069   1.4758   113.0330
 21      0.0000     0.0000E+00    0.0000E+00    6.610000E+06  0.00800  2.136E-02    0   0.9177   age061_m52            0.0000     5.9318E-05    23.3176   0.2941   117.8242
 22      0.0000     0.0000E+00    0.0000E+00    1.000000E+07  0.00800  1.215E-02    0   0.8827   age070_m52            0.0000     5.9633E-05    23.0414   0.9683   116.2915
 23      0.0000     0.0000E+00    0.0000E+00    1.445000E+07  0.00800  8.717E-03    0   0.8552   age078_m52            0.0000     6.0020E-05    23.4766   1.0710   115.5782
 24      0.0000     0.0000E+00    0.0000E+00    2.512000E+07  0.00800  5.592E-03    0   0.8162   age090_m52            0.0000     5.9547E-05    22.8045   0.7554   117.1094
 25      0.0000     0.0000E+00    0.0000E+00    4.000000E+07  0.00800  3.896E-03    0   0.7841   age104_m52            0.0000     5.9587E-05    22.8474   0.6755   117.3221
 26      0.0000     0.0000E+00    0.0000E+00    1.015200E+08  0.00800  2.148E-03    0   0.7226   age116_m52            0.0000     5.9779E-05    23.2531   0.6228   116.5934
 27      0.0000     0.0000E+00    0.0000E+00    2.861200E+08  0.00800  9.925E-04    0   0.6683   age125_m52            0.0000     6.0227E-05    23.0485   0.1877   118.6905
 28      0.0000     0.0000E+00    0.0000E+00    9.047900E+08  0.00800  3.141E-04    0   0.6138   age135_m52            0.0000     6.0259E-05    23.1187  -0.5917   122.2884
 29     18.0523     7.5120E+00    8.4405E+00    1.434000E+09  0.00800  1.719E-04    0   0.5853   age139_m52            0.0000     6.0327E-05    24.6042  -1.0000   117.2142
 30      0.0000     0.0000E+00    0.0000E+00    2.500000E+09  0.00800  7.872E-05    0   0.5600   age150_m52            0.0000     6.4133E-05    29.1738  -1.0000   108.4306
 31      0.2943     4.8555E-01    5.0576E-01    4.250000E+09  0.00800  4.336E-05    0   0.5426   age158_m52            0.0000     6.4412E-05    29.5922  -1.0000   107.1969
 32      1.2406     2.8092E+00    2.8684E+00    6.250000E+09  0.00800  3.159E-05    0   0.5319   age166_m52            0.0000     6.9096E-05    33.1445  -1.0000   101.9865
 33     12.6712     6.6598E+01    6.4858E+01    1.300000E+10  0.00800  1.361E-05    0   0.5073   age193_m52            0.0000     8.5847E-05    40.8424  -1.0000    88.3944
 34      0.0000     0.0000E+00    0.0000E+00    1.800000E+10  0.00800  9.886E-06    0   0.4990   age213_m52            0.0000     9.1625E-05    42.3472  -1.0000    84.8369
 35      0.0000     0.0000E+00    0.0000E+00    1.000000E+06  0.02000  1.544E-02    0   1.0000   age020_m62            0.0000     6.1984E-05    25.4999   1.7489   111.7892
 36      0.0000     0.0000E+00    0.0000E+00    3.160000E+06  0.02000  3.762E-02    0   0.9858   age045_m62            0.0000     6.2200E-05    25.5394   1.6845   112.8594
 37      0.0073     1.5756E-05    2.8257E-05    5.010000E+06  0.02000  3.296E-02    0   0.9342   age055_m62            0.0000     6.1642E-05    24.9333   1.3807   114.0221
 38      6.3799     3.9547E-02    6.7271E-02    8.710000E+06  0.02000  1.154E-02    0   0.8861   age067_m62            0.0000     5.8209E-05    21.1603   0.4281   120.0500
 39      0.0000     0.0000E+00    0.0000E+00    1.445000E+07  0.02000  7.663E-03    0   0.8472   age078_m62            0.0000     5.8858E-05    22.2847   0.6261   118.5341
 40      0.0000     0.0000E+00    0.0000E+00    2.512000E+07  0.02000  4.532E-03    0   0.8099   age090_m62            0.0000     5.8571E-05    22.1040   0.6233   117.9272
 41     11.6902     3.0597E-01    4.4611E-01    5.500000E+07  0.02000  2.733E-03    0   0.7595   age110_m62            0.0000     5.9391E-05    22.9065   0.6492   117.0267
 42      0.0000     0.0000E+00    0.0000E+00    1.609000E+08  0.02000  1.369E-03    0   0.6985   age120_m62            0.0000     6.0225E-05    23.1267   0.5270   118.0292
 43      0.0000     0.0000E+00    0.0000E+00    2.861200E+08  0.02000  9.013E-04    0   0.6714   age125_m62            0.0000     6.0729E-05    23.0789   0.3077   119.7641
 44      1.3695     1.9483E-01    2.4121E-01    5.088000E+08  0.02000  5.028E-04    0   0.6449   age130_m62            0.0000     6.1374E-05    23.4360  -0.0572   121.8602
 45      0.0000     0.0000E+00    0.0000E+00    9.047900E+08  0.02000  2.428E-04    0   0.6179   age135_m62            0.0000     6.0517E-05    23.7071  -0.6738   122.5548
 46      0.4296     2.4331E-01    2.7595E-01    1.434000E+09  0.02000  1.263E-04    0   0.5908   age139_m62            0.0000     6.0480E-05    24.6091  -1.0000   119.1019
 47      0.0000     0.0000E+00    0.0000E+00    2.500000E+09  0.02000  5.985E-05    0   0.5673   age150_m62            0.0000     6.5531E-05    29.7762  -1.0000   109.3383
 48      0.0000     0.0000E+00    0.0000E+00    4.250000E+09  0.02000  3.271E-05    0   0.5468   age158_m62            0.0000     7.3721E-05    35.2703  -1.0000   100.5357
 49      0.0831     4.3711E-01    4.3358E-01    1.000000E+10  0.02000  1.360E-05    0   0.5167   age181_m62            0.0000     8.7968E-05    40.7520  -1.0000    90.1721
 50      0.7946     7.9784E+00    7.6780E+00    1.800000E+10  0.02000  7.124E-06    0   0.5013   age213_m62            0.0000     9.9656E-05    43.4189  -1.0000    83.2526
 51      0.0000     0.0000E+00    0.0000E+00    1.000000E+06  0.05000  2.592E-02    0   0.9998   age020_m72            0.0000     6.2020E-05    25.5338   1.7339   112.2316
 52      1.2561     1.8546E-03    3.4096E-03    3.160000E+06  0.05000  4.845E-02    0   0.9577   age045_m72            0.0000     6.2002E-05    25.4242   1.5882   113.2708
 53      0.0000     0.0000E+00    0.0000E+00    5.010000E+06  0.05000  3.072E-02    0   0.9147   age055_m72            0.0000     5.9931E-05    23.5116   1.1574   116.1495
 54      0.0000     0.0000E+00    0.0000E+00    6.610000E+06  0.05000  1.455E-02    0   0.8877   age061_m72            0.0000     5.7965E-05    21.0613   0.4602   121.1381
 55      0.0000     0.0000E+00    0.0000E+00    1.000000E+07  0.05000  9.074E-03    0   0.8524   age070_m72            0.0000     6.0083E-05    23.8283   1.3361   115.7391
 56      0.0000     0.0000E+00    0.0000E+00    2.512000E+07  0.05000  4.250E-03    0   0.7902   age090_m72            0.0000     5.9428E-05    23.1404   1.0752   115.9741
 57      0.0000     0.0000E+00    0.0000E+00    4.000000E+07  0.05000  3.087E-03    0   0.7618   age104_m72            0.0000     5.9235E-05    22.7497   0.8765   116.6942
 58      0.0000     0.0000E+00    0.0000E+00    1.015200E+08  0.05000  1.700E-03    0   0.7096   age116_m72            0.0000     5.9885E-05    22.8835   0.6645   117.7469
 59      0.0000     0.0000E+00    0.0000E+00    2.861200E+08  0.05000  7.384E-04    0   0.6633   age125_m72            0.0000     6.1309E-05    23.2371   0.1780   121.0261
 60      0.0000     0.0000E+00    0.0000E+00    5.088000E+08  0.05000  3.819E-04    0   0.6372   age130_m72            0.0000     6.1493E-05    23.6908  -0.3292   123.5030
 61      0.2901     1.2382E-01    1.4524E-01    9.047900E+08  0.05000  1.676E-04    0   0.6110   age135_m72            0.0000     6.1866E-05    24.8130  -1.0000   122.0619
 62      0.6144     4.9733E-01    5.6080E-01    1.434000E+09  0.05000  8.837E-05    0   0.5874   age139_m72            0.0000     6.6039E-05    29.7283  -1.0000   110.8795
 63      0.0000     0.0000E+00    0.0000E+00    2.500000E+09  0.05000  4.233E-05    0   0.5598   age150_m72            0.0000     7.4738E-05    35.3044  -1.0000   101.3652
 64      0.0000     0.0000E+00    0.0000E+00    6.250000E+09  0.05000  1.435E-05    0   0.5249   age166_m72            0.0000     9.3262E-05    42.1429  -1.0000    87.0314
 65      0.0000     0.0000E+00    0.0000E+00    1.300000E+10  0.05000  6.513E-06    0   0.5036   age193_m72            0.0000     1.1002E-04    45.1649  -1.0000    79.3467
 66      0.0000     0.0000E+00    0.0000E+00    1.800000E+10  0.05000  4.527E-06    0   0.4945   age213_m72            0.0000     1.2106E-04    46.3236  -1.0000    74.2188


## Synthesis Results - Average & Chains ##

# j      x_j: min, <> & last-chain-values for 1 ...  7 chains
  1     37.9936      0.2163      0.1675      0.0442      0.1010      0.2889      0.0900      0.4323      0.1371
  2      0.0000      0.2312      0.1177      0.2252      0.2254      0.1743      0.2499      0.1306      0.4087
  3      0.0450      0.2434      0.3292      0.0090      0.3785      0.0435      0.1806      0.4411      0.1731
  4      0.0000      0.3094      0.0000      0.2911      0.2265      0.0000      0.3650      0.1212      0.0000
  5      0.0000      0.2048      0.0129      0.0314      0.0205      0.1175      0.2832      0.0000      0.3832
  6      3.3907      0.2576      0.3193      0.5019      0.0000      0.2360      0.0924      0.3722      0.1692
  7      5.0904      0.2772      0.2352      0.1710      0.2900      0.2083      0.5966      0.3413      0.5049
  8      0.0000      0.1297      0.0926      0.0366      0.0105      0.0000      0.1163      0.2564      0.0000
  9      0.0000      0.2943      0.0217      0.0000      0.2045      0.0051      0.3147      0.1669      0.0000
 10      0.0000      0.2276      0.3943      0.4279      0.2410      0.1822      0.2195      0.1244      0.2682
 11      0.0000      0.2055      0.0945      0.0915      0.0881      0.0763      0.1491      0.0000      0.2202
 12      0.0000      0.2031      0.4395      0.2083      0.0918      0.1559      0.0377      0.0954      0.0000
 13      0.0000      0.2468      0.1762      0.1903      0.2214      0.1051      0.2560      1.1747      0.0000
 14     10.2236      0.1969      0.0028      0.0149      0.2260      0.0000      0.2069      0.3564      0.0000
 15      0.0000      0.1949      0.2883      0.1677      0.0875      0.1735      0.2819      0.3939      0.1039
 16      0.0000      0.2394      0.2073      0.0795      0.1369      0.2640      0.0534      0.1169      0.3407
 17      0.0000      0.2465      0.4235      0.0703      0.4527      0.0870      0.0000      0.6270      0.0139
 18      0.0000      0.3050      0.0096      0.0000      0.2757      0.0712      0.1035      0.0124      0.0004
 19      0.0000      0.2053      0.4231      0.0633      0.3416      0.0000      0.0000      0.0387      0.0000
 20      6.9799      0.1765      0.2290      0.0899      0.3184      0.0126      0.1668      0.1632      0.3631
 21      0.0000      0.2231      0.1910      0.0483      0.2661      0.0427      0.0273      0.3878      0.1185
 22      0.0000      0.1792      0.4190      0.0847      0.1170      0.1906      0.1812      0.1393      0.0000
 23      0.0000      0.2483      0.2727      0.0109      0.0548      0.0000      0.0859      0.1641      0.1225
 24      0.0000      0.3152      0.1958      0.1066      0.7137      0.4118      0.1468      0.0000      0.6132
 25      0.0000      0.2166      0.1505      0.0000      0.1548      0.0704      0.1008      0.0000      0.4967
 26      0.0000      0.2310      0.3197      0.2849      0.0659      0.0895      0.1178      0.1420      0.2228
 27      0.0000      0.1731      0.1747      0.0515      0.0838      0.1864      0.0939      0.2223      0.0000
 28      0.0000      0.1969      0.1631      0.1535      0.3925      0.3414      0.1824      0.3381      0.5465
 29     18.0523      0.2973      0.6335      0.2376      0.0858      0.1879      0.0000      0.1700      0.1921
 30      0.0000      0.1511      0.3783      0.0126      0.6388      0.2521      0.0000      0.0000      0.0000
 31      0.2943      0.2214      0.0333      0.9213      0.0000      0.2211      0.1960      0.4636      0.1119
 32      1.2406      0.1970      0.3483      0.2815      0.3328      0.2080      0.0000      0.3657      0.4784
 33     12.6712      0.2337      0.3857      0.1643      0.2328      0.1507      0.1030      0.4299      0.2727
 34      0.0000      0.1816      0.1640      0.1089      0.2832      0.5737      0.3454      0.4141      0.3777
 35      0.0000      0.1927      0.3619      0.2631      0.0054      0.3312      0.1832      0.0000      0.1811
 36      0.0000      0.2034      0.0876      0.1560      0.1344      0.0346      0.2773      0.0854      0.1401
 37      0.0073      0.2623      0.0659      0.0000      0.0757      0.0967      0.2905      0.4824      0.2515
 38      6.3799      0.2657      0.0741      0.0000      0.2783      0.0827      0.0893      0.6439      0.4270
 39      0.0000      0.2108      0.2011      0.0300      0.1913      0.1158      0.2090      0.0000      0.3665
 40      0.0000      0.3205      0.5899      0.1204      0.3550      0.1436      0.4537      0.0636      0.1942
 41     11.6902      0.2313      0.0368      0.2419      0.3669      0.2112      0.2528      0.1437      0.4742
 42      0.0000      0.1849      0.1064      0.0173      0.0314      0.0000      0.0000      0.0000      0.0000
 43      0.0000      0.1831      0.1789      0.0846      0.1445      0.0415      0.0000      0.0000      0.1690
 44      1.3695      1.9624      2.0589      2.0897      1.9257      2.1548      2.1393      2.1726      1.9650
 45      0.0000      2.2982      2.4628      2.1091      2.5358      2.7775      2.6529      2.0307      2.2080
 46      0.4296      0.3564      0.4038      0.4189      0.0000      0.3662      0.3045      0.2165      0.5260
 47      0.0000      0.1772      0.0786      0.0000      0.1415      0.1234      0.1217      0.0000      0.0457
 48      0.0000      0.1923      0.0316      0.0000      0.1109      0.2418      0.1293      0.1877      0.0000
 49      0.0831      0.3807      0.7550      0.2884      0.6584      0.3681      0.7820      0.5124      0.0000
 50      0.7946      7.9438      8.1610      8.8482      8.3598      8.6262      8.0350      8.0719      8.0354
 51      0.0000      0.1704      0.2305      0.0000      0.0406      0.0385      0.0793      0.0000      0.0000
 52      1.2561      0.2896      0.2383      0.1252      0.2797      0.0818      0.4369      0.3557      0.5084
 53      0.0000      0.2147      0.2181      0.2515      0.1692      0.1943      0.2452      0.1686      0.2014
 54      0.0000      0.1923      0.0172      0.1902      0.1867      0.0478      0.1397      0.0545      0.1418
 55      0.0000      0.1390      0.1330      0.0425      0.1121      0.1271      0.0000      0.1359      0.2619
 56      0.0000      0.1656      0.2163      0.0210      0.0864      0.0587      0.0669      0.0000      0.0332
 57      0.0000      0.2629      0.1560      0.0087      0.4587      0.1796      0.0570      0.1088      0.4342
 58      0.0000      0.2165      0.0000      0.0253      0.2780      0.0251      0.0520      1.3399      0.1513
 59      0.0000      0.8229      0.9317      0.9047      0.9339      0.7260      0.9565      0.0000      0.6822
 60      0.0000      3.0572      2.8853      3.3640      3.2318      3.1802      3.1876      3.2732      2.9485
 61      0.2901     11.9117      8.2383     14.2637     11.6296     11.7316     11.8293     12.4261     11.6567
 62      0.6144      0.1721      0.2793      0.1102      0.0000      0.1841      0.1967      0.1526      0.3379
 63      0.0000      9.0179     10.5242      9.9795      9.4439      9.9994      9.9794      8.2277      8.7890
 64      0.0000      0.9885      0.9176      1.0339      1.0406      1.1446      1.0989      0.3581      1.1480
 65      0.0000     11.0231     12.1615     11.3296     11.1183     12.5908     11.4541     11.3638     12.0226
 66      0.0000      9.2547     10.2867      9.4339      9.3736      9.9669     10.0386      9.9546     10.2275

# j      m_j: min, <> & last-chain-values for 1 ...  7 chains
  1  4.7690E-01  7.3103E-04  5.1935E-04  1.4339E-04  3.3220E-04  8.8566E-04  2.8882E-04  1.3979E-03  4.3455E-04
  2  0.0000E+00  2.1326E-04  9.9574E-05  1.9950E-04  2.0249E-04  1.4588E-04  2.1904E-04  1.1528E-04  3.5363E-04
  3  2.3085E-04  3.3623E-04  4.1722E-04  1.1886E-05  5.0918E-04  5.4476E-05  2.3699E-04  5.8323E-04  2.2435E-04
  4  0.0000E+00  4.0254E-04  0.0000E+00  3.6376E-04  2.8689E-04  0.0000E+00  4.5115E-04  1.5084E-04  0.0000E+00
  5  0.0000E+00  5.0742E-04  2.9340E-05  7.4722E-05  4.9467E-05  2.6425E-04  6.6677E-04  0.0000E+00  8.9059E-04
  6  5.0625E-02  1.0356E-03  1.1772E-03  1.9375E-03  0.0000E+00  8.6084E-04  3.5287E-04  1.4317E-03  6.3807E-04
  7  1.0881E-01  1.5951E-03  1.2416E-03  9.4506E-04  1.6247E-03  1.0878E-03  3.2617E-03  1.8795E-03  2.7253E-03
  8  0.0000E+00  1.0319E-03  6.7584E-04  2.7923E-04  8.1369E-05  0.0000E+00  8.7888E-04  1.9521E-03  0.0000E+00
  9  0.0000E+00  2.6789E-03  1.8150E-04  0.0000E+00  1.8129E-03  4.2080E-05  2.7216E-03  1.4544E-03  0.0000E+00
 10  0.0000E+00  2.7217E-03  4.3257E-03  4.9141E-03  2.8062E-03  1.9769E-03  2.4934E-03  1.4240E-03  3.0081E-03
 11  0.0000E+00  4.6204E-03  1.9498E-03  1.9769E-03  1.9288E-03  1.5574E-03  3.1853E-03  0.0000E+00  4.6432E-03
 12  0.0000E+00  7.2438E-03  1.4382E-02  7.1370E-03  3.1879E-03  5.0449E-03  1.2784E-03  3.2570E-03  0.0000E+00
 13  0.0000E+00  2.4815E-02  1.6252E-02  1.8378E-02  2.1668E-02  9.5903E-03  2.4452E-02  1.1303E-01  0.0000E+00
 14  1.2805E+01  6.6383E-02  8.7477E-04  4.8411E-03  7.4201E-02  0.0000E+00  6.6284E-02  1.1503E-01  0.0000E+00
 15  0.0000E+00  1.0697E-01  1.4516E-01  8.8403E-02  4.6755E-02  8.6423E-02  1.4701E-01  2.0693E-01  5.3498E-02
 16  0.0000E+00  2.2220E-01  1.7651E-01  7.0899E-02  1.2372E-01  2.2234E-01  4.7055E-02  1.0388E-01  2.9664E-01
 17  0.0000E+00  2.9679E-01  4.6780E-01  8.1330E-02  5.3079E-01  9.5026E-02  0.0000E+00  7.2257E-01  1.5670E-02
 18  0.0000E+00  9.1075E-04  2.6423E-05  0.0000E+00  8.0171E-04  1.9294E-04  2.9349E-04  3.5308E-05  1.2107E-06
 19  0.0000E+00  2.4603E-04  4.6521E-04  7.2901E-05  3.9860E-04  0.0000E+00  0.0000E+00  4.4423E-05  0.0000E+00
 20  3.3924E-02  2.3095E-04  2.7490E-04  1.1299E-04  4.0560E-04  1.4936E-05  2.0738E-04  2.0441E-04  4.4566E-04
 21  0.0000E+00  3.5437E-04  2.7834E-04  7.3608E-05  4.1148E-04  6.1476E-05  4.1118E-05  5.8954E-04  1.7654E-04
 22  0.0000E+00  4.8128E-04  1.0324E-03  2.1856E-04  3.0601E-04  4.6456E-04  4.6240E-04  3.5805E-04  0.0000E+00
 23  0.0000E+00  9.0053E-04  9.0727E-04  3.8046E-05  1.9336E-04  0.0000E+00  2.9598E-04  5.6954E-04  4.1656E-04
 24  0.0000E+00  1.7008E-03  9.6938E-04  5.5254E-04  3.7497E-03  2.0160E-03  7.5247E-04  0.0000E+00  3.1033E-03
 25  0.0000E+00  1.6112E-03  1.0270E-03  0.0000E+00  1.1217E-03  4.7546E-04  7.1217E-04  0.0000E+00  3.4663E-03
 26  0.0000E+00  2.8723E-03  3.6477E-03  3.4025E-03  7.9821E-04  1.0098E-03  1.3915E-03  1.6903E-03  2.5992E-03
 27  0.0000E+00  4.3082E-03  3.9889E-03  1.2307E-03  2.0320E-03  4.2095E-03  2.2206E-03  5.2950E-03  0.0000E+00
 28  0.0000E+00  1.4222E-02  1.0809E-02  1.0653E-02  2.7606E-02  2.2377E-02  1.2521E-02  2.3378E-02  3.7030E-02
 29  8.4405E+00  3.7428E-02  7.3147E-02  2.8728E-02  1.0518E-02  2.1463E-02  0.0000E+00  2.0483E-02  2.2682E-02
 30  0.0000E+00  3.9749E-02  9.1256E-02  3.1903E-03  1.6358E-01  6.0169E-02  0.0000E+00  0.0000E+00  0.0000E+00
 31  5.0576E-01  1.0241E-01  1.4124E-02  4.0934E-01  0.0000E+00  9.2803E-02  8.6156E-02  2.0526E-01  4.8560E-02
 32  2.8684E+00  1.2263E-01  1.9890E-01  1.6829E-01  2.0172E-01  1.1749E-01  0.0000E+00  2.1784E-01  2.7929E-01
 33  6.4858E+01  3.2200E-01  4.8760E-01  2.1749E-01  3.1229E-01  1.8845E-01  1.3481E-01  5.6689E-01  3.5243E-01
 34  0.0000E+00  3.3882E-01  2.8075E-01  1.9510E-01  5.1446E-01  9.7139E-01  6.1231E-01  7.3947E-01  6.6102E-01
 35  0.0000E+00  4.6130E-04  7.9478E-04  6.0490E-04  1.2504E-05  7.1956E-04  4.1676E-04  0.0000E+00  4.0679E-04
 36  0.0000E+00  1.9701E-04  7.7831E-05  1.4515E-04  1.2677E-04  3.0443E-05  2.5515E-04  7.9133E-05  1.2729E-04
 37  2.8257E-05  2.7485E-04  6.3383E-05  0.0000E+00  7.7251E-05  9.1966E-05  2.8919E-04  4.8372E-04  2.4713E-04
 38  6.7271E-02  7.5416E-04  1.9298E-04  0.0000E+00  7.6912E-04  2.1297E-04  2.4081E-04  1.7493E-03  1.1369E-03
 39  0.0000E+00  8.6165E-04  7.5385E-04  1.1790E-04  7.6144E-04  4.2961E-04  8.1145E-04  0.0000E+00  1.4049E-03
 40  0.0000E+00  2.1172E-03  3.5748E-03  7.6395E-04  2.2838E-03  8.6093E-04  2.8473E-03  4.0187E-04  1.2036E-03
 41  4.4611E-01  2.3765E-03  3.4676E-04  2.3872E-03  3.6702E-03  1.9687E-03  2.4671E-03  1.4131E-03  4.5691E-03
 42  0.0000E+00  3.4882E-03  1.8416E-03  3.1424E-04  5.7741E-04  0.0000E+00  0.0000E+00  0.0000E+00  0.0000E+00
 43  0.0000E+00  5.0415E-03  4.5187E-03  2.2382E-03  3.8756E-03  1.0378E-03  0.0000E+00  0.0000E+00  4.3651E-03
 44  2.4121E-01  9.3052E-02  8.9556E-02  9.5164E-02  8.8904E-02  9.2709E-02  9.6365E-02  9.8590E-02  8.7393E-02
 45  0.0000E+00  2.1622E-01  2.1254E-01  1.9057E-01  2.3229E-01  2.3710E-01  2.3710E-01  1.8284E-01  1.9484E-01
 46  2.7595E-01  6.1632E-02  6.4059E-02  6.9568E-02  0.0000E+00  5.7459E-02  5.0027E-02  3.5838E-02  8.5318E-02
 47  0.0000E+00  6.2092E-02  2.5258E-02  0.0000E+00  4.8263E-02  3.9219E-02  4.0497E-02  0.0000E+00  1.5005E-02
 48  0.0000E+00  1.1887E-01  1.7928E-02  0.0000E+00  6.6749E-02  1.3558E-01  7.5923E-02  1.1102E-01  0.0000E+00
 49  4.3358E-01  5.3468E-01  9.7281E-01  3.8897E-01  9.0033E-01  4.6916E-01  1.0435E+00  6.8876E-01  0.0000E+00
 50  7.6780E+00  2.0666E+01  1.9475E+01  2.2107E+01  2.1174E+01  2.0361E+01  1.9856E+01  2.0096E+01  1.9606E+01
 51  0.0000E+00  2.4304E-04  3.0158E-04  0.0000E+00  5.6335E-05  4.9803E-05  1.0737E-04  0.0000E+00  0.0000E+00
 52  3.4096E-03  2.1165E-04  1.5976E-04  8.7847E-05  1.9898E-04  5.4210E-05  3.0327E-04  2.4877E-04  3.4844E-04
 53  0.0000E+00  2.3635E-04  2.2028E-04  2.6587E-04  1.8134E-04  1.9402E-04  2.5641E-04  1.7763E-04  2.0788E-04
 54  0.0000E+00  4.3377E-04  3.5661E-05  4.1211E-04  4.1000E-04  9.7913E-05  2.9930E-04  1.1755E-04  2.9993E-04
 55  0.0000E+00  4.8272E-04  4.2380E-04  1.4184E-04  3.7897E-04  4.0062E-04  0.0000E+00  4.5155E-04  8.5313E-04
 56  0.0000E+00  1.1386E-03  1.3637E-03  1.3885E-04  5.7829E-04  3.6592E-04  4.3691E-04  0.0000E+00  2.1399E-04
 57  0.0000E+00  2.3988E-03  1.3056E-03  7.5907E-05  4.0745E-03  1.4864E-03  4.9419E-04  9.5005E-04  3.7150E-03
 58  0.0000E+00  3.3408E-03  0.0000E+00  3.7428E-04  4.1770E-03  3.5159E-04  7.6253E-04  1.9787E-02  2.1905E-03
 59  0.0000E+00  2.7327E-02  2.8381E-02  2.8855E-02  3.0198E-02  2.1875E-02  3.0175E-02  0.0000E+00  2.1249E-02
 60  0.0000E+00  1.8858E-01  1.6326E-01  1.9928E-01  1.9410E-01  1.7799E-01  1.8678E-01  1.9322E-01  1.7058E-01
 61  1.4524E-01  1.6054E+00  1.0185E+00  1.8463E+00  1.5261E+00  1.4346E+00  1.5145E+00  1.6027E+00  1.4735E+00
 62  5.6080E-01  4.2287E-02  6.2968E-02  2.6004E-02  0.0000E+00  4.1045E-02  4.5909E-02  3.5881E-02  7.7880E-02
 63  0.0000E+00  4.4089E+00  4.7199E+00  4.6858E+00  4.4955E+00  4.4357E+00  4.6348E+00  3.8497E+00  4.0302E+00
 64  0.0000E+00  1.3367E+00  1.1383E+00  1.3427E+00  1.3701E+00  1.4044E+00  1.4117E+00  4.6345E-01  1.4560E+00
 65  0.0000E+00  3.1510E+01  3.1890E+01  3.1104E+01  3.0945E+01  3.2656E+01  3.1104E+01  3.1088E+01  3.2234E+01
 66  0.0000E+00  3.7373E+01  3.8106E+01  3.6588E+01  3.6856E+01  3.6519E+01  3.8510E+01  3.8471E+01  3.8737E+01

# AV, chi2 & Mass for <> & i_chain = 1 ...  7 solutions
AV      -0.3297     -0.6822     -0.6218     -0.6100     -0.5723     -0.6608     -0.5975     -0.5840     -0.5896
chi2 5.8110E-05  1.0818E-04  1.0763E-04  1.0775E-04  1.0729E-04  1.0750E-04  1.0745E-04  1.0707E-04  1.0728E-04
Mass 6.0332E-14  1.3959E-13  1.6502E-13  1.6014E-13  1.6618E-13  1.5833E-13  1.6465E-13  1.6641E-13  1.6853E-13
 209.61                                  [v0_min (km/s) before EX0s...]
 149.99                                  [vd_min (km/s) before EX0s...]


## Synthetic spectrum (Best Model) ##l_obs f_obs f_syn wei
 3478    [Nl_obs]
 3741.00   -0.48967   0.98622    0.000
 3742.00   -0.23369   1.02578    0.000
 3743.00    0.04557   1.05192    0.000
 3744.00    0.03867   1.06135    0.000
 3745.00   -0.13496   1.05516    0.000
 3746.00   -0.05977   1.03642    0.000
 3747.00    0.14179   1.00844   -1.000
 3748.00    0.18184   0.97415   -1.000
 3749.00    0.15086   0.93553   -1.000
 3750.00    0.15267   0.89651   -1.000
 3751.00    0.16687   0.86567   -1.000
 3752.00    0.27912   0.85283   -1.000
 3753.00    0.42279   0.86367   -1.000
 3754.00    0.42145   0.89655   -1.000
 3755.00    0.38125   0.94308   -1.000
 3756.00    0.35306   0.99141   -1.000
 3757.00    0.32752   1.03070   -1.000
 3758.00    0.20717   1.05480   -1.000
 3759.00    0.07028   1.06396   -1.000
 3760.00    0.20797   1.06395   -1.000
 3761.00    0.38214   1.06223   -1.000
 3762.00    0.53045   1.06384   -1.000
 3763.00    0.67632   1.06922   -1.000
 3764.00    0.40433   1.07450   -1.000
 3765.00    0.10822   1.07492   -1.000
 3766.00   -0.01322   1.06785    0.000
 3767.00   -0.12647   1.05170    0.000
 3768.00    0.25305   1.02613   -1.000
 3769.00    0.60960   0.99346   -1.000
 3770.00    0.40864   0.95719   -1.000
 3771.00    0.22222   0.92234   -1.000
 3772.00    0.22633   0.89721   -1.000
 3773.00    0.26244   0.88994   -1.000
 3774.00    0.57959   0.90298   -1.000
 3775.00    0.82833   0.93275   -1.000
 3776.00    0.63348   0.97200   -1.000
 3777.00    0.42217   1.01288   -1.000
 3778.00    0.12753   1.05045   -1.000
 3779.00   -0.14133   1.08341    0.000
 3780.00   -0.30467   1.11233    0.000
 3781.00   -0.36788   1.13775    0.000
 3782.00   -0.09147   1.15892    0.000
 3783.00    0.15004   1.17472   -1.000
 3784.00    0.29170   1.18476   -1.000
 3785.00    0.33102   1.18867   -1.000
 3786.00    0.12024   1.18560   -1.000
 3787.00    0.09811   1.17518   -1.000
 3788.00    0.47357   1.15901   -1.000
 3789.00    0.66426   1.14003   -1.000
 3790.00    0.51652   1.12096   -1.000
 3791.00    0.38488   1.10375   -1.000
 3792.00    0.27900   1.08833   -1.000
 3793.00    0.24970   1.07174   -1.000
 3794.00    0.32795   1.04976   -1.000
 3795.00    0.32761   1.01924   -1.000
 3796.00    0.23013   0.97940   -1.000
 3797.00    0.02866   0.93237   -1.000
 3798.00   -0.28611   0.88352    0.000
 3799.00   -0.33246   0.84177    0.000
 3800.00   -0.12085   0.81839    0.000
 3801.00    0.06007   0.82150   -1.000
 3802.00    0.21499   0.85115   -1.000
 3803.00    0.17184   0.90002   -1.000
 3804.00   -0.01909   0.95681    0.000
 3805.00   -0.03696   1.00996    0.000
 3806.00    0.05864   1.05180   -1.000
 3807.00    0.26186   1.08070   -1.000
 3808.00    0.52684   1.09973   -1.000
 3809.00    0.41353   1.11433   -1.000
 3810.00    0.11115   1.12902   -1.000
 3811.00   -0.16183   1.14447    0.000
 3812.00   -0.42208   1.15790    0.000
 3813.00   -0.19080   1.16506    0.000
 3814.00    0.22277   1.16307   -1.000
 3815.00    0.23319   1.15307   -1.000
 3816.00    0.11689   1.13922   -1.000
 3817.00    0.12311   1.12531   -1.000
 3818.00    0.16148   1.11332   -1.000
 3819.00    0.28880   1.10193   -1.000
 3820.00    0.43518   1.08761   -1.000
 3821.00    0.12570   1.07069   -1.000
 3822.00   -0.26114   1.05739    0.000
 3823.00   -0.00407   1.05278    0.000
 3824.00    0.33563   1.05572   -1.000
 3825.00    0.20822   1.06071   -1.000
 3826.00    0.03889   1.06153   -1.000
 3827.00    0.09326   1.05501   -1.000
 3828.00    0.15965   1.04246   -1.000
 3829.00   -0.03354   1.02688    0.000
 3830.00   -0.22586   1.00976    0.000
 3831.00    0.09474   0.98980   -1.000
 3832.00    0.40406   0.96359   -1.000
 3833.00    0.46260   0.92810   -1.000
 3834.00    0.49916   0.88367   -1.000
 3835.00    0.26250   0.83484   -1.000
 3836.00    0.09207   0.78934   -1.000
 3837.00    0.48156   0.75727   -1.000
 3838.00    0.80366   0.74659   -1.000
 3839.00    0.70185   0.75825   -1.000
 3840.00    0.52473   0.78815   -1.000
 3841.00   -0.02404   0.83026    0.000
 3842.00   -0.44239   0.87787    0.000
 3843.00   -0.33868   0.92649    0.000
 3844.00   -0.18695   0.97324    0.000
 3845.00    0.12444   1.01489   -1.000
 3846.00    0.37121   1.04926   -1.000
 3847.00    0.43652   1.07562    0.000
 3848.00    0.43107   1.09460    0.000
 3849.00    0.25566   1.10777    0.000
 3850.00    0.09235   1.11598    0.000
 3851.00   -0.04587   1.12047    0.000
 3852.00   -0.18328   1.12385    0.000
 3853.00   -0.31922   1.12783    0.000
 3854.00   -0.41527   1.13185    0.000
 3855.00   -0.44842   1.13449    0.000
 3856.00   -0.25462   1.13436    0.000
 3857.00    0.25336   1.13035    0.000
 3858.00    0.43070   1.12358    0.000
 3859.00    0.20516   1.11647    0.000
 3860.00    0.05847   1.10996    0.000
 3861.00   -0.00353   1.10568    0.000
 3862.00    0.00303   1.10646    0.000
 3863.00    0.07456   1.11285    0.000
 3864.00    0.12814   1.12278    0.000
 3865.00    0.16673   1.13315    0.000
 3866.00    0.39803   1.14047    0.000
 3867.00    0.77107   1.14265    0.000
 3868.00    0.79754   1.14029    0.000
 3869.00    0.60015   1.13542    0.000
 3870.00    0.57425   1.12975    0.000
 3871.00    0.64526   1.12300    0.000
 3872.00    0.69205   1.11373    0.000
 3873.00    0.72692   1.10264    0.000
 3874.00    0.57346   1.09301    0.000
 3875.00    0.33990   1.08852    0.000
 3876.00    0.46007   1.08952    0.000
 3877.00    0.70907   1.09231    0.000
 3878.00    0.59306   1.09188    0.000
 3879.00    0.36454   1.08502    0.000
 3880.00    0.36575   1.07287    0.000
 3881.00    0.42595   1.05951   -1.000
 3882.00    0.46635   1.04649   -1.000
 3883.00    0.50261   1.03226   -1.000
 3884.00    0.41011   1.01546   -1.000
 3885.00    0.29638   0.99406   -1.000
 3886.00    0.23891   0.96468   -1.000
 3887.00    0.18841   0.92517   -1.000
 3888.00    0.35545   0.87764   -1.000
 3889.00    0.54111   0.82795   -1.000
 3890.00    0.52214   0.78490   -1.000
 3891.00    0.49296   0.76044   -1.000
 3892.00    0.36176   0.76328   -1.000
 3893.00    0.22989   0.79182   -1.000
 3894.00    0.16339   0.83699   -1.000
 3895.00    0.11048   0.88771   -1.000
 3896.00    0.33561   0.93448   -1.000
 3897.00    0.54381   0.97289   -1.000
 3898.00    0.55198   1.00351   -1.000
 3899.00    0.56278   1.02784   -1.000
 3900.00    0.59515   1.04659   -1.000
 3901.00    0.61721   1.06138   -1.000
 3902.00    0.57630   1.07424   -1.000
 3903.00    0.56105   1.08564   -1.000
 3904.00    0.66927   1.09456   -1.000
 3905.00    0.71690   1.10065   -1.000
 3906.00    0.52730   1.10416   -1.000
 3907.00    0.36061   1.10562   -1.000
 3908.00    0.26857   1.10830   -1.000
 3909.00    0.27822   1.11568   -1.000
 3910.00    0.56824   1.12735   -1.000
 3911.00    0.71419   1.14081   -1.000
 3912.00    0.51990   1.15329   -1.000
 3913.00    0.36910   1.16245   -1.000
 3914.00    0.30708   1.16688   -1.000
 3915.00    0.44712   1.16670   -1.000
 3916.00    0.94602   1.16355   -1.000
 3917.00    1.01667   1.15844   -1.000
 3918.00    0.42192   1.15123   -1.000
 3919.00    0.11308   1.14215   -1.000
 3920.00    0.19437   1.13124   -1.000
 3921.00    0.30964   1.11876   -1.000
 3922.00    0.46574   1.10661   -1.000
 3923.00    0.46164   1.09724   -1.000
 3924.00    0.28789   1.09147   -1.000
 3925.00    0.22356   1.08802   -1.000
 3926.00    0.26145   1.08434   -1.000
 3927.00    0.09680   1.07716   -1.000
 3928.00   -0.23466   1.06477    0.000
 3929.00   -0.40416   1.04791    0.000
 3930.00   -0.45626   1.02763    0.000
 3931.00   -0.25867   1.00441    0.000
 3932.00    0.09781   0.97858   -1.000
 3933.00    0.24320   0.95074   -1.000
 3934.00    0.27112   0.92299   -1.000
 3935.00    0.18063   0.90012   -1.000
 3936.00    0.03283   0.88859   -1.000
 3937.00    0.04994   0.89260   -1.000
 3938.00    0.13600   0.91162   -1.000
 3939.00    0.37437   0.94124   -1.000
 3940.00    0.66722   0.97523   -1.000
 3941.00    0.64156   1.00757   -1.000
 3942.00    0.51962   1.03378   -1.000
 3943.00    0.47627   1.05194   -1.000
 3944.00    0.45265   1.06292   -1.000
 3945.00    0.62045   1.06902   -1.000
 3946.00    0.82728   1.07374   -1.000
 3947.00    0.63066   1.08053   -1.000
 3948.00    0.36943   1.08937   -1.000
 3949.00    0.14221   1.09755   -1.000
 3950.00   -0.08095   1.10382    0.000
 3951.00    0.14132   1.10867   -1.000
 3952.00    0.39986   1.11223   -1.000
 3953.00    0.43618   1.11411   -1.000
 3954.00    0.46230   1.11427   -1.000
 3955.00    0.39952   1.11358   -1.000
 3956.00    0.33775   1.11184   -1.000
 3957.00    0.38772   1.10724   -1.000
 3958.00    0.43681   1.09945   -1.000
 3959.00    0.46957   1.08990   -1.000
 3960.00    0.50221   1.07891    0.000
 3961.00    0.53370   1.06450    0.000
 3962.00    0.57389   1.04388    0.000
 3963.00    0.68240   1.01572    0.000
 3964.00    0.73379   0.98142    0.000
 3965.00    0.44622   0.94248    0.000
 3966.00    0.22250   0.89881    0.000
 3967.00    0.29855   0.85007    0.000
 3968.00    0.36848   0.79625    0.000
 3969.00    0.41496   0.73883    0.000
 3970.00    0.41966   0.68358    0.000
 3971.00    0.29085   0.64022    0.000
 3972.00    0.25590   0.61917    0.000
 3973.00    0.47517   0.62670    0.000
 3974.00    0.65384   0.66102    0.000
 3975.00    0.73828   0.71409    0.000
 3976.00    0.71615   0.77630    0.000
 3977.00    0.47999   0.83893    0.000
 3978.00    0.35546   0.89580    0.000
 3979.00    0.42621   0.94486    0.000
 3980.00    0.47687   0.98642    0.000
 3981.00    0.49675   1.02067   -1.000
 3982.00    0.52487   1.04727   -1.000
 3983.00    0.56407   1.06598   -1.000
 3984.00    0.63638   1.07827   -1.000
 3985.00    0.74788   1.08727   -1.000
 3986.00    0.67058   1.09578   -1.000
 3987.00    0.39613   1.10503   -1.000
 3988.00    0.49138   1.11480   -1.000
 3989.00    0.92715   1.12470   -1.000
 3990.00    1.03505   1.13391   -1.000
 3991.00    0.87675   1.14095   -1.000
 3992.00    0.95150   1.14608   -1.000
 3993.00    1.19274   1.15072   -1.000
 3994.00    1.02027   1.15481   -1.000
 3995.00    0.58839   1.15692   -1.000
 3996.00    0.49459   1.15592   -1.000
 3997.00    0.58607   1.15215   -1.000
 3998.00    0.57384   1.14687   -1.000
 3999.00    0.51220   1.14226   -1.000
 4000.00    0.55534   1.14134   -1.000
 4001.00    0.64154   1.14588   -1.000
 4002.00    0.58122   1.15380   -1.000
 4003.00    0.46944   1.16131   -1.000
 4004.00    0.45553   1.16588   -1.000
 4005.00    0.47062   1.16524   -1.000
 4006.00    0.48710   1.15783   -1.000
 4007.00    0.50393   1.14595   -1.000
 4008.00    0.30698   1.13571    0.099
 4009.00    0.06753   1.13102    0.045
 4010.00    0.26744   1.13138    0.043
 4011.00    0.53562   1.13534    0.044
 4012.00    0.95105   1.14211    0.045
 4013.00    1.38341   1.15001    0.046
 4014.00    1.60354   1.15718    0.047
 4015.00    1.80727   1.16332    0.048
 4016.00    1.10717   1.16858    0.047
 4017.00    0.36901   1.17281    0.046
 4018.00    0.17155   1.17546    0.046
 4019.00   -0.00088   1.17639    0.000
 4020.00    0.70714   1.17683    0.046
 4021.00    1.40159   1.17718    0.046
 4022.00    1.85679   1.17558    0.047
 4023.00    2.21892   1.17016    0.048
 4024.00    1.57979   1.16031    0.048
 4025.00    1.01341   1.14589    0.047
 4026.00    0.99937   1.12804    0.047
 4027.00    0.83242   1.11106    0.047
 4028.00   -0.21645   1.10079    0.000
 4029.00   -0.92806   1.10031    0.000
 4030.00   -0.09397   1.10692    0.000
 4031.00    0.61326   1.11421    0.045
 4032.00    0.84466   1.11710    0.044
 4033.00    1.00000   1.11537    0.043
 4034.00    0.91688   1.11211    0.043
 4035.00    0.95076   1.11102    0.043
 4036.00    1.29589   1.11549    0.043
 4037.00    1.44282   1.12684    0.043
 4038.00    1.13712   1.14355    0.043
 4039.00    0.91392   1.16158    0.043
 4040.00    0.85384   1.17623    0.043
 4041.00    0.85728   1.18423    0.043
 4042.00    0.97016   1.18477    0.043
 4043.00    1.18608   1.17950    0.043
 4044.00    1.55745   1.17029    0.044
 4045.00    1.62699   1.15710    0.044
 4046.00    1.29640   1.14006    0.043
 4047.00    1.00358   1.12285    0.043
 4048.00    0.75485   1.11247    0.043
 4049.00    0.59569   1.11353    0.042
 4050.00    0.52875   1.12407    0.041
 4051.00    0.61752   1.13882    0.042
 4052.00    0.84769   1.15283    0.042
 4053.00    1.04631   1.16196    0.043
 4054.00    1.21969   1.16415    0.042
 4055.00    1.23873   1.16049    0.042
 4056.00    1.14910   1.15354    0.042
 4057.00    1.34877   1.14590    0.042
 4058.00    1.72714   1.13946    0.042
 4059.00    1.80071   1.13482    0.043
 4060.00    1.70982   1.13243    0.043
 4061.00    1.50678   1.13255    0.043
 4062.00    1.25119   1.13343    0.042
 4063.00    0.92049   1.13159    0.042
 4064.00    0.55944   1.12456    0.042
 4065.00    0.53112   1.11387    0.042
 4066.00    0.61752   1.10492    0.043
 4067.00    0.50905   1.10192    0.043
 4068.00    0.34399   1.10415    0.042
 4069.00    0.29724   1.10921    0.042
 4070.00    0.27891   1.11540    0.043
 4071.00    0.91136   1.12015    0.043
 4072.00    1.66991   1.12038    0.044
 4073.00    1.35292   1.11598    0.043
 4074.00    0.87386   1.11068    0.043
 4075.00    1.22224   1.10745    0.043
 4076.00    1.66214   1.10472    0.044
 4077.00    1.63290   1.09922    0.044
 4078.00    1.56930   1.09033    0.043
 4079.00    1.47503   1.08112    0.043
 4080.00    1.37958   1.07664    0.044
 4081.00    1.51215   1.08026    0.044
 4082.00    1.63025   1.09103    0.044
 4083.00    1.15585   1.10417    0.043
 4084.00    0.72101   1.11387    0.043
 4085.00    0.93818   1.11707    0.042
 4086.00    1.11863   1.11500    0.041
 4087.00    0.92113   1.11147    0.042
 4088.00    0.79214   1.11000    0.042
 4089.00    1.16584   1.11181    0.041
 4090.00    1.41406   1.11516    0.041
 4091.00    0.95842   1.11685    0.041
 4092.00    0.60752   1.11455    0.000
 4093.00    0.72531   1.10739    0.000
 4094.00    0.85079   1.09554    0.000
 4095.00    1.00448   1.07977    0.000
 4096.00    1.12840   1.05992    0.000
 4097.00    1.16079   1.03447    0.000
 4098.00    1.19583   1.00286    0.000
 4099.00    1.23777   0.96584    0.000
 4100.00    1.25975   0.92395    0.000
 4101.00    1.23689   0.87764    0.000
 4102.00    1.22501   0.82950    0.000
 4103.00    1.23448   0.78676    0.000
 4104.00    1.21345   0.76088    0.000
 4105.00    1.14066   0.76071    0.000
 4106.00    0.92395   0.78579    0.000
 4107.00    0.49330   0.82805    0.000
 4108.00    0.36459   0.87687    0.000
 4109.00    0.63041   0.92264    0.000
 4110.00    1.02189   0.95961    0.000
 4111.00    1.55803   0.98673    0.000
 4112.00    1.70890   1.00634    0.000
 4113.00    1.46869   1.02197    0.038
 4114.00    1.40934   1.03636    0.038
 4115.00    1.51192   1.05069    0.039
 4116.00    1.50165   1.06428    0.039
 4117.00    1.40235   1.07550    0.039
 4118.00    1.37865   1.08287    0.039
 4119.00    1.40740   1.08537    0.039
 4120.00    1.78484   1.08291    0.040
 4121.00    2.37446   1.07755    0.041
 4122.00    2.52292   1.07269    0.042
 4123.00    2.43702   1.07087    0.041
 4124.00    2.15614   1.07301    0.042
 4125.00    1.78536   1.07858    0.042
 4126.00    1.72855   1.08595    0.042
 4127.00    1.79641   1.09255    0.041
 4128.00    1.49772   1.09564    0.041
 4129.00    1.07496   1.09400    0.041
 4130.00    0.71791   1.08862    0.040
 4131.00    0.37956   1.08149    0.039
 4132.00    1.21142   1.07390    0.040
 4133.00    2.31803   1.06643    0.041
 4134.00    1.73814   1.06036    0.040
 4135.00    0.83993   1.05802    0.040
 4136.00    0.92850   1.06116    0.040
 4137.00    1.16117   1.06983    0.041
 4138.00    1.42423   1.08204    0.041
 4139.00    1.69051   1.09433    0.041
 4140.00    1.28336   1.10381    0.041
 4141.00    0.82963   1.10827    0.040
 4142.00    1.01943   1.10555    0.041
 4143.00    1.23142   1.09444    0.041
 4144.00    1.25824   1.07588    0.041
 4145.00    1.28980   1.05469    0.041
 4146.00    1.49026   1.03925    0.041
 4147.00    1.63339   1.03611    0.041
 4148.00    0.89009   1.04443    0.040
 4149.00    0.28758   1.05801    0.039
 4150.00    1.07306   1.07057    0.039
 4151.00    1.72693   1.07846    0.039
 4152.00    1.44652   1.08128    0.039
 4153.00    1.17785   1.08075    0.038
 4154.00    0.97335   1.07847    0.038
 4155.00    0.84479   1.07527    0.037
 4156.00    1.04821   1.07194    0.037
 4157.00    1.20170   1.06978    0.037
 4158.00    1.17557   1.06985    0.036
 4159.00    1.17074   1.07267    0.036
 4160.00    1.23016   1.07825    0.036
 4161.00    1.18063   1.08546    0.035
 4162.00    0.85127   1.09250    0.035
 4163.00    0.64041   1.09801    0.035
 4164.00    0.69131   1.10179    0.036
 4165.00    0.73120   1.10382    0.036
 4166.00    0.75003   1.10363    0.036
 4167.00    0.80198   1.10116    0.036
 4168.00    0.90928   1.09691    0.036
 4169.00    1.02984   1.09144    0.035
 4170.00    1.16983   1.08567    0.035
 4171.00    1.09922   1.08023    0.035
 4172.00    0.75736   1.07417    0.036
 4173.00    0.48983   1.06580    0.036
 4174.00    0.30663   1.05509    0.036
 4175.00    0.48248   1.04482    0.036
 4176.00    1.01767   1.03850    0.036
 4177.00    1.36598   1.03726    0.037
 4178.00    1.54931   1.03958    0.037
 4179.00    1.64779   1.04321    0.037
 4180.00    1.68028   1.04704    0.037
 4181.00    1.67898   1.05126    0.036
 4182.00    1.65456   1.05578    0.036
 4183.00    1.31486   1.05950    0.035
 4184.00    0.78617   1.06173    0.035
 4185.00    0.87562   1.06316    0.035
 4186.00    1.28837   1.06439    0.035
 4187.00    1.34149   1.06489    0.036
 4188.00    1.23148   1.06359    0.036
 4189.00    0.90604   1.06036    0.036
 4190.00    0.49653   1.05729    0.036
 4191.00    0.97344   1.05703    0.036
 4192.00    1.74477   1.05980    0.036
 4193.00    1.81798   1.06412    0.036
 4194.00    1.69662   1.06879    0.036
 4195.00    1.74354   1.07252    0.037
 4196.00    1.82905   1.07268    0.037
 4197.00    1.19858   1.06679    0.037
 4198.00    0.43653   1.05515    0.037
 4199.00    0.33796   1.04042    0.036
 4200.00    0.33321   1.02558    0.035
 4201.00    0.81999   1.01349    0.036
 4202.00    1.35689   1.00658    0.036
 4203.00    1.22714   1.00529    0.035
 4204.00    1.05395   1.00850    0.035
 4205.00    1.39293   1.01545    0.035
 4206.00    1.74671   1.02525    0.036
 4207.00    1.49524   1.03634    0.036
 4208.00    1.25929   1.04751    0.036
 4209.00    1.47931   1.05785    0.036
 4210.00    1.67410   1.06615    0.036
 4211.00    1.50142   1.07143    0.036
 4212.00    1.35364   1.07364    0.036
 4213.00    1.44129   1.07371    0.036
 4214.00    1.51649   1.07233    0.037
 4215.00    1.50616   1.06895    0.036
 4216.00    1.38631   1.06300    0.036
 4217.00    0.68438   1.05558    0.036
 4218.00    0.14419   1.04992    0.036
 4219.00    0.29480   1.04976    0.035
 4220.00    0.52524   1.05566    0.035
 4221.00    1.03698   1.06419    0.034
 4222.00    1.46796   1.07114    0.034
 4223.00    1.65975   1.07304    0.035
 4224.00    1.85951   1.06719    0.036
 4225.00    2.07939   1.05263    0.035
 4226.00    2.09549   1.03099    0.034
 4227.00    1.66878   1.00618    0.033
 4228.00    1.36377   0.98380    0.033
 4229.00    1.28823   0.97058    0.033
 4230.00    1.22127   0.97180    0.033
 4231.00    1.16843   0.98669    0.033
 4232.00    1.08231   1.00781    0.032
 4233.00    0.94818   1.02676    0.032
 4234.00    0.88406   1.03834    0.031
 4235.00    0.90885   1.04121    0.031
 4236.00    0.83755   1.03802    0.031
 4237.00    0.65875   1.03288    0.031
 4238.00    0.66124   1.02813    0.030
 4239.00    0.84262   1.02533    0.031
 4240.00    1.07847   1.02578    0.031
 4241.00    1.36171   1.02916    0.031
 4242.00    1.41468   1.03466    0.031
 4243.00    1.29109   1.04180    0.031
 4244.00    1.19488   1.04952    0.031
 4245.00    1.11712   1.05622    0.031
 4246.00    1.24477   1.06090    0.032
 4247.00    1.49369   1.06250    0.032
 4248.00    1.40321   1.05922    0.033
 4249.00    1.13797   1.05093    0.033
 4250.00    0.72528   1.04003    0.033
 4251.00    0.24682   1.02961    0.033
 4252.00    0.53023   1.02155    0.035
 4253.00    1.10577   1.01679    0.036
 4254.00    1.56243   1.01584    0.038
 4255.00    1.98035   1.01733    0.040
 4256.00    1.73659   1.01888    0.041
 4257.00    1.31220   1.02027    0.042
 4258.00    1.33557   1.02274    0.041
 4259.00    1.45927   1.02570    0.040
 4260.00    1.36769   1.02639    0.036
 4261.00    1.23761   1.02306    0.032
 4262.00    1.09558   1.01780    0.032
 4263.00    0.95192   1.01494    0.032
 4264.00    0.72638   1.01815    0.033
 4265.00    0.49284   1.02765    0.033
 4266.00    0.60439   1.03953    0.033
 4267.00    0.73705   1.04890    0.033
 4268.00    0.81145   1.05257    0.033
 4269.00    0.88406   1.04915    0.032
 4270.00    0.91247   1.03922    0.032
 4271.00    0.94658   1.02512    0.031
 4272.00    1.13139   1.00881    0.032
 4273.00    1.31000   0.99169    0.033
 4274.00    1.40324   0.97671    0.033
 4275.00    1.49196   0.96801    0.033
 4276.00    1.53952   0.96738    0.033
 4277.00    1.46380   0.97346    0.034
 4278.00    0.56689   0.98489    0.033
 4279.00   -0.08620   0.99957    0.000
 4280.00    0.52301   1.01328    0.032
 4281.00    1.02568   1.02216    0.032
 4282.00    1.08360   1.02469   -2.000
 4283.00    1.22307   1.02228   -2.000
 4284.00    1.64410   1.01819   -2.000
 4285.00    2.03752   1.01429   -2.000
 4286.00    2.35069   1.01080   -2.000
 4287.00    2.43560   1.00686   -2.000
 4288.00    1.95436   1.00113   -2.000
 4289.00    1.31340   0.99358   -2.000
 4290.00    0.33098   0.98478   -2.000
 4291.00   -0.10744   0.97523   -2.000
 4292.00    0.46419   0.96694   -2.000
 4293.00    0.90070   0.96351   -2.000
 4294.00    1.11809   0.96666   -2.000
 4295.00    0.91356   0.97380   -2.000
 4296.00    0.10882   0.97996   -2.000
 4297.00    0.07472   0.98139   -2.000
 4298.00    1.00515   0.97747    0.033
 4299.00    1.35319   0.96834    0.033
 4300.00    1.05880   0.95443    0.033
 4301.00    0.88508   0.93775    0.033
 4302.00    0.82874   0.92135    0.032
 4303.00    0.66619   0.90907    0.032
 4304.00    0.41250   0.90286    0.032
 4305.00    0.35827   0.90121    0.032
 4306.00    0.45477   0.90205    0.031
 4307.00    0.48488   0.90334    0.031
 4308.00    0.47091   0.90271    0.031
 4309.00    0.35290   0.89944    0.031
 4310.00    0.17440   0.89500    0.031
 4311.00    0.27788   0.89242    0.031
 4312.00    0.52429   0.89502    0.031
 4313.00    0.88142   0.90367    0.030
 4314.00    1.28714   0.91696    0.030
 4315.00    1.31049   0.93316    0.031
 4316.00    1.18980   0.95145    0.031
 4317.00    1.06235   0.97174    0.031
 4318.00    0.93273   0.99378    0.030
 4319.00    0.92829   1.01532    0.030
 4320.00    0.95730   1.03178    0.030
 4321.00    0.87743   1.03986    0.030
 4322.00    0.77373   1.03906    0.030
 4323.00    0.80299   1.03029    0.030
 4324.00    0.85538   1.01495    0.030
 4325.00    0.94701   0.99493    0.030
 4326.00    1.04384   0.97249    0.030
 4327.00    0.98591   0.95182    0.030
 4328.00    0.91353   0.93852    0.030
 4329.00    0.81355   0.93663    0.030
 4330.00    0.71198   0.94565    0.000
 4331.00    0.92751   0.95959    0.000
 4332.00    1.14767   0.97120    0.000
 4333.00    1.05176   0.97645    0.000
 4334.00    0.95814   0.97518    0.000
 4335.00    0.91939   0.96836    0.000
 4336.00    0.89025   0.95553    0.000
 4337.00    0.98615   0.93504    0.000
 4338.00    1.05968   0.90484    0.000
 4339.00    0.93786   0.86380    0.000
 4340.00    0.87905   0.81439    0.000
 4341.00    1.22724   0.76455    0.000
 4342.00    1.50801   0.72451    0.000
 4343.00    1.44869   0.70326    0.000
 4344.00    1.33625   0.70647    0.000
 4345.00    1.00694   0.73250    0.000
 4346.00    0.77427   0.77220    0.000
 4347.00    0.86852   0.81570    0.000
 4348.00    0.92845   0.85650    0.000
 4349.00    0.89045   0.89072    0.000
 4350.00    0.92763   0.91648    0.000
 4351.00    1.14811   0.93360    0.029
 4352.00    1.29567   0.94230    0.029
 4353.00    1.28987   0.94346    0.029
 4354.00    1.29626   0.94050    0.029
 4355.00    1.32495   0.93947    0.029
 4356.00    1.31049   0.94493    0.029
 4357.00    1.22711   0.95634    0.030
 4358.00    1.20754   0.96992    0.030
 4359.00    1.27744   0.98233    0.029
 4360.00    1.25127   0.99161    0.029
 4361.00    1.10657   0.99740    0.029
 4362.00    0.97568   1.00152    0.029
 4363.00    0.85980   1.00670    0.029
 4364.00    0.96142   1.01390    0.029
 4365.00    1.27168   1.02162    0.029
 4366.00    1.23044   1.02782    0.029
 4367.00    0.89187   1.03114    0.029
 4368.00    0.76555   1.03070    0.029
 4369.00    0.79732   1.02616    0.029
 4370.00    0.76907   1.01885    0.029
 4371.00    0.70154   1.01157    0.029
 4372.00    0.70409   1.00621    0.029
 4373.00    0.74677   1.00230    0.029
 4374.00    0.76169   0.99827    0.029
 4375.00    0.76276   0.99299    0.029
 4376.00    0.84806   0.98658    0.029
 4377.00    0.96971   0.98097    0.029
 4378.00    0.95437   0.97928    0.029
 4379.00    0.88834   0.98328    0.029
 4380.00    0.86326   0.99103    0.029
 4381.00    0.85102   0.99750    0.029
 4382.00    0.91973   0.99767    0.029
 4383.00    1.00960   0.98900    0.029
 4384.00    0.87726   0.97210    0.029
 4385.00    0.69746   0.95006    0.029
 4386.00    0.60809   0.92834    0.029
 4387.00    0.53402   0.91363    0.029
 4388.00    0.74505   0.91009    0.029
 4389.00    0.99251   0.91624    0.029
 4390.00    1.12136   0.92685    0.029
 4391.00    1.23963   0.93784    0.028
 4392.00    1.01280   0.94819    0.029
 4393.00    0.76760   0.95795    0.029
 4394.00    0.75370   0.96683    0.029
 4395.00    0.74939   0.97452    0.029
 4396.00    1.15660   0.98062    0.030
 4397.00    1.52877   0.98517    0.030
 4398.00    1.13057   0.98928    0.030
 4399.00    0.75329   0.99398    0.029
 4400.00    0.63447   0.99825    0.029
 4401.00    0.51650   0.99959    0.029
 4402.00    0.40572   0.99678    0.029
 4403.00    0.33315   0.99103    0.029
 4404.00    0.50013   0.98438    0.029
 4405.00    0.68407   0.97784    0.030
 4406.00    0.95139   0.97086    0.030
 4407.00    1.08335   0.96322    0.030
 4408.00    0.67490   0.95746    0.029
 4409.00    0.37258   0.95692    0.029
 4410.00    0.42218   0.96210    0.029
 4411.00    0.56051   0.97112    0.029
 4412.00    0.94746   0.98244    0.029
 4413.00    1.15566   0.99432    0.030
 4414.00    0.93548   1.00338    0.029
 4415.00    0.73887   1.00632    0.029
 4416.00    0.59106   1.00229    0.029
 4417.00    0.49447   0.99330    0.028
 4418.00    0.49009   0.98377    0.028
 4419.00    0.54737   0.97906    0.029
 4420.00    0.70167   0.98178    0.029
 4421.00    0.90671   0.98981    0.029
 4422.00    1.18188   0.99887    0.029
 4423.00    1.15659   1.00513    0.029
 4424.00    0.76585   1.00664    0.029
 4425.00    0.91962   1.00429    0.030
 4426.00    1.65725   1.00073    0.033
 4427.00    1.95712   0.99817    0.035
 4428.00    1.84295   0.99692    0.035
 4429.00    1.90145   0.99618    0.035
 4430.00    2.10396   0.99552    0.035
 4431.00    1.83567   0.99490    0.033
 4432.00    1.22173   0.99404    0.030
 4433.00    0.98534   0.99218    0.029
 4434.00    0.99237   0.98895    0.029
 4435.00    0.90225   0.98473    0.028
 4436.00    0.75735   0.97972    0.028
 4437.00    0.63148   0.97486    0.028
 4438.00    0.51496   0.97283    0.029
 4439.00    0.46191   0.97609    0.028
 4440.00    0.43579   0.98431    0.028
 4441.00    0.51820   0.99375    0.029
 4442.00    0.64005   0.99964    0.029
 4443.00    0.63537   0.99935    0.028
 4444.00    0.59178   0.99370    0.028
 4445.00    0.69959   0.98659    0.028
 4446.00    0.84617   0.98263    0.028
 4447.00    0.77716   0.98436    0.028
 4448.00    0.66323   0.99108    0.028
 4449.00    0.69292   0.99948    0.028
 4450.00    0.74621   1.00579    0.028
 4451.00    0.88283   1.00840    0.028
 4452.00    1.02972   1.00792    0.028
 4453.00    0.90717   1.00476    0.028
 4454.00    0.76169   0.99891    0.027
 4455.00    0.74625   0.99093    0.027
 4456.00    0.73722   0.98117    0.027
 4457.00    0.96330   0.97032    0.027
 4458.00    1.18495   0.96028    0.026
 4459.00    0.89362   0.95324    0.026
 4460.00    0.62158   0.94990    0.026
 4461.00    0.74014   0.94880    0.000
 4462.00    0.86962   0.94834    0.000
 4463.00    1.12761   0.94857    0.000
 4464.00    1.32129   0.95042    0.000
 4465.00    0.99357   0.95434    0.000
 4466.00    0.68644   0.96009    0.000
 4467.00    0.50470   0.96624    0.000
 4468.00    0.43847   0.96996    0.000
 4469.00    0.92641   0.96941    0.000
 4470.00    1.30784   0.96484    0.000
 4471.00    1.27328   0.95782    0.000
 4472.00    1.18079   0.95083    0.000
 4473.00    0.89995   0.94700    0.000
 4474.00    0.72431   0.94909    0.000
 4475.00    0.83814   0.95790    0.000
 4476.00    0.93363   0.97204    0.000
 4477.00    0.98589   0.98807    0.000
 4478.00    1.01563   1.00172    0.000
 4479.00    0.99950   1.01001    0.000
 4480.00    1.01558   1.01195    0.000
 4481.00    1.08876   1.00759    0.000
 4482.00    1.13592   0.99803    0.026
 4483.00    1.14271   0.98645    0.026
 4484.00    1.15178   0.97766    0.025
 4485.00    1.16394   0.97580    0.025
 4486.00    1.00019   0.98176    0.025
 4487.00    0.62551   0.99249    0.025
 4488.00    0.45185   1.00265    0.025
 4489.00    0.49070   1.00798    0.025
 4490.00    0.58111   1.00720    0.025
 4491.00    0.71961   1.00186    0.025
 4492.00    0.84877   0.99508    0.025
 4493.00    0.97024   0.98991    0.025
 4494.00    0.97039   0.98763    0.025
 4495.00    0.88274   0.98724    0.025
 4496.00    0.89954   0.98682    0.025
 4497.00    0.98269   0.98546    0.025
 4498.00    1.02363   0.98424    0.025
 4499.00    1.04112   0.98518    0.025
 4500.00    0.99090   0.98915    0.025
 4501.00    0.90798   0.99516    0.025
 4502.00    0.84462   1.00150    0.025
 4503.00    0.78943   1.00715    0.025
 4504.00    0.89568   1.01240    0.025
 4505.00    1.05956   1.01820    0.025
 4506.00    1.22070   1.02489    0.025
 4507.00    1.38101   1.03128    0.026
 4508.00    1.25840   1.03520    0.025
 4509.00    1.06491   1.03561    0.025
 4510.00    1.10561   1.03347    0.025
 4511.00    1.19390   1.03045    0.025
 4512.00    0.89281   1.02763    0.025
 4513.00    0.52960   1.02497    0.025
 4514.00    0.63437   1.02163    0.025
 4515.00    0.79476   1.01692    0.025
 4516.00    0.94737   1.01110    0.025
 4517.00    1.09936   1.00533    0.025
 4518.00    1.07388   1.00082    0.025
 4519.00    1.04033   0.99810    0.025
 4520.00    1.21968   0.99712    0.025
 4521.00    1.39501   0.99726    0.024
 4522.00    1.23160   0.99767    0.025
 4523.00    1.07665   0.99750    0.025
 4524.00    1.08032   0.99573    0.025
 4525.00    1.07976   0.99141    0.025
 4526.00    1.03182   0.98432    0.025
 4527.00    0.99572   0.97509    0.024
 4528.00    1.05237   0.96484    0.024
 4529.00    1.09505   0.95447    0.024
 4530.00    1.05517   0.94488    0.024
 4531.00    0.97521   0.93751    0.025
 4532.00    0.70766   0.93351    0.024
 4533.00    0.54420   0.93281    0.024
 4534.00    0.77857   0.93417    0.024
 4535.00    0.97089   0.93596    0.024
 4536.00    1.02910   0.93746    0.025
 4537.00    1.03389   0.93956    0.025
 4538.00    0.89429   0.94377    0.025
 4539.00    0.84899   0.95095    0.025
 4540.00    1.02217   0.95989    0.025
 4541.00    1.08383   0.96762    0.025
 4542.00    0.92196   0.97145    0.025
 4543.00    0.77210   0.97091    0.024
 4544.00    0.64323   0.96808    0.025
 4545.00    0.60565   0.96558    0.025
 4546.00    0.70755   0.96464    0.024
 4547.00    0.80932   0.96486    0.024
 4548.00    0.91091   0.96482    0.025
 4549.00    1.01523   0.96344    0.024
 4550.00    1.12276   0.96085    0.000
 4551.00    1.06601   0.95776    0.000
 4552.00    0.83803   0.95473    0.000
 4553.00    0.77521   0.95230    0.000
 4554.00    0.86426   0.95079    0.000
 4555.00    0.75807   0.95024    0.000
 4556.00    0.49365   0.95035    0.000
 4557.00    0.40408   0.95136    0.000
 4558.00    0.43920   0.95473    0.000
 4559.00    0.64990   0.96141    0.000
 4560.00    0.97048   0.97064    0.000
 4561.00    1.05091   0.98037    0.000
 4562.00    0.99999   0.98810    0.000
 4563.00    0.89644   0.99198    0.000
 4564.00    0.76789   0.99164    0.000
 4565.00    0.71458   0.98799    0.000
 4566.00    0.69213   0.98277    0.000
 4567.00    0.79845   0.97818    0.000
 4568.00    0.94988   0.97613    0.000
 4569.00    1.15825   0.97745    0.000
 4570.00    1.38344   0.98112    0.000
 4571.00    1.40656   0.98477    0.000
 4572.00    1.38017   0.98628    0.000
 4573.00    1.36674   0.98517    0.000
 4574.00    1.35589   0.98288    0.000
 4575.00    1.12684   0.98143    0.000
 4576.00    0.86401   0.98187    0.000
 4577.00    0.82889   0.98387    0.000
 4578.00    0.81982   0.98578    0.000
 4579.00    0.90396   0.98543    0.000
 4580.00    0.99526   0.98194    0.000
 4581.00    1.09507   0.97583    0.000
 4582.00    1.19523   0.96830    0.000
 4583.00    1.03174   0.96082    0.000
 4584.00    0.86985   0.95483    0.000
 4585.00    0.87484   0.95125    0.000
 4586.00    0.88314   0.95022    0.000
 4587.00    0.94923   0.95135    0.000
 4588.00    1.00534   0.95412    0.000
 4589.00    0.95455   0.95815    0.000
 4590.00    0.92167   0.96289    0.000
 4591.00    1.02419   0.96715    0.000
 4592.00    1.09344   0.96960    0.000
 4593.00    0.97153   0.96939    0.000
 4594.00    0.87074   0.96668    0.000
 4595.00    0.86646   0.96264    0.000
 4596.00    0.89517   0.95883    0.000
 4597.00    1.04727   0.95636    0.000
 4598.00    1.14002   0.95558    0.000
 4599.00    1.04715   0.95609    0.000
 4600.00    0.97556   0.95712    0.000
 4601.00    0.96049   0.95799    0.000
 4602.00    0.90163   0.95830    0.000
 4603.00    0.74302   0.95801    0.000
 4604.00    0.67148   0.95755    0.000
 4605.00    0.77174   0.95749    0.000
 4606.00    0.76757   0.95835    0.000
 4607.00    0.58384   0.96051    0.000
 4608.00    0.53745   0.96408    0.000
 4609.00    0.69784   0.96898    0.000
 4610.00    0.85522   0.97488    0.000
 4611.00    1.00863   0.98082    0.000
 4612.00    1.05746   0.98545    0.000
 4613.00    0.98443   0.98769    0.000
 4614.00    0.98181   0.98735    0.000
 4615.00    1.05156   0.98528    0.000
 4616.00    1.08787   0.98279    0.000
 4617.00    1.09387   0.98092    0.000
 4618.00    1.03516   0.97985    0.000
 4619.00    0.92474   0.97913    0.000
 4620.00    1.01013   0.97838    0.000
 4621.00    1.23313   0.97759    0.000
 4622.00    1.23091   0.97718    0.000
 4623.00    1.08984   0.97771    0.000
 4624.00    1.08266   0.97908    0.000
 4625.00    1.14759   0.98064    0.000
 4626.00    1.10479   0.98169    0.000
 4627.00    1.01160   0.98157    0.000
 4628.00    0.86326   0.98008    0.000
 4629.00    0.69269   0.97769    0.000
 4630.00    0.72114   0.97502    0.000
 4631.00    0.81805   0.97257    0.000
 4632.00    0.88692   0.97074    0.000
 4633.00    0.94767   0.96955    0.000
 4634.00    1.06980   0.96850    0.000
 4635.00    1.20663   0.96695    0.000
 4636.00    1.09131   0.96453    0.000
 4637.00    0.92729   0.96119    0.000
 4638.00    0.79263   0.95716    0.000
 4639.00    0.66238   0.95300    0.000
 4640.00    0.74459   0.94939    0.000
 4641.00    0.85018   0.94687    0.000
 4642.00    0.84249   0.94586    0.000
 4643.00    0.82657   0.94641    0.000
 4644.00    0.92967   0.94789    0.000
 4645.00    1.03727   0.94887    0.000
 4646.00    0.98857   0.94776    0.000
 4647.00    0.93635   0.94376    0.000
 4648.00    0.78356   0.93733    0.000
 4649.00    0.65262   0.93028    0.000
 4650.00    0.87879   0.92501    0.000
 4651.00    1.08475   0.92328    0.000
 4652.00    1.08390   0.92540    0.000
 4653.00    1.06735   0.93022    0.000
 4654.00    0.93608   0.93566    0.000
 4655.00    0.82066   0.93974    0.000
 4656.00    0.79395   0.94155    0.000
 4657.00    0.80346   0.94170    0.000
 4658.00    0.97460   0.94191    0.000
 4659.00    1.07115   0.94409    0.000
 4660.00    0.89448   0.94908    0.000
 4661.00    0.76534   0.95601    0.000
 4662.00    0.78202   0.96264    0.000
 4663.00    0.76213   0.96638    0.000
 4664.00    0.64687   0.96559    0.000
 4665.00    0.58887   0.96019    0.000
 4666.00    0.65917   0.95117    0.000
 4667.00    0.71939   0.93994    0.000
 4668.00    0.76002   0.92786    0.000
 4669.00    0.77699   0.91655    0.000
 4670.00    0.75389   0.90799    0.000
 4671.00    0.78671   0.90409    0.000
 4672.00    0.90248   0.90567    0.000
 4673.00    0.99983   0.91178    0.000
 4674.00    1.07315   0.92018    0.000
 4675.00    1.10300   0.92844    0.000
 4676.00    1.08288   0.93498    0.000
 4677.00    1.05047   0.93941    0.000
 4678.00    1.00561   0.94196    0.000
 4679.00    0.88899   0.94270    0.000
 4680.00    0.70824   0.94139    0.000
 4681.00    0.72180   0.93797    0.000
 4682.00    0.88838   0.93298    0.000
 4683.00    0.99683   0.92757    0.000
 4684.00    1.06501   0.92293    0.000
 4685.00    1.02654   0.91972    0.000
 4686.00    0.92328   0.91786    0.000
 4687.00    0.86253   0.91690    0.000
 4688.00    0.82432   0.91655    0.000
 4689.00    0.88476   0.91694    0.000
 4690.00    0.99058   0.91833    0.000
 4691.00    1.01562   0.92070    0.000
 4692.00    1.00865   0.92371    0.000
 4693.00    0.90099   0.92701    0.000
 4694.00    0.75933   0.93045    0.000
 4695.00    0.66503   0.93409    0.000
 4696.00    0.58417   0.93786    0.000
 4697.00    0.65673   0.94120    0.000
 4698.00    0.76521   0.94305    0.000
 4699.00    0.82172   0.94240    0.000
 4700.00    0.86844   0.93885    0.000
 4701.00    0.69872   0.93299    0.000
 4702.00    0.49752   0.92614    0.000
 4703.00    0.56101   0.91971    0.000
 4704.00    0.65250   0.91465    0.000
 4705.00    0.66544   0.91138    0.000
 4706.00    0.67299   0.90984    0.000
 4707.00    0.65508   0.90957    0.000
 4708.00    0.63630   0.90981    0.000
 4709.00    0.60970   0.90980    0.000
 4710.00    0.58614   0.90938    0.000
 4711.00    0.66177   0.90901    0.000
 4712.00    0.73911   0.90935    0.000
 4713.00    0.84271   0.91060    0.000
 4714.00    0.94113   0.91226    0.000
 4715.00    0.98884   0.91369    0.000
 4716.00    1.04892   0.91483    0.000
 4717.00    1.19651   0.91647    0.000
 4718.00    1.28145   0.91969    0.000
 4719.00    1.02549   0.92499    0.000
 4720.00    0.80445   0.93178    0.000
 4721.00    0.73561   0.93872    0.000
 4722.00    0.75383   0.94447    0.000
 4723.00    1.08439   0.94824    0.000
 4724.00    1.31026   0.94999    0.000
 4725.00    1.22099   0.95011    0.000
 4726.00    1.10930   0.94896    0.000
 4727.00    0.94015   0.94636    0.000
 4728.00    0.82876   0.94179    0.000
 4729.00    0.84470   0.93494    0.000
 4730.00    0.85213   0.92643    0.000
 4731.00    0.84330   0.91787    0.000
 4732.00    0.85623   0.91119    0.000
 4733.00    0.90547   0.90774    0.000
 4734.00    0.95454   0.90770    0.000
 4735.00    1.00338   0.91020    0.000
 4736.00    1.06878   0.91384    0.000
 4737.00    1.15548   0.91734    0.000
 4738.00    1.12141   0.91993    0.000
 4739.00    0.95053   0.92157    0.000
 4740.00    0.86550   0.92267    0.000
 4741.00    0.86626   0.92368    0.000
 4742.00    0.95869   0.92476    0.000
 4743.00    1.13189   0.92586    0.000
 4744.00    1.13987   0.92698    0.000
 4745.00    1.01956   0.92826    0.000
 4746.00    0.86223   0.92982    0.000
 4747.00    0.67963   0.93168    0.000
 4748.00    0.61816   0.93365    0.000
 4749.00    0.62915   0.93552    0.000
 4750.00    0.67341   0.93702    0.000
 4751.00    0.73503   0.93786    0.000
 4752.00    0.76123   0.93772    0.000
 4753.00    0.77141   0.93636    0.000
 4754.00    0.88865   0.93372    0.000
 4755.00    1.04757   0.93002    0.000
 4756.00    1.03778   0.92579    0.000
 4757.00    0.97208   0.92177    0.000
 4758.00    0.87809   0.91861    0.000
 4759.00    0.77623   0.91666    0.000
 4760.00    0.75058   0.91574    0.000
 4761.00    0.74236   0.91516    0.021
 4762.00    0.75519   0.91390    0.021
 4763.00    0.77188   0.91102    0.021
 4764.00    0.82069   0.90616    0.021
 4765.00    0.87403   0.89980    0.021
 4766.00    0.74122   0.89319    0.021
 4767.00    0.58952   0.88784    0.021
 4768.00    0.56787   0.88497    0.021
 4769.00    0.55462   0.88512    0.020
 4770.00    0.58105   0.88798    0.021
 4771.00    0.60873   0.89257    0.021
 4772.00    0.66177   0.89754    0.021
 4773.00    0.71076   0.90183    0.021
 4774.00    0.64233   0.90509    0.021
 4775.00    0.58205   0.90772    0.021
 4776.00    0.63942   0.91037    0.021
 4777.00    0.70339   0.91331    0.020
 4778.00    0.82945   0.91616    0.020
 4779.00    0.93899   0.91823    0.020
 4780.00    0.93543   0.91888    0.020
 4781.00    0.94122   0.91792    0.020
 4782.00    0.99655   0.91553    0.020
 4783.00    1.03879   0.91214    0.020
 4784.00    1.02526   0.90823    0.020
 4785.00    0.98046   0.90422    0.019
 4786.00    0.82574   0.90045    0.020
 4787.00    0.72615   0.89712    0.020
 4788.00    0.78942   0.89435    0.020
 4789.00    0.82416   0.89222    0.020
 4790.00    0.78708   0.89091    0.020
 4791.00    0.77213   0.89071    0.020
 4792.00    0.80516   0.89194    0.020
 4793.00    0.86812   0.89485    0.020
 4794.00    0.98742   0.89945    0.020
 4795.00    1.08341   0.90532    0.020
 4796.00    1.14109   0.91153    0.020
 4797.00    1.16271   0.91679    0.021
 4798.00    1.13235   0.91979    0.020
 4799.00    1.09250   0.91981    0.020
 4800.00    1.04061   0.91715    0.020
 4801.00    1.03704   0.91307    0.020
 4802.00    1.08743   0.90928    0.021
 4803.00    1.01490   0.90707    0.021
 4804.00    0.82129   0.90664    0.021
 4805.00    0.80207   0.90711    0.020
 4806.00    0.93435   0.90715    0.020
 4807.00    0.92057   0.90581    0.020
 4808.00    0.79501   0.90309    0.020
 4809.00    0.65920   0.89977    0.020
 4810.00    0.51650   0.89690    0.020
 4811.00    0.55899   0.89521    0.020
 4812.00    0.71061   0.89489    0.020
 4813.00    0.85667   0.89568    0.020
 4814.00    0.99988   0.89716    0.020
 4815.00    1.04224   0.89898    0.020
 4816.00    1.03969   0.90102    0.021
 4817.00    1.01050   0.90330    0.021
 4818.00    0.97112   0.90581    0.021
 4819.00    0.85203   0.90838    0.021
 4820.00    0.70702   0.91059    0.021
 4821.00    0.75269   0.91183    0.021
 4822.00    0.85027   0.91142    0.021
 4823.00    0.88343   0.90891    0.021
 4824.00    0.90220   0.90438    0.021
 4825.00    0.73929   0.89860    0.021
 4826.00    0.54399   0.89291    0.021
 4827.00    0.71464   0.88869    0.021
 4828.00    0.93515   0.88662    0.021
 4829.00    0.85118   0.88632    0.021
 4830.00    0.73763   0.88669    0.021
 4831.00    0.68766   0.88665    0.021
 4832.00    0.64155   0.88571    0.021
 4833.00    0.67873   0.88410    0.021
 4834.00    0.71758   0.88251    0.021
 4835.00    0.65930   0.88158    0.021
 4836.00    0.60218   0.88160    0.021
 4837.00    0.57526   0.88229    0.021
 4838.00    0.55353   0.88292    0.021
 4839.00    0.60281   0.88267    0.021
 4840.00    0.64538   0.88100    0.020
 4841.00    0.62723   0.87796    0.020
 4842.00    0.63171   0.87411    0.020
 4843.00    0.78632   0.87032    0.020
 4844.00    0.88719   0.86734    0.021
 4845.00    0.71072   0.86560    0.021
 4846.00    0.58880   0.86499    0.021
 4847.00    0.69398   0.86497    0.021
 4848.00    0.76210   0.86470    0.000
 4849.00    0.70257   0.86338    0.000
 4850.00    0.67771   0.86060    0.000
 4851.00    0.75339   0.85653    0.000
 4852.00    0.79585   0.85163    0.000
 4853.00    0.75612   0.84608    0.000
 4854.00    0.73569   0.83945    0.000
 4855.00    0.75644   0.83082    0.000
 4856.00    0.78164   0.81933    0.000
 4857.00    0.81507   0.80461    0.000
 4858.00    0.76807   0.78671    0.000
 4859.00    0.59088   0.76566    0.000
 4860.00    0.52803   0.74127    0.000
 4861.00    0.62756   0.71376    0.000
 4862.00    0.64505   0.68500    0.000
 4863.00    0.56007   0.65922    0.000
 4864.00    0.53837   0.64211    0.000
 4865.00    0.58638   0.63833    0.000
 4866.00    0.63551   0.64908    0.000
 4867.00    0.68572   0.67143    0.000
 4868.00    0.73671   0.69976    0.000
 4869.00    0.78837   0.72812    0.000
 4870.00    0.77393   0.75217    0.000
 4871.00    0.70965   0.76979    0.000
 4872.00    0.67672   0.78099    0.000
 4873.00    0.66457   0.78735    0.000
 4874.00    0.68111   0.79133    0.000
 4875.00    0.71430   0.79543    0.021
 4876.00    0.66602   0.80125    0.020
 4877.00    0.57654   0.80907    0.020
 4878.00    0.55268   0.81816    0.020
 4879.00    0.55755   0.82748    0.021
 4880.00    0.62496   0.83612    0.020
 4881.00    0.71588   0.84344    0.020
 4882.00    0.67687   0.84893    0.020
 4883.00    0.59642   0.85215    0.020
 4884.00    0.63203   0.85300    0.021
 4885.00    0.69857   0.85179    0.021
 4886.00    0.60314   0.84913    0.021
 4887.00    0.47236   0.84572    0.021
 4888.00    0.64672   0.84216    0.021
 4889.00    0.87397   0.83878    0.021
 4890.00    0.80241   0.83574    0.021
 4891.00    0.69149   0.83312    0.021
 4892.00    0.66627   0.83136    0.020
 4893.00    0.64901   0.83145    0.020
 4894.00    0.84496   0.83477    0.021
 4895.00    1.05300   0.84223    0.021
 4896.00    0.73554   0.85347    0.020
 4897.00    0.41036   0.86660    0.020
 4898.00    0.55086   0.87887    0.020
 4899.00    0.69333   0.88783    0.020
 4900.00    0.88266   0.89219    0.021
 4901.00    1.04751   0.89208    0.021
 4902.00    0.89567   0.88876    0.020
 4903.00    0.76097   0.88396    0.020
 4904.00    0.77525   0.87937    0.020
 4905.00    0.78094   0.87615    0.020
 4906.00    0.73130   0.87482    0.020
 4907.00    0.68581   0.87520    0.020
 4908.00    0.66120   0.87640    0.020
 4909.00    0.64225   0.87710    0.020
 4910.00    0.64634   0.87608    0.020
 4911.00    0.65575   0.87293    0.019
 4912.00    0.68310   0.86844    0.020
 4913.00    0.68262   0.86425    0.020
 4914.00    0.60292   0.86201    0.019
 4915.00    0.58237   0.86242    0.019
 4916.00    0.70575   0.86478    0.019
 4917.00    0.76836   0.86715    0.019
 4918.00    0.70342   0.86705    0.020
 4919.00    0.66436   0.86242    0.020
 4920.00    0.67253   0.85254    0.019
 4921.00    0.66578   0.83859    0.019
 4922.00    0.63525   0.82348    0.019
 4923.00    0.57537   0.81086    0.019
 4924.00    0.47443   0.80369    0.019
 4925.00    0.50342   0.80328    0.019
 4926.00    0.69245   0.80909    0.019
 4927.00    0.76043   0.81942    0.019
 4928.00    0.69699   0.83228    0.019
 4929.00    0.68146   0.84584    0.019
 4930.00    0.71181   0.85856    0.019
 4931.00    0.74245   0.86902    0.019
 4932.00    0.77335   0.87604    0.019
 4933.00    0.75482   0.87886    0.019
 4934.00    0.69954   0.87741    0.019
 4935.00    0.73875   0.87249    0.019
 4936.00    0.83967   0.86561    0.019
 4937.00    0.82560   0.85837    0.019
 4938.00    0.74579   0.85190    0.019
 4939.00    0.73271   0.84664    0.019
 4940.00    0.75285   0.84278    0.000
 4941.00    0.81480   0.84079    0.000
 4942.00    0.89476   0.84147    0.000
 4943.00    0.88418   0.84534    0.000
 4944.00    0.84018   0.85194    0.000
 4945.00    0.88182   0.85986    0.000
 4946.00    0.95026   0.86737    0.000
 4947.00    0.98254   0.87323    0.000
 4948.00    1.00539   0.87722    0.000
 4949.00    0.90416   0.87986    0.000
 4950.00    0.77651   0.88193    0.000
 4951.00    0.79209   0.88384    0.000
 4952.00    0.83180   0.88544    0.000
 4953.00    0.82865   0.88610    0.000
 4954.00    0.82005   0.88501    0.000
 4955.00    0.85188   0.88145    0.000
 4956.00    0.88729   0.87498    0.000
 4957.00    0.84013   0.86562    0.000
 4958.00    0.78862   0.85422    0.000
 4959.00    0.70229   0.84261    0.000
 4960.00    0.61800   0.83336    0.000
 4961.00    0.74472   0.82881    0.000
 4962.00    0.85705   0.82985    0.000
 4963.00    0.65648   0.83525    0.000
 4964.00    0.49298   0.84230    0.000
 4965.00    0.78446   0.84809    0.000
 4966.00    1.04402   0.85079    0.000
 4967.00    1.03627   0.85010    0.000
 4968.00    1.01335   0.84700    0.000
 4969.00    0.89559   0.84308    0.000
 4970.00    0.79543   0.83986    0.000
 4971.00    0.78155   0.83839    0.000
 4972.00    0.77446   0.83904    0.000
 4973.00    0.79436   0.84164    0.000
 4974.00    0.79619   0.84559    0.000
 4975.00    0.73829   0.85004    0.000
 4976.00    0.70582   0.85403    0.000
 4977.00    0.74443   0.85661    0.000
 4978.00    0.76509   0.85701    0.000
 4979.00    0.74280   0.85479    0.000
 4980.00    0.71184   0.84991    0.000
 4981.00    0.66299   0.84263    0.000
 4982.00    0.66835   0.83349    0.000
 4983.00    0.77112   0.82325    0.000
 4984.00    0.78191   0.81304    0.000
 4985.00    0.64817   0.80437    0.000
 4986.00    0.58588   0.79887    0.000
 4987.00    0.62214   0.79771    0.000
 4988.00    0.65857   0.80097    0.000
 4989.00    0.69523   0.80744    0.000
 4990.00    0.71750   0.81509    0.000
 4991.00    0.72437   0.82189    0.000
 4992.00    0.69184   0.82659    0.000
 4993.00    0.62211   0.82907    0.000
 4994.00    0.66085   0.83006    0.000
 4995.00    0.78987   0.83053    0.000
 4996.00    0.90691   0.83116    0.000
 4997.00    1.01518   0.83203    0.000
 4998.00    0.96794   0.83268    0.000
 4999.00    0.82063   0.83232    0.000
 5000.00    0.80135   0.83026    0.000
 5001.00    0.85414   0.82624    0.000
 5002.00    0.87431   0.82065    0.000
 5003.00    0.87851   0.81441    0.000
 5004.00    0.80618   0.80851    0.000
 5005.00    0.70145   0.80355    0.000
 5006.00    0.69769   0.79961    0.000
 5007.00    0.73055   0.79658    0.000
 5008.00    0.71475   0.79456    0.000
 5009.00    0.68402   0.79398    0.000
 5010.00    0.66411   0.79506    0.000
 5011.00    0.64696   0.79730    0.000
 5012.00    0.62851   0.79926    0.000
 5013.00    0.60978   0.79924    0.000
 5014.00    0.67793   0.79621    0.000
 5015.00    0.76031   0.79045    0.000
 5016.00    0.56478   0.78347    0.000
 5017.00    0.33515   0.77723    0.000
 5018.00    0.41500   0.77332    0.000
 5019.00    0.52101   0.77235    0.000
 5020.00    0.62780   0.77404    0.000
 5021.00    0.73463   0.77757    0.000
 5022.00    0.74912   0.78202    0.000
 5023.00    0.75986   0.78668    0.000
 5024.00    0.62935   0.79112    0.000
 5025.00    0.50972   0.79517    0.000
 5026.00    0.60845   0.79879    0.000
 5027.00    0.70065   0.80192    0.000
 5028.00    0.71665   0.80448    0.000
 5029.00    0.71784   0.80650    0.018
 5030.00    0.59947   0.80836    0.018
 5031.00    0.51569   0.81063    0.018
 5032.00    0.64169   0.81378    0.018
 5033.00    0.73803   0.81775    0.018
 5034.00    0.69252   0.82178    0.018
 5035.00    0.64194   0.82465    0.018
 5036.00    0.57162   0.82513    0.018
 5037.00    0.52325   0.82248    0.018
 5038.00    0.54606   0.81673    0.018
 5039.00    0.57960   0.80856    0.018
 5040.00    0.64259   0.79896    0.018
 5041.00    0.70014   0.78896    0.018
 5042.00    0.74490   0.77981    0.018
 5043.00    0.76129   0.77318    0.018
 5044.00    0.72001   0.77085    0.018
 5045.00    0.70138   0.77399    0.018
 5046.00    0.72282   0.78220    0.018
 5047.00    0.79847   0.79323    0.018
 5048.00    0.95804   0.80383    0.019
 5049.00    1.07349   0.81102    0.020
 5050.00    1.12896   0.81335    0.021
 5051.00    1.16522   0.81128    0.021
 5052.00    1.17850   0.80680    0.021
 5053.00    1.18815   0.80245    0.021
 5054.00    1.19398   0.80024    0.021
 5055.00    1.12349   0.80107    0.021
 5056.00    0.98195   0.80468    0.019
 5057.00    0.85765   0.81001    0.019
 5058.00    0.74749   0.81583    0.018
 5059.00    0.68633   0.82119    0.018
 5060.00    0.66055   0.82565    0.018
 5061.00    0.65463   0.82906    0.018
 5062.00    0.66130   0.83131    0.018
 5063.00    0.60567   0.83210    0.018
 5064.00    0.51550   0.83096    0.018
 5065.00    0.51326   0.82749    0.018
 5066.00    0.55343   0.82182    0.018
 5067.00    0.56753   0.81480    0.018
 5068.00    0.57076   0.80782    0.018
 5069.00    0.62179   0.80227    0.019
 5070.00    0.68985   0.79891    0.019
 5071.00    0.60745   0.79768    0.019
 5072.00    0.47982   0.79790    0.019
 5073.00    0.50193   0.79870    0.019
 5074.00    0.56145   0.79939    0.019
 5075.00    0.56013   0.79971    0.019
 5076.00    0.54649   0.79959    0.019
 5077.00    0.51992   0.79897    0.019
 5078.00    0.49131   0.79756    0.019
 5079.00    0.62678   0.79485    0.019
 5080.00    0.78165   0.79047    0.019
 5081.00    0.54994   0.78456    0.018
 5082.00    0.28715   0.77809    0.018
 5083.00    0.43088   0.77256    0.018
 5084.00    0.59290   0.76944    0.018
 5085.00    0.53368   0.76955    0.018
 5086.00    0.47669   0.77273    0.018
 5087.00    0.66122   0.77807    0.018
 5088.00    0.82987   0.78433    0.018
 5089.00    0.70312   0.79044    0.018
 5090.00    0.59988   0.79575    0.018
 5091.00    0.75853   0.80010    0.018
 5092.00    0.87608   0.80366    0.018
 5093.00    0.67337   0.80670    0.018
 5094.00    0.50436   0.80926    0.018
 5095.00    0.53386   0.81106    0.018
 5096.00    0.59063   0.81148    0.018
 5097.00    0.77460   0.80982    0.018
 5098.00    0.89876   0.80573    0.018
 5099.00    0.79492   0.79952    0.018
 5100.00    0.69782   0.79230    0.018
 5101.00    0.62212   0.78569    0.018
 5102.00    0.57796   0.78118    0.018
 5103.00    0.61879   0.77958    0.018
 5104.00    0.62708   0.78057    0.018
 5105.00    0.56013   0.78289    0.018
 5106.00    0.53201   0.78495    0.018
 5107.00    0.58155   0.78557    0.018
 5108.00    0.65949   0.78435    0.018
 5109.00    0.78688   0.78170    0.018
 5110.00    0.80830   0.77857    0.018
 5111.00    0.66806   0.77602    0.018
 5112.00    0.57105   0.77495    0.018
 5113.00    0.53196   0.77579    0.018
 5114.00    0.58195   0.77857    0.018
 5115.00    0.73706   0.78285    0.018
 5116.00    0.82010   0.78800    0.018
 5117.00    0.82813   0.79334    0.018
 5118.00    0.76843   0.79824    0.018
 5119.00    0.64658   0.80216    0.018
 5120.00    0.60697   0.80454    0.018
 5121.00    0.63390   0.80481    0.018
 5122.00    0.66372   0.80255    0.018
 5123.00    0.69559   0.79768    0.017
 5124.00    0.67716   0.79060    0.017
 5125.00    0.62730   0.78224    0.017
 5126.00    0.56609   0.77384    0.017
 5127.00    0.49869   0.76657    0.017
 5128.00    0.53528   0.76126    0.017
 5129.00    0.62121   0.75815    0.017
 5130.00    0.72430   0.75704    0.017
 5131.00    0.83440   0.75752    0.018
 5132.00    0.83334   0.75929    0.018
 5133.00    0.79342   0.76212    0.018
 5134.00    0.68176   0.76581    0.018
 5135.00    0.54897   0.76994    0.018
 5136.00    0.57902   0.77387    0.017
 5137.00    0.64886   0.77682    0.017
 5138.00    0.66294   0.77806    0.017
 5139.00    0.66601   0.77721    0.018
 5140.00    0.59515   0.77443    0.018
 5141.00    0.51289   0.77041    0.017
 5142.00    0.57459   0.76611    0.017
 5143.00    0.65268   0.76238    0.017
 5144.00    0.64279   0.75969    0.017
 5145.00    0.62618   0.75803    0.018
 5146.00    0.50333   0.75718    0.017
 5147.00    0.37611   0.75683    0.017
 5148.00    0.44686   0.75675    0.017
 5149.00    0.51882   0.75676    0.018
 5150.00    0.57329   0.75673    0.018
 5151.00    0.62409   0.75657    0.018
 5152.00    0.61113   0.75613    0.018
 5153.00    0.59000   0.75536    0.018
 5154.00    0.48188   0.75442    0.018
 5155.00    0.39708   0.75386    0.018
 5156.00    0.48788   0.75446    0.018
 5157.00    0.55197   0.75695    0.019
 5158.00    0.46317   0.76159    0.018
 5159.00    0.40649   0.76792    0.018
 5160.00    0.49615   0.77487    0.018
 5161.00    0.58364   0.78106    0.018
 5162.00    0.66304   0.78520    0.018
 5163.00    0.69535   0.78636    0.018
 5164.00    0.58077   0.78389    0.018
 5165.00    0.52045   0.77738    0.018
 5166.00    0.60385   0.76657    0.018
 5167.00    0.64026   0.75160    0.018
 5168.00    0.56982   0.73335    0.018
 5169.00    0.51162   0.71371    0.018
 5170.00    0.47754   0.69523    0.018
 5171.00    0.45394   0.68027    0.018
 5172.00    0.44831   0.67014    0.018
 5173.00    0.44633   0.66486    0.018
 5174.00    0.44981   0.66380    0.018
 5175.00    0.44460   0.66661    0.018
 5176.00    0.42790   0.67346    0.018
 5177.00    0.44093   0.68446    0.018
 5178.00    0.48853   0.69872    0.017
 5179.00    0.47302   0.71392    0.017
 5180.00    0.39275   0.72703    0.017
 5181.00    0.34770   0.73517    0.017
 5182.00    0.33453   0.73666    0.017
 5183.00    0.37615   0.73135    0.017
 5184.00    0.46147   0.72081    0.017
 5185.00    0.44329   0.70813    0.017
 5186.00    0.35249   0.69729    0.017
 5187.00    0.36550   0.69192    0.017
 5188.00    0.44240   0.69395    0.017
 5189.00    0.49382   0.70269    0.017
 5190.00    0.53156   0.71521    0.000
 5191.00    0.56609   0.72764    0.000
 5192.00    0.59914   0.73688    0.000
 5193.00    0.58413   0.74149    0.000
 5194.00    0.54981   0.74196    0.000
 5195.00    0.47451   0.74005    0.000
 5196.00    0.38514   0.73792    0.000
 5197.00    0.41595   0.73731    0.000
 5198.00    0.48147   0.73902    0.000
 5199.00    0.51068   0.74293    0.000
 5200.00    0.53120   0.74822    0.000
 5201.00    0.58560   0.75374    0.000
 5202.00    0.64651   0.75827    0.000
 5203.00    0.62896   0.76067    0.000
 5204.00    0.59967   0.76010    0.000
 5205.00    0.54278   0.75614    0.000
 5206.00    0.48287   0.74902    0.000
 5207.00    0.44345   0.73966    0.000
 5208.00    0.40551   0.72960    0.000
 5209.00    0.49993   0.72067    0.000
 5210.00    0.59930   0.71461    0.000
 5211.00    0.59588   0.71265    0.017
 5212.00    0.59192   0.71529    0.017
 5213.00    0.58567   0.72209    0.017
 5214.00    0.58330   0.73172    0.017
 5215.00    0.64404   0.74227    0.017
 5216.00    0.69831   0.75173    0.017
 5217.00    0.68682   0.75874    0.017
 5218.00    0.67355   0.76308    0.017
 5219.00    0.64725   0.76559    0.017
 5220.00    0.62880   0.76763    0.018
 5221.00    0.65405   0.77019    0.018
 5222.00    0.67854   0.77330    0.018
 5223.00    0.69966   0.77599    0.018
 5224.00    0.70284   0.77672    0.018
 5225.00    0.64047   0.77413    0.018
 5226.00    0.61848   0.76773    0.018
 5227.00    0.72008   0.75828    0.018
 5228.00    0.76552   0.74779    0.018
 5229.00    0.66484   0.73891    0.018
 5230.00    0.60598   0.73400    0.018
 5231.00    0.64067   0.73410    0.018
 5232.00    0.64417   0.73853    0.018
 5233.00    0.58720   0.74515    0.018
 5234.00    0.56315   0.75154    0.018
 5235.00    0.59476   0.75614    0.018
 5236.00    0.62246   0.75886    0.018
 5237.00    0.64436   0.76079    0.018
 5238.00    0.62940   0.76331    0.018
 5239.00    0.56644   0.76720    0.018
 5240.00    0.61222   0.77226    0.017
 5241.00    0.78274   0.77761    0.017
 5242.00    0.83477   0.78225    0.017
 5243.00    0.76697   0.78558    0.017
 5244.00    0.72374   0.78747    0.017
 5245.00    0.70243   0.78800    0.017
 5246.00    0.68335   0.78726    0.017
 5247.00    0.66604   0.78513    0.017
 5248.00    0.62694   0.78148    0.017
 5249.00    0.57278   0.77639    0.017
 5250.00    0.61173   0.77038    0.017
 5251.00    0.70714   0.76435    0.017
 5252.00    0.72138   0.75926    0.017
 5253.00    0.69266   0.75585    0.017
 5254.00    0.61810   0.75439    0.017
 5255.00    0.52247   0.75480    0.017
 5256.00    0.56597   0.75677    0.017
 5257.00    0.66446   0.76002    0.017
 5258.00    0.70763   0.76426    0.017
 5259.00    0.73216   0.76904    0.017
 5260.00    0.68084   0.77348    0.017
 5261.00    0.60807   0.77625    0.017
 5262.00    0.61314   0.77581    0.017
 5263.00    0.63640   0.77103    0.017
 5264.00    0.56557   0.76174    0.017
 5265.00    0.47710   0.74894    0.017
 5266.00    0.43702   0.73450    0.017
 5267.00    0.40394   0.72060    0.017
 5268.00    0.41046   0.70892    0.017
 5269.00    0.42113   0.70032    0.017
 5270.00    0.47812   0.69482    0.018
 5271.00    0.53826   0.69206    0.018
 5272.00    0.53154   0.69184    0.018
 5273.00    0.52258   0.69429    0.018
 5274.00    0.49726   0.69963    0.018
 5275.00    0.47411   0.70764    0.018
 5276.00    0.52080   0.71749    0.018
 5277.00    0.57018   0.72805    0.018
 5278.00    0.66061   0.73831    0.018
 5279.00    0.73244   0.74775    0.017
 5280.00    0.62286   0.75598    0.018
 5281.00    0.53029   0.76243    0.018
 5282.00    0.55757   0.76642    0.018
 5283.00    0.58966   0.76759    0.018
 5284.00    0.64788   0.76640    0.018
 5285.00    0.68832   0.76422    0.018
 5286.00    0.65153   0.76291    0.018
 5287.00    0.61101   0.76398    0.018
 5288.00    0.55709   0.76799    0.018
 5289.00    0.54433   0.77434    0.018
 5290.00    0.65522   0.78162    0.018
 5291.00    0.73593   0.78823    0.018
 5292.00    0.73952   0.79305    0.018
 5293.00    0.72796   0.79559    0.018
 5294.00    0.68309   0.79584    0.018
 5295.00    0.64067   0.79389    0.018
 5296.00    0.60294   0.78982    0.018
 5297.00    0.62094   0.78374    0.018
 5298.00    0.73175   0.77602    0.018
 5299.00    0.74669   0.76746    0.018
 5300.00    0.62173   0.75934    0.018
 5301.00    0.54698   0.75313    0.017
 5302.00    0.53670   0.75002    0.017
 5303.00    0.56246   0.75048    0.017
 5304.00    0.62897   0.75414    0.017
 5305.00    0.67038   0.76006    0.017
 5306.00    0.68675   0.76705    0.017
 5307.00    0.69779   0.77402    0.017
 5308.00    0.70414   0.78011    0.017
 5309.00    0.72399   0.78479    0.017
 5310.00    0.75429   0.78802    0.017
 5311.00    0.75229   0.79005    0.017
 5312.00    0.72827   0.79120    0.017
 5313.00    0.71411   0.79166    0.017
 5314.00    0.70585   0.79138    0.016
 5315.00    0.73029   0.79019    0.016
 5316.00    0.77178   0.78802    0.017
 5317.00    0.73103   0.78500    0.017
 5318.00    0.65315   0.78151    0.017
 5319.00    0.58752   0.77810    0.017
 5320.00    0.52665   0.77525    0.017
 5321.00    0.62624   0.77314    0.016
 5322.00    0.77888   0.77158    0.016
 5323.00    0.77026   0.76998    0.017
 5324.00    0.71693   0.76761    0.017
 5325.00    0.63815   0.76383    0.017
 5326.00    0.55357   0.75825    0.017
 5327.00    0.60234   0.75083    0.017
 5328.00    0.67546   0.74195    0.017
 5329.00    0.65414   0.73255    0.016
 5330.00    0.61958   0.72398    0.016
 5331.00    0.63796   0.71793    0.017
 5332.00    0.66168   0.71600    0.017
 5333.00    0.59976   0.71894    0.017
 5334.00    0.53233   0.72617    0.017
 5335.00    0.65788   0.73593    0.017
 5336.00    0.78893   0.74608    0.017
 5337.00    0.81975   0.75475    0.017
 5338.00    0.84595   0.76063    0.017
 5339.00    0.74022   0.76323    0.017
 5340.00    0.64037   0.76290    0.017
 5341.00    0.62487   0.76040    0.017
 5342.00    0.60406   0.75678    0.017
 5343.00    0.53368   0.75318    0.017
 5344.00    0.49314   0.75070    0.017
 5345.00    0.65616   0.75001    0.017
 5346.00    0.76843   0.75099    0.017
 5347.00    0.61277   0.75281    0.017
 5348.00    0.50276   0.75458    0.017
 5349.00    0.58661   0.75571    0.017
 5350.00    0.64635   0.75615    0.017
 5351.00    0.62163   0.75640    0.017
 5352.00    0.62365   0.75734    0.017
 5353.00    0.70448   0.75967    0.017
 5354.00    0.74319   0.76363    0.017
 5355.00    0.67604   0.76892    0.017
 5356.00    0.63522   0.77491    0.017
 5357.00    0.65137   0.78092    0.017
 5358.00    0.65687   0.78629    0.017
 5359.00    0.64236   0.79043    0.017
 5360.00    0.63403   0.79293    0.017
 5361.00    0.63583   0.79359    0.017
 5362.00    0.66084   0.79228    0.017
 5363.00    0.71924   0.78904    0.017
 5364.00    0.72076   0.78420    0.017
 5365.00    0.65031   0.77837    0.017
 5366.00    0.61816   0.77222    0.017
 5367.00    0.62870   0.76630    0.017
 5368.00    0.67719   0.76085   -2.000
 5369.00    0.76301   0.75579   -2.000
 5370.00    0.69301   0.75082   -2.000
 5371.00    0.48791   0.74568   -2.000
 5372.00    0.33030   0.74060   -2.000
 5373.00    0.20898   0.73647   -2.000
 5374.00    0.27353   0.73454   -2.000
 5375.00    0.46288   0.73583   -2.000
 5376.00    0.53648   0.74064   -2.000
 5377.00    0.54200   0.74814   -2.000
 5378.00    0.55294   0.75671   -2.000
 5379.00    0.56666   0.76452   -2.000
 5380.00    0.61123   0.77006   -2.000
 5381.00    0.66952   0.77272   -2.000
 5382.00    0.68164   0.77291   -2.000
 5383.00    0.67615   0.77148    0.016
 5384.00    0.66866   0.76930    0.016
 5385.00    0.66052   0.76717    0.016
 5386.00    0.69755   0.76555    0.016
 5387.00    0.74684   0.76466    0.017
 5388.00    0.71690   0.76441    0.017
 5389.00    0.66930   0.76429    0.016
 5390.00    0.62081   0.76362    0.016
 5391.00    0.57216   0.76193    0.016
 5392.00    0.61065   0.75903    0.017
 5393.00    0.66096   0.75505    0.017
 5394.00    0.62289   0.75048    0.017
 5395.00    0.57628   0.74578    0.017
 5396.00    0.53463   0.74120    0.017
 5397.00    0.49328   0.73692    0.017
 5398.00    0.55709   0.73312    0.017
 5399.00    0.62331   0.73011    0.017
 5400.00    0.63335   0.72833    0.017
 5401.00    0.64235   0.72810    0.017
 5402.00    0.62461   0.72925    0.017
 5403.00    0.60910   0.73094    0.017
 5404.00    0.62377   0.73205    0.017
 5405.00    0.63840   0.73145    0.017
 5406.00    0.65273   0.72833    0.017
 5407.00    0.65431   0.72312    0.017
 5408.00    0.57168   0.71720    0.017
 5409.00    0.50548   0.71202    0.017
 5410.00    0.52383   0.70864    0.017
 5411.00    0.55755   0.70766    0.017
 5412.00    0.65508   0.70910    0.017
 5413.00    0.72043   0.71250    0.017
 5414.00    0.67525   0.71727    0.017
 5415.00    0.66057   0.72300    0.017
 5416.00    0.73415   0.72953    0.016
 5417.00    0.77086   0.73656    0.016
 5418.00    0.71650   0.74333    0.016
 5419.00    0.70435   0.74901    0.016
 5420.00    0.78202   0.75316    0.016
 5421.00    0.80256   0.75577    0.016
 5422.00    0.71742   0.75696    0.016
 5423.00    0.66132   0.75683    0.016
 5424.00    0.65213   0.75565    0.016
 5425.00    0.67812   0.75395    0.016
 5426.00    0.75396   0.75225    0.016
 5427.00    0.77892   0.75083    0.016
 5428.00    0.74043   0.74962    0.016
 5429.00    0.67578   0.74818    0.016
 5430.00    0.58238   0.74610    0.016
 5431.00    0.53474   0.74317    0.016
 5432.00    0.53147   0.73929    0.016
 5433.00    0.58473   0.73461    0.016
 5434.00    0.68631   0.72984    0.016
 5435.00    0.69102   0.72594    0.016
 5436.00    0.62279   0.72388    0.016
 5437.00    0.59121   0.72391    0.016
 5438.00    0.58388   0.72576    0.016
 5439.00    0.66974   0.72960    0.016
 5440.00    0.80959   0.73563    0.016
 5441.00    0.79704   0.74335    0.016
 5442.00    0.70756   0.75150    0.016
 5443.00    0.72875   0.75852    0.016
 5444.00    0.79830   0.76302    0.016
 5445.00    0.76847   0.76408    0.016
 5446.00    0.70136   0.76149    0.016
 5447.00    0.68709   0.75579    0.016
 5448.00    0.68963   0.74822    0.017
 5449.00    0.60700   0.74043    0.017
 5450.00    0.50174   0.73408    0.017
 5451.00    0.59718   0.73040    0.017
 5452.00    0.73628   0.72970    0.017
 5453.00    0.74837   0.73120    0.017
 5454.00    0.73852   0.73319    0.017
 5455.00    0.70187   0.73371    0.017
 5456.00    0.66169   0.73207    0.017
 5457.00    0.59563   0.72900    0.017
 5458.00    0.52717   0.72589    0.016
 5459.00    0.63429   0.72408    0.016
 5460.00    0.75128   0.72424    0.016
 5461.00    0.78040   0.72630    0.016
 5462.00    0.80525   0.72951    0.016
 5463.00    0.59027   0.73235    0.016
 5464.00    0.39052   0.73350    0.016
 5465.00    0.54801   0.73298    0.016
 5466.00    0.69242   0.73177    0.016
 5467.00    0.66899   0.73097    0.016
 5468.00    0.64096   0.73112    0.016
 5469.00    0.57325   0.73229    0.016
 5470.00    0.51915   0.73407    0.016
 5471.00    0.55226   0.73550    0.016
 5472.00    0.58815   0.73584    0.016
 5473.00    0.63794   0.73496    0.016
 5474.00    0.68681   0.73282    0.016
 5475.00    0.73196   0.72939    0.016
 5476.00    0.74006   0.72504    0.016
 5477.00    0.62340   0.72031    0.016
 5478.00    0.54050   0.71570   -2.000
 5479.00    0.55344   0.71180   -2.000
 5480.00    0.61170   0.70936   -2.000
 5481.00    0.77996   0.70866   -2.000
 5482.00    0.86943   0.70965   -2.000
 5483.00    0.79383   0.71227   -2.000
 5484.00    0.65424   0.71579   -2.000
 5485.00    0.39812   0.71919   -2.000
 5486.00   -0.05181   0.72222   -2.000
 5487.00   -0.81021   0.72522   -2.000
 5488.00   -1.14405   0.72819   -2.000
 5489.00   -0.88481   0.73054   -2.000
 5490.00   -0.55292   0.73185   -2.000
 5491.00   -0.13175   0.73214   -2.000
 5492.00    0.80623   0.73191   -2.000
 5493.00    2.30426   0.73183   -2.000
 5494.00    2.47540   0.73225   -2.000
 5495.00    1.37819   0.73285   -2.000
 5496.00    0.79399   0.73319   -2.000
 5497.00    0.64220   0.73313   -2.000
 5498.00    0.61394   0.73258   -2.000
 5499.00    0.67736   0.73168   -2.000
 5500.00    0.70180   0.73069   -2.000
 5501.00    0.70082   0.72961   -2.000
 5502.00    0.67038   0.72837    0.017
 5503.00    0.62313   0.72715    0.017
 5504.00    0.63816   0.72594    0.016
 5505.00    0.68415   0.72431    0.016
 5506.00    0.63235   0.72224    0.016
 5507.00    0.53853   0.72032    0.016
 5508.00    0.61925   0.71895    0.016
 5509.00    0.76427   0.71803    0.016
 5510.00    0.76886   0.71731    0.016
 5511.00    0.72963   0.71671    0.016
 5512.00    0.67708   0.71630    0.016
 5513.00    0.62106   0.71590    0.016
 5514.00    0.62208   0.71497    0.016
 5515.00    0.63520   0.71357    0.016
 5516.00    0.70509   0.71241    0.016
 5517.00    0.78452   0.71233    0.016
 5518.00    0.78227   0.71401    0.016
 5519.00    0.76967   0.71754    0.016
 5520.00    0.64218   0.72234    0.016
 5521.00    0.50455   0.72752    0.015
 5522.00    0.50439   0.73222    0.015
 5523.00    0.51142   0.73580    0.015
 5524.00    0.65011   0.73777    0.015
 5525.00    0.78979   0.73787    0.015
 5526.00    0.81871   0.73628    0.015
 5527.00    0.84184   0.73330    0.015
 5528.00    0.74037   0.72928    0.015
 5529.00    0.64466   0.72471    0.015
 5530.00    0.61928   0.72029    0.015
 5531.00    0.59436   0.71690    0.015
 5532.00    0.57322   0.71520    0.016
 5533.00    0.55839   0.71545    0.016
 5534.00    0.58283   0.71741    0.016
 5535.00    0.59900   0.72002    0.016
 5536.00    0.57477   0.72205    0.016
 5537.00    0.56039   0.72317    0.016
 5538.00    0.58512   0.72381    0.016
 5539.00    0.62299   0.72451    0.016
 5540.00    0.70420   0.72571    0.016
 5541.00    0.74907   0.72760    0.016
 5542.00    0.69257   0.72977    0.016
 5543.00    0.63780   0.73164    0.016
 5544.00    0.58716   0.73297    0.016
 5545.00    0.56243   0.73354    0.016
 5546.00    0.59111   0.73326    0.016
 5547.00    0.61416   0.73243    0.016
 5548.00    0.62712   0.73174    0.016
 5549.00    0.66014   0.73187    0.016
 5550.00    0.72462   0.73291    0.016
 5551.00    0.76454   0.73453    0.016
 5552.00    0.77064   0.73635    0.016
 5553.00    0.77616   0.73780    0.016
 5554.00    0.78097   0.73827    0.016
 5555.00    0.71649   0.73759    0.016
 5556.00    0.57798   0.73605    0.016
 5557.00    0.55313   0.73401    0.016
 5558.00    0.63542   0.73193    0.016
 5559.00    0.69188   0.73029    0.016
 5560.00    0.72689   0.72932    0.016
 5561.00    0.72347   0.72872    0.016
 5562.00    0.69194   0.72802    0.016
 5563.00    0.71131   0.72704    0.015
 5564.00    0.76338   0.72566    0.015
 5565.00    0.75991   0.72373    0.015
 5566.00    0.72525   0.72136    0.015
 5567.00    0.73409   0.71881    0.015
 5568.00    0.76420   0.71645    0.015
 5569.00    0.73152   0.71458    0.015
 5570.00    0.67229   0.71310    0.015
 5571.00    0.60885   0.71204    0.015
 5572.00    0.54388   0.71150    0.015
 5573.00    0.58463   0.71130    0.015
 5574.00    0.65774   0.71132    0.015
 5575.00    0.65648   0.71177    0.015
 5576.00    0.63629   0.71259    0.016
 5577.00    0.67936   0.71346    0.016
 5578.00    0.73554   0.71482    0.016
 5579.00    0.73573   0.71681    0.016
 5580.00    0.72679   0.71867    0.016
 5581.00    0.72187   0.72011    0.016
 5582.00    0.71744   0.72120    0.016
 5583.00    0.67042   0.72158    0.016
 5584.00    0.61982   0.72101    0.016
 5585.00    0.64619   0.71933    0.016
 5586.00    0.67628   0.71627    0.016
 5587.00    0.58251   0.71192    0.016
 5588.00    0.49015   0.70654    0.016
 5589.00    0.59244   0.70032    0.016
 5590.00    0.68805   0.69388    0.017
 5591.00    0.65132   0.68832    0.017
 5592.00    0.61547   0.68477    0.017
 5593.00    0.58982   0.68384    0.017
 5594.00    0.56612   0.68531    0.017
 5595.00    0.55809   0.68836    0.017
 5596.00    0.54846   0.69192    0.017
 5597.00    0.52911   0.69513    0.017
 5598.00    0.51425   0.69764    0.017
 5599.00    0.52078   0.69932    0.016
 5600.00    0.53884   0.70008    0.016
 5601.00    0.60172   0.69947    0.016
 5602.00    0.63335   0.69736    0.016
 5603.00    0.56390   0.69484    0.016
 5604.00    0.53859   0.69330    0.016
 5605.00    0.63417   0.69329    0.015
 5606.00    0.69506   0.69508    0.015
 5607.00    0.67456   0.69895    0.015
 5608.00    0.64527   0.70472    0.015
 5609.00    0.59815   0.71141    0.015
 5610.00    0.58077   0.71760    0.015
 5611.00    0.61589   0.72234    0.015
 5612.00    0.64772   0.72525    0.015
 5613.00    0.67445   0.72623    0.015
 5614.00    0.70952   0.72528    0.015
 5615.00    0.75591   0.72253    0.015
 5616.00    0.71734   0.71824    0.015
 5617.00    0.57727   0.71277    0.015
 5618.00    0.52601   0.70674    0.015
 5619.00    0.56833   0.70126    0.015
 5620.00    0.61370   0.69789    0.015
 5621.00    0.66193   0.69740    0.015
 5622.00    0.64575   0.69876    0.015
 5623.00    0.57681   0.70045    0.015
 5624.00    0.53843   0.70176    0.015
 5625.00    0.52208   0.70247    0.015
 5626.00    0.58412   0.70240    0.015
 5627.00    0.69575   0.70152    0.016
 5628.00    0.72643   0.70039    0.016
 5629.00    0.71232   0.70016    0.016
 5630.00    0.70313   0.70167    0.016
 5631.00    0.69632   0.70456    0.016
 5632.00    0.71628   0.70792    0.016
 5633.00    0.74735   0.71113    0.016
 5634.00    0.71383   0.71365    0.016
 5635.00    0.65735   0.71495    0.016
 5636.00    0.65512   0.71485    0.016
 5637.00    0.66916   0.71344    0.016
 5638.00    0.63039   0.71106    0.015
 5639.00    0.57848   0.70815    0.015
 5640.00    0.69521   0.70509    0.015
 5641.00    0.84601   0.70230    0.015
 5642.00    0.85833   0.70019    0.015
 5643.00    0.84872   0.69890    0.015
 5644.00    0.81594   0.69825    0.015
 5645.00    0.78044   0.69813    0.015
 5646.00    0.77674   0.69875    0.015
 5647.00    0.77558   0.70007    0.015
 5648.00    0.78500   0.70169    0.015
 5649.00    0.79489   0.70336    0.015
 5650.00    0.71148   0.70498    0.014
 5651.00    0.62777   0.70644    0.014
 5652.00    0.58164   0.70760    0.015
 5653.00    0.53987   0.70838    0.015
 5654.00    0.57833   0.70877    0.015
 5655.00    0.61480   0.70871    0.014
 5656.00    0.62909   0.70787    0.015
 5657.00    0.64506   0.70581    0.015
 5658.00    0.67413   0.70237    0.015
 5659.00    0.69331   0.69798    0.015
 5660.00    0.65443   0.69334    0.015
 5661.00    0.62814   0.68873    0.015
 5662.00    0.66042   0.68470    0.015
 5663.00    0.68159   0.68259    0.015
 5664.00    0.66053   0.68286    0.015
 5665.00    0.65265   0.68435    0.015
 5666.00    0.68663   0.68614    0.015
 5667.00    0.72545   0.68838    0.015
 5668.00    0.77733   0.69105    0.015
 5669.00    0.79283   0.69345    0.015
 5670.00    0.72440   0.69509    0.015
 5671.00    0.71047   0.69614    0.015
 5672.00    0.80537   0.69722    0.016
 5673.00    0.84534   0.69885    0.016
 5674.00    0.78979   0.70109    0.016
 5675.00    0.72278   0.70379    0.016
 5676.00    0.63835   0.70674    0.016
 5677.00    0.63548   0.70952    0.016
 5678.00    0.74170   0.71153    0.016
 5679.00    0.76304   0.71254    0.016
 5680.00    0.68441   0.71276    0.016
 5681.00    0.63744   0.71220    0.016
 5682.00    0.62334   0.71063    0.015
 5683.00    0.66402   0.70826    0.015
 5684.00    0.75488   0.70548    0.015
 5685.00    0.76741   0.70246    0.015
 5686.00    0.71668   0.69933    0.014
 5687.00    0.66966   0.69667    0.014
 5688.00    0.62528   0.69494    0.014
 5689.00    0.62239   0.69396    0.014
 5690.00    0.64537   0.69344    0.014
 5691.00    0.65107   0.69348    0.014
 5692.00    0.64736   0.69455    0.014
 5693.00    0.60192   0.69682    0.014
 5694.00    0.53673   0.69985    0.014
 5695.00    0.55517   0.70293    0.014
 5696.00    0.60776   0.70550    0.015
 5697.00    0.61419   0.70706    0.015
 5698.00    0.60453   0.70733    0.015
 5699.00    0.63776   0.70646    0.015
 5700.00    0.68360   0.70464    0.015
 5701.00    0.68503   0.70195    0.015
 5702.00    0.67565   0.69863    0.015
 5703.00    0.65175   0.69535    0.015
 5704.00    0.62500   0.69241    0.015
 5705.00    0.64644   0.68977    0.015
 5706.00    0.67528   0.68768    0.015
 5707.00    0.67530   0.68609    0.015
 5708.00    0.67204   0.68436    0.015
 5709.00    0.68664   0.68188    0.015
 5710.00    0.70260   0.67868    0.015
 5711.00    0.67562   0.67544    0.015
 5712.00    0.64689   0.67274    0.015
 5713.00    0.63926   0.67129    0.015
 5714.00    0.63138   0.67182    0.015
 5715.00    0.60643   0.67420    0.015
 5716.00    0.58297   0.67818    0.015
 5717.00    0.58522   0.68356    0.015
 5718.00    0.59548   0.68921    0.015
 5719.00    0.69049   0.69430    0.015
 5720.00    0.77184   0.69870    0.015
 5721.00    0.75082   0.70231    0.015
 5722.00    0.72707   0.70529    0.014
 5723.00    0.68770   0.70789    0.014
 5724.00    0.66301   0.71001    0.014
 5725.00    0.70503   0.71149    0.014
 5726.00    0.73211   0.71229    0.014
 5727.00    0.70360   0.71219    0.014
 5728.00    0.68810   0.71118    0.014
 5729.00    0.71304   0.70946    0.014
 5730.00    0.71610   0.70728    0.014
 5731.00    0.66129   0.70518    0.014
 5732.00    0.62966   0.70396    0.014
 5733.00    0.65063   0.70355    0.014
 5734.00    0.67212   0.70339    0.014
 5735.00    0.69463   0.70343    0.014
 5736.00    0.70260   0.70412    0.014
 5737.00    0.68566   0.70538    0.014
 5738.00    0.66552   0.70654    0.014
 5739.00    0.64060   0.70723    0.014
 5740.00    0.63361   0.70736    0.000
 5741.00    0.65027   0.70708    0.000
 5742.00    0.67518   0.70661    0.000
 5743.00    0.70968   0.70607    0.000
 5744.00    0.66877   0.70563    0.000
 5745.00    0.55063   0.70536    0.000
 5746.00    0.52139   0.70524    0.000
 5747.00    0.57247   0.70530    0.000
 5748.00    0.61829   0.70558    0.000
 5749.00    0.65992   0.70578    0.000
 5750.00    0.69913   0.70540    0.000
 5751.00    0.73664   0.70426    0.000
 5752.00    0.72111   0.70279    0.000
 5753.00    0.67299   0.70155    0.000
 5754.00    0.65477   0.70028    0.000
 5755.00    0.65261   0.69858    0.000
 5756.00    0.62335   0.69664    0.000
 5757.00    0.58147   0.69520    0.000
 5758.00    0.62173   0.69499    0.000
 5759.00    0.69496   0.69613    0.000
 5760.00    0.65703   0.69778    0.000
 5761.00    0.58104   0.69892    0.000
 5762.00    0.57998   0.69903    0.000
 5763.00    0.60051   0.69799    0.000
 5764.00    0.62640   0.69619    0.000
 5765.00    0.65357   0.69434    0.000
 5766.00    0.70587   0.69326    0.000
 5767.00    0.76299   0.69368    0.000
 5768.00    0.73532   0.69565    0.000
 5769.00    0.69503   0.69825    0.000
 5770.00    0.64128   0.70066    0.000
 5771.00    0.58606   0.70249    0.000
 5772.00    0.57052   0.70352    0.000
 5773.00    0.55781   0.70366    0.000
 5774.00    0.59695   0.70310    0.000
 5775.00    0.63799   0.70202    0.000
 5776.00    0.64375   0.70072    0.000
 5777.00    0.64895   0.69941    0.000
 5778.00    0.63940   0.69805    0.000
 5779.00    0.62912   0.69659    0.000
 5780.00    0.60720   0.69485    0.000
 5781.00    0.58749   0.69242    0.000
 5782.00    0.59018   0.68900    0.000
 5783.00    0.59832   0.68461    0.000
 5784.00    0.64590   0.67966    0.000
 5785.00    0.68651   0.67513    0.000
 5786.00    0.68844   0.67204    0.000
 5787.00    0.67320   0.67056    0.000
 5788.00    0.58183   0.67039    0.000
 5789.00    0.51052   0.67160    0.000
 5790.00    0.51227   0.67429    0.000
 5791.00    0.51874   0.67777   -2.000
 5792.00    0.53958   0.68119   -2.000
 5793.00    0.56581   0.68416   -2.000
 5794.00    0.60601   0.68649   -2.000
 5795.00    0.60277   0.68854   -2.000
 5796.00    0.50258   0.69066   -2.000
 5797.00    0.47043   0.69268   -2.000
 5798.00    0.56987   0.69441   -2.000
 5799.00    0.61875   0.69572   -2.000
 5800.00    0.58232   0.69653   -2.000
 5801.00    0.58537   0.69715   -2.000
 5802.00    0.64677   0.69828   -2.000
 5803.00    0.67601   0.70001   -2.000
 5804.00    0.66346   0.70169   -2.000
 5805.00    0.66299   0.70274   -2.000
 5806.00    0.67633   0.70294   -2.000
 5807.00    0.68253   0.70217   -2.000
 5808.00    0.68150   0.70082   -2.000
 5809.00    0.64516   0.69956   -2.000
 5810.00    0.57736   0.69875   -2.000
 5811.00    0.54784   0.69838    0.000
 5812.00    0.54836   0.69835    0.000
 5813.00    0.57386   0.69850    0.000
 5814.00    0.61662   0.69863    0.000
 5815.00    0.64991   0.69847    0.000
 5816.00    0.67747   0.69787    0.000
 5817.00    0.70547   0.69687    0.000
 5818.00    0.73370   0.69566    0.000
 5819.00    0.70151   0.69462    0.000
 5820.00    0.64162   0.69432    0.000
 5821.00    0.65481   0.69506    0.000
 5822.00    0.69683   0.69650    0.000
 5823.00    0.72487   0.69807    0.000
 5824.00    0.74822   0.69950    0.000
 5825.00    0.72057   0.70059    0.000
 5826.00    0.67853   0.70129    0.000
 5827.00    0.65638   0.70170    0.000
 5828.00    0.63885   0.70203    0.000
 5829.00    0.64826   0.70231    0.000
 5830.00    0.66272   0.70249    0.000
 5831.00    0.65875   0.70263    0.000
 5832.00    0.65212   0.70276    0.000
 5833.00    0.65201   0.70281    0.000
 5834.00    0.65259   0.70260    0.000
 5835.00    0.66583   0.70212    0.000
 5836.00    0.67993   0.70144    0.000
 5837.00    0.67421   0.70057    0.000
 5838.00    0.66783   0.69967    0.000
 5839.00    0.66225   0.69905    0.000
 5840.00    0.65593   0.69876    0.000
 5841.00    0.62649   0.69861    0.000
 5842.00    0.60169   0.69870    0.000
 5843.00    0.64705   0.69921    0.000
 5844.00    0.68345   0.69995    0.000
 5845.00    0.63290   0.70050    0.000
 5846.00    0.58790   0.70055    0.000
 5847.00    0.58173   0.69992    0.000
 5848.00    0.58698   0.69856    0.000
 5849.00    0.65397   0.69654    0.000
 5850.00    0.70796   0.69401    0.000
 5851.00    0.70562   0.69125    0.000
 5852.00    0.69163   0.68853    0.000
 5853.00    0.63606   0.68577    0.000
 5854.00    0.59209   0.68279    0.000
 5855.00    0.58289   0.67942    0.000
 5856.00    0.57222   0.67580    0.000
 5857.00    0.55776   0.67246    0.000
 5858.00    0.57332   0.66980    0.000
 5859.00    0.65476   0.66751    0.000
 5860.00    0.72049   0.66536    0.000
 5861.00    0.75629   0.66396    0.000
 5862.00    0.75858   0.66400    0.000
 5863.00    0.70518   0.66530    0.000
 5864.00    0.67016   0.66717    0.000
 5865.00    0.66194   0.66901    0.000
 5866.00    0.64576   0.67067    0.000
 5867.00    0.61939   0.67231    0.000
 5868.00    0.59101   0.67379    0.000
 5869.00    0.56034   0.67481    0.000
 5870.00    0.54041   0.67556    0.000
 5871.00    0.53116   0.67655    0.000
 5872.00    0.52753   0.67779    0.000
 5873.00    0.52884   0.67882    0.000
 5874.00    0.53794   0.67923    0.000
 5875.00    0.55306   0.67877    0.000
 5876.00    0.58984   0.67745    0.000
 5877.00    0.64134   0.67542    0.000
 5878.00    0.64776   0.67291    0.000
 5879.00    0.62731   0.67035    0.000
 5880.00    0.62817   0.66829    0.000
 5881.00    0.64013   0.66694    0.000
 5882.00    0.64313   0.66591    0.000
 5883.00    0.64210   0.66500    0.000
 5884.00    0.67605   0.66432    0.000
 5885.00    0.72357   0.66361    0.000
 5886.00    0.66473   0.66205    0.000
 5887.00    0.57082   0.65893    0.000
 5888.00    0.52691   0.65396    0.000
 5889.00    0.49682   0.64682    0.000
 5890.00    0.50982   0.63716    0.000
 5891.00    0.53261   0.62488    0.000
 5892.00    0.59083   0.61056    0.000
 5893.00    0.65549   0.59686    0.000
 5894.00    0.67314   0.58751    0.000
 5895.00    0.68423   0.58324    0.000
 5896.00    0.64324   0.58209    0.000
 5897.00    0.59704   0.58239    0.000
 5898.00    0.54598   0.58321    0.000
 5899.00    0.49461   0.58522    0.000
 5900.00    0.53310   0.59057    0.000
 5901.00    0.57419   0.59917    0.013
 5902.00    0.59904   0.60890    0.013
 5903.00    0.62435   0.61887    0.013
 5904.00    0.66249   0.62887    0.013
 5905.00    0.69792   0.63811    0.013
 5906.00    0.69487   0.64590    0.013
 5907.00    0.68794   0.65188    0.013
 5908.00    0.64491   0.65587    0.013
 5909.00    0.61158   0.65837    0.012
 5910.00    0.64412   0.66012    0.012
 5911.00    0.67357   0.66138    0.013
 5912.00    0.68674   0.66206    0.013
 5913.00    0.69366   0.66220    0.013
 5914.00    0.67416   0.66194    0.013
 5915.00    0.66568   0.66117    0.013
 5916.00    0.69574   0.65967    0.013
 5917.00    0.69930   0.65773    0.013
 5918.00    0.62498   0.65610    0.013
 5919.00    0.56726   0.65526    0.013
 5920.00    0.55118   0.65529    0.013
 5921.00    0.54445   0.65602    0.013
 5922.00    0.55791   0.65715    0.013
 5923.00    0.57095   0.65856    0.013
 5924.00    0.58317   0.65990    0.013
 5925.00    0.59086   0.66091    0.013
 5926.00    0.59112   0.66171    0.013
 5927.00    0.59825   0.66235    0.013
 5928.00    0.61522   0.66271    0.013
 5929.00    0.61867   0.66275    0.013
 5930.00    0.60506   0.66239    0.013
 5931.00    0.61560   0.66160    0.013
 5932.00    0.65301   0.66056    0.013
 5933.00    0.66168   0.65960    0.013
 5934.00    0.64213   0.65921    0.013
 5935.00    0.62280   0.65938    0.013
 5936.00    0.60366   0.65962    0.013
 5937.00    0.61243   0.65968    0.013
 5938.00    0.64250   0.65992    0.012
 5939.00    0.64420   0.66063    0.012
 5940.00    0.62690   0.66148    0.012
 5941.00    0.62273   0.66210    0.012
 5942.00    0.62626   0.66239    0.012
 5943.00    0.63408   0.66220    0.012
 5944.00    0.64409   0.66165    0.012
 5945.00    0.63775   0.66126    0.012
 5946.00    0.62417   0.66118    0.013
 5947.00    0.60954   0.66127    0.013
 5948.00    0.59451   0.66145    0.013
 5949.00    0.65921   0.66147    0.014
 5950.00    0.74972   0.66101    0.015
 5951.00    0.80381   0.65994    0.016
 5952.00    0.84804   0.65862    0.016
 5953.00    0.82678   0.65757    0.016
 5954.00    0.79099   0.65671    0.016
 5955.00    0.74630   0.65562    0.014
 5956.00    0.70004   0.65457    0.013
 5957.00    0.72243   0.65416    0.013
 5958.00    0.75410   0.65422    0.013
 5959.00    0.69236   0.65425    0.013
 5960.00    0.62165   0.65442    0.013
 5961.00    0.64960   0.65519    0.013
 5962.00    0.68344   0.65667    0.013
 5963.00    0.70459   0.65859    0.013
 5964.00    0.72541   0.66053    0.013
 5965.00    0.74418   0.66218    0.012
 5966.00    0.76340   0.66344    0.012
 5967.00    0.79448   0.66429    0.013
 5968.00    0.82123   0.66464    0.013
 5969.00    0.78961   0.66472    0.012
 5970.00    0.75874   0.66502    0.012
 5971.00    0.73460   0.66555    0.012
 5972.00    0.71588   0.66615    0.012
 5973.00    0.73280   0.66675    0.012
 5974.00    0.74103   0.66712    0.012
 5975.00    0.70473   0.66698    0.012
 5976.00    0.66764   0.66624    0.012
 5977.00    0.62730   0.66478    0.012
 5978.00    0.59707   0.66262    0.012
 5979.00    0.60150   0.66018    0.012
 5980.00    0.61089   0.65794    0.012
 5981.00    0.63458   0.65622    0.012
 5982.00    0.64144   0.65519    0.012
 5983.00    0.60681   0.65474    0.013
 5984.00    0.58499   0.65444    0.013
 5985.00    0.59040   0.65390    0.013
 5986.00    0.59884   0.65291    0.013
 5987.00    0.61286   0.65171    0.013
 5988.00    0.62665   0.65107    0.013
 5989.00    0.64007   0.65120    0.013
 5990.00    0.65053   0.65167    0.013
 5991.00    0.65677   0.65253    0.013
 5992.00    0.65843   0.65386    0.013
 5993.00    0.65437   0.65539    0.013
 5994.00    0.67048   0.65682    0.013
 5995.00    0.70873   0.65819    0.012
 5996.00    0.69866   0.65956    0.012
 5997.00    0.64185   0.66064    0.012
 5998.00    0.61569   0.66107    0.012
 5999.00    0.61570   0.66074    0.012
 6000.00    0.63696   0.65979    0.012
 6001.00    0.67419   0.65868    0.012
 6002.00    0.65209   0.65766    0.012
 6003.00    0.59080   0.65664    0.012
 6004.00    0.57449   0.65552    0.012
 6005.00    0.58417   0.65412    0.012
 6006.00    0.60829   0.65274    0.012
 6007.00    0.63967   0.65179    0.012
 6008.00    0.60396   0.65091    0.012
 6009.00    0.53898   0.64969    0.012
 6010.00    0.55296   0.64820    0.012
 6011.00    0.59649   0.64691    0.012
 6012.00    0.61521   0.64666    0.012
 6013.00    0.62607   0.64735    0.013
 6014.00    0.65611   0.64797    0.013
 6015.00    0.69124   0.64808    0.013
 6016.00    0.68875   0.64798    0.013
 6017.00    0.67811   0.64815    0.013
 6018.00    0.64526   0.64835    0.013
 6019.00    0.60859   0.64794    0.013
 6020.00    0.63696   0.64714    0.013
 6021.00    0.67382   0.64652    0.013
 6022.00    0.69605   0.64589    0.013
 6023.00    0.71693   0.64519    0.013
 6024.00    0.68542   0.64480    0.013
 6025.00    0.65100   0.64496    0.012
 6026.00    0.63615   0.64562    0.012
 6027.00    0.62217   0.64672    0.012
 6028.00    0.65128   0.64837    0.012
 6029.00    0.68055   0.65034    0.012
 6030.00    0.71333   0.65238    0.012
 6031.00    0.74358   0.65464    0.012
 6032.00    0.74155   0.65689    0.012
 6033.00    0.73769   0.65879    0.012
 6034.00    0.71813   0.66036    0.012
 6035.00    0.70738   0.66174    0.012
 6036.00    0.75294   0.66292    0.012
 6037.00    0.78224   0.66375    0.012
 6038.00    0.73027   0.66417    0.012
 6039.00    0.68329   0.66424    0.012
 6040.00    0.65646   0.66412    0.012
 6041.00    0.63684   0.66381    0.012
 6042.00    0.64145   0.66327    0.012
 6043.00    0.64500   0.66272    0.012
 6044.00    0.64558   0.66241    0.012
 6045.00    0.64784   0.66242    0.012
 6046.00    0.65418   0.66289    0.012
 6047.00    0.65472   0.66369    0.012
 6048.00    0.64313   0.66458    0.012
 6049.00    0.63196   0.66550    0.012
 6050.00    0.62152   0.66630    0.012
 6051.00    0.61034   0.66681    0.012
 6052.00    0.59796   0.66694    0.012
 6053.00    0.58781   0.66674    0.012
 6054.00    0.58078   0.66610    0.012
 6055.00    0.58905   0.66498    0.012
 6056.00    0.61612   0.66352    0.012
 6057.00    0.65307   0.66200    0.012
 6058.00    0.70072   0.66051    0.012
 6059.00    0.72045   0.65916    0.012
 6060.00    0.71351   0.65822    0.013
 6061.00    0.68338   0.65777    0.012
 6062.00    0.63372   0.65767    0.012
 6063.00    0.60967   0.65755    0.012
 6064.00    0.60459   0.65710    0.012
 6065.00    0.61364   0.65619    0.012
 6066.00    0.63187   0.65490    0.012
 6067.00    0.66526   0.65333    0.012
 6068.00    0.70729   0.65189    0.012
 6069.00    0.70475   0.65168    0.012
 6070.00    0.68012   0.65300    0.012
 6071.00    0.67957   0.65513    0.012
 6072.00    0.68936   0.65765    0.012
 6073.00    0.65271   0.66032    0.012
 6074.00    0.59900   0.66294    0.012
 6075.00    0.56282   0.66508    0.012
 6076.00    0.53210   0.66621    0.012
 6077.00    0.52735   0.66626    0.012
 6078.00    0.52934   0.66543    0.012
 6079.00    0.56493   0.66381    0.012
 6080.00    0.60762   0.66145    0.012
 6081.00    0.65603   0.65856    0.012
 6082.00    0.70538   0.65573    0.012
 6083.00    0.72244   0.65328    0.012
 6084.00    0.73543   0.65093    0.012
 6085.00    0.66484   0.64885    0.012
 6086.00    0.58694   0.64754    0.012
 6087.00    0.58677   0.64694    0.012
 6088.00    0.59064   0.64665    0.012
 6089.00    0.60745   0.64659    0.012
 6090.00    0.62381   0.64681    0.012
 6091.00    0.59049   0.64707    0.012
 6092.00    0.55925   0.64696    0.012
 6093.00    0.57245   0.64652    0.012
 6094.00    0.58379   0.64637    0.012
 6095.00    0.57267   0.64664    0.012
 6096.00    0.55980   0.64716    0.011
 6097.00    0.53241   0.64808    0.012
 6098.00    0.51296   0.64932    0.012
 6099.00    0.54275   0.65035    0.012
 6100.00    0.56910   0.65083    0.012
 6101.00    0.57866   0.65077    0.012
 6102.00    0.58754   0.65013    0.012
 6103.00    0.59369   0.64857    0.012
 6104.00    0.60131   0.64562    0.012
 6105.00    0.61379   0.64171    0.012
 6106.00    0.62069   0.63879    0.012
 6107.00    0.61210   0.63803    0.012
 6108.00    0.61269   0.63853    0.012
 6109.00    0.63512   0.63942    0.012
 6110.00    0.65172   0.64069    0.012
 6111.00    0.65635   0.64282    0.012
 6112.00    0.66521   0.64566    0.012
 6113.00    0.68165   0.64794    0.012
 6114.00    0.69693   0.64910    0.012
 6115.00    0.71038   0.64989    0.012
 6116.00    0.70997   0.65077    0.012
 6117.00    0.69051   0.65145    0.012
 6118.00    0.65884   0.65132    0.012
 6119.00    0.61241   0.65025    0.012
 6120.00    0.57852   0.64883    0.012
 6121.00    0.55802   0.64705    0.012
 6122.00    0.55064   0.64434    0.012
 6123.00    0.55559   0.64079    0.012
 6124.00    0.57624   0.63697    0.012
 6125.00    0.60991   0.63388    0.012
 6126.00    0.64248   0.63259    0.012
 6127.00    0.67425   0.63268    0.012
 6128.00    0.67412   0.63328    0.012
 6129.00    0.65354   0.63438    0.012
 6130.00    0.64436   0.63609    0.012
 6131.00    0.64156   0.63832    0.012
 6132.00    0.65071   0.64053    0.012
 6133.00    0.66569   0.64206    0.012
 6134.00    0.66038   0.64261    0.012
 6135.00    0.64652   0.64208    0.012
 6136.00    0.62056   0.64043    0.012
 6137.00    0.59023   0.63748    0.013
 6138.00    0.57240   0.63304    0.012
 6139.00    0.55839   0.62748    0.012
 6140.00    0.57677   0.62253    0.012
 6141.00    0.60338   0.62017    0.012
 6142.00    0.61700   0.62023    0.012
 6143.00    0.62794   0.62123    0.012
 6144.00    0.61874   0.62283    0.012
 6145.00    0.60627   0.62595    0.012
 6146.00    0.64549   0.63075    0.012
 6147.00    0.69100   0.63537    0.012
 6148.00    0.69257   0.63831    0.012
 6149.00    0.69046   0.63981    0.012
 6150.00    0.63463   0.64061    0.012
 6151.00    0.57621   0.64075    0.012
 6152.00    0.53099   0.64001    0.012
 6153.00    0.48702   0.63879    0.012
 6154.00    0.50458   0.63775    0.012
 6155.00    0.52303   0.63705    0.011
 6156.00    0.55893   0.63636    0.012
 6157.00    0.59065   0.63538    0.012
 6158.00    0.57421   0.63415    0.012
 6159.00    0.56084   0.63249    0.012
 6160.00    0.57213   0.62975    0.012
 6161.00    0.58249   0.62569    0.012
 6162.00    0.58724   0.62035    0.012
 6163.00    0.58719   0.61376    0.012
 6164.00    0.56430   0.60639    0.012
 6165.00    0.53818   0.59964    0.012
 6166.00    0.49962   0.59493    0.012
 6167.00    0.47806   0.59239    0.012
 6168.00    0.51139   0.59134    0.012
 6169.00    0.54184   0.59159    0.012
 6170.00    0.56438   0.59321    0.012
 6171.00    0.58113   0.59524    0.012
 6172.00    0.58430   0.59674    0.012
 6173.00    0.58107   0.59833    0.012
 6174.00    0.56488   0.60061    0.012
 6175.00    0.54716   0.60299    0.012
 6176.00    0.52674   0.60498    0.012
 6177.00    0.51809   0.60706    0.012
 6178.00    0.52761   0.60971    0.011
 6179.00    0.54493   0.61247    0.011
 6180.00    0.57283   0.61476    0.011
 6181.00    0.58839   0.61669    0.011
 6182.00    0.58922   0.61841    0.011
 6183.00    0.58025   0.61986    0.011
 6184.00    0.56096   0.62117    0.011
 6185.00    0.56569   0.62221    0.011
 6186.00    0.59272   0.62263    0.012
 6187.00    0.59451   0.62220    0.012
 6188.00    0.57567   0.62081    0.012
 6189.00    0.55508   0.61848    0.012
 6190.00    0.53324   0.61548    0.012
 6191.00    0.55318   0.61218    0.012
 6192.00    0.59951   0.60879    0.012
 6193.00    0.64522   0.60527    0.012
 6194.00    0.69058   0.60222    0.012
 6195.00    0.62750   0.60107    0.012
 6196.00    0.51234   0.60190   -2.000
 6197.00    0.17391   0.60353   -2.000
 6198.00   -0.25708   0.60544   -2.000
 6199.00   -0.60588   0.60778   -2.000
 6200.00   -0.92555   0.61041   -2.000
 6201.00   -0.70228   0.61227   -2.000
 6202.00   -0.31653   0.61283   -2.000
 6203.00    0.14480   0.61306   -2.000
 6204.00    0.62490   0.61374   -2.000
 6205.00    0.77759   0.61471   -2.000
 6206.00    0.86436   0.61565   -2.000
 6207.00    0.77664   0.61669   -2.000
 6208.00    0.66139   0.61814    0.012
 6209.00    0.64845   0.61969    0.012
 6210.00    0.64750   0.62065    0.012
 6211.00    0.65549   0.62067    0.012
 6212.00    0.66420   0.61974    0.012
 6213.00    0.62452   0.61793    0.012
 6214.00    0.58271   0.61531    0.012
 6215.00    0.55285   0.61181    0.011
 6216.00    0.52370   0.60756    0.011
 6217.00    0.52235   0.60322    0.012
 6218.00    0.52003   0.59946    0.012
 6219.00    0.50001   0.59670    0.012
 6220.00    0.48331   0.59490    0.012
 6221.00    0.50307   0.59363    0.012
 6222.00    0.52383   0.59292    0.012
 6223.00    0.55233   0.59310    0.012
 6224.00    0.57400   0.59406    0.012
 6225.00    0.55574   0.59524    0.012
 6226.00    0.54491   0.59605    0.012
 6227.00    0.56854   0.59657    0.012
 6228.00    0.58984   0.59709    0.012
 6229.00    0.60233   0.59727    0.012
 6230.00    0.60521   0.59670    0.012
 6231.00    0.57766   0.59519    0.012
 6232.00    0.55662   0.59284    0.012
 6233.00    0.55303   0.59028    0.012
 6234.00    0.55370   0.58850    0.012
 6235.00    0.56418   0.58791    0.011
 6236.00    0.56753   0.58837    0.011
 6237.00    0.55665   0.58972    0.011
 6238.00    0.54661   0.59166    0.011
 6239.00    0.53801   0.59369    0.011
 6240.00    0.54617   0.59506    0.011
 6241.00    0.57980   0.59530    0.011
 6242.00    0.62622   0.59443    0.011
 6243.00    0.68973   0.59278    0.011
 6244.00    0.70122   0.59072    0.012
 6245.00    0.65157   0.58839    0.012
 6246.00    0.61559   0.58626    0.012
 6247.00    0.59377   0.58503    0.012
 6248.00    0.59560   0.58470    0.012
 6249.00    0.61906   0.58501    0.012
 6250.00    0.63370   0.58598    0.012
 6251.00    0.64123   0.58751    0.012
 6252.00    0.61968   0.58904    0.012
 6253.00    0.57752   0.58979    0.012
 6254.00    0.56105   0.58941    0.012
 6255.00    0.56056   0.58805    0.012
 6256.00    0.57239   0.58607    0.012
 6257.00    0.59091   0.58376    0.012
 6258.00    0.57958   0.58122    0.012
 6259.00    0.55414   0.57868    0.012
 6260.00    0.44969   0.57685    0.013
 6261.00    0.31303   0.57643    0.014
 6262.00    0.25128   0.57753    0.014
 6263.00    0.21561   0.57958    0.014
 6264.00    0.35706   0.58221    0.014
 6265.00    0.55046   0.58561    0.014
 6266.00    0.72135   0.58937    0.014
 6267.00    0.88678   0.59257    0.013
 6268.00    0.85944   0.59490    0.012
 6269.00    0.79427   0.59689    0.012
 6270.00    0.70351   0.59849    0.012
 6271.00    0.60883   0.59918    0.012
 6272.00    0.62096   0.59930    0.012
 6273.00    0.64515   0.59971    0.011
 6274.00    0.65705   0.60056    0.012
 6275.00    0.66803   0.60135    0.012
 6276.00    0.65433   0.60184    0.012
 6277.00    0.63964   0.60220    0.012
 6278.00    0.65612   0.60251    0.012
 6279.00    0.67181   0.60258    0.012
 6280.00    0.64665   0.60217    0.000
 6281.00    0.62192   0.60123    0.000
 6282.00    0.60446   0.59989    0.000
 6283.00    0.58692   0.59860    0.000
 6284.00    0.56850   0.59784    0.000
 6285.00    0.55980   0.59775    0.000
 6286.00    0.62365   0.59821    0.000
 6287.00    0.68136   0.59912    0.000
 6288.00    0.70415   0.60065    0.000
 6289.00    0.71821   0.60282    0.000
 6290.00    0.69274   0.60511    0.000
 6291.00    0.67264   0.60699    0.000
 6292.00    0.67244   0.60812    0.000
 6293.00    0.67093   0.60855    0.000
 6294.00    0.66533   0.60839    0.000
 6295.00    0.66719   0.60763    0.000
 6296.00    0.68875   0.60640    0.000
 6297.00    0.70704   0.60479    0.000
 6298.00    0.71791   0.60271    0.000
 6299.00    0.71190   0.60036    0.000
 6300.00    0.67276   0.59829    0.000
 6301.00    0.64755   0.59683    0.000
 6302.00    0.64619   0.59555    0.000
 6303.00    0.63843   0.59406    0.000
 6304.00    0.62110   0.59296    0.000
 6305.00    0.60488   0.59308    0.000
 6306.00    0.59014   0.59428    0.000
 6307.00    0.59566   0.59571    0.000
 6308.00    0.62470   0.59722    0.000
 6309.00    0.64277   0.59935    0.000
 6310.00    0.64965   0.60201    0.000
 6311.00    0.65250   0.60424    0.000
 6312.00    0.65171   0.60538    0.000
 6313.00    0.65046   0.60565    0.000
 6314.00    0.64883   0.60546    0.000
 6315.00    0.64313   0.60469    0.000
 6316.00    0.63458   0.60305    0.000
 6317.00    0.64503   0.60070    0.000
 6318.00    0.66712   0.59846    0.000
 6319.00    0.68112   0.59676    0.000
 6320.00    0.69079   0.59516    0.000
 6321.00    0.69247   0.59375    0.011
 6322.00    0.69044   0.59342    0.011
 6323.00    0.69771   0.59435    0.011
 6324.00    0.70870   0.59567    0.011
 6325.00    0.69110   0.59718    0.011
 6326.00    0.66372   0.59953    0.011
 6327.00    0.63632   0.60235    0.012
 6328.00    0.60892   0.60467    0.012
 6329.00    0.62974   0.60636    0.012
 6330.00    0.66200   0.60787    0.012
 6331.00    0.69503   0.60926    0.012
 6332.00    0.72820   0.60993    0.012
 6333.00    0.73756   0.60990    0.012
 6334.00    0.74338   0.60964    0.012
 6335.00    0.68558   0.60933    0.011
 6336.00    0.62088   0.60841    0.011
 6337.00    0.59686   0.60640    0.011
 6338.00    0.57573   0.60411    0.011
 6339.00    0.61514   0.60251    0.011
 6340.00    0.65676   0.60156    0.012
 6341.00    0.69361   0.60071    0.011
 6342.00    0.72880   0.60021    0.011
 6343.00    0.70621   0.60074    0.011
 6344.00    0.68280   0.60193    0.011
 6345.00    0.64636   0.60269    0.011
 6346.00    0.61585   0.60272    0.011
 6347.00    0.64496   0.60278    0.011
 6348.00    0.67293   0.60295    0.011
 6349.00    0.69261   0.60297    0.011
 6350.00    0.70736   0.60312    0.011
 6351.00    0.69476   0.60385    0.011
 6352.00    0.67777   0.60507    0.011
 6353.00    0.64142   0.60615    0.011
 6354.00    0.62109   0.60682    0.011
 6355.00    0.65901   0.60699    0.012
 6356.00    0.68779   0.60622    0.012
 6357.00    0.68871   0.60446    0.012
 6358.00    0.67828   0.60234    0.012
 6359.00    0.63843   0.59998    0.012
 6360.00    0.61484   0.59696    0.012
 6361.00    0.62742   0.59357    0.012
 6362.00    0.62034   0.59082    0.012
 6363.00    0.57530   0.58891    0.012
 6364.00    0.53855   0.58716    0.012
 6365.00    0.51573   0.58568    0.012
 6366.00    0.51976   0.58546    0.012
 6367.00    0.56342   0.58654    0.012
 6368.00    0.59992   0.58815    0.012
 6369.00    0.62712   0.59018    0.012
 6370.00    0.65882   0.59292    0.012
 6371.00    0.69565   0.59595    0.012
 6372.00    0.70725   0.59861    0.011
 6373.00    0.69342   0.60091    0.011
 6374.00    0.67271   0.60322    0.011
 6375.00    0.64587   0.60540    0.011
 6376.00    0.65773   0.60694    0.012
 6377.00    0.69988   0.60786    0.012
 6378.00    0.71038   0.60861    0.012
 6379.00    0.69906   0.60908    0.012
 6380.00    0.67266   0.60881    0.012
 6381.00    0.63715   0.60778    0.012
 6382.00    0.63750   0.60649    0.012
 6383.00    0.65675   0.60531    0.012
 6384.00    0.66439   0.60430    0.011
 6385.00    0.66673   0.60351    0.011
 6386.00    0.65743   0.60299    0.011
 6387.00    0.64355   0.60286    0.011
 6388.00    0.63567   0.60316    0.012
 6389.00    0.62980   0.60371    0.012
 6390.00    0.62694   0.60395    0.012
 6391.00    0.62493   0.60366    0.011
 6392.00    0.61891   0.60320    0.011
 6393.00    0.61196   0.60259    0.011
 6394.00    0.60828   0.60134    0.012
 6395.00    0.60522   0.59934    0.012
 6396.00    0.61062   0.59754    0.012
 6397.00    0.61724   0.59663    0.012
 6398.00    0.64509   0.59623    0.012
 6399.00    0.67514   0.59590    0.012
 6400.00    0.67176   0.59580    0.012
 6401.00    0.66612   0.59600    0.012
 6402.00    0.60458   0.59610    0.012
 6403.00    0.54121   0.59647    0.012
 6404.00    0.56404   0.59752    0.012
 6405.00    0.58814   0.59864    0.012
 6406.00    0.65116   0.59947    0.012
 6407.00    0.71118   0.60074    0.012
 6408.00    0.72636   0.60266    0.012
 6409.00    0.73732   0.60382    0.012
 6410.00    0.70765   0.60365    0.012
 6411.00    0.67897   0.60322    0.012
 6412.00    0.65720   0.60268    0.012
 6413.00    0.63662   0.60141    0.011
 6414.00    0.62253   0.59988    0.011
 6415.00    0.60476   0.59920    0.011
 6416.00    0.57111   0.59931    0.011
 6417.00    0.54216   0.59921    0.011
 6418.00    0.52997   0.59884    0.011
 6419.00    0.52929   0.59885    0.011
 6420.00    0.56300   0.59905    0.011
 6421.00    0.59092   0.59877    0.011
 6422.00    0.60410   0.59792    0.011
 6423.00    0.61283   0.59703    0.011
 6424.00    0.61182   0.59685    0.011
 6425.00    0.60055   0.59758    0.011
 6426.00    0.56978   0.59861    0.011
 6427.00    0.55085   0.59972    0.012
 6428.00    0.55158   0.60134    0.012
 6429.00    0.58844   0.60332    0.012
 6430.00    0.67783   0.60468    0.012
 6431.00    0.72597   0.60467    0.012
 6432.00    0.72136   0.60346    0.012
 6433.00    0.68848   0.60180    0.012
 6434.00    0.62376   0.60044    0.012
 6435.00    0.59389   0.59943    0.012
 6436.00    0.59866   0.59849    0.012
 6437.00    0.60529   0.59787    0.012
 6438.00    0.61353   0.59817    0.012
 6439.00    0.60005   0.59905    0.012
 6440.00    0.56980   0.59929    0.012
 6441.00    0.57196   0.59893    0.011
 6442.00    0.59612   0.59922    0.012
 6443.00    0.60788   0.60039    0.011
 6444.00    0.61225   0.60161    0.011
 6445.00    0.60746   0.60282    0.011
 6446.00    0.59790   0.60468    0.012
 6447.00    0.58091   0.60690    0.012
 6448.00    0.56058   0.60823    0.012
 6449.00    0.56964   0.60819    0.012
 6450.00    0.59008   0.60684    0.012
 6451.00    0.62428   0.60400    0.012
 6452.00    0.66300   0.60030    0.012
 6453.00    0.68664   0.59715    0.012
 6454.00    0.70612   0.59492    0.012
 6455.00    0.68598   0.59325    0.012
 6456.00    0.65685   0.59229    0.012
 6457.00    0.61005   0.59256    0.012
 6458.00    0.56006   0.59397    0.012
 6459.00    0.53336   0.59580    0.012
 6460.00    0.50989   0.59740    0.012
 6461.00    0.54715   0.59840    0.012
 6462.00    0.59048   0.59893    0.012
 6463.00    0.57931   0.59902    0.012
 6464.00    0.56470   0.59820    0.012
 6465.00    0.57227   0.59690    0.012
 6466.00    0.58047   0.59617    0.012
 6467.00    0.58694   0.59592    0.012
 6468.00    0.59310   0.59569    0.012
 6469.00    0.59074   0.59602    0.012
 6470.00    0.58734   0.59758    0.011
 6471.00    0.56925   0.59952    0.011
 6472.00    0.55062   0.60071    0.012
 6473.00    0.52686   0.60102    0.012
 6474.00    0.50715   0.60099    0.012
 6475.00    0.51480   0.60089    0.012
 6476.00    0.52509   0.60039    0.012
 6477.00    0.54923   0.59951    0.012
 6478.00    0.57659   0.59893    0.012
 6479.00    0.61757   0.59897    0.012
 6480.00    0.65571   0.59891    0.012
 6481.00    0.68391   0.59833    0.012
 6482.00    0.69913   0.59759    0.012
 6483.00    0.67624   0.59664    0.012
 6484.00    0.65075   0.59507    0.012
 6485.00    0.61879   0.59335    0.012
 6486.00    0.59186   0.59213    0.012
 6487.00    0.57580   0.59129    0.012
 6488.00    0.56588   0.59057    0.012
 6489.00    0.56743   0.59037    0.011
 6490.00    0.58209   0.59073    0.011
 6491.00    0.61818   0.59068    0.012
 6492.00    0.64131   0.58936    0.012
 6493.00    0.64588   0.58680    0.012
 6494.00    0.62882   0.58320    0.012
 6495.00    0.58450   0.57811    0.011
 6496.00    0.57417   0.57144    0.012
 6497.00    0.60160   0.56449    0.012
 6498.00    0.61564   0.55863    0.012
 6499.00    0.61657   0.55420    0.012
 6500.00    0.60455   0.55138    0.012
 6501.00    0.58137   0.55071    0.011
 6502.00    0.57345   0.55282    0.012
 6503.00    0.57716   0.55724    0.012
 6504.00    0.59746   0.56281    0.012
 6505.00    0.62884   0.56863    0.012
 6506.00    0.64702   0.57435    0.012
 6507.00    0.65746   0.57977    0.012
 6508.00    0.66090   0.58435    0.012
 6509.00    0.66075   0.58772    0.012
 6510.00    0.63248   0.58991    0.012
 6511.00    0.59175   0.59138    0.012
 6512.00    0.57329   0.59242    0.012
 6513.00    0.56329   0.59287    0.012
 6514.00    0.58516   0.59268    0.012
 6515.00    0.61733   0.59221    0.012
 6516.00    0.64547   0.59159    0.012
 6517.00    0.67253   0.59052    0.011
 6518.00    0.69679   0.58908    0.011
 6519.00    0.72043   0.58767    0.012
 6520.00    0.67544   0.58636    0.012
 6521.00    0.61835   0.58531    0.012
 6522.00    0.62115   0.58501    0.012
 6523.00    0.63201   0.58547    0.012
 6524.00    0.64853   0.58622    0.012
 6525.00    0.66558   0.58715    0.012
 6526.00    0.67342   0.58843    0.012
 6527.00    0.68072   0.58964    0.012
 6528.00    0.69199   0.59011    0.000
 6529.00    0.70325   0.58998    0.000
 6530.00    0.69879   0.58987    0.000
 6531.00    0.69383   0.58977    0.000
 6532.00    0.67618   0.58934    0.000
 6533.00    0.65835   0.58869    0.000
 6534.00    0.63803   0.58825    0.000
 6535.00    0.62148   0.58809    0.000
 6536.00    0.63856   0.58807    0.000
 6537.00    0.65772   0.58819    0.000
 6538.00    0.69051   0.58841    0.000
 6539.00    0.71323   0.58868    0.000
 6540.00    0.68449   0.58916    0.000
 6541.00    0.65752   0.58982    0.000
 6542.00    0.63784   0.59023    0.000
 6543.00    0.63244   0.58992    0.000
 6544.00    0.67581   0.58895    0.000
 6545.00    0.71188   0.58757    0.000
 6546.00    0.72690   0.58573    0.000
 6547.00    0.72858   0.58306    0.000
 6548.00    0.69743   0.57972    0.000
 6549.00    0.68303   0.57664    0.000
 6550.00    0.70415   0.57422    0.000
 6551.00    0.71666   0.57192    0.000
 6552.00    0.71334   0.56948    0.000
 6553.00    0.70447   0.56740    0.000
 6554.00    0.68668   0.56567    0.000
 6555.00    0.64941   0.56352    0.000
 6556.00    0.58465   0.56037    0.000
 6557.00    0.55367   0.55636    0.000
 6558.00    0.56465   0.55183    0.000
 6559.00    0.59681   0.54645    0.000
 6560.00    0.65216   0.53929    0.000
 6561.00    0.70381   0.53037    0.000
 6562.00    0.75189   0.52059    0.000
 6563.00    0.79784   0.50947    0.000
 6564.00    0.84197   0.49601    0.000
 6565.00    0.85565   0.48315    0.000
 6566.00    0.84649   0.47541    0.000
 6567.00    0.82358   0.47226    0.000
 6568.00    0.79162   0.47167    0.000
 6569.00    0.74988   0.47594    0.000
 6570.00    0.70251   0.48666    0.000
 6571.00    0.64249   0.49984    0.000
 6572.00    0.57610   0.51183    0.000
 6573.00    0.58402   0.52241    0.000
 6574.00    0.62427   0.53140    0.000
 6575.00    0.61894   0.53805    0.000
 6576.00    0.59659   0.54283    0.000
 6577.00    0.56970   0.54668    0.000
 6578.00    0.54137   0.54995    0.000
 6579.00    0.56465   0.55287    0.000
 6580.00    0.60159   0.55585    0.000
 6581.00    0.65536   0.55897    0.000
 6582.00    0.71278   0.56196    0.000
 6583.00    0.75340   0.56447    0.000
 6584.00    0.79114   0.56657    0.000
 6585.00    0.74648   0.56838    0.000
 6586.00    0.69111   0.56971    0.000
 6587.00    0.69460   0.57065    0.000
 6588.00    0.70346   0.57157    0.000
 6589.00    0.69202   0.57260    0.000
 6590.00    0.67945   0.57335    0.000
 6591.00    0.67011   0.57348    0.000
 6592.00    0.66123   0.57319    0.000
 6593.00    0.69017   0.57255    0.000
 6594.00    0.71582   0.57101    0.000
 6595.00    0.66608   0.56859    0.000
 6596.00    0.62149   0.56653    0.000
 6597.00    0.64217   0.56524    0.000
 6598.00    0.65935   0.56410    0.000
 6599.00    0.64656   0.56336    0.000
 6600.00    0.62888   0.56399    0.000
 6601.00    0.58009   0.56582    0.000
 6602.00    0.54116   0.56790    0.000
 6603.00    0.55133   0.56972    0.000
 6604.00    0.56457   0.57126    0.000
 6605.00    0.59018   0.57253    0.000
 6606.00    0.60967   0.57332    0.000
 6607.00    0.60867   0.57332    0.000
 6608.00    0.60668   0.57273    0.000
 6609.00    0.60189   0.57177    0.012
 6610.00    0.58357   0.57045    0.012
 6611.00    0.53256   0.56904    0.012
 6612.00    0.50942   0.56840    0.012
 6613.00    0.54445   0.56864    0.012
 6614.00    0.58214   0.56902    0.012
 6615.00    0.62465   0.56947    0.012
 6616.00    0.65210   0.57077    0.012
 6617.00    0.65567   0.57282    0.012
 6618.00    0.67355   0.57444    0.012
 6619.00    0.71135   0.57539    0.012
 6620.00    0.70745   0.57636    0.012
 6621.00    0.65245   0.57751    0.012
 6622.00    0.61032   0.57812    0.012
 6623.00    0.58209   0.57803    0.012
 6624.00    0.60525   0.57763    0.012
 6625.00    0.67737   0.57695    0.013
 6626.00    0.68063   0.57572    0.013
 6627.00    0.62605   0.57421    0.012
 6628.00    0.61464   0.57286    0.012
 6629.00    0.63517   0.57154    0.013
 6630.00    0.64483   0.57015    0.013
 6631.00    0.64744   0.56901    0.013
 6632.00    0.63626   0.56828    0.013
 6633.00    0.61726   0.56762    0.013
 6634.00    0.61856   0.56672    0.013
 6635.00    0.62991   0.56562    0.013
 6636.00    0.62099   0.56462    0.012
 6637.00    0.60339   0.56410    0.012
 6638.00    0.58879   0.56388    0.012
 6639.00    0.57530   0.56381    0.012
 6640.00    0.55711   0.56415    0.012
 6641.00    0.53746   0.56488    0.012
 6642.00    0.56143   0.56568    0.012
 6643.00    0.59669   0.56641    0.012
 6644.00    0.61561   0.56672    0.012
 6645.00    0.63109   0.56619    0.012
 6646.00    0.60982   0.56561    0.012
 6647.00    0.58243   0.56562    0.012
 6648.00    0.60966   0.56543    0.013
 6649.00    0.64375   0.56464    0.013
 6650.00    0.60830   0.56443    0.013
 6651.00    0.56679   0.56510    0.013
 6652.00    0.57092   0.56553    0.013
 6653.00    0.57739   0.56537    0.013
 6654.00    0.58830   0.56530    0.013
 6655.00    0.59887   0.56541    0.013
 6656.00    0.58009   0.56524    0.013
 6657.00    0.56244   0.56478    0.012
 6658.00    0.56852   0.56433    0.013
 6659.00    0.57294   0.56397    0.013
 6660.00    0.55729   0.56358    0.013
 6661.00    0.53759   0.56297    0.012
 6662.00    0.48439   0.56208    0.012
 6663.00    0.44829   0.56110    0.012
 6664.00    0.51776   0.55991    0.012
 6665.00    0.57883   0.55825    0.012
 6666.00    0.59912   0.55680    0.012
 6667.00    0.60623   0.55597    0.013
 6668.00    0.56128   0.55527    0.013
 6669.00    0.53213   0.55470    0.013
 6670.00    0.55482   0.55515    0.013
 6671.00    0.56740   0.55650    0.013
 6672.00    0.55194   0.55785    0.013
 6673.00    0.55677   0.55907    0.013
 6674.00    0.60982   0.56034    0.013
 6675.00    0.63721   0.56135    0.013
 6676.00    0.61195   0.56162    0.013
 6677.00    0.59141   0.56118    0.013
 6678.00    0.57929   0.55995    0.013
 6679.00    0.56109   0.55759    0.013
 6680.00    0.53336   0.55473    0.013
 6681.00    0.52454   0.55258    0.013
 6682.00    0.54165   0.55092    0.013
 6683.00    0.55666   0.54900    0.013
 6684.00    0.56914   0.54798    0.013
 6685.00    0.58577   0.54888    0.013
 6686.00    0.60683   0.55049    0.013
 6687.00    0.61734   0.55168    0.013
 6688.00    0.61795   0.55297    0.013
 6689.00    0.62762   0.55455    0.013
 6690.00    0.64480   0.55576    0.013
 6691.00    0.62181   0.55650    0.013
 6692.00    0.56955   0.55699    0.013
 6693.00    0.55211   0.55721    0.013
 6694.00    0.55695   0.55714    0.013
 6695.00    0.55499   0.55700    0.013
 6696.00    0.54922   0.55669    0.000
 6697.00    0.56131   0.55600    0.000
 6698.00    0.58210   0.55508    0.000
 6699.00    0.56730   0.55438    0.000
 6700.00    0.53753   0.55385    0.000
 6701.00    0.56829   0.55329    0.000
 6702.00    0.62085   0.55298    0.000
 6703.00    0.65626   0.55315    0.000
 6704.00    0.68645   0.55344    0.000
 6705.00    0.66479   0.55357    0.000
 6706.00    0.63001   0.55370    0.000
 6707.00    0.56219   0.55387    0.000
 6708.00    0.48758   0.55390    0.000
 6709.00    0.51591   0.55374    0.000
 6710.00    0.56091   0.55358    0.000
 6711.00    0.57273   0.55353    0.000
 6712.00    0.58054   0.55327    0.000
 6713.00    0.51521   0.55280    0.000
 6714.00    0.44382   0.55207    0.000
 6715.00    0.52235   0.55083    0.000
 6716.00    0.60798   0.54908    0.000
 6717.00    0.60995   0.54721    0.000
 6718.00    0.61026   0.54511    0.000
 6719.00    0.58366   0.54260    0.000
 6720.00    0.55902   0.54048    0.000
 6721.00    0.57253   0.53936    0.000
 6722.00    0.58428   0.53871    0.000
 6723.00    0.57582   0.53829    0.000
 6724.00    0.56421   0.53882    0.000
 6725.00    0.52744   0.54035    0.000
 6726.00    0.49527   0.54181    0.000
 6727.00    0.49062   0.54281    0.000
 6728.00    0.49071   0.54380    0.000
 6729.00    0.51319   0.54495    0.000
 6730.00    0.54803   0.54582    0.000
 6731.00    0.63059   0.54627    0.000
 6732.00    0.69347   0.54669    0.000
 6733.00    0.69302   0.54725    0.000
 6734.00    0.68177   0.54769    0.000
 6735.00    0.64108   0.54789    0.000
 6736.00    0.61133   0.54800    0.000
 6737.00    0.60715   0.54800    0.000
 6738.00    0.62174   0.54781    0.000
 6739.00    0.67426   0.54741    0.000
 6740.00    0.70241   0.54678    0.000
 6741.00    0.68770   0.54604    0.000
 6742.00    0.62459   0.54538    0.000
 6743.00    0.48698   0.54472    0.000
 6744.00    0.43385   0.54379    0.000
 6745.00    0.49495   0.54292    0.000
 6746.00    0.52134   0.54255    0.000
 6747.00    0.50640   0.54227    0.000
 6748.00    0.51508   0.54160    0.000
 6749.00    0.54854   0.54097    0.000
 6750.00    0.54977   0.54062    0.000
 6751.00    0.52116   0.54001    0.000
 6752.00    0.50166   0.53916    0.000
 6753.00    0.48960   0.53863    0.015
 6754.00    0.49304   0.53827    0.015
 6755.00    0.50761   0.53788    0.015
 6756.00    0.50816   0.53812    0.015
 6757.00    0.49987   0.53898    0.015
 6758.00    0.51139   0.53993    0.015
 6759.00    0.53384   0.54112    0.016
 6760.00    0.59273   0.54280    0.016
 6761.00    0.66909   0.54443    0.016
 6762.00    0.72890   0.54579    0.017
 6763.00    0.78187   0.54702    0.017
 6764.00    0.79919   0.54788    0.017
 6765.00    0.80391   0.54829    0.017
 6766.00    0.72776   0.54830    0.017
 6767.00    0.62746   0.54791    0.016
 6768.00    0.68282   0.54701    0.016
 6769.00    0.77672   0.54576    0.016
 6770.00    0.72329   0.54456    0.016
 6771.00    0.64027   0.54359    0.016
 6772.00    0.60853   0.54255    0.015
 6773.00    0.58485   0.54167    0.015
 6774.00    0.59514   0.54164    0.015
 6775.00    0.60939   0.54231    0.015
 6776.00    0.63718   0.54309    0.015
 6777.00    0.66603   0.54415    0.014
 6778.00    0.70190   0.54568    0.015
 6779.00    0.73808   0.54718    0.015
 6780.00    0.70598   0.54834    0.015
 6781.00    0.67400   0.54918    0.015
 6782.00    0.68096   0.54948    0.015
 6783.00    0.68667   0.54906    0.015
 6784.00    0.66985   0.54800    0.015
 6785.00    0.65841   0.54641    0.015
 6786.00    0.70591   0.54447    0.015
 6787.00    0.74590   0.54246    0.016
 6788.00    0.72822   0.54055    0.016
 6789.00    0.68728   0.53906    0.016
 6790.00    0.51080   0.53824    0.016
 6791.00    0.37912   0.53786    0.016
 6792.00    0.45464   0.53781    0.016
 6793.00    0.53033   0.53823    0.016
 6794.00    0.60669   0.53877    0.016
 6795.00    0.65503   0.53898    0.016
 6796.00    0.61483   0.53912    0.015
 6797.00    0.59734   0.53942    0.015
 6798.00    0.64069   0.53954    0.015
 6799.00    0.66760   0.53956    0.015
 6800.00    0.65674   0.53982    0.015
 6801.00    0.62054   0.54027    0.015
 6802.00    0.53395   0.54079    0.015
 6803.00    0.48018   0.54136    0.015
 6804.00    0.48327   0.54193    0.015
 6805.00    0.49669   0.54234    0.015
 6806.00    0.52578   0.54261    0.015
 6807.00    0.53427   0.54281    0.015
 6808.00    0.51532   0.54271    0.015
 6809.00    0.56538   0.54236    0.015
 6810.00    0.69645   0.54216    0.015
 6811.00    0.67675   0.54195    0.016
 6812.00    0.50101   0.54147    0.016
 6813.00    0.45634   0.54115    0.016
 6814.00    0.53132   0.54112    0.016
 6815.00    0.57817   0.54096    0.016
 6816.00    0.60239   0.54059    0.016
 6817.00    0.62950   0.54037    0.016
 6818.00    0.65865   0.54038    0.015
 6819.00    0.64021   0.54038    0.015
 6820.00    0.59221   0.54026    0.015
 6821.00    0.55420   0.54022    0.015
 6822.00    0.52160   0.54047    0.015
 6823.00    0.48924   0.54085    0.015
 6824.00    0.45698   0.54121    0.014
 6825.00    0.53228   0.54154    0.015
 6826.00    0.65131   0.54192    0.015
 6827.00    0.58555   0.54239    0.015
 6828.00    0.45563   0.54272    0.015
 6829.00    0.50331   0.54267    0.015
 6830.00    0.60294   0.54239    0.016
 6831.00    0.65038   0.54221    0.016
 6832.00    0.68517   0.54204    0.016
 6833.00    0.66652   0.54172    0.016
 6834.00    0.63741   0.54142    0.016
 6835.00    0.65044   0.54146    0.016
 6836.00    0.66989   0.54170    0.016
 6837.00    0.57506   0.54174    0.016
 6838.00    0.46740   0.54148    0.016
 6839.00    0.57267   0.54106    0.017
 6840.00    0.69385   0.54035    0.017
 6841.00    0.62062   0.53911    0.017
 6842.00    0.53968   0.53751    0.016
 6843.00    0.52220   0.53581    0.016
 6844.00    0.50740   0.53423    0.015
 6845.00    0.58119   0.53302    0.015
 6846.00    0.64706   0.53237    0.015
 6847.00    0.57915   0.53234    0.015
 6848.00    0.51902   0.53287    0.015
 6849.00    0.54017   0.53391    0.015
 6850.00    0.56296   0.53523    0.015
 6851.00    0.59785   0.53642    0.015
 6852.00    0.62932   0.53724    0.015
 6853.00    0.64136   0.53774    0.015
 6854.00    0.63796   0.53788    0.015
 6855.00    0.56487   0.53750    0.016
 6856.00    0.50334   0.53655    0.016
 6857.00    0.48457   0.53533    0.015
 6858.00    0.47862   0.53424    0.015
 6859.00    0.51241   0.53303    0.016
 6860.00    0.53625   0.53165    0.016
 6861.00    0.53395   0.53076    0.016
 6862.00    0.52673   0.53035    0.016
 6863.00    0.50843   0.52987    0.015
 6864.00    0.49892   0.52970    0.015
 6865.00    0.50662   0.53024    0.015
 6866.00    0.50945   0.53080    0.015
 6867.00    0.50398   0.53115    0.015
 6868.00    0.48759   0.53175    0.015
 6869.00    0.45490   0.53240    0.015
 6870.00    0.47639   0.53251    0.015
 6871.00    0.56903   0.53242    0.015
 6872.00    0.62400   0.53239    0.015
 6873.00    0.63538   0.53209    0.015
 6874.00    0.65092   0.53163    0.015
 6875.00    0.67072   0.53163    0.015
 6876.00    0.71395   0.53190    0.016
 6877.00    0.77827   0.53206    0.016
 6878.00    0.72634   0.53257    0.016
 6879.00    0.58220   0.53355    0.016
 6880.00    0.54373   0.53439    0.016
 6881.00    0.57899   0.53494    0.016
 6882.00    0.61452   0.53553    0.016
 6883.00    0.65021   0.53585    0.016
 6884.00    0.66090   0.53559    0.015
 6885.00    0.65824   0.53519    0.015
 6886.00    0.62784   0.53490    0.015
 6887.00    0.58457   0.53446    0.015
 6888.00    0.59159   0.53408    0.015
 6889.00    0.61871   0.53438    0.015
 6890.00    0.55211   0.53510    0.015
 6891.00    0.45357   0.53574    0.015
 6892.00    0.50217   0.53667    0.015
 6893.00    0.59296   0.53796    0.015
 6894.00    0.62361   0.53896    0.015
 6895.00    0.64002   0.53956    0.015
 6896.00    0.62889   0.54015    0.015
 6897.00    0.61252   0.54048    0.015
 6898.00    0.21336   0.54040    0.015
 6899.00   -0.24236   0.54024    0.000
 6900.00    0.14534   0.54013    0.026
 6901.00    0.62403   0.53987    0.426
 6902.00    0.60875   0.53958   -1.000
 6903.00    0.55855   0.53956   -1.000
 6904.00    0.58956   0.53977   -1.000
 6905.00    0.62350   0.53997   -1.000
 6906.00    0.64478   0.54026   -1.000
 6907.00    0.66504   0.54084   -1.000
 6908.00    0.65105   0.54157   -1.000
 6909.00    0.63431   0.54219   -1.000
 6910.00    0.57416   0.54270   -1.000
 6911.00    0.51942   0.54319   -1.000
 6912.00    0.51872   0.54344   -1.000
 6913.00    0.52282   0.54325   -1.000
 6914.00    0.56136   0.54276   -1.000
 6915.00    0.61257   0.54193   -1.000
 6916.00    0.73374   0.54073   -1.000
 6917.00    0.80495   0.53959   -1.000
 6918.00    0.65589   0.53858   -1.000
 6919.00    0.53832   0.53752   -1.000
 6920.00    0.53490   0.53691   -1.000
 6921.00    0.52588   0.53684   -1.000
 6922.00    0.49981   0.53689   -1.000
 6923.00    0.49077   0.53707   -1.000
 6924.00    0.52577   0.53748   -1.000
 6925.00    0.56343   0.53775   -1.000
 6926.00    0.60705   0.53768   -1.000
 6927.00    0.60330   0.53755   -1.000
 6928.00    0.50830   0.53736   -1.000
 6929.00    0.45007   0.53714   -1.000
 6930.00    0.45363   0.53699   -1.000
 6931.00    0.48255   0.53706   -1.000
 6932.00    0.54880   0.53741   -1.000
 6933.00    0.60759   0.53783   -1.000
 6934.00    0.65672   0.53815   -1.000
 6935.00    0.62636   0.53838   -1.000
 6936.00    0.50531   0.53876   -1.000
 6937.00    0.46604   0.53908   -1.000
 6938.00    0.50905   0.53910   -1.000
 6939.00    0.54284   0.53925   -1.000
 6940.00    0.56843   0.53970   -1.000
 6941.00    0.57291   0.54007   -1.000
 6942.00    0.56088   0.54028   -1.000
 6943.00    0.53659   0.54054   -1.000
 6944.00    0.50388   0.54070   -1.000
 6945.00    0.49755   0.54056   -1.000
 6946.00    0.50711   0.54013   -1.000
 6947.00    0.50583   0.53950   -1.000
 6948.00    0.49884   0.53905   -1.000
 6949.00    0.50094   0.53868   -1.000
 6950.00    0.50718   0.53824   -1.000
 6951.00    0.56407   0.53819   -1.000
 6952.00    0.64085   0.53848   -1.000
 6953.00    0.67499   0.53851   -1.000
 6954.00    0.69486   0.53853   -1.000
 6955.00    0.60176   0.53870   -1.000
 6956.00    0.47692   0.53861   -1.000
 6957.00    0.40035   0.53851   -1.000
 6958.00    0.33496   0.53873   -1.000
 6959.00    0.39067   0.53900   -1.000
 6960.00    0.46888   0.53936   -1.000
 6961.00    0.57206   0.54011   -1.000
 6962.00    0.67883   0.54098   -1.000
 6963.00    0.59106   0.54173   -1.000
 6964.00    0.48314   0.54246   -1.000
 6965.00    0.48696   0.54318   -1.000
 6966.00    0.49824   0.54379   -1.000
 6967.00    0.55781   0.54416   -1.000
 6968.00    0.61889   0.54442   -1.000
 6969.00    0.51467   0.54475   -1.000
 6970.00    0.41599   0.54500   -1.000
 6971.00    0.48714   0.54504   -1.000
 6972.00    0.55781   0.54503   -1.000
 6973.00    0.62126   0.54498   -1.000
 6974.00    0.67232   0.54467   -1.000
 6975.00    0.60432   0.54405   -1.000
 6976.00    0.54184   0.54295   -1.000
 6977.00    0.51779   0.54149   -1.000
 6978.00    0.49201   0.53984   -1.000
 6979.00    0.45699   0.53771   -1.000
 6980.00    0.44368   0.53514   -1.000
 6981.00    0.52392   0.53307   -1.000
 6982.00    0.59128   0.53186   -1.000
 6983.00    0.61294   0.53098   -1.000
 6984.00    0.63223   0.53093   -1.000
 6985.00    0.64445   0.53236   -1.000
 6986.00    0.61670   0.53440   -1.000
 6987.00    0.48742   0.53638   -1.000
 6988.00    0.44002   0.53851   -1.000
 6989.00    0.57160   0.54051   -1.000
 6990.00    0.62661   0.54175   -1.000
 6991.00    0.53637   0.54236   -1.000
 6992.00    0.47586   0.54267   -1.000
 6993.00    0.46457   0.54262   -1.000
 6994.00    0.45903   0.54236   -1.000
 6995.00    0.46183   0.54216   -1.000
 6996.00    0.41889   0.54203   -1.000
 6997.00    0.31757   0.54192   -1.000
 6998.00    0.31342   0.54175   -1.000
 6999.00    0.41858   0.54146   -1.000
 7000.00    0.48128   0.54106   -1.000
 7001.00    0.50187   0.54042   -1.000
 7002.00    0.53565   0.53961   -1.000
 7003.00    0.58099   0.53884   -1.000
 7004.00    0.57391   0.53803   -1.000
 7005.00    0.52645   0.53717   -1.000
 7006.00    0.48495   0.53655   -1.000
 7007.00    0.44749   0.53628   -1.000
 7008.00    0.43099   0.53605   -1.000
 7009.00    0.42694   0.53584   -1.000
 7010.00    0.51395   0.53599   -1.000
 7011.00    0.64812   0.53645   -1.000
 7012.00    0.55243   0.53683   -1.000
 7013.00    0.35356   0.53705   -1.000
 7014.00    0.40926   0.53731   -1.000
 7015.00    0.56322   0.53742   -1.000
 7016.00    0.61273   0.53704   -1.000
 7017.00    0.62795   0.53624   -1.000
 7018.00    0.63497   0.53529   -1.000
 7019.00    0.63973   0.53459   -1.000
 7020.00    0.63647   0.53402   -1.000
 7021.00    0.63139   0.53339   -1.000
 7022.00    0.65362   0.53348   -1.000
 7023.00    0.68078   0.53441   -1.000
 7024.00    0.67300   0.53512   -1.000
 7025.00    0.66038   0.53546   -1.000
 7026.00    0.67903   0.53604   -1.000
 7027.00    0.70078   0.53656   -1.000
 7028.00    0.65870   0.53657   -1.000
 7029.00    0.61262   0.53649   -1.000
 7030.00    0.59956   0.53685   -1.000
 7031.00    0.58734   0.53745   -1.000
 7032.00    0.54633   0.53802   -1.000
 7033.00    0.50832   0.53873   -1.000
 7034.00    0.55299   0.53959   -1.000
 7035.00    0.58782   0.54033   -1.000
 7036.00    0.48453   0.54074   -1.000
 7037.00    0.38875   0.54096   -1.000
 7038.00    0.36210   0.54120   -1.000
 7039.00    0.35915   0.54112   -1.000
 7040.00    0.51582   0.54087   -1.000
 7041.00    0.63560   0.54124   -1.000
 7042.00    0.56242   0.54199   -1.000
 7043.00    0.52317   0.54259   -1.000
 7044.00    0.62674   0.54385   -1.000
 7045.00    0.70238   0.54595   -1.000
 7046.00    0.68088   0.54777   -1.000
 7047.00    0.63300   0.54927   -1.000
 7048.00    0.50790   0.55091   -1.000
 7049.00    0.39772   0.55213   -1.000
 7050.00    0.32480   0.55255   -2.000
 7051.00    0.29885   0.55253   -2.000
 7052.00    0.37390   0.55205   -2.000
 7053.00    0.48598   0.55075   -2.000
 7054.00    0.66719   0.54856   -2.000
 7055.00    0.71183   0.54577   -2.000
 7056.00    0.53372   0.54251   -2.000
 7057.00    0.45430   0.53874   -2.000
 7058.00    0.51607   0.53495   -2.000
 7059.00    0.59057   0.53154   -2.000
 7060.00    0.68110   0.52846   -2.000
 7061.00    0.74814   0.52589   -2.000
 7062.00    0.78915   0.52394   -2.000
 7063.00    0.71888   0.52249   -2.000
 7064.00    0.53977   0.52122   -2.000
 7065.00    0.45032   0.52017   -2.000
 7066.00    0.43820   0.51957   -2.000
 7067.00    0.48908   0.51902   -2.000
 7068.00    0.58784   0.51838   -2.000
 7069.00    0.57162   0.51802   -2.000
 7070.00    0.47862   0.51774   -2.000
 7071.00    0.52216   0.51747   -2.000
 7072.00    0.64555   0.51769   -2.000
 7073.00    0.62042   0.51817   -2.000
 7074.00    0.51957   0.51895   -2.000
 7075.00    0.51002   0.52033   -2.000
 7076.00    0.54078   0.52187   -2.000
 7077.00    0.61291   0.52325   -2.000
 7078.00    0.70074   0.52464   -2.000
 7079.00    0.61483   0.52591   -2.000
 7080.00    0.47297   0.52673   -2.000
 7081.00    0.51079   0.52712   -2.000
 7082.00    0.59701   0.52719   -2.000
 7083.00    0.61695   0.52682   -2.000
 7084.00    0.62225   0.52584   -2.000
 7085.00    0.70011   0.52424   -2.000
 7086.00    0.79073   0.52204   -2.000
 7087.00   -0.24043   0.51936   -2.000
 7088.00   -1.42188   0.51633   -2.000
 7089.00   -0.49753   0.51278   -2.000
 7090.00    0.62692   0.50931   -2.000
 7091.00    0.60557   0.50644   -2.000
 7092.00    0.51699   0.50358   -2.000
 7093.00    0.46935   0.50101   -2.000
 7094.00    0.42370   0.49935   -2.000
 7095.00    0.51136   0.49804   -2.000
 7096.00    0.59400   0.49715   -2.000
 7097.00    0.55163   0.49690   -2.000
 7098.00    0.51210   0.49691   -2.000
 7099.00    0.51019   0.49723   -2.000
 7100.00    0.50099   0.49792   -2.000
 7101.00    0.42712   0.49886   -2.000
 7102.00    0.37017   0.49985   -2.000
 7103.00    0.42385   0.50095   -2.000
 7104.00    0.46967   0.50219   -2.000
 7105.00    0.47548   0.50319   -2.000
 7106.00    0.47213   0.50408   -2.000
 7107.00    0.43102   0.50488   -2.000
 7108.00    0.41103   0.50538   -2.000
 7109.00    0.46299   0.50576   -2.000
 7110.00    0.51172   0.50615   -2.000
 7111.00    0.55115   0.50622   -2.000
 7112.00    0.56917   0.50596   -2.000
 7113.00    0.53466   0.50577   -2.000
 7114.00    0.52233   0.50571   -2.000
 7115.00    0.55693   0.50551   -2.000
 7116.00    0.56605   0.50531   -2.000
 7117.00    0.52834   0.50556   -2.000
 7118.00    0.52125   0.50619   -2.000
 7119.00    0.56336   0.50676   -2.000
 7120.00    0.57953   0.50730   -2.000
 7121.00    0.55913   0.50800   -2.000
 7122.00    0.60736   0.50855   -2.000
 7123.00    0.74072   0.50861   -2.000
 7124.00    0.78029   0.50830   -2.000
 7125.00    0.71732   0.50789   -2.000
 7126.00    0.66169   0.50707   -2.000
 7127.00    0.61314   0.50549   -2.000
 7128.00    0.59907   0.50392   -2.000
 7129.00    0.61433   0.50239   -2.000
 7130.00    0.57989   0.50024   -2.000
 7131.00    0.50825   0.49795   -2.000
 7132.00    0.40611   0.49607   -2.000
 7133.00    0.28389   0.49454   -2.000
 7134.00    0.30004   0.49324   -2.000
 7135.00    0.39589   0.49230   -2.000
 7136.00    0.38053   0.49208   -2.000
 7137.00    0.30937   0.49255   -2.000
 7138.00    0.37267   0.49325   -2.000
 7139.00    0.49437   0.49431   -2.000
 7140.00    0.45740   0.49544   -2.000
 7141.00    0.36133   0.49638   -2.000
 7142.00    0.31683   0.49744   -2.000
 7143.00    0.28861   0.49819   -2.000
 7144.00    0.31913   0.49846   -2.000
 7145.00    0.36514   0.49886   -2.000
 7146.00    0.39274   0.49912   -2.000
 7147.00    0.41637   0.49884   -2.000
 7148.00    0.48011   0.49856   -2.000
 7149.00    0.55071   0.49808   -2.000
 7150.00    0.50774   0.49723   -2.000
 7151.00    0.45007   0.49688   -2.000
 7152.00    0.44368   0.49659   -2.000
 7153.00    0.44194   0.49610   -2.000
 7154.00    0.44070   0.49679   -2.000
 7155.00    0.43949   0.49817   -2.000
 7156.00    0.43531   0.49918   -2.000
 7157.00    0.43389   0.50061   -2.000
 7158.00    0.68969   0.50253   -2.000
 7159.00    0.92866   0.50388   -2.000
 7160.00    0.78554   0.50458   -2.000
 7161.00    0.64556   0.50525   -2.000
 7162.00    0.54515   0.50559   -2.000
 7163.00    0.44276   0.50508   -2.000
 7164.00    0.32341   0.50424   -2.000
 7165.00    0.26149   0.50322   -2.000
 7166.00    0.56361   0.50191   -2.000
 7167.00    0.78326   0.50078   -2.000
 7168.00    0.59345   0.49988   -2.000
 7169.00    0.43597   0.49905   -2.000
 7170.00    0.40862   0.49884   -2.000
 7171.00    0.36684   0.49954   -2.000
 7172.00    0.27685   0.50056   -2.000
 7173.00    0.22566   0.50177   -2.000
 7174.00    0.28388   0.50320   -2.000
 7175.00    0.34125   0.50458   -2.000
 7176.00    0.39658   0.50572   -2.000
 7177.00    0.46351   0.50647   -2.000
 7178.00    0.55463   0.50671   -2.000
 7179.00    0.60839   0.50664   -2.000
 7180.00    0.59452   0.50624   -2.000
 7181.00    0.58226   0.50538   -2.000
 7182.00    0.57252   0.50448   -2.000
 7183.00    0.56431   0.50374   -2.000
 7184.00    0.55822   0.50293   -2.000
 7185.00    0.53925   0.50213   -2.000
 7186.00    0.50453   0.50152   -2.000
 7187.00    0.50366   0.50120   -2.000
 7188.00    0.53928   0.50094   -2.000
 7189.00    0.52526   0.50033   -2.000
 7190.00    0.46403   0.49974   -2.000
 7191.00    0.41568   0.49920   -2.000
 7192.00    0.37815   0.49839   -2.000
 7193.00    0.39527   0.49796   -2.000
 7194.00    0.45272   0.49791   -2.000
 7195.00    0.48233   0.49800   -2.000
 7196.00    0.49387   0.49865   -2.000
 7197.00    0.59232   0.49943   -2.000
 7198.00    0.74007   0.50003   -2.000
 7199.00    0.77897   0.50074   -2.000
 7200.00    0.76411   0.50146   -2.000
 7201.00    0.70945   0.50175   -2.000
 7202.00    0.63779   0.50171   -2.000
 7203.00    0.57151   0.50180   -2.000
 7204.00    0.50718   0.50177   -2.000
 7205.00    0.48007   0.50148   -2.000
 7206.00    0.46448   0.50110   -2.000
 7207.00    0.43861   0.50057   -2.000
 7208.00    0.41009   0.50000   -2.000
 7209.00    0.40594   0.49932   -2.000
 7210.00    0.40691   0.49864   -2.000
 7211.00    0.36037   0.49793   -2.000
 7212.00    0.30593   0.49731   -2.000
 7213.00    0.34087   0.49746   -2.000
 7214.00    0.38698   0.49783   -2.000
 7215.00    0.33382   0.49829   -2.000
 7216.00    0.27207   0.49946   -2.000
 7217.00    0.25827   0.50057   -2.000
 7218.00    0.24690   0.50140   -2.000
