###################################################################
## OUTPUT of StarlightChains_v04.for    [Cid@UFSC - 01/Apr/2007] ##
###################################################################

## Some input info
KUG0210-078._21_25.txt                   [arq_obs]
Base.CB07.vall.4m                        [arq_base]
Masks.EmLines.NEW.gm                     [arq_masks]
StCv04.C11.config                        [arq_config]
   66                                    [N_base]
    0                                    [N_YAV_components = # of components with extra extinction!]
    0                                    [i_FitPowerLaw (1/0 = Yes/No)]
-9.99                                    [alpha_PowerLaw]
CCM                                      [red_law_option]
 1.458241                                [q_norm = A(l_norm)/A(V)]

## (Re)Sampling Parameters
 3741.00                                 [l_ini (A)]
 7218.00                                 [l_fin (A)]
    1.00                                 [dl    (A)]     (OBS: dl_cushion =    50.00 A)

## Normalization info
 4020.00                                 [l_norm (A) - for base]
 4010.00                                 [llow_norm (A) - window for f_obs]
 4060.00                                 [lupp_norm (A) - window for f_obs]
1.043029E-17                             [fobs_norm (in input units)]

## S/N
 3691.00                                 [llow_SN (A) - window for S/N]
 7268.00                                 [lupp_SN (A) - window for S/N]
   3.482                                 [S/N in S/N window]
   4.270                                 [S/N in norm. window]
   0.011                                 [S/N_err in S/N window]
   0.013                                 [S/N_err in norm. window]
  1.0000                                 [fscale_chi2]

## etc...
    -2007227                             [idum_orig]
  2410                                   [NOl_eff]
  2352                                   [Nl_eff]
    58    NSIGMA                         [Ntot_cliped & clip_method]
  5860680                                [Nglobal_steps]
   7                                     [N_chains]
  18                                     [NEX0s_base = N_base in EX0s-fits]
 0   1   1       59   2.0   3.425E+03    [Clip-Bug, RC-Crash & Burn-In warning-flags, n_censored_weights, wei_nsig_threshold & wei_limit]
    63     62.947     62.414      0.532  [idt_all, wdt_TotTime, wdt_UsrTime & wdt_SysTime (sec)]

## Synthesis Results - Best model ##

 5.23141E-04                             [chi2/Nl_eff]
    61.81832                             [adev (%)]

   106.82527                             [sum-of-x (%)]
 2.92060E-18                             [Flux_tot (units of input spectrum!)]
 3.99284E-16                             [Mini_tot (???)]
 3.22107E-16                             [Mcor_tot (???)]

-112.86                                  [v0_min  (km/s)]
   0.00                                  [vd_min  (km/s)]
-0.9969                                  [AV_min  (mag)]
 0.0000                                  [YAV_min (mag)]

# j     x_j(%)      Mini_j(%)     Mcor_j(%)     age_j(yr)     Z_j      (L/M)_j    YAV?  Mstars   component_j        a/Fe...       SSP_chi2r SSP_adev(%)   SSP_AV   SSP_x(%)
  1      0.0503     3.1455E-02    3.8992E-02    1.000000E+06  0.00400  1.094E-02    0   1.0000   age020_m42            0.0000     2.3911E-05    31.4235   1.9860   107.9677
  2      0.8110     1.3859E-01    1.7178E-01    3.160000E+06  0.00400  4.007E-02    0   0.9999   age045_m42            0.0000     3.3635E-05    37.9404   0.7334   131.4675
  3      0.5865     1.5816E-01    1.8601E-01    5.010000E+06  0.00400  2.539E-02    0   0.9488   age055_m42            0.0000     3.0080E-05    35.6607   1.2283   123.5166
  4      0.0000     0.0000E+00    0.0000E+00    6.610000E+06  0.00400  2.620E-02    0   0.9220   age061_m42            0.0000     3.7782E-05    39.9950   0.4996   136.4037
  5      0.0000     0.0000E+00    0.0000E+00    1.000000E+07  0.00400  1.322E-02    0   0.8862   age070_m42            0.0000     3.4553E-05    37.0099   0.4171   134.2265
  6      7.7440     6.7265E+00    7.1467E+00    1.445000E+07  0.00400  7.883E-03    0   0.8571   age078_m42            0.0000     3.0217E-05    34.6712   0.9186   125.5096
  7      0.0000     0.0000E+00    0.0000E+00    2.512000E+07  0.00400  5.251E-03    0   0.8174   age090_m42            0.0000     3.5166E-05    37.1540   0.2676   135.5526
  8      0.0000     0.0000E+00    0.0000E+00    4.000000E+07  0.00400  3.649E-03    0   0.7851   age104_m42            0.0000     3.7201E-05    38.5284  -0.0599   139.4115
  9      0.0000     0.0000E+00    0.0000E+00    5.500000E+07  0.00400  3.098E-03    0   0.7629   age110_m42            0.0000     4.5132E-05    43.2187  -0.2374   147.9722
 10      0.0000     0.0000E+00    0.0000E+00    1.015200E+08  0.00400  2.228E-03    0   0.7207   age116_m42            0.0000     5.4769E-05    48.3874  -0.6049   156.5596
 11      0.0000     0.0000E+00    0.0000E+00    2.861200E+08  0.00400  1.093E-03    0   0.6648   age125_m42            0.0000     6.7746E-05    49.2166  -1.0000   174.3152
 12      0.0000     0.0000E+00    0.0000E+00    5.088000E+08  0.00400  6.597E-04    0   0.6365   age130_m42            0.0000     8.9738E-05    53.8253  -1.0000   194.0047
 13      0.0000     0.0000E+00    0.0000E+00    1.434000E+09  0.00400  2.132E-04    0   0.5798   age139_m42            0.0000     8.5731E-05    57.1863  -1.0000   189.0176
 14      0.0000     0.0000E+00    0.0000E+00    4.250000E+09  0.00400  5.895E-05    0   0.5377   age158_m42            0.0000     6.6455E-05    58.4613  -1.0000   163.4407
 15      0.0000     0.0000E+00    0.0000E+00    7.500000E+09  0.00400  3.510E-05    0   0.5212   age171_m42            0.0000     7.3586E-05    66.5354  -1.0000   161.4504
 16      0.0000     0.0000E+00    0.0000E+00    1.300000E+10  0.00400  2.005E-05    0   0.5034   age193_m42            0.0000     8.4540E-05    76.1805  -1.0000   160.8680
 17      0.0000     0.0000E+00    0.0000E+00    1.800000E+10  0.00400  1.525E-05    0   0.4967   age213_m42            0.0000     8.2532E-05    75.7557  -1.0000   158.4359
 18      2.8167     1.5579E+00    1.9312E+00    1.000000E+06  0.00800  1.238E-02    0   1.0000   age020_m52            0.0000     2.3834E-05    31.3529   1.9860   107.9362
 19      0.0506     1.1281E-02    1.3937E-02    3.160000E+06  0.00800  3.074E-02    0   0.9966   age045_m52            0.0000     2.4154E-05    31.6031   1.8906   109.4258
 20      0.0000     0.0000E+00    0.0000E+00    5.010000E+06  0.00800  2.668E-02    0   0.9443   age055_m52            0.0000     2.7803E-05    34.1730   1.4265   118.8698
 21      0.0000     0.0000E+00    0.0000E+00    6.610000E+06  0.00800  2.136E-02    0   0.9177   age061_m52            0.0000     2.7638E-05    34.5232  -0.0000   125.8972
 22      0.4237     2.3878E-01    2.6127E-01    1.000000E+07  0.00800  1.215E-02    0   0.8827   age070_m52            0.0000     3.0899E-05    34.5918   0.7605   129.0469
 23      4.2752     3.3582E+00    3.5601E+00    1.445000E+07  0.00800  8.717E-03    0   0.8552   age078_m52            0.0000     3.1364E-05    35.3041   0.8336   128.8147
 24      0.0415     5.0817E-02    5.1415E-02    2.512000E+07  0.00800  5.592E-03    0   0.8162   age090_m52            0.0000     3.5640E-05    37.3516   0.3156   137.6266
 25      0.0000     0.0000E+00    0.0000E+00    4.000000E+07  0.00800  3.896E-03    0   0.7841   age104_m52            0.0000     4.0565E-05    40.5176  -0.0001   144.4693
 26      0.0000     0.0000E+00    0.0000E+00    1.015200E+08  0.00800  2.148E-03    0   0.7226   age116_m52            0.0000     5.1190E-05    46.4628  -0.4889   154.9269
 27      0.0000     0.0000E+00    0.0000E+00    2.861200E+08  0.00800  9.925E-04    0   0.6683   age125_m52            0.0000     8.1687E-05    52.4025  -1.0000   189.9327
 28      0.0000     0.0000E+00    0.0000E+00    9.047900E+08  0.00800  3.141E-04    0   0.6138   age135_m52            0.0000     9.7604E-05    58.3976  -1.0000   207.0841
 29      0.0000     0.0000E+00    0.0000E+00    1.434000E+09  0.00800  1.719E-04    0   0.5853   age139_m52            0.0000     9.4166E-05    68.3805  -1.0000   189.1907
 30      0.0658     5.7267E+00    3.9754E+00    2.500000E+09  0.00800  7.872E-05    0   0.5600   age150_m52            0.0000     1.0740E-04    82.3094  -1.0000   183.4353
 31      0.0000     0.0000E+00    0.0000E+00    4.250000E+09  0.00800  4.336E-05    0   0.5426   age158_m52            0.0000     9.1755E-05    75.6215  -1.0000   174.0826
 32      0.0000     0.0000E+00    0.0000E+00    6.250000E+09  0.00800  3.159E-05    0   0.5319   age166_m52            0.0000     1.2384E-04    95.0225  -1.0000   180.6948
 33      0.0000     0.0000E+00    0.0000E+00    1.300000E+10  0.00800  1.361E-05    0   0.5073   age193_m52            0.0000     2.5037E-04   149.8448  -1.0000   194.8158
 34      0.0000     0.0000E+00    0.0000E+00    1.800000E+10  0.00800  9.886E-06    0   0.4990   age213_m52            0.0000     3.4241E-04   177.3947  -1.0000   207.1705
 35      0.0000     0.0000E+00    0.0000E+00    1.000000E+06  0.02000  1.544E-02    0   1.0000   age020_m62            0.0000     2.3529E-05    31.0383   2.0125   107.2851
 36      0.0000     0.0000E+00    0.0000E+00    3.160000E+06  0.02000  3.762E-02    0   0.9858   age045_m62            0.0000     2.3759E-05    31.2398   1.9394   108.6096
 37      0.1173     2.4371E-02    2.8223E-02    5.010000E+06  0.02000  3.296E-02    0   0.9342   age055_m62            0.0000     3.2935E-05    37.4068   1.0546   128.7893
 38      0.0000     0.0000E+00    0.0000E+00    8.710000E+06  0.02000  1.154E-02    0   0.8861   age067_m62            0.0000     2.2087E-05    26.1566   0.7198   116.1086
 39      0.0000     0.0000E+00    0.0000E+00    1.445000E+07  0.02000  7.663E-03    0   0.8472   age078_m62            0.0000     2.7089E-05    31.6759   0.5841   126.3052
 40      0.0000     0.0000E+00    0.0000E+00    2.512000E+07  0.02000  4.532E-03    0   0.8099   age090_m62            0.0000     2.9291E-05    32.8501   0.4900   128.8637
 41      0.0000     0.0000E+00    0.0000E+00    5.500000E+07  0.02000  2.733E-03    0   0.7595   age110_m62            0.0000     3.9462E-05    40.0780  -0.0002   141.7665
 42      0.0000     0.0000E+00    0.0000E+00    1.609000E+08  0.02000  1.369E-03    0   0.6985   age120_m62            0.0000     6.5952E-05    52.3238  -1.0000   170.0494
 43      0.0000     0.0000E+00    0.0000E+00    2.861200E+08  0.02000  9.013E-04    0   0.6714   age125_m62            0.0000     9.9506E-05    55.9359  -1.0000   203.9161
 44      0.0000     0.0000E+00    0.0000E+00    5.088000E+08  0.02000  5.028E-04    0   0.6449   age130_m62            0.0000     1.1984E-04    60.3496  -1.0000   224.4746
 45      0.0000     0.0000E+00    0.0000E+00    9.047900E+08  0.02000  2.428E-04    0   0.6179   age135_m62            0.0000     9.4258E-05    59.2759  -1.0000   204.0775
 46      0.0000     0.0000E+00    0.0000E+00    1.434000E+09  0.02000  1.263E-04    0   0.5908   age139_m62            0.0000     9.3195E-05    66.8450  -1.0000   191.6682
 47      0.0000     0.0000E+00    0.0000E+00    2.500000E+09  0.02000  5.985E-05    0   0.5673   age150_m62            0.0000     1.1095E-04    84.3482  -1.0000   186.8526
 48      0.0000     0.0000E+00    0.0000E+00    4.250000E+09  0.02000  3.271E-05    0   0.5468   age158_m62            0.0000     1.7699E-04   117.4957  -1.0000   197.2365
 49      0.0000     0.0000E+00    0.0000E+00    1.000000E+10  0.02000  1.360E-05    0   0.5167   age181_m62            0.0000     3.5978E-04   178.4756  -1.0000   222.5047
 50      0.0000     0.0000E+00    0.0000E+00    1.800000E+10  0.02000  7.124E-06    0   0.5013   age213_m62            0.0000     6.0642E-04   236.8058  -1.0000   247.4806
 51      1.9496     5.1503E-01    6.3830E-01    1.000000E+06  0.05000  2.592E-02    0   0.9998   age020_m72            0.0000     2.2587E-05    30.0561   2.0879   104.6593
 52      2.5644     3.6241E-01    4.3024E-01    3.160000E+06  0.05000  4.845E-02    0   0.9577   age045_m72            0.0000     2.6753E-05    33.6327   1.6252   116.2129
 53     11.3109     2.5211E+00    2.8586E+00    5.010000E+06  0.05000  3.072E-02    0   0.9147   age055_m72            0.0000     2.5615E-05    31.5672   1.2291   119.1177
 54      8.8371     4.1588E+00    4.5763E+00    6.610000E+06  0.05000  1.455E-02    0   0.8877   age061_m72            0.0000     2.0601E-05    24.6113   0.8788   112.4925
 55     42.7280     3.2243E+01    3.4069E+01    1.000000E+07  0.05000  9.074E-03    0   0.8524   age070_m72            0.0000     2.6140E-05    32.0998   1.3821   119.5154
 56     22.0846     3.5581E+01    3.4853E+01    2.512000E+07  0.05000  4.250E-03    0   0.7902   age090_m72            0.0000     3.3390E-05    36.3351   0.7645   132.1993
 57      0.0000     0.0000E+00    0.0000E+00    4.000000E+07  0.05000  3.087E-03    0   0.7618   age104_m72            0.0000     3.8541E-05    38.8214   0.3567   139.8136
 58      0.0000     0.0000E+00    0.0000E+00    1.015200E+08  0.05000  1.700E-03    0   0.7096   age116_m72            0.0000     6.1782E-05    51.2680  -0.8046   164.1552
 59      0.0000     0.0000E+00    0.0000E+00    2.861200E+08  0.05000  7.384E-04    0   0.6633   age125_m72            0.0000     1.0630E-04    57.3059  -1.0000   213.1143
 60      0.3679     6.5964E+00    5.2103E+00    5.088000E+08  0.05000  3.819E-04    0   0.6372   age130_m72            0.0000     9.9317E-05    57.4778  -1.0000   213.0191
 61      0.0000     0.0000E+00    0.0000E+00    9.047900E+08  0.05000  1.676E-04    0   0.6110   age135_m72            0.0000     9.5406E-05    66.6130  -1.0000   197.1485
 62      0.0000     0.0000E+00    0.0000E+00    1.434000E+09  0.05000  8.837E-05    0   0.5874   age139_m72            0.0000     1.2284E-04    89.2317  -1.0000   194.7759
 63      0.0000     0.0000E+00    0.0000E+00    2.500000E+09  0.05000  4.233E-05    0   0.5598   age150_m72            0.0000     1.9425E-04   123.2516  -1.0000   204.4189
 64      0.0000     0.0000E+00    0.0000E+00    6.250000E+09  0.05000  1.435E-05    0   0.5249   age166_m72            0.0000     4.2639E-04   196.6212  -1.0000   227.9103
 65      0.0000     0.0000E+00    0.0000E+00    1.300000E+10  0.05000  6.513E-06    0   0.5036   age193_m72            0.0000     8.1973E-04   278.8392  -1.0000   265.0355
 66      0.0000     0.0000E+00    0.0000E+00    1.800000E+10  0.05000  4.527E-06    0   0.4945   age213_m72            0.0000     1.1506E-03   333.3645  -1.0000   284.7205


## Synthesis Results - Average & Chains ##

# j      x_j: min, <> & last-chain-values for 1 ...  7 chains
  1      0.0503      0.3790      0.5663      0.4097      0.2382      0.0000      0.3572      0.4969      0.5185
  2      0.8110      0.3751      0.0000      0.3223      0.2381      0.1830      0.2979      0.0000      0.1389
  3      0.5865      1.1372      0.4381      0.2611      0.7246      0.1763      0.7756      0.3628      1.4748
  4      0.0000      0.3217      0.3116      0.9719      0.3561      0.0000      0.0000      0.5294      0.2404
  5      0.0000      0.2230      0.0000      0.2656      0.0981      0.0000      0.0000      0.6743      0.3935
  6      7.7440      0.7300      0.1991      0.4643      0.4069      0.0696      0.4163      0.1471      1.5909
  7      0.0000      0.2713      0.0670      0.0000      0.5100      2.0727      0.0000      0.1595      0.0000
  8      0.0000      0.1094      0.0000      0.0466      0.0000      0.5490      0.0000      0.0190      0.0000
  9      0.0000      0.1533      0.0000      0.1383      0.0000      0.3355      0.0939      0.0000      0.1220
 10      0.0000      0.0461      0.4947      0.0000      0.0000      0.0000      0.0000      0.0000      0.0000
 11      0.0000      0.0667      0.0000      0.0000      0.1391      0.0000      0.2696      0.0000      0.0000
 12      0.0000      0.0248      0.0181      0.0000      0.0000      0.0000      0.0000      0.0000      0.0000
 13      0.0000      0.0352      0.0000      0.0000      0.0000      0.0585      0.0000      0.1953      0.0000
 14      0.0000      0.0562      0.0000      0.0000      0.0000      0.0000      0.0000      0.0000      0.0000
 15      0.0000      0.0588      0.1874      0.0000      0.0000      0.0000      0.0000      0.0000      0.0000
 16      0.0000      0.0667      0.0000      0.0623      0.0000      0.1849      0.0000      0.0000      0.0000
 17      0.0000      0.0353      0.0000      0.0000      0.0713      0.0000      0.0000      0.0000      0.0000
 18      2.8167      0.9921      0.4958      0.3797      0.3793      1.4362      0.7781      0.1477      1.6547
 19      0.0506      0.2996      0.0000      0.3870      0.0000      0.8179      0.3857      0.5895      0.0000
 20      0.0000      0.9467      0.0100      0.8921      0.4998      0.0530      0.0628      0.1872      2.3621
 21      0.0000      0.3148      0.0000      0.0000      0.0478      0.2579      0.1023      0.2931      0.0000
 22      0.4237      0.4268      0.2485      0.4040      0.0000      0.0000      0.3416      0.0000      1.3694
 23      4.2752      0.6769      1.2814      0.3695      0.2203      1.2806      0.8251      0.2159      0.6600
 24      0.0415      0.2314      0.0000      0.0000      0.0000      0.1693      0.3929      0.0120      0.0705
 25      0.0000      0.0793      0.0313      0.0000      0.0000      0.0000      0.1084      0.4094      0.0000
 26      0.0000      0.0552      0.0000      0.5165      0.2008      0.0000      0.0000      0.0000      0.0000
 27      0.0000      0.0393      0.0000      0.1089      0.0590      0.1837      0.0000      0.2152      0.0000
 28      0.0000      0.0140      0.0000      0.0000      0.0000      0.0000      0.0000      0.0000      0.0000
 29      0.0000      0.0176      0.0000      0.0000      0.0000      0.0000      0.0116      0.0000      0.0000
 30      0.0658      0.0477      0.0000      0.1795      0.0000      0.0000      0.5083      0.0000      0.0000
 31      0.0000      0.0487      0.0000      0.0995      0.0000      0.0000      0.0000      0.0520      0.0000
 32      0.0000      0.0299      0.0000      0.0000      0.0000      0.0292      0.1551      0.0574      0.2081
 33      0.0000      0.0405      0.0000      0.0000      0.0210      0.1518      0.0000      0.0000      0.0000
 34      0.0000      0.0599      0.0000      0.0000      0.0000      0.4969      0.0000      0.0000      0.0000
 35      0.0000      0.4261      0.4289      0.6570      0.6280      0.0000      0.2041      0.1403      0.0709
 36      0.0000      0.7211      0.2932      0.0000      0.5621      0.9211      0.2623      0.0599      1.1276
 37      0.1173      0.5208      0.4187      0.4597      0.6228      1.5069      0.9376      0.4680      1.7780
 38      0.0000      0.7956      0.4202      0.1953      0.7184      0.5583      0.0000      0.3355      2.4810
 39      0.0000      0.4915      1.3041      0.0000      0.0000      0.8864      0.0000      0.0000      2.6122
 40      0.0000      0.4011      0.1845      0.0000      0.1290      0.0000      0.1204      0.0000      0.7301
 41      0.0000      0.1277      0.0000      0.0000      0.0000      0.0000      0.0293      0.3017      0.7450
 42      0.0000      0.0932      0.0678      0.0000      0.0000      0.0000      0.0000      0.0877      0.0000
 43      0.0000      0.0223      0.0178      0.0000      0.0000      0.0000      0.0000      0.0000      0.0000
 44      0.0000      0.0150      0.0000      0.0000      0.0000      0.0000      0.0000      0.0000      0.0000
 45      0.0000      0.0182      0.0000      0.0000      0.0000      0.0000      0.1818      0.0000      0.0053
 46      0.0000      0.0293      0.0000      0.0000      0.0000      0.0000      0.0427      0.0000      0.0000
 47      0.0000      0.0561      0.0000      0.0000      0.2447      0.0282      0.0000      0.0437      0.0000
 48      0.0000      0.0215      0.0000      0.0000      0.0755      0.0000      0.0000      0.0000      0.0207
 49      0.0000      0.0189      0.0000      0.0000      0.0753      0.0000      0.0112      0.0000      0.0027
 50      0.0000      0.0259      0.0299      0.0000      0.0000      0.0000      0.0468      0.0000      0.0000
 51      1.9496      0.4704      0.3767      0.0000      0.0209      0.7700      0.5999      1.5274      0.4414
 52      2.5644      0.5258      0.8214      0.3376      0.4618      1.5520      0.3642      0.0000      0.7064
 53     11.3109      1.0192      0.0329      0.4687      0.0000      1.3017      0.3148      0.5386      2.6147
 54      8.8371      0.5770      0.0000      0.9415      0.1212      0.3204      1.0637      0.6985      1.1438
 55     42.7280     66.2396     71.4412     71.2262     71.9421     65.2184     71.0268     70.9393     57.0175
 56     22.0846     26.4487     27.1972     26.7048     27.7753     26.2885     26.3544     27.2643     25.0677
 57      0.0000      0.1606      0.0000      0.3236      0.0000      0.0000      0.0000      0.0000      0.0000
 58      0.0000      0.0476      0.0000      0.0991      0.0000      0.0000      0.0073      0.0000      0.0000
 59      0.0000      0.0367      0.0459      0.0000      0.0575      0.0000      0.1575      0.0000      0.0000
 60      0.3679      0.0515      0.2185      0.0000      0.0000      0.0000      0.4140      0.1308      0.2262
 61      0.0000      0.0365      0.0392      0.0000      0.0000      0.0000      0.0000      0.2628      0.0000
 62      0.0000      0.0271      0.0000      0.0000      0.0524      0.0000      0.0000      0.1514      0.0000
 63      0.0000      0.0211      0.0077      0.0000      0.0639      0.0000      0.0000      0.0424      0.0937
 64      0.0000      0.0243      0.0000      0.0000      0.0000      0.0000      0.0235      0.0000      0.1860
 65      0.0000      0.0175      0.0664      0.0000      0.0197      0.0000      0.0000      0.0000      0.0000
 66      0.0000      0.0180      0.0696      0.1623      0.0000      0.2235      0.0000      0.0364      0.0000

# j      m_j: min, <> & last-chain-values for 1 ...  7 chains
  1  3.8992E-02  1.1076E-01  1.6776E-01  1.0908E-01  8.7563E-02  0.0000E+00  1.3238E-01  2.0853E-01  1.9570E-01
  2  1.7178E-01  2.9932E-02  0.0000E+00  2.3431E-02  2.3891E-02  6.2535E-03  3.0137E-02  0.0000E+00  1.4314E-02
  3  1.8601E-01  1.3588E-01  5.3047E-02  2.8425E-02  1.0888E-01  9.0201E-03  1.1751E-01  6.2237E-02  2.2754E-01
  4  0.0000E+00  3.6195E-02  3.5529E-02  9.9627E-02  5.0389E-02  0.0000E+00  0.0000E+00  8.5529E-02  3.4928E-02
  5  0.0000E+00  4.7809E-02  0.0000E+00  5.1867E-02  2.6447E-02  0.0000E+00  0.0000E+00  2.0752E-01  1.0891E-01
  6  7.1467E+00  2.5381E-01  7.0166E-02  1.4705E-01  1.7789E-01  1.0364E-02  1.8352E-01  7.3435E-02  7.1422E-01
  7  0.0000E+00  1.3506E-01  3.3787E-02  0.0000E+00  3.1923E-01  4.4181E-01  0.0000E+00  1.1398E-01  0.0000E+00
  8  0.0000E+00  7.5273E-02  0.0000E+00  2.9210E-02  0.0000E+00  1.6175E-01  0.0000E+00  1.8745E-02  0.0000E+00
  9  0.0000E+00  1.2070E-01  0.0000E+00  9.9221E-02  0.0000E+00  1.1314E-01  9.3720E-02  0.0000E+00  1.2409E-01
 10  0.0000E+00  4.7663E-02  5.1859E-01  0.0000E+00  0.0000E+00  0.0000E+00  0.0000E+00  0.0000E+00  0.0000E+00
 11  0.0000E+00  1.2977E-01  0.0000E+00  0.0000E+00  3.4023E-01  0.0000E+00  6.6494E-01  0.0000E+00  0.0000E+00
 12  0.0000E+00  7.6439E-02  5.6586E-02  0.0000E+00  0.0000E+00  0.0000E+00  0.0000E+00  0.0000E+00  0.0000E+00
 13  0.0000E+00  3.0584E-01  0.0000E+00  0.0000E+00  0.0000E+00  2.1768E-01  0.0000E+00  2.4384E+00  0.0000E+00
 14  0.0000E+00  1.6377E+00  0.0000E+00  0.0000E+00  0.0000E+00  0.0000E+00  0.0000E+00  0.0000E+00  0.0000E+00
 15  0.0000E+00  2.7903E+00  9.0168E+00  0.0000E+00  0.0000E+00  0.0000E+00  0.0000E+00  0.0000E+00  0.0000E+00
 16  0.0000E+00  5.3576E+00  0.0000E+00  4.5599E+00  0.0000E+00  6.3572E+00  0.0000E+00  0.0000E+00  0.0000E+00
 17  0.0000E+00  3.6724E+00  0.0000E+00  0.0000E+00  9.3317E+00  0.0000E+00  0.0000E+00  0.0000E+00  0.0000E+00
 18  1.9312E+00  2.5624E-01  1.2979E-01  8.9339E-02  1.2319E-01  1.5885E-01  2.5481E-01  5.4772E-02  5.5187E-01
 19  1.3937E-02  3.1055E-02  0.0000E+00  3.6544E-02  0.0000E+00  3.6310E-02  5.0694E-02  8.7740E-02  0.0000E+00
 20  0.0000E+00  1.0715E-01  1.1437E-03  9.1979E-02  7.1126E-02  2.5709E-03  9.0101E-03  3.0426E-02  3.4519E-01
 21  0.0000E+00  4.3247E-02  0.0000E+00  0.0000E+00  8.2573E-03  1.5172E-02  1.7828E-02  5.7805E-02  0.0000E+00
 22  2.6127E-01  9.9150E-02  5.8513E-02  8.5500E-02  0.0000E+00  0.0000E+00  1.0062E-01  0.0000E+00  4.1076E-01
 23  3.5601E+00  2.1235E-01  4.0738E-01  1.0560E-01  8.6884E-02  1.7203E-01  3.2818E-01  9.7222E-02  2.6736E-01
 24  5.1415E-02  1.0800E-01  0.0000E+00  0.0000E+00  0.0000E+00  3.3837E-02  2.3248E-01  8.0107E-03  4.2487E-02
 25  0.0000E+00  5.1051E-02  2.0420E-02  0.0000E+00  0.0000E+00  0.0000E+00  8.8483E-02  3.7828E-01  0.0000E+00
 26  0.0000E+00  5.9391E-02  0.0000E+00  5.0614E-01  2.7156E-01  0.0000E+00  0.0000E+00  0.0000E+00  0.0000E+00
 27  0.0000E+00  8.4546E-02  0.0000E+00  2.1359E-01  1.5975E-01  1.6935E-01  0.0000E+00  6.6519E-01  0.0000E+00
 28  0.0000E+00  8.7403E-02  0.0000E+00  0.0000E+00  0.0000E+00  0.0000E+00  0.0000E+00  0.0000E+00  0.0000E+00
 29  0.0000E+00  1.9129E-01  0.0000E+00  0.0000E+00  0.0000E+00  0.0000E+00  1.6066E-01  0.0000E+00  0.0000E+00
 30  3.9754E+00  1.0849E+00  0.0000E+00  3.7204E+00  0.0000E+00  0.0000E+00  1.4662E+01  0.0000E+00  0.0000E+00
 31  0.0000E+00  1.9469E+00  0.0000E+00  3.6271E+00  0.0000E+00  0.0000E+00  0.0000E+00  2.9899E+00  0.0000E+00
 32  0.0000E+00  1.6119E+00  0.0000E+00  0.0000E+00  0.0000E+00  6.7213E-01  1.0587E+01  4.4378E+00  1.4467E+01
 33  0.0000E+00  4.8214E+00  0.0000E+00  0.0000E+00  3.1538E+00  7.7498E+00  0.0000E+00  0.0000E+00  0.0000E+00
 34  0.0000E+00  9.6664E+00  0.0000E+00  0.0000E+00  0.0000E+00  3.4347E+01  0.0000E+00  0.0000E+00  0.0000E+00
 35  0.0000E+00  8.8251E-02  9.0026E-02  1.2395E-01  1.6355E-01  0.0000E+00  5.3596E-02  4.1711E-02  1.8960E-02
 36  0.0000E+00  6.0423E-02  2.4893E-02  0.0000E+00  5.9228E-02  3.3052E-02  2.7866E-02  7.2021E-03  1.2200E-01
 37  2.8223E-02  4.7199E-02  3.8460E-02  3.7952E-02  7.0979E-02  5.8483E-02  1.0774E-01  6.0893E-02  2.0807E-01
 38  0.0000E+00  1.9534E-01  1.0456E-01  4.3687E-02  2.2180E-01  5.8703E-02  0.0000E+00  1.1828E-01  7.8657E-01
 39  0.0000E+00  1.7374E-01  4.6720E-01  0.0000E+00  0.0000E+00  1.3419E-01  0.0000E+00  0.0000E+00  1.1924E+00
 40  0.0000E+00  2.2919E-01  1.0682E-01  0.0000E+00  9.2699E-02  0.0000E+00  8.7248E-02  0.0000E+00  5.3869E-01
 41  0.0000E+00  1.1348E-01  0.0000E+00  0.0000E+00  0.0000E+00  0.0000E+00  3.3028E-02  3.8497E-01  8.5481E-01
 42  0.0000E+00  1.5208E-01  1.1203E-01  0.0000E+00  0.0000E+00  0.0000E+00  0.0000E+00  2.0548E-01  0.0000E+00
 43  0.0000E+00  5.3023E-02  4.3035E-02  0.0000E+00  0.0000E+00  0.0000E+00  0.0000E+00  0.0000E+00  0.0000E+00
 44  0.0000E+00  6.1431E-02  0.0000E+00  0.0000E+00  0.0000E+00  0.0000E+00  0.0000E+00  0.0000E+00  0.0000E+00
 45  0.0000E+00  1.4800E-01  0.0000E+00  0.0000E+00  0.0000E+00  0.0000E+00  1.8756E+00  0.0000E+00  5.5333E-02
 46  0.0000E+00  4.3782E-01  0.0000E+00  0.0000E+00  0.0000E+00  0.0000E+00  8.1057E-01  0.0000E+00  0.0000E+00
 47  0.0000E+00  1.7001E+00  0.0000E+00  0.0000E+00  9.3259E+00  3.6628E-01  0.0000E+00  1.8996E+00  0.0000E+00
 48  0.0000E+00  1.1504E+00  0.0000E+00  0.0000E+00  5.0774E+00  0.0000E+00  0.0000E+00  0.0000E+00  1.4290E+00
 49  0.0000E+00  2.2996E+00  0.0000E+00  0.0000E+00  1.1507E+01  0.0000E+00  1.7252E+00  0.0000E+00  4.2055E-01
 50  0.0000E+00  5.8355E+00  6.8275E+00  0.0000E+00  0.0000E+00  0.0000E+00  1.3343E+01  0.0000E+00  0.0000E+00
 51  6.3830E-01  5.8015E-02  4.7083E-02  0.0000E+00  3.2400E-03  4.0668E-02  9.3822E-02  2.7048E-01  7.0293E-02
 52  4.3024E-01  3.3232E-02  5.2615E-02  1.9438E-02  3.6702E-02  4.2008E-02  2.9189E-02  0.0000E+00  5.7649E-02
 53  2.8586E+00  9.7036E-02  3.1727E-03  4.0654E-02  0.0000E+00  5.3073E-02  3.8000E-02  7.3626E-02  3.2145E-01
 54  4.5763E+00  1.1256E-01  0.0000E+00  1.6733E-01  2.9722E-02  2.6767E-02  2.6311E-01  1.9563E-01  2.8812E-01
 55  3.4069E+01  1.9897E+01  2.1747E+01  1.9491E+01  2.7174E+01  8.3891E+00  2.7052E+01  3.0594E+01  2.2115E+01
 56  3.4853E+01  1.5725E+01  1.6386E+01  1.4464E+01  2.0765E+01  6.6929E+00  1.9867E+01  2.3273E+01  1.9244E+01
 57  0.0000E+00  1.2672E-01  0.0000E+00  2.3264E-01  0.0000E+00  0.0000E+00  0.0000E+00  0.0000E+00  0.0000E+00
 58  0.0000E+00  6.3491E-02  0.0000E+00  1.2047E-01  0.0000E+00  0.0000E+00  1.2304E-02  0.0000E+00  0.0000E+00
 59  0.0000E+00  1.0548E-01  1.3357E-01  0.0000E+00  2.0751E-01  0.0000E+00  5.7368E-01  0.0000E+00  0.0000E+00
 60  5.2103E+00  2.7483E-01  1.1816E+00  0.0000E+00  0.0000E+00  0.0000E+00  2.8003E+00  1.0020E+00  1.5583E+00
 61  0.0000E+00  4.2585E-01  4.6257E-01  0.0000E+00  0.0000E+00  0.0000E+00  0.0000E+00  4.3981E+00  0.0000E+00
 62  0.0000E+00  5.7525E-01  0.0000E+00  0.0000E+00  1.3997E+00  0.0000E+00  0.0000E+00  4.6193E+00  0.0000E+00
 63  0.0000E+00  8.9196E-01  3.2811E-01  0.0000E+00  3.3962E+00  0.0000E+00  0.0000E+00  2.5769E+00  5.1178E+00
 64  0.0000E+00  2.8411E+00  0.0000E+00  0.0000E+00  0.0000E+00  0.0000E+00  3.4925E+00  0.0000E+00  2.8097E+01
 65  0.0000E+00  4.3210E+00  1.6632E+01  0.0000E+00  6.1297E+00  0.0000E+00  0.0000E+00  0.0000E+00  0.0000E+00
 66  0.0000E+00  6.2803E+00  2.4642E+01  5.1636E+01  0.0000E+00  3.3430E+01  0.0000E+00  1.8263E+01  0.0000E+00

# AV, chi2 & Mass for <> & i_chain = 1 ...  7 solutions
AV      -0.9969     -0.9946     -0.9925     -0.9927     -0.9979     -1.0000     -0.9821     -0.9990     -1.0000
chi2 5.2314E-04  8.4706E-04  5.2355E-04  5.2351E-04  7.3001E-04  8.4654E-04  5.2678E-04  6.2668E-04  7.2947E-04
Mass 3.2211E-16  8.5765E-16  8.4875E-16  9.4388E-16  6.7902E-16  1.9884E-15  6.8784E-16  5.9387E-16  6.5943E-16
-112.86                                  [v0_min (km/s) before EX0s...]
   0.00                                  [vd_min (km/s) before EX0s...]


## Synthetic spectrum (Best Model) ##l_obs f_obs f_syn wei
 3478    [Nl_obs]
 3741.00    0.20888   1.20890    0.000
 3742.00    0.36299   1.19862    0.000
 3743.00    0.39728   1.17300    0.000
 3744.00    0.34607   1.13008    0.000
 3745.00    0.24503   1.07356   -1.000
 3746.00   -0.03164   1.00180    0.000
 3747.00   -0.39750   0.91141    0.000
 3748.00   -0.16337   0.83072    0.000
 3749.00    0.33459   0.81403   -1.000
 3750.00    1.13518   0.87533   -1.000
 3751.00    2.05001   0.96814   -1.000
 3752.00    1.77427   1.04977   -1.000
 3753.00    1.11697   1.11009   -1.000
 3754.00    1.11965   1.15234   -1.000
 3755.00    1.29919   1.18342   -1.000
 3756.00    2.34096   1.20734   -1.000
 3757.00    3.57198   1.22149   -1.000
 3758.00    3.46615   1.22780   -1.000
 3759.00    3.12696   1.23302   -1.000
 3760.00    1.29978   1.23317   -1.000
 3761.00   -0.72506   1.22420    0.000
 3762.00   -0.76972   1.21067    0.000
 3763.00   -0.62829   1.18916    0.000
 3764.00    0.22706   1.15181   -1.000
 3765.00    1.12359   1.09728   -1.000
 3766.00   -0.06966   1.02573    0.000
 3767.00   -1.29340   0.93488    0.000
 3768.00   -0.20031   0.83765    0.000
 3769.00    0.83031   0.78050   -1.000
 3770.00    0.34343   0.80655   -1.000
 3771.00   -0.09737   0.89471    0.000
 3772.00    0.06575   0.98941   -1.000
 3773.00    0.27787   1.06697   -1.000
 3774.00    0.92021   1.12730   -1.000
 3775.00    1.49827   1.17020   -1.000
 3776.00    1.65952   1.19904   -1.000
 3777.00    1.71174   1.22144   -1.000
 3778.00    1.21216   1.24387   -1.000
 3779.00    0.69215   1.26390   -1.000
 3780.00    0.08846   1.27529   -1.000
 3781.00   -0.21039   1.27811    0.000
 3782.00    0.52469   1.27226   -1.000
 3783.00    1.29480   1.26183   -1.000
 3784.00    2.16511   1.25772   -1.000
 3785.00    2.53706   1.25882   -1.000
 3786.00    1.69141   1.25476   -1.000
 3787.00    0.96225   1.24456   -1.000
 3788.00    0.47861   1.22651   -1.000
 3789.00    0.32262   1.19649   -1.000
 3790.00    0.76678   1.16061   -1.000
 3791.00    1.01962   1.12395   -1.000
 3792.00    0.96621   1.07509   -1.000
 3793.00    1.00403   1.00372 3425.083
 3794.00    1.17000   0.91205   -1.000
 3795.00    0.98311   0.81131   -1.000
 3796.00    0.36011   0.73827   -1.000
 3797.00    0.19672   0.74277   -1.000
 3798.00    0.53408   0.82312   -1.000
 3799.00    0.68958   0.92499   -1.000
 3800.00    0.67032   1.01016   -1.000
 3801.00    0.72906   1.07431   -1.000
 3802.00    0.85389   1.12321   -1.000
 3803.00    0.93817   1.15144   -1.000
 3804.00    0.99219   1.15510   -1.000
 3805.00    0.73010   1.16366   -1.000
 3806.00    0.26077   1.19966   -1.000
 3807.00    0.44032   1.23685   -1.000
 3808.00    0.99222   1.25537   -1.000
 3809.00    1.36042   1.26550   -1.000
 3810.00    1.63679   1.27174   -1.000
 3811.00    1.49603   1.27192   -1.000
 3812.00    1.17489   1.26772   -1.000
 3813.00    0.99767   1.26259   -1.000
 3814.00    0.87382   1.25657   -1.000
 3815.00    0.72477   1.24158    0.080
 3816.00    0.56779   1.19794    0.035
 3817.00    0.49583   1.11249    0.031
 3818.00    0.44617   1.04249    0.032
 3819.00    0.09223   1.06726    0.031
 3820.00   -0.32689   1.15094    0.000
 3821.00    0.13788   1.20888    0.031
 3822.00    0.75266   1.22623    0.031
 3823.00    1.11156   1.22252    0.032
 3824.00    1.43762   1.21189    0.032
 3825.00    1.39439   1.19774    0.032
 3826.00    1.31802   1.17795    0.032
 3827.00    0.81478   1.15022    0.031
 3828.00    0.28860   1.11302    0.031
 3829.00   -0.08701   1.06464    0.000
 3830.00   -0.45489   1.00140    0.000
 3831.00   -0.42433   0.92081    0.000
 3832.00   -0.35674   0.82437    0.000
 3833.00    0.53347   0.73166    0.031
 3834.00    1.32437   0.69408    0.032
 3835.00    0.88041   0.74042    0.031
 3836.00    0.47599   0.83118    0.031
 3837.00    0.40564   0.92224    0.031
 3838.00    0.41111   1.00204    0.031
 3839.00    0.89357   1.06396    0.031
 3840.00    1.23249   1.10670    0.031
 3841.00    0.86315   1.13789    0.031
 3842.00    0.63869   1.16418    0.031
 3843.00    0.99423   1.18561    0.031
 3844.00    1.41799   1.20057    0.031
 3845.00    2.06856   1.20983    0.031
 3846.00    2.36201   1.21504    0.032
 3847.00    1.65261   1.21950    0.000
 3848.00    1.13135   1.21973    0.000
 3849.00    1.06196   1.21595    0.000
 3850.00    0.88874   1.22131    0.000
 3851.00    0.50020   1.23102    0.000
 3852.00    0.39834   1.22992    0.000
 3853.00    0.81355   1.21972    0.000
 3854.00    1.15903   1.20755    0.000
 3855.00    1.39455   1.20932    0.000
 3856.00    1.42825   1.22906    0.000
 3857.00    1.18255   1.24219    0.000
 3858.00    0.74698   1.23763    0.000
 3859.00    0.08005   1.22738    0.000
 3860.00   -0.08601   1.21858    0.000
 3861.00    0.28595   1.20885    0.000
 3862.00    0.74654   1.20291    0.000
 3863.00    1.29112   1.20566    0.000
 3864.00    1.51761   1.20753    0.000
 3865.00    1.47837   1.19157    0.000
 3866.00    1.22223   1.17504    0.000
 3867.00    0.80657   1.18985    0.000
 3868.00    0.78381   1.20976    0.000
 3869.00    1.01483   1.19498    0.000
 3870.00    1.19917   1.16342    0.000
 3871.00    1.35713   1.15897    0.000
 3872.00    1.11820   1.17941    0.000
 3873.00    0.68404   1.18244    0.000
 3874.00    0.51389   1.15683    0.000
 3875.00    0.45601   1.13609    0.000
 3876.00    0.34321   1.13909    0.000
 3877.00    0.21040   1.14494    0.000
 3878.00    0.52875   1.13935    0.000
 3879.00    0.98618   1.12260    0.000
 3880.00    0.82980   1.09406    0.000
 3881.00    0.51584   1.06080    0.027
 3882.00    0.39544   1.02798    0.028
 3883.00    0.31552   0.98567    0.028
 3884.00    0.54042   0.92355    0.028
 3885.00    0.81559   0.84070    0.028
 3886.00    0.85599   0.74152    0.028
 3887.00    0.86731   0.65901    0.028
 3888.00    1.18288   0.65204    0.029
 3889.00    1.52448   0.72644    0.029
 3890.00    1.31773   0.82443    0.029
 3891.00    1.08366   0.90707    0.029
 3892.00    0.78345   0.97165    0.029
 3893.00    0.49488   1.02083    0.028
 3894.00    1.02888   1.05753    0.029
 3895.00    1.53662   1.08590    0.029
 3896.00    1.50700   1.10444    0.029
 3897.00    1.46227   1.11257    0.028
 3898.00    1.23883   1.12093    0.028
 3899.00    1.04825   1.13702    0.027
 3900.00    1.12547   1.15486    0.027
 3901.00    1.16881   1.16692    0.026
 3902.00    1.00525   1.17296    0.025
 3903.00    0.88617   1.17532    0.025
 3904.00    0.98115   1.17548    0.025
 3905.00    1.01730   1.17705    0.025
 3906.00    0.82311   1.18202    0.024
 3907.00    0.66972   1.18793    0.024
 3908.00    0.64931   1.19048    0.024
 3909.00    0.63463   1.18412    0.025
 3910.00    0.63574   1.17175    0.025
 3911.00    0.66691   1.16876    0.026
 3912.00    0.76906   1.17727    0.026
 3913.00    0.85271   1.18456    0.027
 3914.00    0.89861   1.18616    0.027
 3915.00    0.83907   1.18142    0.027
 3916.00    0.59223   1.16095    0.027
 3917.00    0.59986   1.12236    0.027
 3918.00    1.00290   1.08942    0.027
 3919.00    1.04738   1.08914    0.027
 3920.00    0.60266   1.12001    0.027
 3921.00    0.40679   1.14648    0.027
 3922.00    0.50986   1.14532    0.027
 3923.00    0.63963   1.13097    0.027
 3924.00    0.79769   1.11080    0.028
 3925.00    0.91544   1.09648    0.028
 3926.00    0.99555   1.10832    0.027
 3927.00    1.00388   1.13133    0.027
 3928.00    0.95310   1.14516    0.027
 3929.00    0.77161   1.14785    0.028
 3930.00    0.49537   1.13551    0.028
 3931.00    0.40139   1.10713    0.028
 3932.00    0.42340   1.08570    0.028
 3933.00    0.41705   1.09503    0.028
 3934.00    0.39493   1.11723    0.028
 3935.00    0.18416   1.13270    0.028
 3936.00   -0.11793   1.14273    0.000
 3937.00    0.12151   1.14708    0.028
 3938.00    0.58737   1.14948    0.028
 3939.00    0.62109   1.15231    0.028
 3940.00    0.50024   1.15238    0.027
 3941.00    0.82120   1.14867    0.028
 3942.00    1.27571   1.13958    0.028
 3943.00    1.72441   1.12837    0.029
 3944.00    2.17165   1.12526    0.029
 3945.00    1.69203   1.12876    0.029
 3946.00    1.02340   1.13028    0.029
 3947.00    1.16359   1.13080    0.029
 3948.00    1.43329   1.13165    0.028
 3949.00    0.91604   1.12983    0.028
 3950.00    0.30483   1.12438    0.028
 3951.00    0.19419   1.11475    0.028
 3952.00    0.12432   1.10008    0.028
 3953.00    0.46574   1.08793    0.028
 3954.00    0.82606   1.08568    0.028
 3955.00    0.58439   1.08806    0.027
 3956.00    0.34227   1.08823    0.026
 3957.00    0.47694   1.08347    0.026
 3958.00    0.62244   1.07146    0.026
 3959.00    0.97300   1.05002    0.026
 3960.00    1.27194   1.02408    0.000
 3961.00    0.98905   0.99642    0.000
 3962.00    0.71358   0.95358    0.000
 3963.00    0.49645   0.90128    0.000
 3964.00    0.32255   0.86404    0.000
 3965.00    0.40512   0.82646    0.000
 3966.00    0.52635   0.75870    0.000
 3967.00    0.82908   0.66876    0.000
 3968.00    1.03474   0.59801    0.000
 3969.00    0.86841   0.59605    0.000
 3970.00    0.61999   0.66238    0.000
 3971.00    0.10917   0.74615    0.000
 3972.00   -0.16298   0.81949    0.000
 3973.00    0.21131   0.88275    0.000
 3974.00    0.51549   0.93239    0.000
 3975.00    0.65689   0.96743    0.000
 3976.00    0.75797   0.99310    0.000
 3977.00    0.77807   1.01196    0.000
 3978.00    0.84842   1.02686    0.000
 3979.00    1.00663   1.03998    0.000
 3980.00    1.21791   1.04651    0.000
 3981.00    1.51043   1.04716    0.026
 3982.00    1.66139   1.05352    0.026
 3983.00    1.62197   1.06659    0.027
 3984.00    1.31690   1.07697    0.027
 3985.00    0.69723   1.08322    0.027
 3986.00    0.54451   1.08830    0.027
 3987.00    0.87938   1.09100    0.026
 3988.00    1.22269   1.09069    0.026
 3989.00    1.57376   1.09029    0.026
 3990.00    1.61891   1.09159    0.026
 3991.00    1.41567   1.09129    0.026
 3992.00    1.33699   1.08209    0.026
 3993.00    1.34731   1.06871    0.026
 3994.00    1.24881   1.06850    0.026
 3995.00    1.08208   1.07889    0.026
 3996.00    1.12024   1.08261    0.026
 3997.00    1.27068   1.08127    0.026
 3998.00    1.26938   1.08325    0.025
 3999.00    1.19581   1.08470    0.025
 4000.00    1.14643   1.08004    0.025
 4001.00    1.10701   1.07298    0.025
 4002.00    1.00360   1.06858    0.025
 4003.00    0.87772   1.06463    0.024
 4004.00    0.91510   1.06058    0.024
 4005.00    1.00084   1.05326    0.025
 4006.00    1.24446   1.02751    0.025
 4007.00    1.52687   0.98735    0.025
 4008.00    1.72784   0.97420    0.025
 4009.00    1.91263   1.00490    0.025
 4010.00    1.76120   1.04294    0.024
 4011.00    1.55752   1.06258    0.024
 4012.00    1.72235   1.07003    0.024
 4013.00    1.92956   1.07286    0.024
 4014.00    1.59206   1.07304    0.024
 4015.00    1.21245   1.07140    0.024
 4016.00    0.92150   1.06989    0.024
 4017.00    0.63428   1.07015    0.024
 4018.00    0.73452   1.06945    0.024
 4019.00    0.83436   1.06338    0.024
 4020.00    0.76211   1.05143    0.024
 4021.00    0.69514   1.03287    0.025
 4022.00    0.72132   0.99924    0.024
 4023.00    0.72942   0.93765    0.024
 4024.00    0.54297   0.86760    0.024
 4025.00    0.38619   0.85525    0.024
 4026.00    0.45467   0.91507    0.024
 4027.00    0.52753   0.98228    0.024
 4028.00    0.62562   1.02018    0.024
 4029.00    0.71790   1.03634    0.025
 4030.00    0.78356   1.04026    0.024
 4031.00    0.88492   1.03972    0.024
 4032.00    1.12020   1.03753    0.024
 4033.00    1.28192   1.03368    0.024
 4034.00    1.21299   1.03648    0.024
 4035.00    1.12899   1.04843    0.024
 4036.00    1.00491   1.05653    0.024
 4037.00    0.97040   1.05543    0.024
 4038.00    1.14043   1.04942    0.024
 4039.00    1.23250   1.04073    0.025
 4040.00    1.17044   1.03490    0.025
 4041.00    1.08581   1.03308    0.025
 4042.00    0.96230   1.03074    0.025
 4043.00    0.98770   1.03025    0.024
 4044.00    1.23775   1.03356    0.024
 4045.00    1.32683   1.03749    0.024
 4046.00    1.20255   1.03907    0.024
 4047.00    1.06793   1.03894    0.024
 4048.00    0.92126   1.03990    0.024
 4049.00    0.81043   1.04103    0.024
 4050.00    0.73650   1.03888    0.024
 4051.00    0.87948   1.03237    0.025
 4052.00    1.21943   1.02521    0.025
 4053.00    1.37971   1.02264    0.025
 4054.00    1.39619   1.02383    0.025
 4055.00    1.25473   1.02432    0.024
 4056.00    1.00206   1.02359    0.024
 4057.00    0.91564   1.02102    0.024
 4058.00    0.93190   1.01479    0.023
 4059.00    1.00000   1.00945    0.024
 4060.00    1.09608   1.00919    0.024
 4061.00    1.17459   1.01034    0.023
 4062.00    1.24488   1.01169    0.023
 4063.00    1.27255   1.01535    0.023
 4064.00    1.28301   1.01770    0.023
 4065.00    1.37700   1.01518    0.023
 4066.00    1.49980   1.00850    0.023
 4067.00    1.47922   0.99458    0.023
 4068.00    1.41701   0.97816    0.023
 4069.00    0.94607   0.97068    0.023
 4070.00    0.37696   0.97002    0.023
 4071.00    0.58527   0.97442    0.023
 4072.00    0.94422   0.97672    0.023
 4073.00    1.19843   0.96320    0.023
 4074.00    1.43686   0.94893    0.023
 4075.00    1.19476   0.95464    0.023
 4076.00    0.89951   0.96876    0.023
 4077.00    0.83080   0.97553    0.023
 4078.00    0.77868   0.97822    0.023
 4079.00    1.01422   0.97987    0.023
 4080.00    1.26077   0.97824    0.023
 4081.00    1.19844   0.97366    0.023
 4082.00    1.13380   0.96551    0.023
 4083.00    1.04657   0.95721    0.023
 4084.00    0.95585   0.95463    0.023
 4085.00    0.80786   0.95299    0.023
 4086.00    0.70117   0.94436    0.023
 4087.00    1.01942   0.93236    0.023
 4088.00    1.31879   0.92888    0.023
 4089.00    1.47958   0.93169    0.023
 4090.00    1.65469   0.92489    0.024
 4091.00    1.91012   0.90778    0.024
 4092.00    2.01774   0.89002    0.000
 4093.00    1.46395   0.86771    0.000
 4094.00    1.04328   0.83403    0.000
 4095.00    1.11155   0.79469    0.000
 4096.00    1.17313   0.75603    0.000
 4097.00    1.21412   0.71196    0.000
 4098.00    1.22614   0.64960    0.000
 4099.00    1.16246   0.57242    0.000
 4100.00    1.05182   0.52379    0.000
 4101.00    0.83569   0.54518    0.000
 4102.00    0.76224   0.61398    0.000
 4103.00    0.96641   0.68439    0.000
 4104.00    1.11022   0.74316    0.000
 4105.00    1.15162   0.79068    0.000
 4106.00    1.04542   0.82558    0.000
 4107.00    0.71981   0.85010    0.000
 4108.00    0.68776   0.86674    0.000
 4109.00    1.03928   0.87854    0.000
 4110.00    1.14806   0.89085    0.000
 4111.00    0.97745   0.90466    0.000
 4112.00    0.75031   0.91489    0.000
 4113.00    0.46581   0.91863    0.022
 4114.00    0.51295   0.92076    0.022
 4115.00    0.85700   0.92640    0.022
 4116.00    0.97664   0.92688    0.022
 4117.00    0.91923   0.91025    0.022
 4118.00    0.96595   0.87927    0.022
 4119.00    1.08492   0.85877    0.022
 4120.00    1.29892   0.87416    0.022
 4121.00    1.57076   0.91093    0.022
 4122.00    1.31605   0.93720    0.022
 4123.00    0.78161   0.94768    0.022
 4124.00    0.51707   0.94806    0.022
 4125.00    0.37698   0.93501    0.023
 4126.00    0.81051   0.91509    0.023
 4127.00    1.47182   0.90837    0.023
 4128.00    1.39631   0.90818    0.023
 4129.00    1.07144   0.90115    0.023
 4130.00    1.08362   0.90156    0.023
 4131.00    1.19171   0.91420    0.022
 4132.00    1.28627   0.92804    0.022
 4133.00    1.37764   0.93848    0.022
 4134.00    1.28212   0.94264    0.021
 4135.00    1.15133   0.93944    0.021
 4136.00    1.20746   0.93452    0.021
 4137.00    1.29088   0.93207    0.022
 4138.00    1.15763   0.92970    0.022
 4139.00    1.00136   0.92257    0.022
 4140.00    0.72863   0.89896    0.021
 4141.00    0.44784   0.85228    0.021
 4142.00    0.82727   0.81666    0.021
 4143.00    1.22948   0.83214    0.022
 4144.00    1.09592   0.87619    0.022
 4145.00    0.96121   0.90736    0.022
 4146.00    0.82322   0.92113    0.022
 4147.00    0.68831   0.92286    0.022
 4148.00    0.60118   0.91715    0.022
 4149.00    0.55763   0.91579    0.022
 4150.00    0.94358   0.91568    0.022
 4151.00    1.27559   0.90812    0.022
 4152.00    1.22454   0.90548    0.022
 4153.00    1.15190   0.91305    0.022
 4154.00    0.96134   0.91719    0.022
 4155.00    0.86256   0.91746    0.022
 4156.00    1.16491   0.92153    0.021
 4157.00    1.34523   0.92606    0.021
 4158.00    1.08665   0.92634    0.021
 4159.00    0.90467   0.92247    0.021
 4160.00    0.95385   0.91417    0.021
 4161.00    0.87078   0.90607    0.021
 4162.00    0.44806   0.90365    0.021
 4163.00    0.33000   0.90481    0.022
 4164.00    0.88495   0.90746    0.022
 4165.00    1.22305   0.90781    0.022
 4166.00    1.14579   0.89850    0.022
 4167.00    1.11904   0.88686    0.022
 4168.00    1.17673   0.88873    0.021
 4169.00    1.14364   0.89721    0.021
 4170.00    0.97758   0.89797    0.021
 4171.00    0.75700   0.89452    0.021
 4172.00    0.46619   0.89348    0.021
 4173.00    0.49638   0.89445    0.021
 4174.00    0.89085   0.89474    0.021
 4175.00    1.02712   0.89449    0.021
 4176.00    0.90496   0.89424    0.021
 4177.00    0.70415   0.89406    0.021
 4178.00    0.43390   0.89659    0.021
 4179.00    0.43340   0.90064    0.021
 4180.00    0.64268   0.90196    0.021
 4181.00    0.69387   0.90070    0.021
 4182.00    0.63693   0.89694    0.021
 4183.00    0.47760   0.89017    0.021
 4184.00    0.25689   0.88555    0.020
 4185.00    0.30542   0.88624    0.020
 4186.00    0.49477   0.88714    0.020
 4187.00    0.74642   0.88147    0.020
 4188.00    1.02633   0.87509    0.020
 4189.00    1.15565   0.87935    0.020
 4190.00    1.22620   0.88870    0.020
 4191.00    1.10970   0.89310    0.020
 4192.00    0.93108   0.89266    0.020
 4193.00    0.81467   0.88937    0.020
 4194.00    0.71560   0.88546    0.020
 4195.00    0.54948   0.88329    0.020
 4196.00    0.36799   0.88071    0.020
 4197.00    0.40596   0.87486    0.020
 4198.00    0.48426   0.86870    0.020
 4199.00    0.56274   0.86761    0.020
 4200.00    0.64124   0.87152    0.020
 4201.00    0.92749   0.87585    0.020
 4202.00    1.23493   0.87762    0.020
 4203.00    1.01148   0.87724    0.020
 4204.00    0.75345   0.87709    0.020
 4205.00    0.61005   0.87815    0.019
 4206.00    0.47074   0.87929    0.019
 4207.00    0.69574   0.87900    0.019
 4208.00    0.91335   0.87707    0.020
 4209.00    0.91389   0.87516    0.020
 4210.00    0.91554   0.87407    0.020
 4211.00    0.93333   0.87327    0.020
 4212.00    0.95883   0.87181    0.020
 4213.00    1.05718   0.86825    0.020
 4214.00    1.16488   0.86402    0.020
 4215.00    1.33675   0.86271    0.020
 4216.00    1.45539   0.86455    0.020
 4217.00    1.29115   0.86646    0.020
 4218.00    1.15457   0.86613    0.020
 4219.00    1.13612   0.86275    0.020
 4220.00    1.12775   0.85682    0.020
 4221.00    1.15489   0.85360    0.020
 4222.00    1.13374   0.85381    0.020
 4223.00    0.96958   0.85183    0.020
 4224.00    0.88543   0.84696    0.020
 4225.00    1.00317   0.84176    0.020
 4226.00    0.96950   0.84099    0.020
 4227.00    0.60681   0.84680    0.020
 4228.00    0.45199   0.85169    0.020
 4229.00    0.68916   0.85093    0.019
 4230.00    0.87526   0.84731    0.019
 4231.00    0.97727   0.84308    0.019
 4232.00    0.94123   0.84209    0.019
 4233.00    0.70590   0.84446    0.019
 4234.00    0.51750   0.84172    0.019
 4235.00    0.38869   0.83516    0.019
 4236.00    0.42492   0.83462    0.019
 4237.00    0.64583   0.83936    0.018
 4238.00    0.86259   0.84096    0.019
 4239.00    1.07526   0.83558    0.019
 4240.00    1.23341   0.82942    0.019
 4241.00    1.34410   0.83228    0.019
 4242.00    1.28952   0.84042    0.019
 4243.00    1.10821   0.84279    0.019
 4244.00    1.06218   0.83784    0.019
 4245.00    1.10733   0.83292    0.020
 4246.00    1.23299   0.83286    0.020
 4247.00    1.40620   0.83400    0.020
 4248.00    1.02037   0.83208    0.020
 4249.00    0.34669   0.83013    0.020
 4250.00    0.24353   0.82796    0.020
 4251.00    0.39491   0.81741    0.020
 4252.00    0.71730   0.80619    0.020
 4253.00    1.10524   0.81080    0.020
 4254.00    1.27493   0.82269    0.020
 4255.00    1.37349   0.82627    0.020
 4256.00    1.28613   0.82365    0.019
 4257.00    1.14803   0.82165    0.019
 4258.00    1.08107   0.82109    0.019
 4259.00    1.03004   0.82096    0.019
 4260.00    0.90712   0.82175    0.019
 4261.00    0.77133   0.82342    0.019
 4262.00    0.72828   0.82401    0.019
 4263.00    0.69792   0.81755    0.019
 4264.00    0.66453   0.78667    0.019
 4265.00    0.63085   0.74213    0.019
 4266.00    0.55645   0.73623    0.019
 4267.00    0.47957   0.77222    0.019
 4268.00    0.87945   0.80095    0.019
 4269.00    1.28942   0.80795    0.019
 4270.00    1.15657   0.80715    0.019
 4271.00    1.03051   0.80543    0.019
 4272.00    1.08372   0.80225    0.018
 4273.00    1.12603   0.79471    0.018
 4274.00    1.01865   0.78533    0.018
 4275.00    0.86243   0.78241    0.019
 4276.00    0.26249   0.78960    0.018
 4277.00   -0.19256   0.80090    0.000
 4278.00    0.31749   0.80711    0.018
 4279.00    0.79097   0.80491    0.018
 4280.00    1.07510   0.79652    0.019
 4281.00    1.31001   0.78777    0.019
 4282.00    1.33948   0.78332   -2.000
 4283.00    1.34994   0.78329   -2.000
 4284.00    1.29480   0.78759   -2.000
 4285.00    1.15914   0.79397   -2.000
 4286.00    0.78947   0.79395   -2.000
 4287.00    0.49966   0.78756   -2.000
 4288.00    0.40795   0.78308   -2.000
 4289.00    0.37000   0.78393   -2.000
 4290.00    0.44695   0.78908   -2.000
 4291.00    0.49382   0.79225   -2.000
 4292.00    0.48483   0.78572   -2.000
 4293.00    0.54870   0.77799   -2.000
 4294.00    0.73071   0.77933   -2.000
 4295.00    0.85789   0.78434   -2.000
 4296.00    0.90704   0.78654   -2.000
 4297.00    0.91365   0.78467   -2.000
 4298.00    0.86702   0.78103    0.019
 4299.00    0.80022   0.77957    0.019
 4300.00    0.71119   0.77584    0.019
 4301.00    0.66505   0.76497    0.019
 4302.00    0.66065   0.75765    0.019
 4303.00    0.64636   0.76245    0.018
 4304.00    0.62359   0.76994    0.018
 4305.00    0.55848   0.77035    0.018
 4306.00    0.46139   0.76623    0.018
 4307.00    0.44076   0.76378    0.019
 4308.00    0.47091   0.76537    0.019
 4309.00    0.56591   0.76951    0.019
 4310.00    0.69862   0.77018    0.018
 4311.00    0.74250   0.76422    0.018
 4312.00    0.74136   0.75774    0.018
 4313.00    0.72063   0.75570    0.018
 4314.00    0.69130   0.75438    0.018
 4315.00    0.85811   0.75083    0.018
 4316.00    1.09881   0.74773    0.018
 4317.00    1.05817   0.74559    0.018
 4318.00    0.92758   0.74543    0.018
 4319.00    0.78359   0.75049    0.018
 4320.00    0.63602   0.75594    0.019
 4321.00    0.62278   0.75640    0.019
 4322.00    0.63894   0.75091    0.018
 4323.00    0.75666   0.73846    0.018
 4324.00    0.89204   0.72683    0.019
 4325.00    0.84141   0.72558    0.019
 4326.00    0.76617   0.72831    0.019
 4327.00    0.78625   0.72569    0.019
 4328.00    0.81525   0.71854    0.019
 4329.00    0.77164   0.70839    0.019
 4330.00    0.72389   0.69499    0.000
 4331.00    0.84028   0.68050    0.000
 4332.00    0.95950   0.66649    0.000
 4333.00    0.96584   0.64969    0.000
 4334.00    0.96725   0.62366    0.000
 4335.00    0.85059   0.58594    0.000
 4336.00    0.75697   0.53998    0.000
 4337.00    0.96321   0.48537    0.000
 4338.00    1.12629   0.43033    0.000
 4339.00    0.91224   0.41262    0.000
 4340.00    0.71988   0.45000    0.000
 4341.00    0.66769   0.50870    0.000
 4342.00    0.62349   0.55647    0.000
 4343.00    0.61954   0.59021    0.000
 4344.00    0.64634   0.61591    0.000
 4345.00    0.79861   0.63632    0.000
 4346.00    0.94072   0.65231    0.000
 4347.00    1.04846   0.66462    0.000
 4348.00    1.09715   0.67368    0.000
 4349.00    0.97735   0.67816    0.000
 4350.00    0.86743   0.68254    0.000
 4351.00    0.78157   0.69301    0.018
 4352.00    0.76923   0.70574    0.018
 4353.00    0.91156   0.71644    0.019
 4354.00    0.98643   0.72451    0.019
 4355.00    0.93798   0.72868    0.019
 4356.00    0.92079   0.72874    0.019
 4357.00    0.95352   0.72758    0.019
 4358.00    1.00168   0.72719    0.019
 4359.00    1.07144   0.72654    0.019
 4360.00    1.13799   0.72767    0.018
 4361.00    1.20055   0.73159    0.018
 4362.00    1.16043   0.73328    0.018
 4363.00    1.00862   0.73117    0.018
 4364.00    0.94518   0.72517    0.018
 4365.00    0.96651   0.71858    0.018
 4366.00    0.96627   0.71773    0.018
 4367.00    0.94778   0.72141    0.018
 4368.00    0.75931   0.72418    0.018
 4369.00    0.44424   0.72189    0.018
 4370.00    0.46848   0.71545    0.018
 4371.00    0.71476   0.71269    0.018
 4372.00    0.71864   0.71416    0.018
 4373.00    0.58369   0.71610    0.018
 4374.00    0.70305   0.71867    0.018
 4375.00    0.94927   0.72158    0.018
 4376.00    1.04300   0.72253    0.018
 4377.00    1.07093   0.72155    0.018
 4378.00    1.15173   0.72269    0.018
 4379.00    1.25210   0.72489    0.018
 4380.00    1.02797   0.72209    0.018
 4381.00    0.70207   0.71341    0.018
 4382.00    0.54657   0.70346    0.017
 4383.00    0.43566   0.69757    0.017
 4384.00    0.56337   0.68975    0.017
 4385.00    0.74205   0.66248    0.017
 4386.00    0.61154   0.63424    0.017
 4387.00    0.42875   0.64388    0.017
 4388.00    0.62977   0.67612    0.017
 4389.00    0.87982   0.69723    0.017
 4390.00    0.99143   0.70834    0.017
 4391.00    1.09069   0.71520    0.017
 4392.00    0.99984   0.71449    0.017
 4393.00    0.89886   0.70637    0.017
 4394.00    0.80807   0.70196    0.017
 4395.00    0.72081   0.70816    0.017
 4396.00    0.90319   0.71556    0.017
 4397.00    1.07206   0.71589    0.017
 4398.00    0.94399   0.71201    0.017
 4399.00    0.81323   0.70998    0.017
 4400.00    0.64920   0.71195    0.017
 4401.00    0.51891   0.71255    0.017
 4402.00    0.67239   0.70817    0.017
 4403.00    0.77658   0.70303    0.017
 4404.00    0.57186   0.70191    0.017
 4405.00    0.41905   0.70360    0.017
 4406.00    0.52163   0.70433    0.017
 4407.00    0.63981   0.70431    0.017
 4408.00    0.82027   0.70288    0.017
 4409.00    0.92567   0.69822    0.017
 4410.00    0.78218   0.69669    0.017
 4411.00    0.67750   0.69859    0.017
 4412.00    0.68156   0.69130    0.017
 4413.00    0.65822   0.67868    0.017
 4414.00    0.56923   0.67294    0.017
 4415.00    0.51598   0.67469    0.017
 4416.00    0.53671   0.68179    0.017
 4417.00    0.58368   0.68950    0.017
 4418.00    0.67790   0.69367    0.017
 4419.00    0.74669   0.69701    0.017
 4420.00    0.77548   0.69813    0.017
 4421.00    0.74026   0.69735    0.017
 4422.00    0.61660   0.69762    0.017
 4423.00    0.55607   0.69683    0.017
 4424.00    0.57233   0.69311    0.017
 4425.00    0.65913   0.68825    0.017
 4426.00    0.82155   0.68636    0.017
 4427.00    0.91468   0.68736    0.017
 4428.00    0.94226   0.68520    0.017
 4429.00    0.82380   0.68048    0.017
 4430.00    0.58354   0.67838    0.017
 4431.00    0.53378   0.67748    0.017
 4432.00    0.62387   0.67697    0.017
 4433.00    0.71853   0.67748    0.017
 4434.00    0.81614   0.67446    0.017
 4435.00    0.78426   0.66631    0.017
 4436.00    0.67935   0.66549    0.017
 4437.00    0.65022   0.67595    0.017
 4438.00    0.65829   0.68430    0.017
 4439.00    0.68719   0.68272    0.017
 4440.00    0.72493   0.67550    0.017
 4441.00    0.70890   0.67041    0.017
 4442.00    0.67333   0.67249    0.017
 4443.00    0.65665   0.67797    0.017
 4444.00    0.64579   0.67652    0.017
 4445.00    0.63078   0.66903    0.017
 4446.00    0.61471   0.66653    0.017
 4447.00    0.71293   0.67133    0.017
 4448.00    0.83497   0.67585    0.017
 4449.00    0.76603   0.67562    0.017
 4450.00    0.66571   0.67226    0.017
 4451.00    0.74263   0.67088    0.017
 4452.00    0.84139   0.67197    0.017
 4453.00    0.84803   0.67104    0.017
 4454.00    0.84684   0.66940    0.017
 4455.00    0.79223   0.66974    0.017
 4456.00    0.73497   0.67071    0.017
 4457.00    0.67039   0.67032    0.017
 4458.00    0.60903   0.66863    0.017
 4459.00    0.75758   0.66595    0.017
 4460.00    0.89120   0.66325    0.017
 4461.00    0.72232   0.66186    0.000
 4462.00    0.56556   0.66113    0.000
 4463.00    0.55115   0.65871    0.000
 4464.00    0.54351   0.65469    0.000
 4465.00    0.59079   0.64946    0.000
 4466.00    0.65142   0.64213    0.000
 4467.00    0.79331   0.63029    0.000
 4468.00    0.89718   0.60095    0.000
 4469.00    0.81865   0.55515    0.000
 4470.00    0.75880   0.54001    0.000
 4471.00    0.77194   0.57809    0.000
 4472.00    0.81638   0.62408    0.000
 4473.00    0.96258   0.64606    0.000
 4474.00    1.05622   0.65384    0.000
 4475.00    1.00527   0.65787    0.000
 4476.00    0.93776   0.65857    0.000
 4477.00    0.83123   0.65141    0.000
 4478.00    0.77248   0.62956    0.000
 4479.00    0.81104   0.60720    0.000
 4480.00    0.86279   0.61117    0.000
 4481.00    0.93788   0.63585    0.000
 4482.00    0.91381   0.65296    0.017
 4483.00    0.73592   0.65804    0.017
 4484.00    0.61699   0.65792    0.017
 4485.00    0.57833   0.65420    0.017
 4486.00    0.54475   0.64792    0.017
 4487.00    0.51727   0.64333    0.017
 4488.00    0.45672   0.64368    0.017
 4489.00    0.36121   0.64704    0.017
 4490.00    0.42673   0.65017    0.017
 4491.00    0.64241   0.65131    0.017
 4492.00    0.73435   0.64979    0.017
 4493.00    0.72455   0.64754    0.017
 4494.00    0.60917   0.64635    0.017
 4495.00    0.41738   0.64639    0.017
 4496.00    0.43692   0.64727    0.017
 4497.00    0.59070   0.64762    0.017
 4498.00    0.70757   0.64558    0.017
 4499.00    0.80394   0.64264    0.017
 4500.00    0.83627   0.64291    0.017
 4501.00    0.83766   0.64705    0.017
 4502.00    0.85026   0.64997    0.017
 4503.00    0.86753   0.64929    0.017
 4504.00    0.83301   0.64630    0.017
 4505.00    0.77999   0.64189    0.016
 4506.00    0.80900   0.63817    0.016
 4507.00    0.86273   0.63801    0.017
 4508.00    0.90006   0.64001    0.017
 4509.00    0.93327   0.63882    0.017
 4510.00    0.94363   0.63335    0.017
 4511.00    0.94934   0.62898    0.016
 4512.00    0.81363   0.62784    0.017
 4513.00    0.65536   0.62778    0.017
 4514.00    0.66435   0.62995    0.017
 4515.00    0.69320   0.63267    0.016
 4516.00    0.66690   0.63320    0.017
 4517.00    0.63612   0.63308    0.017
 4518.00    0.68098   0.63359    0.017
 4519.00    0.72927   0.63360    0.016
 4520.00    0.77687   0.63043    0.016
 4521.00    0.82403   0.62526    0.017
 4522.00    0.84886   0.62071    0.016
 4523.00    0.86915   0.61873    0.016
 4524.00    0.80430   0.62061    0.016
 4525.00    0.73678   0.62217    0.016
 4526.00    0.63937   0.61634    0.016
 4527.00    0.58275   0.60730    0.016
 4528.00    0.84539   0.60564    0.016
 4529.00    1.03336   0.61278    0.016
 4530.00    0.77985   0.62023    0.016
 4531.00    0.56052   0.62055    0.016
 4532.00    0.50114   0.61556    0.016
 4533.00    0.50208   0.61309    0.016
 4534.00    0.73360   0.61653    0.016
 4535.00    0.91259   0.62209    0.016
 4536.00    0.92413   0.62476    0.016
 4537.00    0.83347   0.62309    0.016
 4538.00    0.46666   0.61843    0.016
 4539.00    0.33427   0.61368    0.016
 4540.00    0.74509   0.61289    0.016
 4541.00    0.96487   0.61578    0.016
 4542.00    0.80171   0.61693    0.016
 4543.00    0.65926   0.61553    0.016
 4544.00    0.55299   0.61520    0.016
 4545.00    0.58070   0.61573    0.016
 4546.00    0.81316   0.61268    0.016
 4547.00    0.91915   0.60569    0.016
 4548.00    0.85537   0.60339    0.016
 4549.00    0.77754   0.60382    0.016
 4550.00    0.68308   0.59542    0.000
 4551.00    0.58989   0.58858    0.000
 4552.00    0.49804   0.59367    0.000
 4553.00    0.59752   0.60002    0.000
 4554.00    0.87294   0.60319    0.000
 4555.00    0.90557   0.60722    0.000
 4556.00    0.74145   0.60955    0.000
 4557.00    0.70635   0.60957    0.000
 4558.00    0.76328   0.61005    0.000
 4559.00    0.88094   0.61069    0.000
 4560.00    1.03660   0.60990    0.000
 4561.00    1.05205   0.60662    0.000
 4562.00    0.99080   0.60347    0.000
 4563.00    0.79333   0.60322    0.000
 4564.00    0.53110   0.60326    0.000
 4565.00    0.60604   0.59865    0.000
 4566.00    0.81925   0.59414    0.000
 4567.00    0.81486   0.59715    0.000
 4568.00    0.73423   0.60188    0.000
 4569.00    0.72405   0.60083    0.000
 4570.00    0.73468   0.59893    0.000
 4571.00    0.72520   0.59953    0.000
 4572.00    0.71079   0.59698    0.000
 4573.00    0.67031   0.59268    0.000
 4574.00    0.62467   0.59422    0.000
 4575.00    0.70216   0.59862    0.000
 4576.00    0.79872   0.59953    0.000
 4577.00    0.78440   0.59660    0.000
 4578.00    0.75739   0.59375    0.000
 4579.00    0.94067   0.59384    0.000
 4580.00    1.14011   0.59412    0.000
 4581.00    1.13570   0.59107    0.000
 4582.00    1.12280   0.58767    0.000
 4583.00    0.92583   0.58787    0.000
 4584.00    0.73048   0.58945    0.000
 4585.00    0.67350   0.58942    0.000
 4586.00    0.63251   0.58863    0.000
 4587.00    0.87086   0.58741    0.000
 4588.00    1.07402   0.58245    0.000
 4589.00    0.90072   0.57662    0.000
 4590.00    0.74061   0.57737    0.000
 4591.00    0.68010   0.58254    0.000
 4592.00    0.64698   0.58441    0.000
 4593.00    0.77122   0.57971    0.000
 4594.00    0.84840   0.57398    0.000
 4595.00    0.71054   0.57510    0.000
 4596.00    0.62105   0.58121    0.000
 4597.00    0.71256   0.58405    0.000
 4598.00    0.78194   0.58134    0.000
 4599.00    0.78215   0.57327    0.000
 4600.00    0.78482   0.56882    0.000
 4601.00    0.79401   0.57341    0.000
 4602.00    0.79501   0.57951    0.000
 4603.00    0.77735   0.58062    0.000
 4604.00    0.77049   0.57695    0.000
 4605.00    0.78498   0.57338    0.000
 4606.00    0.83434   0.57334    0.000
 4607.00    0.94367   0.57390    0.000
 4608.00    1.04966   0.57403    0.000
 4609.00    1.15063   0.57659    0.000
 4610.00    1.09689   0.57781    0.000
 4611.00    0.83845   0.57422    0.000
 4612.00    0.69547   0.57206    0.000
 4613.00    0.68705   0.57483    0.000
 4614.00    0.76356   0.57728    0.000
 4615.00    0.92736   0.57588    0.000
 4616.00    0.96007   0.56779    0.000
 4617.00    0.87396   0.55846    0.000
 4618.00    0.88108   0.55726    0.000
 4619.00    0.96270   0.56116    0.000
 4620.00    0.82832   0.56500    0.000
 4621.00    0.54212   0.57028    0.000
 4622.00    0.70163   0.57347    0.000
 4623.00    1.13594   0.57271    0.000
 4624.00    1.24717   0.57035    0.000
 4625.00    1.18441   0.56846    0.000
 4626.00    1.03010   0.56629    0.000
 4627.00    0.83298   0.56057    0.000
 4628.00    0.75108   0.55344    0.000
 4629.00    0.71564   0.55307    0.000
 4630.00    0.80428   0.55941    0.000
 4631.00    0.93562   0.56230    0.000
 4632.00    0.95407   0.56017    0.000
 4633.00    0.93982   0.55876    0.000
 4634.00    0.78602   0.55974    0.000
 4635.00    0.59880   0.55828    0.000
 4636.00    0.80677   0.55152    0.000
 4637.00    1.09106   0.54614    0.000
 4638.00    1.01676   0.54609    0.000
 4639.00    0.88864   0.54398    0.000
 4640.00    0.88042   0.53968    0.000
 4641.00    0.88539   0.54201    0.000
 4642.00    0.85875   0.54976    0.000
 4643.00    0.82980   0.55441    0.000
 4644.00    0.81800   0.55112    0.000
 4645.00    0.80685   0.54272    0.000
 4646.00    0.84605   0.53339    0.000
 4647.00    0.88802   0.52661    0.000
 4648.00    1.02280   0.52439    0.000
 4649.00    1.13964   0.52954    0.000
 4650.00    0.96318   0.54009    0.000
 4651.00    0.81033   0.54893    0.000
 4652.00    0.89916   0.54965    0.000
 4653.00    0.98181   0.54746    0.000
 4654.00    1.01937   0.54614    0.000
 4655.00    1.02413   0.54641    0.000
 4656.00    0.84550   0.54957    0.000
 4657.00    0.73363   0.55355    0.000
 4658.00    0.91971   0.55313    0.000
 4659.00    1.05919   0.54630    0.000
 4660.00    1.02798   0.53995    0.000
 4661.00    1.00003   0.54039    0.000
 4662.00    0.98212   0.54437    0.000
 4663.00    0.97566   0.54591    0.000
 4664.00    0.99904   0.54340    0.000
 4665.00    0.96329   0.53868    0.000
 4666.00    0.79499   0.53525    0.000
 4667.00    0.70138   0.53514    0.000
 4668.00    0.75281   0.53812    0.000
 4669.00    0.80099   0.54151    0.000
 4670.00    0.84366   0.54124    0.000
 4671.00    0.90009   0.53670    0.000
 4672.00    0.97690   0.53353    0.000
 4673.00    0.98092   0.53226    0.000
 4674.00    0.88998   0.53098    0.000
 4675.00    0.78611   0.53096    0.000
 4676.00    0.66738   0.53349    0.000
 4677.00    0.67336   0.53540    0.000
 4678.00    0.80571   0.53637    0.000
 4679.00    0.90617   0.53574    0.000
 4680.00    0.97814   0.53452    0.000
 4681.00    0.94524   0.53418    0.000
 4682.00    0.82975   0.53323    0.000
 4683.00    0.84243   0.52991    0.000
 4684.00    0.94389   0.52769    0.000
 4685.00    0.94931   0.52955    0.000
 4686.00    0.89640   0.53275    0.000
 4687.00    0.88547   0.53440    0.000
 4688.00    0.89681   0.53357    0.000
 4689.00    0.87558   0.53118    0.000
 4690.00    0.83938   0.53082    0.000
 4691.00    0.80503   0.53187    0.000
 4692.00    0.77142   0.53198    0.000
 4693.00    0.69091   0.53147    0.000
 4694.00    0.59456   0.53111    0.000
 4695.00    0.62281   0.53018    0.000
 4696.00    0.68642   0.52508    0.000
 4697.00    0.72163   0.51872    0.000
 4698.00    0.75019   0.51830    0.000
 4699.00    0.68912   0.52187    0.000
 4700.00    0.61119   0.52250    0.000
 4701.00    0.64171   0.52178    0.000
 4702.00    0.68800   0.51987    0.000
 4703.00    0.71061   0.51782    0.000
 4704.00    0.73072   0.51810    0.000
 4705.00    0.80410   0.52092    0.000
 4706.00    0.88114   0.52173    0.000
 4707.00    0.71625   0.52014    0.000
 4708.00    0.54314   0.51958    0.000
 4709.00    0.64129   0.52026    0.000
 4710.00    0.73576   0.50723    0.000
 4711.00    0.69661   0.48789    0.000
 4712.00    0.66526   0.48821    0.000
 4713.00    0.75377   0.50458    0.000
 4714.00    0.82344   0.51093    0.000
 4715.00    0.70848   0.51316    0.000
 4716.00    0.59899   0.51779    0.000
 4717.00    0.52812   0.52145    0.000
 4718.00    0.50776   0.52240    0.000
 4719.00    0.76216   0.52201    0.000
 4720.00    0.94880   0.52070    0.000
 4721.00    0.84019   0.51983    0.000
 4722.00    0.74534   0.52026    0.000
 4723.00    0.69989   0.52094    0.000
 4724.00    0.68966   0.51968    0.000
 4725.00    0.78547   0.51626    0.000
 4726.00    0.85202   0.51301    0.000
 4727.00    0.84361   0.51171    0.000
 4728.00    0.83609   0.51132    0.000
 4729.00    0.83052   0.51124    0.000
 4730.00    0.73666   0.51203    0.000
 4731.00    0.47399   0.51316    0.000
 4732.00    0.36564   0.51365    0.000
 4733.00    0.51473   0.51372    0.000
 4734.00    0.60883   0.51262    0.000
 4735.00    0.62253   0.51110    0.000
 4736.00    0.67916   0.51068    0.000
 4737.00    0.79096   0.51010    0.000
 4738.00    0.78559   0.50867    0.000
 4739.00    0.64747   0.50719    0.000
 4740.00    0.63546   0.50687    0.000
 4741.00    0.74943   0.50841    0.000
 4742.00    0.87174   0.50976    0.000
 4743.00    1.00141   0.50954    0.000
 4744.00    0.96330   0.50956    0.000
 4745.00    0.79494   0.50994    0.000
 4746.00    0.69879   0.50949    0.000
 4747.00    0.65192   0.50889    0.000
 4748.00    0.67840   0.50812    0.000
 4749.00    0.74876   0.50678    0.000
 4750.00    0.69693   0.50548    0.000
 4751.00    0.58133   0.50531    0.000
 4752.00    0.60496   0.50535    0.000
 4753.00    0.69162   0.50535    0.000
 4754.00    0.72013   0.50492    0.000
 4755.00    0.72600   0.50388    0.000
 4756.00    0.76482   0.50245    0.000
 4757.00    0.81455   0.50112    0.000
 4758.00    0.75740   0.50005    0.000
 4759.00    0.67055   0.49786    0.000
 4760.00    0.69833   0.49468    0.000
 4761.00    0.75233   0.49246    0.015
 4762.00    0.72772   0.49103    0.014
 4763.00    0.68872   0.48985    0.014
 4764.00    0.67750   0.48960    0.014
 4765.00    0.67020   0.49028    0.014
 4766.00    0.73111   0.49113    0.014
 4767.00    0.79893   0.49183    0.014
 4768.00    0.70061   0.49186    0.014
 4769.00    0.59154   0.49070    0.015
 4770.00    0.63556   0.48941    0.014
 4771.00    0.68432   0.48908    0.014
 4772.00    0.78697   0.48975    0.015
 4773.00    0.88645   0.49056    0.015
 4774.00    0.89430   0.49096    0.015
 4775.00    0.89744   0.49098    0.015
 4776.00    0.83251   0.48962    0.014
 4777.00    0.76861   0.48641    0.014
 4778.00    0.71444   0.48415    0.014
 4779.00    0.68331   0.48432    0.014
 4780.00    0.80995   0.48513    0.014
 4781.00    0.91678   0.48474    0.014
 4782.00    0.91868   0.48449    0.014
 4783.00    0.91171   0.48469    0.014
 4784.00    0.86702   0.48399    0.014
 4785.00    0.83125   0.48212    0.014
 4786.00    0.82682   0.48071    0.014
 4787.00    0.82066   0.48064    0.014
 4788.00    0.80943   0.48162    0.014
 4789.00    0.79678   0.48104    0.014
 4790.00    0.78056   0.47989    0.014
 4791.00    0.77550   0.48071    0.014
 4792.00    0.79467   0.48272    0.014
 4793.00    0.79161   0.48384    0.014
 4794.00    0.74673   0.48394    0.014
 4795.00    0.70354   0.48296    0.014
 4796.00    0.66313   0.48128    0.014
 4797.00    0.63085   0.47940    0.014
 4798.00    0.61030   0.47876    0.014
 4799.00    0.61941   0.47886    0.014
 4800.00    0.66612   0.47645    0.014
 4801.00    0.71492   0.47321    0.014
 4802.00    0.76606   0.47247    0.014
 4803.00    0.81643   0.47251    0.014
 4804.00    0.86605   0.47178    0.014
 4805.00    0.90159   0.47184    0.014
 4806.00    0.92493   0.47210    0.014
 4807.00    0.87387   0.47152    0.014
 4808.00    0.76590   0.47071    0.014
 4809.00    0.70283   0.47043    0.014
 4810.00    0.66997   0.46884    0.014
 4811.00    0.71533   0.46646    0.014
 4812.00    0.80680   0.46495    0.014
 4813.00    0.81645   0.46386    0.014
 4814.00    0.78405   0.46458    0.014
 4815.00    0.74224   0.46824    0.014
 4816.00    0.69622   0.46932    0.014
 4817.00    0.72178   0.46470    0.014
 4818.00    0.77472   0.46194    0.014
 4819.00    0.81230   0.46492    0.014
 4820.00    0.84488   0.46727    0.014
 4821.00    0.85004   0.46425    0.014
 4822.00    0.84773   0.46129    0.014
 4823.00    0.78572   0.46198    0.014
 4824.00    0.71036   0.46401    0.014
 4825.00    0.65422   0.46367    0.014
 4826.00    0.60151   0.45962    0.014
 4827.00    0.68867   0.45625    0.014
 4828.00    0.79489   0.45791    0.014
 4829.00    0.88629   0.46038    0.014
 4830.00    0.97625   0.45947    0.014
 4831.00    0.92439   0.45898    0.014
 4832.00    0.86394   0.45916    0.014
 4833.00    0.75430   0.45866    0.014
 4834.00    0.64387   0.45792    0.014
 4835.00    0.62580   0.45784    0.014
 4836.00    0.61031   0.45738    0.014
 4837.00    0.66261   0.45564    0.014
 4838.00    0.70866   0.45356    0.014
 4839.00    0.66963   0.45250    0.013
 4840.00    0.63493   0.45082    0.013
 4841.00    0.63952   0.44771    0.013
 4842.00    0.65658   0.44565    0.013
 4843.00    0.75638   0.44550    0.013
 4844.00    0.81867   0.44455    0.014
 4845.00    0.68746   0.44070    0.013
 4846.00    0.57070   0.43516    0.013
 4847.00    0.51411   0.43081    0.013
 4848.00    0.47462   0.42737    0.000
 4849.00    0.49405   0.42269    0.000
 4850.00    0.52179   0.41735    0.000
 4851.00    0.57369   0.41154    0.000
 4852.00    0.60705   0.40284    0.000
 4853.00    0.59454   0.39078    0.000
 4854.00    0.60242   0.37763    0.000
 4855.00    0.65379   0.36412    0.000
 4856.00    0.70442   0.34717    0.000
 4857.00    0.75365   0.32355    0.000
 4858.00    0.77820   0.28880    0.000
 4859.00    0.76281   0.25780    0.000
 4860.00    0.81930   0.25919    0.000
 4861.00    0.97789   0.29048    0.000
 4862.00    1.02155   0.32245    0.000
 4863.00    0.92164   0.34513    0.000
 4864.00    0.80380   0.36342    0.000
 4865.00    0.66623   0.37791    0.000
 4866.00    0.58730   0.38947    0.000
 4867.00    0.56532   0.39910    0.000
 4868.00    0.62168   0.40537    0.000
 4869.00    0.74511   0.40801    0.000
 4870.00    0.73255   0.41181    0.000
 4871.00    0.61740   0.41798    0.000
 4872.00    0.57726   0.42295    0.000
 4873.00    0.58683   0.42539    0.000
 4874.00    0.62427   0.42759    0.000
 4875.00    0.67787   0.43034    0.014
 4876.00    0.74850   0.43264    0.014
 4877.00    0.82774   0.43430    0.014
 4878.00    0.86698   0.43483    0.014
 4879.00    0.88871   0.43426    0.014
 4880.00    0.80981   0.43445    0.014
 4881.00    0.69308   0.43526    0.014
 4882.00    0.66569   0.43501    0.014
 4883.00    0.66681   0.43365    0.014
 4884.00    0.64319   0.43352    0.014
 4885.00    0.61297   0.43537    0.014
 4886.00    0.61831   0.43725    0.014
 4887.00    0.63140   0.43695    0.014
 4888.00    0.65010   0.43374    0.014
 4889.00    0.66977   0.43101    0.014
 4890.00    0.67818   0.43319    0.014
 4891.00    0.68511   0.43737    0.014
 4892.00    0.71629   0.43953    0.014
 4893.00    0.74973   0.44098    0.014
 4894.00    0.76390   0.44156    0.014
 4895.00    0.77698   0.44151    0.014
 4896.00    0.78584   0.44094    0.014
 4897.00    0.79434   0.43866    0.015
 4898.00    0.77457   0.43571    0.014
 4899.00    0.75670   0.43547    0.014
 4900.00    0.78400   0.43650    0.014
 4901.00    0.81455   0.43618    0.014
 4902.00    0.88725   0.43574    0.014
 4903.00    0.93683   0.43660    0.014
 4904.00    0.78533   0.43615    0.014
 4905.00    0.66582   0.43474    0.014
 4906.00    0.75218   0.43460    0.014
 4907.00    0.82546   0.43475    0.014
 4908.00    0.83299   0.43378    0.014
 4909.00    0.84547   0.43375    0.015
 4910.00    0.87808   0.43439    0.015
 4911.00    0.89366   0.43452    0.014
 4912.00    0.85178   0.43466    0.014
 4913.00    0.82631   0.43561    0.014
 4914.00    0.84757   0.43448    0.014
 4915.00    0.87910   0.43060    0.014
 4916.00    0.93559   0.42631    0.015
 4917.00    0.95807   0.42171    0.014
 4918.00    0.90913   0.41132    0.014
 4919.00    0.82517   0.38821    0.014
 4920.00    0.67734   0.37655    0.014
 4921.00    0.65932   0.38493    0.014
 4922.00    0.84831   0.40054    0.014
 4923.00    0.87465   0.40963    0.014
 4924.00    0.67334   0.42131    0.014
 4925.00    0.55456   0.43007    0.014
 4926.00    0.53741   0.43315    0.014
 4927.00    0.56652   0.43415    0.014
 4928.00    0.64587   0.43434    0.014
 4929.00    0.72970   0.43362    0.014
 4930.00    0.81783   0.43171    0.014
 4931.00    0.83392   0.42812    0.014
 4932.00    0.78919   0.42591    0.014
 4933.00    0.77161   0.42776    0.014
 4934.00    0.77422   0.42967    0.014
 4935.00    0.77197   0.42809    0.014
 4936.00    0.76654   0.42459    0.014
 4937.00    0.75545   0.42291    0.014
 4938.00    0.74112   0.42254    0.014
 4939.00    0.74123   0.42203    0.014
 4940.00    0.74852   0.41911    0.000
 4941.00    0.81661   0.41941    0.000
 4942.00    0.91088   0.42372    0.000
 4943.00    0.86217   0.42764    0.000
 4944.00    0.76067   0.42813    0.000
 4945.00    0.73405   0.42801    0.000
 4946.00    0.73084   0.42753    0.000
 4947.00    0.81774   0.42747    0.000
 4948.00    0.92815   0.42818    0.000
 4949.00    0.91775   0.42857    0.000
 4950.00    0.88164   0.42733    0.000
 4951.00    0.90434   0.42438    0.000
 4952.00    0.93695   0.41963    0.000
 4953.00    0.84276   0.41387    0.000
 4954.00    0.73245   0.40923    0.000
 4955.00    0.75532   0.40608    0.000
 4956.00    0.79000   0.40569    0.000
 4957.00    0.79888   0.40835    0.000
 4958.00    0.80639   0.41109    0.000
 4959.00    0.92276   0.41154    0.000
 4960.00    1.03833   0.41090    0.000
 4961.00    0.92754   0.41041    0.000
 4962.00    0.81862   0.40953    0.000
 4963.00    0.75058   0.40803    0.000
 4964.00    0.68249   0.40693    0.000
 4965.00    0.61367   0.40690    0.000
 4966.00    0.54605   0.40693    0.000
 4967.00    0.48852   0.40744    0.000
 4968.00    0.45741   0.40789    0.000
 4969.00    0.59130   0.40815    0.000
 4970.00    0.71046   0.40827    0.000
 4971.00    0.75737   0.40837    0.000
 4972.00    0.79230   0.40877    0.000
 4973.00    0.77948   0.40887    0.000
 4974.00    0.75887   0.40811    0.000
 4975.00    0.71249   0.40680    0.000
 4976.00    0.68337   0.40557    0.000
 4977.00    0.70247   0.40478    0.000
 4978.00    0.71304   0.40398    0.000
 4979.00    0.70321   0.40194    0.000
 4980.00    0.71523   0.39915    0.000
 4981.00    0.77236   0.39798    0.000
 4982.00    0.82252   0.39883    0.000
 4983.00    0.86015   0.40027    0.000
 4984.00    0.88220   0.40107    0.000
 4985.00    0.87977   0.40183    0.000
 4986.00    0.84146   0.40258    0.000
 4987.00    0.75367   0.40239    0.000
 4988.00    0.77183   0.40031    0.000
 4989.00    0.91863   0.39690    0.000
 4990.00    0.97733   0.39652    0.000
 4991.00    0.94170   0.39700    0.000
 4992.00    0.85508   0.39686    0.000
 4993.00    0.72029   0.39766    0.000
 4994.00    0.71923   0.40010    0.000
 4995.00    0.82950   0.40085    0.000
 4996.00    0.81875   0.39952    0.000
 4997.00    0.71932   0.39658    0.000
 4998.00    0.67631   0.38924    0.000
 4999.00    0.66961   0.38137    0.000
 5000.00    0.69541   0.37980    0.000
 5001.00    0.73951   0.38559    0.000
 5002.00    0.77738   0.38648    0.000
 5003.00    0.81221   0.38370    0.000
 5004.00    0.75562   0.38227    0.000
 5005.00    0.66032   0.38381    0.000
 5006.00    0.75494   0.38615    0.000
 5007.00    0.91844   0.38681    0.000
 5008.00    0.93148   0.38533    0.000
 5009.00    0.89837   0.38545    0.000
 5010.00    0.87483   0.38648    0.000
 5011.00    0.85373   0.38407    0.000
 5012.00    0.83687   0.37570    0.000
 5013.00    0.82089   0.35986    0.000
 5014.00    0.89694   0.35782    0.000
 5015.00    0.98807   0.37000    0.000
 5016.00    0.89946   0.38019    0.000
 5017.00    0.78879   0.38223    0.000
 5018.00    0.78168   0.38553    0.000
 5019.00    0.78333   0.38679    0.000
 5020.00    0.70502   0.38541    0.000
 5021.00    0.62282   0.38557    0.000
 5022.00    0.66149   0.38713    0.000
 5023.00    0.70128   0.38710    0.000
 5024.00    0.69538   0.38497    0.000
 5025.00    0.69143   0.38327    0.000
 5026.00    0.72661   0.38394    0.000
 5027.00    0.75565   0.38665    0.000
 5028.00    0.71299   0.38708    0.000
 5029.00    0.67594   0.38499    0.014
 5030.00    0.68418   0.38249    0.014
 5031.00    0.69313   0.38398    0.013
 5032.00    0.70635   0.38645    0.014
 5033.00    0.73363   0.38496    0.014
 5034.00    0.82819   0.38208    0.014
 5035.00    0.88387   0.38291    0.014
 5036.00    0.78815   0.38385    0.014
 5037.00    0.71283   0.38138    0.013
 5038.00    0.70366   0.37166    0.013
 5039.00    0.67406   0.36553    0.013
 5040.00    0.58834   0.37058    0.013
 5041.00    0.50728   0.38081    0.013
 5042.00    0.43713   0.38244    0.013
 5043.00    0.43353   0.38179    0.013
 5044.00    0.56519   0.37998    0.013
 5045.00    0.69125   0.37316    0.013
 5046.00    0.80738   0.36876    0.013
 5047.00    0.85983   0.37299    0.013
 5048.00    0.81371   0.37920    0.013
 5049.00    0.75922   0.37930    0.013
 5050.00    0.69337   0.37951    0.013
 5051.00    0.68903   0.38021    0.013
 5052.00    0.75830   0.37990    0.013
 5053.00    0.84914   0.36989    0.013
 5054.00    0.96273   0.36286    0.013
 5055.00    0.98904   0.36716    0.013
 5056.00    0.93412   0.37885    0.013
 5057.00    0.86662   0.38182    0.013
 5058.00    0.78880   0.38209    0.013
 5059.00    0.74958   0.38215    0.013
 5060.00    0.73823   0.38150    0.013
 5061.00    0.81549   0.37976    0.013
 5062.00    0.94891   0.37672    0.013
 5063.00    0.95776   0.37481    0.013
 5064.00    0.89753   0.37565    0.013
 5065.00    0.79106   0.37666    0.013
 5066.00    0.66228   0.37638    0.013
 5067.00    0.66730   0.37649    0.013
 5068.00    0.72803   0.37729    0.013
 5069.00    0.73723   0.37688    0.013
 5070.00    0.72809   0.37484    0.013
 5071.00    0.70249   0.37301    0.013
 5072.00    0.67196   0.37318    0.013
 5073.00    0.71557   0.37357    0.013
 5074.00    0.77771   0.37425    0.013
 5075.00    0.69974   0.37473    0.013
 5076.00    0.59338   0.37472    0.013
 5077.00    0.64054   0.37144    0.013
 5078.00    0.71209   0.36902    0.013
 5079.00    0.71867   0.36940    0.013
 5080.00    0.71757   0.37034    0.013
 5081.00    0.65078   0.37035    0.013
 5082.00    0.57870   0.37110    0.012
 5083.00    0.73889   0.37203    0.013
 5084.00    0.90954   0.37096    0.013
 5085.00    0.92425   0.36990    0.013
 5086.00    0.93629   0.37065    0.013
 5087.00    0.90703   0.37213    0.013
 5088.00    0.88019   0.37113    0.013
 5089.00    0.89824   0.36984    0.013
 5090.00    0.91230   0.37003    0.013
 5091.00    0.88196   0.37070    0.013
 5092.00    0.84209   0.37053    0.013
 5093.00    0.72785   0.36993    0.013
 5094.00    0.64454   0.36949    0.013
 5095.00    0.74342   0.36789    0.013
 5096.00    0.82200   0.36631    0.013
 5097.00    0.80586   0.36440    0.013
 5098.00    0.78655   0.36315    0.013
 5099.00    0.75517   0.36453    0.013
 5100.00    0.72467   0.36559    0.013
 5101.00    0.69698   0.36532    0.013
 5102.00    0.66073   0.36453    0.013
 5103.00    0.60144   0.36554    0.013
 5104.00    0.55899   0.36583    0.013
 5105.00    0.55549   0.36461    0.013
 5106.00    0.55077   0.36412    0.013
 5107.00    0.54361   0.36433    0.013
 5108.00    0.60262   0.36319    0.013
 5109.00    0.77694   0.36322    0.013
 5110.00    0.84890   0.36397    0.013
 5111.00    0.76471   0.36288    0.013
 5112.00    0.72486   0.36193    0.013
 5113.00    0.74444   0.36326    0.014
 5114.00    0.70658   0.36536    0.014
 5115.00    0.60094   0.36723    0.014
 5116.00    0.59714   0.36774    0.014
 5117.00    0.69929   0.36675    0.014
 5118.00    0.77117   0.36528    0.014
 5119.00    0.81527   0.36168    0.014
 5120.00    0.82439   0.35798    0.014
 5121.00    0.80521   0.35597    0.014
 5122.00    0.73297   0.35693    0.014
 5123.00    0.62295   0.35919    0.013
 5124.00    0.61658   0.35734    0.013
 5125.00    0.67495   0.35313    0.013
 5126.00    0.63717   0.35264    0.013
 5127.00    0.54689   0.35636    0.013
 5128.00    0.51858   0.35889    0.013
 5129.00    0.51966   0.35985    0.013
 5130.00    0.60676   0.35686    0.013
 5131.00    0.72906   0.35341    0.013
 5132.00    0.78529   0.35501    0.013
 5133.00    0.81844   0.36028    0.013
 5134.00    0.74232   0.36089    0.013
 5135.00    0.63400   0.35852    0.013
 5136.00    0.63924   0.35595    0.013
 5137.00    0.67223   0.35434    0.013
 5138.00    0.75797   0.35557    0.013
 5139.00    0.85413   0.35713    0.013
 5140.00    0.85723   0.35310    0.013
 5141.00    0.84598   0.34866    0.013
 5142.00    0.76424   0.34710    0.013
 5143.00    0.67447   0.34710    0.013
 5144.00    0.66898   0.34840    0.012
 5145.00    0.66991   0.35204    0.012
 5146.00    0.62985   0.35308    0.012
 5147.00    0.58811   0.35306    0.012
 5148.00    0.55598   0.35027    0.012
 5149.00    0.52519   0.34755    0.013
 5150.00    0.54757   0.34748    0.013
 5151.00    0.57513   0.34946    0.013
 5152.00    0.69251   0.35069    0.013
 5153.00    0.80090   0.34984    0.013
 5154.00    0.81360   0.35076    0.013
 5155.00    0.82186   0.35354    0.013
 5156.00    0.79668   0.35713    0.013
 5157.00    0.77275   0.35603    0.013
 5158.00    0.75604   0.35508    0.013
 5159.00    0.73179   0.35571    0.013
 5160.00    0.67320   0.35568    0.013
 5161.00    0.64276   0.35482    0.013
 5162.00    0.71734   0.35430    0.013
 5163.00    0.74775   0.35054    0.013
 5164.00    0.64039   0.34260    0.013
 5165.00    0.54802   0.33446    0.013
 5166.00    0.49536   0.32899    0.013
 5167.00    0.47441   0.32860    0.013
 5168.00    0.52559   0.33177    0.013
 5169.00    0.56214   0.33371    0.013
 5170.00    0.56991   0.33127    0.013
 5171.00    0.55941   0.33025    0.013
 5172.00    0.51754   0.33322    0.013
 5173.00    0.51153   0.33511    0.013
 5174.00    0.55943   0.33526    0.013
 5175.00    0.62227   0.33597    0.013
 5176.00    0.70487   0.33723    0.013
 5177.00    0.74257   0.33662    0.013
 5178.00    0.72804   0.33574    0.013
 5179.00    0.80199   0.33535    0.013
 5180.00    0.96671   0.33362    0.013
 5181.00    0.90059   0.32997    0.013
 5182.00    0.62560   0.32841    0.013
 5183.00    0.50216   0.33060    0.013
 5184.00    0.49960   0.33409    0.013
 5185.00    0.53722   0.33625    0.013
 5186.00    0.60302   0.33682    0.013
 5187.00    0.64721   0.33627    0.013
 5188.00    0.67809   0.33573    0.013
 5189.00    0.68326   0.33355    0.013
 5190.00    0.67461   0.33125    0.000
 5191.00    0.68950   0.33044    0.000
 5192.00    0.71537   0.33120    0.000
 5193.00    0.76517   0.33239    0.000
 5194.00    0.82459   0.33386    0.000
 5195.00    0.82251   0.33443    0.000
 5196.00    0.79931   0.33404    0.000
 5197.00    0.74132   0.33472    0.000
 5198.00    0.67328   0.33099    0.000
 5199.00    0.61451   0.32824    0.000
 5200.00    0.55796   0.32850    0.000
 5201.00    0.65093   0.33144    0.000
 5202.00    0.77270   0.32996    0.000
 5203.00    0.71911   0.32680    0.000
 5204.00    0.63931   0.32512    0.000
 5205.00    0.59735   0.32538    0.000
 5206.00    0.55953   0.32574    0.000
 5207.00    0.61835   0.32620    0.000
 5208.00    0.68415   0.32728    0.000
 5209.00    0.63150   0.32597    0.000
 5210.00    0.57443   0.32370    0.000
 5211.00    0.65569   0.32550    0.013
 5212.00    0.73540   0.33017    0.013
 5213.00    0.73543   0.33106    0.013
 5214.00    0.73370   0.32845    0.013
 5215.00    0.70353   0.32850    0.013
 5216.00    0.67854   0.32995    0.013
 5217.00    0.70638   0.33143    0.013
 5218.00    0.72420   0.33215    0.013
 5219.00    0.66915   0.33303    0.013
 5220.00    0.61495   0.33272    0.013
 5221.00    0.56548   0.33088    0.013
 5222.00    0.54568   0.32844    0.013
 5223.00    0.65778   0.32561    0.013
 5224.00    0.73535   0.32174    0.013
 5225.00    0.68677   0.31987    0.012
 5226.00    0.65411   0.32316    0.012
 5227.00    0.67016   0.32843    0.013
 5228.00    0.67253   0.33116    0.013
 5229.00    0.63929   0.33200    0.013
 5230.00    0.61383   0.33085    0.013
 5231.00    0.60577   0.32780    0.013
 5232.00    0.62769   0.32538    0.013
 5233.00    0.70771   0.32561    0.013
 5234.00    0.77784   0.32785    0.013
 5235.00    0.83124   0.32964    0.013
 5236.00    0.82192   0.32997    0.013
 5237.00    0.71973   0.32917    0.013
 5238.00    0.67668   0.32795    0.013
 5239.00    0.71062   0.32702    0.013
 5240.00    0.75377   0.32588    0.013
 5241.00    0.80746   0.32503    0.013
 5242.00    0.79045   0.32600    0.013
 5243.00    0.70191   0.32773    0.013
 5244.00    0.66312   0.32471    0.013
 5245.00    0.66871   0.32033    0.013
 5246.00    0.66571   0.32027    0.013
 5247.00    0.65595   0.32188    0.013
 5248.00    0.63445   0.32082    0.013
 5249.00    0.60484   0.31984    0.013
 5250.00    0.62774   0.32118    0.013
 5251.00    0.68247   0.32307    0.013
 5252.00    0.65617   0.32238    0.013
 5253.00    0.58700   0.32123    0.013
 5254.00    0.66480   0.32245    0.013
 5255.00    0.81009   0.32512    0.013
 5256.00    0.83152   0.32662    0.013
 5257.00    0.80397   0.32534    0.013
 5258.00    0.75373   0.32222    0.013
 5259.00    0.69586   0.32011    0.013
 5260.00    0.70505   0.31995    0.014
 5261.00    0.73321   0.31604    0.014
 5262.00    0.65133   0.31232    0.014
 5263.00    0.54375   0.31111    0.013
 5264.00    0.53335   0.31314    0.013
 5265.00    0.54117   0.31654    0.013
 5266.00    0.54660   0.31708    0.013
 5267.00    0.55169   0.31225    0.014
 5268.00    0.53885   0.30922    0.014
 5269.00    0.52414   0.31198    0.014
 5270.00    0.54666   0.31569    0.014
 5271.00    0.57172   0.31715    0.014
 5272.00    0.43048   0.31750    0.013
 5273.00    0.28365   0.31577    0.013
 5274.00    0.41416   0.31420    0.013
 5275.00    0.54539   0.31717    0.013
 5276.00    0.69006   0.32090    0.013
 5277.00    0.82662   0.32133    0.013
 5278.00    0.83967   0.32001    0.013
 5279.00    0.84847   0.31780    0.013
 5280.00    0.81590   0.31586    0.013
 5281.00    0.78256   0.31455    0.013
 5282.00    0.74382   0.31503    0.013
 5283.00    0.69932   0.31804    0.013
 5284.00    0.62363   0.32136    0.013
 5285.00    0.58085   0.32231    0.013
 5286.00    0.68114   0.32106    0.013
 5287.00    0.75840   0.31986    0.013
 5288.00    0.75327   0.31943    0.013
 5289.00    0.74369   0.31913    0.013
 5290.00    0.72077   0.31883    0.013
 5291.00    0.72100   0.31876    0.013
 5292.00    0.78047   0.31942    0.013
 5293.00    0.81425   0.31866    0.013
 5294.00    0.79151   0.31571    0.013
 5295.00    0.76245   0.31130    0.013
 5296.00    0.72135   0.30970    0.013
 5297.00    0.71412   0.31114    0.013
 5298.00    0.76332   0.31313    0.013
 5299.00    0.82849   0.31283    0.013
 5300.00    0.91700   0.31271    0.013
 5301.00    0.91063   0.31414    0.013
 5302.00    0.78249   0.31725    0.013
 5303.00    0.70854   0.31843    0.013
 5304.00    0.69585   0.31624    0.013
 5305.00    0.66781   0.31359    0.013
 5306.00    0.62447   0.31334    0.013
 5307.00    0.61193   0.31438    0.013
 5308.00    0.62646   0.31450    0.013
 5309.00    0.67987   0.31363    0.013
 5310.00    0.76342   0.31297    0.013
 5311.00    0.79211   0.31225    0.013
 5312.00    0.78344   0.31218    0.014
 5313.00    0.76938   0.31086    0.013
 5314.00    0.75210   0.30842    0.013
 5315.00    0.73698   0.30766    0.013
 5316.00    0.72299   0.30959    0.013
 5317.00    0.76958   0.31062    0.013
 5318.00    0.84352   0.30790    0.013
 5319.00    0.80328   0.30765    0.013
 5320.00    0.71868   0.30880    0.013
 5321.00    0.72168   0.30935    0.013
 5322.00    0.75364   0.30795    0.013
 5323.00    0.74861   0.30835    0.013
 5324.00    0.73333   0.30850    0.013
 5325.00    0.65577   0.30447    0.013
 5326.00    0.56401   0.29850    0.013
 5327.00    0.58599   0.29769    0.013
 5328.00    0.62874   0.30165    0.013
 5329.00    0.53226   0.30512    0.013
 5330.00    0.41625   0.30589    0.013
 5331.00    0.54591   0.30558    0.013
 5332.00    0.70036   0.30610    0.013
 5333.00    0.73824   0.30731    0.013
 5334.00    0.76863   0.30714    0.013
 5335.00    0.76809   0.30676    0.013
 5336.00    0.76646   0.30601    0.013
 5337.00    0.69760   0.30421    0.012
 5338.00    0.63087   0.30185    0.012
 5339.00    0.62491   0.30010    0.012
 5340.00    0.61992   0.30107    0.012
 5341.00    0.62868   0.30271    0.012
 5342.00    0.64854   0.30394    0.013
 5343.00    0.77222   0.29904    0.013
 5344.00    0.87386   0.29709    0.013
 5345.00    0.82520   0.30008    0.012
 5346.00    0.78065   0.30337    0.012
 5347.00    0.75784   0.30203    0.013
 5348.00    0.74359   0.30269    0.013
 5349.00    0.76564   0.30514    0.013
 5350.00    0.76681   0.30693    0.013
 5351.00    0.69476   0.30730    0.012
 5352.00    0.63441   0.30786    0.012
 5353.00    0.60857   0.30842    0.013
 5354.00    0.62204   0.30765    0.013
 5355.00    0.73431   0.30684    0.013
 5356.00    0.78915   0.30623    0.013
 5357.00    0.71969   0.30529    0.013
 5358.00    0.66724   0.30404    0.013
 5359.00    0.64675   0.30248    0.013
 5360.00    0.62440   0.30036    0.013
 5361.00    0.59903   0.29957    0.013
 5362.00    0.60102   0.29970    0.013
 5363.00    0.64237   0.29995    0.013
 5364.00    0.66957   0.29969    0.013
 5365.00    0.67887   0.29963    0.013
 5366.00    0.67842   0.29959    0.013
 5367.00    0.66709   0.29823    0.013
 5368.00    0.66631   0.29526   -2.000
 5369.00    0.67590   0.29280   -2.000
 5370.00    0.65406   0.29393   -2.000
 5371.00    0.60497   0.29791   -2.000
 5372.00    0.51435   0.30083   -2.000
 5373.00    0.39201   0.30077   -2.000
 5374.00    0.41489   0.29944   -2.000
 5375.00    0.53528   0.29909   -2.000
 5376.00    0.57913   0.30039   -2.000
 5377.00    0.57797   0.30108   -2.000
 5378.00    0.65962   0.29993   -2.000
 5379.00    0.78373   0.29848   -2.000
 5380.00    0.79503   0.29786   -2.000
 5381.00    0.75620   0.29746   -2.000
 5382.00    0.75129   0.29744   -2.000
 5383.00    0.75932   0.29806    0.013
 5384.00    0.71390   0.29777    0.013
 5385.00    0.65113   0.29719    0.013
 5386.00    0.67375   0.29686    0.013
 5387.00    0.71954   0.29600    0.013
 5388.00    0.75874   0.29414    0.012
 5389.00    0.79646   0.29334    0.012
 5390.00    0.83937   0.29376    0.012
 5391.00    0.88320   0.29422    0.012
 5392.00    0.83215   0.29374    0.012
 5393.00    0.76823   0.29251    0.012
 5394.00    0.81820   0.29006    0.012
 5395.00    0.87918   0.28789    0.012
 5396.00    0.80456   0.29027    0.012
 5397.00    0.72179   0.29379    0.012
 5398.00    0.64318   0.29346    0.012
 5399.00    0.56559   0.29117    0.013
 5400.00    0.64120   0.29123    0.012
 5401.00    0.71346   0.29208    0.012
 5402.00    0.69910   0.29034    0.012
 5403.00    0.68479   0.28681    0.012
 5404.00    0.67121   0.28581    0.012
 5405.00    0.66155   0.28784    0.012
 5406.00    0.68724   0.28874    0.012
 5407.00    0.69606   0.28662    0.013
 5408.00    0.59348   0.28452    0.013
 5409.00    0.51352   0.28562    0.013
 5410.00    0.54991   0.28832    0.013
 5411.00    0.58173   0.29002    0.013
 5412.00    0.59462   0.29023    0.013
 5413.00    0.60684   0.29045    0.013
 5414.00    0.61677   0.29173    0.013
 5415.00    0.62142   0.29301    0.013
 5416.00    0.61079   0.29293    0.013
 5417.00    0.63101   0.29187    0.013
 5418.00    0.72739   0.29078    0.013
 5419.00    0.77198   0.29070    0.013
 5420.00    0.70631   0.29134    0.013
 5421.00    0.68390   0.29037    0.013
 5422.00    0.74150   0.28835    0.013
 5423.00    0.77813   0.28803    0.013
 5424.00    0.78085   0.28964    0.013
 5425.00    0.76207   0.29049    0.013
 5426.00    0.71281   0.28737    0.013
 5427.00    0.68990   0.28225    0.013
 5428.00    0.69989   0.28203    0.013
 5429.00    0.67374   0.28424    0.013
 5430.00    0.60786   0.28277    0.013
 5431.00    0.60480   0.28074    0.013
 5432.00    0.66263   0.28075    0.013
 5433.00    0.69310   0.28279    0.013
 5434.00    0.70017   0.28368    0.013
 5435.00    0.69580   0.28515    0.012
 5436.00    0.68282   0.28699    0.012
 5437.00    0.72001   0.28871    0.012
 5438.00    0.79038   0.28975    0.012
 5439.00    0.79804   0.28996    0.012
 5440.00    0.76936   0.28983    0.012
 5441.00    0.79769   0.28995    0.012
 5442.00    0.85480   0.28946    0.012
 5443.00    0.80694   0.28636    0.012
 5444.00    0.71320   0.28139    0.012
 5445.00    0.67395   0.27748    0.012
 5446.00    0.65512   0.27682    0.012
 5447.00    0.68764   0.27705    0.012
 5448.00    0.73650   0.27651    0.012
 5449.00    0.72902   0.27544    0.012
 5450.00    0.70657   0.27398    0.012
 5451.00    0.69806   0.27069    0.012
 5452.00    0.69258   0.26923    0.012
 5453.00    0.74193   0.26898    0.012
 5454.00    0.80076   0.27157    0.012
 5455.00    0.75609   0.27316    0.012
 5456.00    0.69785   0.27506    0.013
 5457.00    0.69056   0.27521    0.012
 5458.00    0.68798   0.27426    0.012
 5459.00    0.56966   0.27343    0.013
 5460.00    0.44482   0.27322    0.013
 5461.00    0.53639   0.27324    0.013
 5462.00    0.63250   0.27364    0.012
 5463.00    0.69768   0.27309    0.013
 5464.00    0.75308   0.27096    0.013
 5465.00    0.57868   0.27108    0.013
 5466.00    0.42803   0.27321    0.013
 5467.00    0.58239   0.27429    0.013
 5468.00    0.72654   0.27349    0.013
 5469.00    0.78235   0.27328    0.013
 5470.00    0.83447   0.27205    0.013
 5471.00    0.86289   0.26965    0.013
 5472.00    0.84983   0.26915    0.013
 5473.00    0.62886   0.27046    0.013
 5474.00    0.46881   0.27017    0.012
 5475.00    0.55598   0.26886    0.013
 5476.00    0.60328   0.27029    0.013
 5477.00    0.51637   0.27190    0.013
 5478.00    0.46458   0.27189   -2.000
 5479.00    0.51254   0.27001   -2.000
 5480.00    0.55413   0.26972   -2.000
 5481.00    0.58023   0.27109   -2.000
 5482.00    0.61548   0.27280   -2.000
 5483.00    0.66987   0.27339   -2.000
 5484.00    0.72042   0.27252   -2.000
 5485.00    0.76399   0.27105   -2.000
 5486.00    0.46541   0.27061   -2.000
 5487.00   -0.37781   0.27104   -2.000
 5488.00   -0.83700   0.27102   -2.000
 5489.00   -0.75974   0.27089   -2.000
 5490.00   -0.36803   0.27129   -2.000
 5491.00    0.41026   0.27099   -2.000
 5492.00    1.33967   0.27043   -2.000
 5493.00    2.43285   0.27003   -2.000
 5494.00    2.70107   0.26913   -2.000
 5495.00    2.18073   0.26748   -2.000
 5496.00    1.48007   0.26750   -2.000
 5497.00    0.62743   0.26857   -2.000
 5498.00    0.37733   0.26832   -2.000
 5499.00    0.57442   0.26657   -2.000
 5500.00    0.69629   0.26556   -2.000
 5501.00    0.76913   0.26599   -2.000
 5502.00    0.73587   0.26676    0.012
 5503.00    0.64208   0.26578    0.012
 5504.00    0.61913   0.26388    0.012
 5505.00    0.63137   0.26367    0.013
 5506.00    0.57633   0.26523    0.013
 5507.00    0.49237   0.26492    0.013
 5508.00    0.58562   0.26418    0.013
 5509.00    0.74415   0.26415    0.013
 5510.00    0.76609   0.26409    0.013
 5511.00    0.74539   0.26361    0.013
 5512.00    0.80418   0.26369    0.013
 5513.00    0.88365   0.26395    0.013
 5514.00    0.85777   0.26477    0.013
 5515.00    0.80952   0.26592    0.013
 5516.00    0.75243   0.26730    0.013
 5517.00    0.69385   0.26809    0.013
 5518.00    0.71261   0.26777    0.013
 5519.00    0.74117   0.26721    0.013
 5520.00    0.76053   0.26699    0.013
 5521.00    0.77908   0.26655    0.013
 5522.00    0.75694   0.26589    0.012
 5523.00    0.73266   0.26429    0.012
 5524.00    0.72761   0.26303    0.012
 5525.00    0.72383   0.26216    0.012
 5526.00    0.78892   0.26172    0.012
 5527.00    0.84794   0.26252    0.012
 5528.00    0.77648   0.26395    0.012
 5529.00    0.71375   0.26477    0.012
 5530.00    0.75751   0.26455    0.012
 5531.00    0.79403   0.26365    0.012
 5532.00    0.77020   0.26229    0.012
 5533.00    0.74894   0.26130    0.012
 5534.00    0.74366   0.26143    0.012
 5535.00    0.74737   0.26278    0.012
 5536.00    0.79502   0.26340    0.012
 5537.00    0.81515   0.26392    0.012
 5538.00    0.72605   0.26460    0.012
 5539.00    0.66767   0.26504    0.012
 5540.00    0.71067   0.26449    0.012
 5541.00    0.73683   0.26314    0.012
 5542.00    0.71605   0.26236    0.012
 5543.00    0.70995   0.26214    0.012
 5544.00    0.73886   0.26197    0.012
 5545.00    0.76989   0.26233    0.012
 5546.00    0.80531   0.26305    0.012
 5547.00    0.80906   0.26351    0.012
 5548.00    0.75602   0.26326    0.012
 5549.00    0.76770   0.26277    0.012
 5550.00    0.88087   0.26208    0.012
 5551.00    0.94163   0.26121    0.012
 5552.00    0.93024   0.26037    0.013
 5553.00    0.91187   0.25952    0.013
 5554.00    0.88503   0.25922    0.013
 5555.00    0.83490   0.25903    0.013
 5556.00    0.75990   0.25936    0.013
 5557.00    0.78110   0.25964    0.013
 5558.00    0.89299   0.25943    0.012
 5559.00    0.87373   0.25907    0.012
 5560.00    0.74548   0.25856    0.013
 5561.00    0.71947   0.25792    0.013
 5562.00    0.76823   0.25675    0.012
 5563.00    0.73623   0.25614    0.012
 5564.00    0.65237   0.25600    0.012
 5565.00    0.66493   0.25686    0.012
 5566.00    0.73167   0.25702    0.012
 5567.00    0.77168   0.25654    0.012
 5568.00    0.79863   0.25647    0.012
 5569.00    0.84424   0.25685    0.012
 5570.00    0.89775   0.25607    0.012
 5571.00    0.85874   0.25489    0.012
 5572.00    0.78625   0.25529    0.012
 5573.00    0.78845   0.25608    0.012
 5574.00    0.81349   0.25609    0.012
 5575.00    0.82370   0.25569    0.012
 5576.00    0.83012   0.25497    0.012
 5577.00    0.79047   0.25472    0.012
 5578.00    0.74127   0.25554    0.012
 5579.00    0.60523   0.25585    0.012
 5580.00    0.45501   0.25488    0.012
 5581.00    0.58860   0.25467    0.012
 5582.00    0.75685   0.25457    0.012
 5583.00    0.83490   0.25398    0.012
 5584.00    0.90537   0.25276    0.012
 5585.00    0.96645   0.25090    0.012
 5586.00    1.02708   0.24988    0.012
 5587.00    0.92516   0.25009    0.012
 5588.00    0.82170   0.25110    0.012
 5589.00    0.77207   0.25133    0.012
 5590.00    0.72229   0.25043    0.012
 5591.00    0.66925   0.24987    0.012
 5592.00    0.62150   0.25036    0.012
 5593.00    0.63510   0.25172    0.012
 5594.00    0.65983   0.25270    0.013
 5595.00    0.77396   0.25127    0.013
 5596.00    0.86405   0.24814    0.013
 5597.00    0.80898   0.24670    0.013
 5598.00    0.77650   0.24714    0.013
 5599.00    0.85170   0.24763    0.013
 5600.00    0.91248   0.24768    0.013
 5601.00    0.91729   0.24768    0.013
 5602.00    0.90820   0.24780    0.013
 5603.00    0.85415   0.24664    0.013
 5604.00    0.78451   0.24672    0.013
 5605.00    0.67220   0.24778    0.012
 5606.00    0.59152   0.24932    0.012
 5607.00    0.58504   0.24936    0.012
 5608.00    0.59868   0.24895    0.012
 5609.00    0.65313   0.24911    0.012
 5610.00    0.72473   0.24964    0.012
 5611.00    0.82664   0.24946    0.012
 5612.00    0.87284   0.24762    0.012
 5613.00    0.83294   0.24459    0.012
 5614.00    0.83420   0.24321    0.012
 5615.00    0.89130   0.24421    0.012
 5616.00    0.87166   0.24534    0.012
 5617.00    0.76035   0.24546    0.012
 5618.00    0.72422   0.24506    0.012
 5619.00    0.76731   0.24546    0.012
 5620.00    0.78434   0.24591    0.012
 5621.00    0.77716   0.24521    0.011
 5622.00    0.79003   0.24349    0.011
 5623.00    0.81932   0.24281    0.011
 5624.00    0.79387   0.24369    0.011
 5625.00    0.72896   0.24455    0.011
 5626.00    0.70361   0.24444    0.011
 5627.00    0.70330   0.24388    0.011
 5628.00    0.67019   0.24350    0.011
 5629.00    0.61891   0.24370    0.011
 5630.00    0.63628   0.24419    0.011
 5631.00    0.68667   0.24449    0.011
 5632.00    0.77679   0.24437    0.012
 5633.00    0.88341   0.24370    0.012
 5634.00    0.89011   0.24267    0.012
 5635.00    0.86131   0.24191    0.012
 5636.00    0.80663   0.24096    0.012
 5637.00    0.74419   0.23756    0.012
 5638.00    0.74882   0.23537    0.012
 5639.00    0.77015   0.23612    0.012
 5640.00    0.81646   0.23976    0.012
 5641.00    0.86780   0.24095    0.012
 5642.00    0.79486   0.24048    0.012
 5643.00    0.70224   0.23927    0.012
 5644.00    0.81308   0.23800    0.012
 5645.00    0.94788   0.23771    0.012
 5646.00    0.86162   0.23854    0.012
 5647.00    0.75769   0.24023    0.012
 5648.00    0.76203   0.24158    0.012
 5649.00    0.77119   0.24229    0.012
 5650.00    0.69780   0.24282    0.012
 5651.00    0.62565   0.24294    0.012
 5652.00    0.66030   0.24241    0.012
 5653.00    0.69510   0.24179    0.011
 5654.00    0.73258   0.24148    0.011
 5655.00    0.76690   0.24009    0.012
 5656.00    0.76631   0.23766    0.011
 5657.00    0.75543   0.23634    0.011
 5658.00    0.66466   0.23744    0.011
 5659.00    0.59336   0.23710    0.011
 5660.00    0.63636   0.23612    0.011
 5661.00    0.67462   0.23558    0.011
 5662.00    0.69082   0.23648    0.011
 5663.00    0.70551   0.23624    0.011
 5664.00    0.71450   0.23501    0.011
 5665.00    0.73685   0.23497    0.011
 5666.00    0.80163   0.23549    0.011
 5667.00    0.86125   0.23675    0.011
 5668.00    0.90698   0.23681    0.011
 5669.00    0.92773   0.23706    0.011
 5670.00    0.89084   0.23766    0.011
 5671.00    0.84011   0.23856    0.011
 5672.00    0.76177   0.23813    0.011
 5673.00    0.72372   0.23652    0.011
 5674.00    0.75575   0.23615    0.012
 5675.00    0.79841   0.23692    0.012
 5676.00    0.85726   0.23622    0.012
 5677.00    0.90394   0.23393    0.012
 5678.00    0.93434   0.23395    0.012
 5679.00    0.88382   0.23579    0.012
 5680.00    0.73799   0.23705    0.012
 5681.00    0.70722   0.23672    0.012
 5682.00    0.79595   0.23733    0.012
 5683.00    0.79725   0.23643    0.012
 5684.00    0.71847   0.23507    0.012
 5685.00    0.68960   0.23418    0.012
 5686.00    0.70105   0.23483    0.012
 5687.00    0.74972   0.23577    0.012
 5688.00    0.82485   0.23651    0.012
 5689.00    0.81774   0.23707    0.011
 5690.00    0.75937   0.23751    0.011
 5691.00    0.72371   0.23752    0.011
 5692.00    0.70042   0.23654    0.011
 5693.00    0.67363   0.23387    0.011
 5694.00    0.64518   0.23206    0.011
 5695.00    0.67250   0.23221    0.011
 5696.00    0.72260   0.23361    0.011
 5697.00    0.72997   0.23479    0.011
 5698.00    0.72244   0.23446    0.011
 5699.00    0.75777   0.23387    0.011
 5700.00    0.80571   0.23319    0.011
 5701.00    0.79019   0.23323    0.011
 5702.00    0.75922   0.23388    0.011
 5703.00    0.76531   0.23431    0.011
 5704.00    0.77871   0.23366    0.011
 5705.00    0.78019   0.23273    0.011
 5706.00    0.77983   0.23189    0.011
 5707.00    0.78232   0.23108    0.011
 5708.00    0.78512   0.23068    0.011
 5709.00    0.70579   0.23079    0.011
 5710.00    0.62024   0.23101    0.011
 5711.00    0.63634   0.23256    0.011
 5712.00    0.65658   0.23355    0.011
 5713.00    0.72975   0.23373    0.011
 5714.00    0.80088   0.23353    0.011
 5715.00    0.77066   0.23286    0.011
 5716.00    0.74453   0.23229    0.011
 5717.00    0.78894   0.23231    0.011
 5718.00    0.83040   0.23270    0.011
 5719.00    0.84074   0.23228    0.012
 5720.00    0.85267   0.23151    0.012
 5721.00    0.87656   0.23145    0.012
 5722.00    0.90295   0.23193    0.012
 5723.00    0.94359   0.23244    0.012
 5724.00    0.96162   0.23104    0.011
 5725.00    0.87692   0.22985    0.011
 5726.00    0.82587   0.23003    0.011
 5727.00    0.90002   0.23112    0.011
 5728.00    0.92796   0.23121    0.011
 5729.00    0.81204   0.23054    0.011
 5730.00    0.74097   0.23060    0.011
 5731.00    0.78844   0.23153    0.011
 5732.00    0.81254   0.23197    0.011
 5733.00    0.78364   0.23180    0.011
 5734.00    0.77234   0.23117    0.011
 5735.00    0.79565   0.23041    0.011
 5736.00    0.81699   0.22902    0.011
 5737.00    0.83496   0.22747    0.011
 5738.00    0.84771   0.22733    0.011
 5739.00    0.85260   0.22872    0.011
 5740.00    0.85144   0.23039    0.000
 5741.00    0.84227   0.22990    0.000
 5742.00    0.81855   0.23017    0.000
 5743.00    0.77790   0.23092    0.000
 5744.00    0.77105   0.23090    0.000
 5745.00    0.79880   0.22970    0.000
 5746.00    0.84081   0.22857    0.000
 5747.00    0.89568   0.22913    0.000
 5748.00    0.91621   0.23039    0.000
 5749.00    0.90939   0.23073    0.000
 5750.00    0.85572   0.22985    0.000
 5751.00    0.76924   0.22858    0.000
 5752.00    0.75253   0.22805    0.000
 5753.00    0.77866   0.22861    0.000
 5754.00    0.72758   0.22971    0.000
 5755.00    0.63509   0.23039    0.000
 5756.00    0.65633   0.23018    0.000
 5757.00    0.73056   0.22871    0.000
 5758.00    0.74501   0.22677    0.000
 5759.00    0.73547   0.22516    0.000
 5760.00    0.68184   0.22410    0.000
 5761.00    0.61313   0.22404    0.000
 5762.00    0.62864   0.22519    0.000
 5763.00    0.66842   0.22618    0.000
 5764.00    0.75196   0.22610    0.000
 5765.00    0.84592   0.22569    0.000
 5766.00    0.89938   0.22558    0.000
 5767.00    0.94508   0.22569    0.000
 5768.00    0.93441   0.22587    0.000
 5769.00    0.91535   0.22573    0.000
 5770.00    0.90728   0.22543    0.000
 5771.00    0.90040   0.22521    0.000
 5772.00    0.90128   0.22509    0.000
 5773.00    0.90272   0.22498    0.000
 5774.00    0.85900   0.22501    0.000
 5775.00    0.81361   0.22511    0.000
 5776.00    0.80972   0.22505    0.000
 5777.00    0.80615   0.22439    0.000
 5778.00    0.80805   0.22306    0.000
 5779.00    0.81089   0.22175    0.000
 5780.00    0.82892   0.22150    0.000
 5781.00    0.84842   0.22171    0.000
 5782.00    0.88271   0.22149    0.000
 5783.00    0.90382   0.22108    0.000
 5784.00    0.82947   0.22158    0.000
 5785.00    0.76958   0.22269    0.000
 5786.00    0.79002   0.22328    0.000
 5787.00    0.80698   0.22334    0.000
 5788.00    0.80851   0.22273    0.000
 5789.00    0.80778   0.22229    0.000
 5790.00    0.79876   0.22302    0.000
 5791.00    0.78621   0.22438   -2.000
 5792.00    0.76291   0.22533   -2.000
 5793.00    0.73888   0.22562   -2.000
 5794.00    0.71292   0.22501   -2.000
 5795.00    0.68467   0.22362   -2.000
 5796.00    0.65129   0.22301   -2.000
 5797.00    0.64921   0.22393   -2.000
 5798.00    0.70766   0.22513   -2.000
 5799.00    0.75090   0.22560   -2.000
 5800.00    0.76846   0.22588   -2.000
 5801.00    0.81530   0.22559   -2.000
 5802.00    0.90541   0.22454   -2.000
 5803.00    0.96093   0.22408   -2.000
 5804.00    0.97151   0.22417   -2.000
 5805.00    0.95574   0.22438   -2.000
 5806.00    0.90979   0.22428   -2.000
 5807.00    0.85529   0.22367   -2.000
 5808.00    0.79214   0.22246   -2.000
 5809.00    0.76327   0.22115   -2.000
 5810.00    0.76494   0.22022   -2.000
 5811.00    0.79649   0.21969    0.000
 5812.00    0.85148   0.21916    0.000
 5813.00    0.85715   0.21836    0.000
 5814.00    0.82880   0.21791    0.000
 5815.00    0.83939   0.21802    0.000
 5816.00    0.87354   0.21824    0.000
 5817.00    0.89762   0.21823    0.000
 5818.00    0.91638   0.21839    0.000
 5819.00    0.87677   0.21883    0.000
 5820.00    0.81040   0.21865    0.000
 5821.00    0.77650   0.21828    0.000
 5822.00    0.75540   0.21822    0.000
 5823.00    0.75209   0.21846    0.000
 5824.00    0.75477   0.21851    0.000
 5825.00    0.77974   0.21852    0.000
 5826.00    0.81100   0.21872    0.000
 5827.00    0.80773   0.21885    0.000
 5828.00    0.79641   0.21893    0.000
 5829.00    0.80932   0.21893    0.000
 5830.00    0.82676   0.21878    0.000
 5831.00    0.79271   0.21777    0.000
 5832.00    0.75124   0.21690    0.000
 5833.00    0.79360   0.21687    0.000
 5834.00    0.84472   0.21781    0.000
 5835.00    0.83143   0.21789    0.000
 5836.00    0.81377   0.21681    0.000
 5837.00    0.85044   0.21594    0.000
 5838.00    0.88890   0.21629    0.000
 5839.00    0.83015   0.21713    0.000
 5840.00    0.77277   0.21764    0.000
 5841.00    0.76103   0.21764    0.000
 5842.00    0.75130   0.21722    0.000
 5843.00    0.77184   0.21657    0.000
 5844.00    0.78379   0.21548    0.000
 5845.00    0.71232   0.21385    0.000
 5846.00    0.65513   0.21248    0.000
 5847.00    0.69803   0.21184    0.000
 5848.00    0.74718   0.21142    0.000
 5849.00    0.83013   0.21052    0.000
 5850.00    0.89275   0.20928    0.000
 5851.00    0.86728   0.20839    0.000
 5852.00    0.84175   0.20864    0.000
 5853.00    0.81602   0.20958    0.000
 5854.00    0.80458   0.20965    0.000
 5855.00    0.83599   0.20889    0.000
 5856.00    0.85713   0.20859    0.000
 5857.00    0.85202   0.20927    0.000
 5858.00    0.84651   0.20987    0.000
 5859.00    0.84009   0.20980    0.000
 5860.00    0.83379   0.20895    0.000
 5861.00    0.82771   0.20816    0.000
 5862.00    0.82085   0.20828    0.000
 5863.00    0.81267   0.20854    0.000
 5864.00    0.80238   0.20819    0.000
 5865.00    0.78899   0.20782    0.000
 5866.00    0.77821   0.20812    0.000
 5867.00    0.77075   0.20856    0.000
 5868.00    0.79458   0.20854    0.000
 5869.00    0.85373   0.20778    0.000
 5870.00    0.88053   0.20627    0.000
 5871.00    0.87515   0.20313    0.000
 5872.00    0.86669   0.19274    0.000
 5873.00    0.85553   0.18159    0.000
 5874.00    0.84414   0.18077    0.000
 5875.00    0.83255   0.19031    0.000
 5876.00    0.83604   0.20170    0.000
 5877.00    0.84978   0.20361    0.000
 5878.00    0.83778   0.20364    0.000
 5879.00    0.81043   0.20386    0.000
 5880.00    0.78715   0.20456    0.000
 5881.00    0.76598   0.20473    0.000
 5882.00    0.76055   0.20463    0.000
 5883.00    0.76222   0.20443    0.000
 5884.00    0.72817   0.20422    0.000
 5885.00    0.68028   0.20302    0.000
 5886.00    0.70581   0.19827    0.000
 5887.00    0.75554   0.19099    0.000
 5888.00    0.73745   0.18699    0.000
 5889.00    0.70060   0.18972    0.000
 5890.00    0.66563   0.19564    0.000
 5891.00    0.63108   0.19878    0.000
 5892.00    0.65240   0.19923    0.000
 5893.00    0.68388   0.19567    0.000
 5894.00    0.66067   0.19356    0.000
 5895.00    0.62981   0.19544    0.000
 5896.00    0.62496   0.19791    0.000
 5897.00    0.62271   0.19849    0.000
 5898.00    0.67440   0.19851    0.000
 5899.00    0.72951   0.19912    0.000
 5900.00    0.68234   0.19966    0.000
 5901.00    0.63262   0.20027    0.010
 5902.00    0.74054   0.20054    0.011
 5903.00    0.84375   0.20023    0.011
 5904.00    0.81418   0.19976    0.011
 5905.00    0.78685   0.19992    0.011
 5906.00    0.79138   0.20026    0.010
 5907.00    0.80010   0.20031    0.010
 5908.00    0.84779   0.20027    0.010
 5909.00    0.88350   0.20034    0.010
 5910.00    0.83786   0.19994    0.010
 5911.00    0.79467   0.19903    0.010
 5912.00    0.76432   0.19836    0.010
 5913.00    0.73839   0.19851    0.010
 5914.00    0.73117   0.19883    0.010
 5915.00    0.73987   0.19904    0.010
 5916.00    0.80426   0.19881    0.010
 5917.00    0.84860   0.19812    0.010
 5918.00    0.83400   0.19805    0.010
 5919.00    0.81827   0.19815    0.010
 5920.00    0.79969   0.19821    0.010
 5921.00    0.79257   0.19826    0.010
 5922.00    0.81023   0.19846    0.010
 5923.00    0.82219   0.19859    0.010
 5924.00    0.82349   0.19838    0.010
 5925.00    0.81324   0.19794    0.010
 5926.00    0.78408   0.19717    0.010
 5927.00    0.76831   0.19660    0.010
 5928.00    0.77175   0.19650    0.011
 5929.00    0.78881   0.19688    0.011
 5930.00    0.82308   0.19774    0.011
 5931.00    0.82697   0.19784    0.010
 5932.00    0.79706   0.19770    0.011
 5933.00    0.80465   0.19763    0.011
 5934.00    0.84904   0.19809    0.011
 5935.00    0.84979   0.19851    0.011
 5936.00    0.81277   0.19860    0.010
 5937.00    0.77884   0.19793    0.010
 5938.00    0.74725   0.19647    0.010
 5939.00    0.74736   0.19507    0.010
 5940.00    0.76870   0.19548    0.010
 5941.00    0.79674   0.19658    0.010
 5942.00    0.82870   0.19715    0.010
 5943.00    0.83517   0.19755    0.010
 5944.00    0.82858   0.19805    0.010
 5945.00    0.79393   0.19793    0.010
 5946.00    0.74683   0.19671    0.010
 5947.00    0.74939   0.19567    0.010
 5948.00    0.77088   0.19532    0.010
 5949.00    0.79567   0.19511    0.010
 5950.00    0.82152   0.19457    0.010
 5951.00    0.80797   0.19446    0.010
 5952.00    0.78375   0.19513    0.010
 5953.00    0.80381   0.19480    0.010
 5954.00    0.83371   0.19286    0.010
 5955.00    0.84160   0.19167    0.010
 5956.00    0.84560   0.19243    0.010
 5957.00    0.84710   0.19426    0.010
 5958.00    0.84827   0.19558    0.010
 5959.00    0.82873   0.19552    0.010
 5960.00    0.80720   0.19554    0.010
 5961.00    0.82370   0.19552    0.010
 5962.00    0.84247   0.19541    0.010
 5963.00    0.83641   0.19505    0.010
 5964.00    0.82940   0.19497    0.010
 5965.00    0.77465   0.19544    0.010
 5966.00    0.72323   0.19593    0.010
 5967.00    0.75692   0.19611    0.010
 5968.00    0.78874   0.19627    0.010
 5969.00    0.79549   0.19607    0.010
 5970.00    0.80167   0.19560    0.010
 5971.00    0.80262   0.19519    0.010
 5972.00    0.80467   0.19483    0.010
 5973.00    0.81394   0.19430    0.010
 5974.00    0.81917   0.19347    0.010
 5975.00    0.80368   0.19195    0.010
 5976.00    0.78936   0.18977    0.010
 5977.00    0.77988   0.18968    0.010
 5978.00    0.76966   0.19123    0.010
 5979.00    0.75692   0.19334    0.010
 5980.00    0.75824   0.19360    0.010
 5981.00    0.80019   0.19277    0.010
 5982.00    0.83269   0.19198    0.010
 5983.00    0.84194   0.19245    0.010
 5984.00    0.83946   0.19365    0.010
 5985.00    0.81204   0.19390    0.010
 5986.00    0.79828   0.19337    0.010
 5987.00    0.80971   0.19337    0.010
 5988.00    0.82640   0.19365    0.010
 5989.00    0.85158   0.19385    0.010
 5990.00    0.86777   0.19419    0.010
 5991.00    0.87124   0.19498    0.010
 5992.00    0.87538   0.19550    0.010
 5993.00    0.88034   0.19532    0.010
 5994.00    0.87532   0.19466    0.010
 5995.00    0.85937   0.19397    0.010
 5996.00    0.85230   0.19315    0.010
 5997.00    0.85384   0.19242    0.010
 5998.00    0.83027   0.19212    0.010
 5999.00    0.78528   0.19203    0.010
 6000.00    0.76963   0.19200    0.010
 6001.00    0.77603   0.19209    0.010
 6002.00    0.76708   0.19265    0.010
 6003.00    0.74798   0.19270    0.010
 6004.00    0.73260   0.19183    0.010
 6005.00    0.71935   0.19083    0.010
 6006.00    0.72538   0.19050    0.010
 6007.00    0.74112   0.19117    0.010
 6008.00    0.77669   0.19219    0.010
 6009.00    0.82090   0.19240    0.010
 6010.00    0.82717   0.19169    0.010
 6011.00    0.81923   0.19108    0.010
 6012.00    0.82297   0.19122    0.010
 6013.00    0.83041   0.19154    0.010
 6014.00    0.80816   0.19131    0.010
 6015.00    0.77803   0.19092    0.010
 6016.00    0.71781   0.19100    0.010
 6017.00    0.65107   0.19118    0.010
 6018.00    0.68411   0.19121    0.010
 6019.00    0.73433   0.19129    0.010
 6020.00    0.78099   0.19137    0.010
 6021.00    0.82717   0.19121    0.010
 6022.00    0.82512   0.19118    0.010
 6023.00    0.81864   0.19158    0.010
 6024.00    0.84381   0.19194    0.010
 6025.00    0.87075   0.19180    0.010
 6026.00    0.83152   0.19182    0.010
 6027.00    0.79129   0.19198    0.010
 6028.00    0.79566   0.19166    0.010
 6029.00    0.79988   0.19093    0.010
 6030.00    0.80079   0.19069    0.010
 6031.00    0.80140   0.19139    0.010
 6032.00    0.79824   0.19207    0.010
 6033.00    0.79354   0.19182    0.010
 6034.00    0.77552   0.19092    0.010
 6035.00    0.76645   0.19054    0.010
 6036.00    0.81451   0.19084    0.010
 6037.00    0.85749   0.19103    0.010
 6038.00    0.87511   0.19091    0.010
 6039.00    0.88605   0.19104    0.010
 6040.00    0.86995   0.19121    0.010
 6041.00    0.86967   0.19156    0.010
 6042.00    0.92247   0.19195    0.010
 6043.00    0.95432   0.19216    0.010
 6044.00    0.92681   0.19211    0.010
 6045.00    0.89507   0.19190    0.010
 6046.00    0.85311   0.19154    0.010
 6047.00    0.82045   0.19135    0.010
 6048.00    0.80724   0.19161    0.010
 6049.00    0.80510   0.19164    0.010
 6050.00    0.82308   0.19106    0.010
 6051.00    0.85064   0.19051    0.010
 6052.00    0.89342   0.19022    0.010
 6053.00    0.88974   0.19000    0.010
 6054.00    0.82126   0.18958    0.010
 6055.00    0.76933   0.18904    0.010
 6056.00    0.73769   0.18896    0.010
 6057.00    0.76404   0.18953    0.010
 6058.00    0.85312   0.19013    0.010
 6059.00    0.89210   0.19018    0.010
 6060.00    0.88326   0.18961    0.010
 6061.00    0.85731   0.18864    0.010
 6062.00    0.81696   0.18740    0.010
 6063.00    0.77308   0.18664    0.010
 6064.00    0.72656   0.18749    0.010
 6065.00    0.69786   0.18930    0.010
 6066.00    0.68076   0.19035    0.010
 6067.00    0.68436   0.19062    0.010
 6068.00    0.69976   0.19064    0.009
 6069.00    0.75678   0.19059    0.010
 6070.00    0.83442   0.19021    0.010
 6071.00    0.88242   0.18958    0.010
 6072.00    0.91770   0.18960    0.010
 6073.00    0.92387   0.18989    0.010
 6074.00    0.91933   0.18996    0.010
 6075.00    0.92126   0.18949    0.010
 6076.00    0.92520   0.18841    0.010
 6077.00    0.94075   0.18745    0.010
 6078.00    0.95931   0.18688    0.010
 6079.00    0.96080   0.18643    0.010
 6080.00    0.95869   0.18624    0.010
 6081.00    0.96616   0.18673    0.010
 6082.00    0.97523   0.18727    0.010
 6083.00    0.94952   0.18724    0.010
 6084.00    0.91942   0.18723    0.010
 6085.00    0.94016   0.18750    0.010
 6086.00    0.96536   0.18746    0.010
 6087.00    0.95059   0.18675    0.010
 6088.00    0.93376   0.18593    0.010
 6089.00    0.87815   0.18582    0.010
 6090.00    0.82211   0.18624    0.010
 6091.00    0.78586   0.18659    0.010
 6092.00    0.75165   0.18720    0.010
 6093.00    0.76094   0.18765    0.010
 6094.00    0.76961   0.18737    0.010
 6095.00    0.77087   0.18698    0.010
 6096.00    0.76741   0.18748    0.010
 6097.00    0.72474   0.18821    0.010
 6098.00    0.69156   0.18815    0.010
 6099.00    0.71723   0.18653    0.010
 6100.00    0.74531   0.18388    0.010
 6101.00    0.78513   0.18288    0.010
 6102.00    0.81642   0.18437    0.009
 6103.00    0.81399   0.18604    0.010
 6104.00    0.80093   0.18659    0.010
 6105.00    0.75289   0.18635    0.010
 6106.00    0.71297   0.18615    0.010
 6107.00    0.69563   0.18623    0.010
 6108.00    0.69477   0.18589    0.010
 6109.00    0.73315   0.18534    0.010
 6110.00    0.77125   0.18568    0.010
 6111.00    0.80878   0.18674    0.010
 6112.00    0.83230   0.18733    0.010
 6113.00    0.83075   0.18686    0.010
 6114.00    0.82356   0.18581    0.010
 6115.00    0.80754   0.18545    0.010
 6116.00    0.79336   0.18554    0.010
 6117.00    0.78172   0.18468    0.010
 6118.00    0.77649   0.18304    0.010
 6119.00    0.77901   0.18153    0.010
 6120.00    0.76589   0.18122    0.010
 6121.00    0.73608   0.18301    0.010
 6122.00    0.71796   0.18511    0.010
 6123.00    0.71084   0.18524    0.010
 6124.00    0.71861   0.18431    0.010
 6125.00    0.73872   0.18362    0.010
 6126.00    0.76293   0.18349    0.010
 6127.00    0.79012   0.18422    0.010
 6128.00    0.81532   0.18546    0.010
 6129.00    0.83925   0.18588    0.010
 6130.00    0.86295   0.18521    0.010
 6131.00    0.88653   0.18430    0.009
 6132.00    0.89633   0.18297    0.009
 6133.00    0.89940   0.18095    0.010
 6134.00    0.88765   0.17898    0.010
 6135.00    0.86965   0.17840    0.010
 6136.00    0.89204   0.18041    0.010
 6137.00    0.92901   0.18341    0.010
 6138.00    0.90641   0.18420    0.010
 6139.00    0.86562   0.18270    0.010
 6140.00    0.83280   0.18189    0.010
 6141.00    0.80201   0.18328    0.010
 6142.00    0.78105   0.18514    0.010
 6143.00    0.76213   0.18588    0.010
 6144.00    0.82602   0.18527    0.010
 6145.00    0.90337   0.18389    0.010
 6146.00    0.90112   0.18109    0.010
 6147.00    0.88920   0.17749    0.010
 6148.00    0.80194   0.17550    0.010
 6149.00    0.70839   0.17643    0.010
 6150.00    0.71832   0.17844    0.010
 6151.00    0.73321   0.17948    0.010
 6152.00    0.73247   0.17876    0.010
 6153.00    0.73224   0.17731    0.010
 6154.00    0.77449   0.17645    0.010
 6155.00    0.81601   0.17523    0.010
 6156.00    0.84315   0.17373    0.010
 6157.00    0.85909   0.17222    0.010
 6158.00    0.74563   0.17088    0.010
 6159.00    0.64711   0.16901    0.010
 6160.00    0.66807   0.16746    0.010
 6161.00    0.69977   0.16762    0.010
 6162.00    0.79614   0.16878    0.010
 6163.00    0.86938   0.16975    0.010
 6164.00    0.83262   0.17017    0.009
 6165.00    0.80434   0.17023    0.009
 6166.00    0.80889   0.16965    0.010
 6167.00    0.80003   0.16845    0.010
 6168.00    0.74786   0.16854    0.010
 6169.00    0.70310   0.16988    0.010
 6170.00    0.67862   0.17073    0.010
 6171.00    0.66971   0.17017    0.010
 6172.00    0.69725   0.16933    0.010
 6173.00    0.70817   0.16915    0.010
 6174.00    0.68541   0.16951    0.010
 6175.00    0.66964   0.17002    0.010
 6176.00    0.66621   0.17056    0.010
 6177.00    0.66106   0.17081    0.010
 6178.00    0.65325   0.17070    0.010
 6179.00    0.64262   0.17072    0.010
 6180.00    0.62818   0.17072    0.010
 6181.00    0.62323   0.17043    0.010
 6182.00    0.62962   0.16987    0.010
 6183.00    0.65777   0.16900    0.010
 6184.00    0.70881   0.16777    0.009
 6185.00    0.71642   0.16686    0.010
 6186.00    0.68374   0.16669    0.010
 6187.00    0.66430   0.16642    0.010
 6188.00    0.65568   0.16544    0.010
 6189.00    0.66971   0.16445    0.010
 6190.00    0.70003   0.16469    0.010
 6191.00    0.71968   0.16576    0.010
 6192.00    0.73258   0.16650    0.009
 6193.00    0.75114   0.16687    0.010
 6194.00    0.77284   0.16717    0.010
 6195.00    0.80190   0.16736    0.010
 6196.00    0.83449   0.16703   -2.000
 6197.00    0.72081   0.16628   -2.000
 6198.00    0.54649   0.16591   -2.000
 6199.00    0.28784   0.16637   -2.000
 6200.00   -0.00070   0.16713   -2.000
 6201.00    0.01667   0.16756   -2.000
 6202.00    0.12560   0.16748   -2.000
 6203.00    0.35883   0.16728   -2.000
 6204.00    0.62294   0.16740   -2.000
 6205.00    0.76218   0.16761   -2.000
 6206.00    0.87627   0.16763   -2.000
 6207.00    0.81691   0.16732   -2.000
 6208.00    0.73020   0.16665    0.010
 6209.00    0.71318   0.16600    0.010
 6210.00    0.70433   0.16532    0.010
 6211.00    0.68388   0.16422    0.010
 6212.00    0.66250   0.16293    0.010
 6213.00    0.67687   0.16207    0.010
 6214.00    0.69281   0.16203    0.009
 6215.00    0.72373   0.16274    0.009
 6216.00    0.75405   0.16325    0.009
 6217.00    0.74781   0.16315    0.009
 6218.00    0.74165   0.16305    0.009
 6219.00    0.73681   0.16296    0.009
 6220.00    0.73303   0.16250    0.010
 6221.00    0.74095   0.16170    0.010
 6222.00    0.74918   0.16118    0.009
 6223.00    0.75976   0.16123    0.010
 6224.00    0.74130   0.16156    0.010
 6225.00    0.55295   0.16176    0.010
 6226.00    0.26798   0.16167    0.010
 6227.00   -0.46515   0.16091    0.000
 6228.00   -1.00804   0.15967    0.000
 6229.00   -0.82972   0.15923    0.000
 6230.00   -0.54963   0.15991    0.000
 6231.00    0.05262   0.16099    0.010
 6232.00    0.53025   0.16208    0.010
 6233.00    0.67341   0.16266    0.010
 6234.00    0.76279   0.16246    0.010
 6235.00    0.72835   0.16156    0.010
 6236.00    0.72027   0.16011    0.010
 6237.00    0.76470   0.15886    0.010
 6238.00    0.79541   0.15878    0.010
 6239.00    0.80227   0.15944    0.010
 6240.00    0.80285   0.15930    0.010
 6241.00    0.79391   0.15868    0.009
 6242.00    0.77805   0.15904    0.009
 6243.00    0.75297   0.15984    0.009
 6244.00    0.71950   0.16020    0.009
 6245.00    0.67618   0.16067    0.009
 6246.00    0.66752   0.16129    0.009
 6247.00    0.69481   0.16170    0.009
 6248.00    0.72248   0.16176    0.009
 6249.00    0.75051   0.16119    0.010
 6250.00    0.74883   0.16043    0.010
 6251.00    0.72320   0.16035    0.010
 6252.00    0.71404   0.16071    0.010
 6253.00    0.71656   0.16072    0.010
 6254.00    0.72757   0.15998    0.010
 6255.00    0.74385   0.15877    0.010
 6256.00    0.75130   0.15799    0.010
 6257.00    0.75395   0.15860    0.010
 6258.00    0.75550   0.15981    0.010
 6259.00    0.75653   0.16060    0.011
 6260.00    0.62929   0.16140    0.011
 6261.00    0.44978   0.16212    0.012
 6262.00    0.34507   0.16198    0.012
 6263.00    0.26641   0.16116    0.012
 6264.00    0.41300   0.16083    0.012
 6265.00    0.62566   0.16082    0.012
 6266.00    0.76327   0.16052    0.012
 6267.00    0.88264   0.16033    0.011
 6268.00    0.87763   0.16078    0.010
 6269.00    0.84819   0.16142    0.010
 6270.00    0.78347   0.16164    0.009
 6271.00    0.71334   0.16136    0.009
 6272.00    0.70964   0.16087    0.009
 6273.00    0.71344   0.16062    0.009
 6274.00    0.77061   0.16061    0.009
 6275.00    0.83180   0.16072    0.009
 6276.00    0.85179   0.16077    0.010
 6277.00    0.87013   0.16047    0.010
 6278.00    0.83236   0.15996    0.010
 6279.00    0.79469   0.15990    0.010
 6280.00    0.77698   0.16037    0.000
 6281.00    0.75980   0.16094    0.000
 6282.00    0.75146   0.16108    0.000
 6283.00    0.74964   0.16077    0.000
 6284.00    0.81630   0.16087    0.000
 6285.00    0.87191   0.16153    0.000
 6286.00    0.84500   0.16212    0.000
 6287.00    0.81536   0.16234    0.000
 6288.00    0.77018   0.16195    0.000
 6289.00    0.74388   0.16136    0.000
 6290.00    0.80305   0.16081    0.000
 6291.00    0.84820   0.16059    0.000
 6292.00    0.84128   0.16056    0.000
 6293.00    0.84112   0.15989    0.000
 6294.00    0.86196   0.15896    0.000
 6295.00    0.88000   0.15897    0.000
 6296.00    0.89068   0.15983    0.000
 6297.00    0.89831   0.16052    0.000
 6298.00    0.89900   0.16053    0.000
 6299.00    0.88225   0.16019    0.000
 6300.00    0.83130   0.16007    0.000
 6301.00    0.80364   0.16013    0.000
 6302.00    0.81579   0.15984    0.000
 6303.00    0.85202   0.15946    0.000
 6304.00    0.92433   0.15996    0.000
 6305.00    0.96171   0.16143    0.000
 6306.00    0.95311   0.16241    0.000
 6307.00    0.93951   0.16230    0.000
 6308.00    0.92009   0.16164    0.000
 6309.00    0.89186   0.16083    0.000
 6310.00    0.85462   0.16058    0.000
 6311.00    0.83651   0.16084    0.000
 6312.00    0.83564   0.16090    0.000
 6313.00    0.84501   0.16097    0.000
 6314.00    0.86252   0.16115    0.000
 6315.00    0.86585   0.16096    0.000
 6316.00    0.85926   0.16053    0.000
 6317.00    0.82451   0.16077    0.000
 6318.00    0.77249   0.16112    0.000
 6319.00    0.76687   0.16082    0.000
 6320.00    0.78610   0.16061    0.000
 6321.00    0.78671   0.16095    0.009
 6322.00    0.77868   0.16113    0.009
 6323.00    0.78748   0.16105    0.009
 6324.00    0.80302   0.16116    0.009
 6325.00    0.81229   0.16144    0.009
 6326.00    0.81940   0.16166    0.009
 6327.00    0.79979   0.16145    0.009
 6328.00    0.77250   0.16109    0.009
 6329.00    0.78865   0.16139    0.009
 6330.00    0.81512   0.16200    0.009
 6331.00    0.80885   0.16194    0.009
 6332.00    0.79632   0.16092    0.009
 6333.00    0.80195   0.15950    0.010
 6334.00    0.81028   0.15924    0.010
 6335.00    0.85762   0.16028    0.010
 6336.00    0.90920   0.16126    0.010
 6337.00    0.91715   0.16174    0.010
 6338.00    0.92199   0.16209    0.010
 6339.00    0.89040   0.16222    0.010
 6340.00    0.85748   0.16172    0.010
 6341.00    0.81692   0.16062    0.010
 6342.00    0.77607   0.15903    0.010
 6343.00    0.72550   0.15651    0.009
 6344.00    0.67944   0.15419    0.009
 6345.00    0.70515   0.15458    0.009
 6346.00    0.73218   0.15710    0.010
 6347.00    0.77248   0.16029    0.009
 6348.00    0.80488   0.16119    0.009
 6349.00    0.78024   0.16052    0.009
 6350.00    0.76215   0.15982    0.009
 6351.00    0.78024   0.15919    0.009
 6352.00    0.79705   0.15851    0.009
 6353.00    0.80822   0.15805    0.009
 6354.00    0.81539   0.15783    0.009
 6355.00    0.80800   0.15708    0.009
 6356.00    0.80073   0.15599    0.009
 6357.00    0.79377   0.15563    0.009
 6358.00    0.77709   0.15589    0.009
 6359.00    0.73519   0.15606    0.010
 6360.00    0.71280   0.15604    0.010
 6361.00    0.73388   0.15618    0.010
 6362.00    0.76395   0.15666    0.010
 6363.00    0.81139   0.15728    0.010
 6364.00    0.84327   0.15793    0.010
 6365.00    0.84898   0.15876    0.010
 6366.00    0.84326   0.15935    0.010
 6367.00    0.82068   0.15840    0.010
 6368.00    0.82131   0.15614    0.010
 6369.00    0.85205   0.15552    0.010
 6370.00    0.88499   0.15699    0.010
 6371.00    0.92043   0.15940    0.010
 6372.00    0.91557   0.16061    0.010
 6373.00    0.87006   0.16050    0.010
 6374.00    0.83763   0.16058    0.010
 6375.00    0.81681   0.16011    0.009
 6376.00    0.83842   0.15879    0.009
 6377.00    0.89326   0.15793    0.009
 6378.00    0.92512   0.15822    0.009
 6379.00    0.94115   0.15878    0.009
 6380.00    0.94653   0.15892    0.009
 6381.00    0.94547   0.15840    0.009
 6382.00    0.97643   0.15765    0.009
 6383.00    1.02426   0.15757    0.010
 6384.00    1.01510   0.15805    0.010
 6385.00    0.97987   0.15825    0.010
 6386.00    0.92778   0.15817    0.010
 6387.00    0.86907   0.15826    0.010
 6388.00    0.82499   0.15844    0.010
 6389.00    0.78582   0.15823    0.010
 6390.00    0.80427   0.15726    0.010
 6391.00    0.83894   0.15641    0.010
 6392.00    0.86040   0.15696    0.010
 6393.00    0.87880   0.15835    0.010
 6394.00    0.89725   0.15924    0.010
 6395.00    0.91571   0.15942    0.010
 6396.00    0.93187   0.15880    0.010
 6397.00    0.94770   0.15729    0.010
 6398.00    0.91366   0.15608    0.010
 6399.00    0.87442   0.15668    0.010
 6400.00    0.86492   0.15843    0.010
 6401.00    0.85741   0.15977    0.009
 6402.00    0.88320   0.16048    0.009
 6403.00    0.91008   0.16034    0.009
 6404.00    0.93909   0.15972    0.009
 6405.00    0.96756   0.15911    0.009
 6406.00    0.97908   0.15907    0.009
 6407.00    0.98760   0.15961    0.009
 6408.00    0.95116   0.15950    0.009
 6409.00    0.91512   0.15840    0.009
 6410.00    0.88286   0.15735    0.009
 6411.00    0.84447   0.15697    0.009
 6412.00    0.76335   0.15711    0.010
 6413.00    0.70477   0.15740    0.010
 6414.00    0.76761   0.15767    0.010
 6415.00    0.83383   0.15757    0.010
 6416.00    0.91466   0.15679    0.010
 6417.00    0.96086   0.15556    0.010
 6418.00    0.88382   0.15427    0.010
 6419.00    0.81813   0.15393    0.010
 6420.00    0.78637   0.15514    0.010
 6421.00    0.78136   0.15643    0.010
 6422.00    0.84443   0.15665    0.010
 6423.00    0.89368   0.15661    0.009
 6424.00    0.91269   0.15694    0.009
 6425.00    0.91985   0.15724    0.009
 6426.00    0.90448   0.15694    0.009
 6427.00    0.88683   0.15583    0.009
 6428.00    0.86539   0.15438    0.010
 6429.00    0.86117   0.15396    0.010
 6430.00    0.88200   0.15497    0.010
 6431.00    0.90355   0.15607    0.010
 6432.00    0.92603   0.15646    0.010
 6433.00    0.93708   0.15670    0.010
 6434.00    0.93526   0.15715    0.010
 6435.00    0.95271   0.15689    0.010
 6436.00    0.98931   0.15562    0.010
 6437.00    0.99159   0.15526    0.010
 6438.00    0.96380   0.15668    0.010
 6439.00    0.90254   0.15823    0.010
 6440.00    0.81543   0.15890    0.010
 6441.00    0.79799   0.15903    0.010
 6442.00    0.82784   0.15893    0.010
 6443.00    0.83749   0.15864    0.010
 6444.00    0.83511   0.15805    0.010
 6445.00    0.86483   0.15668    0.010
 6446.00    0.91121   0.15440    0.010
 6447.00    0.93801   0.15227    0.010
 6448.00    0.95602   0.15187    0.010
 6449.00    0.95420   0.15320    0.010
 6450.00    0.94471   0.15486    0.010
 6451.00    0.93112   0.15584    0.010
 6452.00    0.91617   0.15556    0.010
 6453.00    0.88917   0.15455    0.010
 6454.00    0.85883   0.15451    0.009
 6455.00    0.83129   0.15573    0.009
 6456.00    0.80437   0.15710    0.009
 6457.00    0.80333   0.15757    0.009
 6458.00    0.80697   0.15664    0.009
 6459.00    0.82876   0.15450    0.010
 6460.00    0.85308   0.15262    0.010
 6461.00    0.85717   0.15317    0.010
 6462.00    0.85924   0.15548    0.010
 6463.00    0.88953   0.15689    0.010
 6464.00    0.92160   0.15733    0.010
 6465.00    0.89754   0.15773    0.010
 6466.00    0.87200   0.15782    0.010
 6467.00    0.88552   0.15735    0.010
 6468.00    0.89932   0.15678    0.010
 6469.00    0.92099   0.15644    0.010
 6470.00    0.93953   0.15608    0.010
 6471.00    0.91396   0.15506    0.010
 6472.00    0.89046   0.15349    0.010
 6473.00    0.88612   0.15309    0.010
 6474.00    0.88770   0.15416    0.010
 6475.00    0.92931   0.15487    0.010
 6476.00    0.96444   0.15427    0.009
 6477.00    0.96554   0.15304    0.009
 6478.00    0.95644   0.15148    0.009
 6479.00    0.90427   0.14967    0.009
 6480.00    0.84976   0.14854    0.009
 6481.00    0.78711   0.14865    0.009
 6482.00    0.74736   0.14950    0.009
 6483.00    0.77483   0.15017    0.009
 6484.00    0.80670   0.15083    0.010
 6485.00    0.84962   0.15137    0.010
 6486.00    0.88034   0.15136    0.010
 6487.00    0.88480   0.15081    0.010
 6488.00    0.88314   0.15018    0.010
 6489.00    0.87003   0.14999    0.010
 6490.00    0.87810   0.14959    0.010
 6491.00    0.92081   0.14805    0.010
 6492.00    0.94482   0.14594    0.010
 6493.00    0.94205   0.14453    0.010
 6494.00    0.92414   0.14423    0.010
 6495.00    0.88716   0.14495    0.010
 6496.00    0.84653   0.14604    0.010
 6497.00    0.80187   0.14698    0.010
 6498.00    0.79027   0.14810    0.010
 6499.00    0.81106   0.14918    0.010
 6500.00    0.82028   0.14978    0.010
 6501.00    0.81951   0.14991    0.009
 6502.00    0.84552   0.14981    0.009
 6503.00    0.89191   0.14985    0.009
 6504.00    0.93046   0.14993    0.009
 6505.00    0.96378   0.14936    0.009
 6506.00    0.98203   0.14879    0.009
 6507.00    0.99145   0.14918    0.009
 6508.00    0.99574   0.15010    0.009
 6509.00    0.99742   0.15046    0.010
 6510.00    0.97190   0.15007    0.010
 6511.00    0.93435   0.14962    0.010
 6512.00    0.91648   0.14920    0.010
 6513.00    0.90608   0.14865    0.010
 6514.00    0.88747   0.14818    0.010
 6515.00    0.86621   0.14787    0.010
 6516.00    0.86689   0.14791    0.010
 6517.00    0.87349   0.14844    0.010
 6518.00    0.86641   0.14922    0.010
 6519.00    0.85630   0.14978    0.010
 6520.00    0.86910   0.14982    0.010
 6521.00    0.88593   0.14964    0.010
 6522.00    0.90374   0.14962    0.010
 6523.00    0.92167   0.14959    0.010
 6524.00    0.92158   0.14945    0.010
 6525.00    0.91977   0.14945    0.009
 6526.00    0.96195   0.14991    0.010
 6527.00    1.00673   0.15042    0.010
 6528.00    0.99773   0.15029    0.000
 6529.00    0.98705   0.14947    0.000
 6530.00    0.92832   0.14879    0.000
 6531.00    0.87075   0.14899    0.000
 6532.00    0.84263   0.14987    0.000
 6533.00    0.81865   0.15059    0.000
 6534.00    0.84998   0.15051    0.000
 6535.00    0.87849   0.14987    0.000
 6536.00    0.88178   0.14973    0.000
 6537.00    0.88245   0.15034    0.000
 6538.00    0.86585   0.15058    0.000
 6539.00    0.85193   0.14970    0.000
 6540.00    0.85167   0.14800    0.000
 6541.00    0.85447   0.14611    0.000
 6542.00    0.86992   0.14438    0.000
 6543.00    0.89337   0.14304    0.000
 6544.00    0.94419   0.14250    0.000
 6545.00    0.97629   0.14283    0.000
 6546.00    0.95453   0.14297    0.000
 6547.00    0.95467   0.14191    0.000
 6548.00    1.00868   0.14030    0.000
 6549.00    1.05213   0.13902    0.000
 6550.00    1.07319   0.13821    0.000
 6551.00    1.08317   0.13710    0.000
 6552.00    1.07272   0.13527    0.000
 6553.00    1.04525   0.13330    0.000
 6554.00    0.99041   0.13160    0.000
 6555.00    0.93846   0.12994    0.000
 6556.00    0.89060   0.12778    0.000
 6557.00    0.87742   0.12449    0.000
 6558.00    0.90733   0.11776    0.000
 6559.00    0.94392   0.10606    0.000
 6560.00    0.98783   0.09567    0.000
 6561.00    1.11059   0.09607    0.000
 6562.00    1.30952   0.10690    0.000
 6563.00    1.51200   0.11797    0.000
 6564.00    1.71749   0.12398    0.000
 6565.00    1.85989   0.12742    0.000
 6566.00    1.95493   0.12988    0.000
 6567.00    1.86380   0.13177    0.000
 6568.00    1.64994   0.13356    0.000
 6569.00    1.36298   0.13464    0.000
 6570.00    1.03383   0.13472    0.000
 6571.00    0.87072   0.13500    0.000
 6572.00    0.79109   0.13617    0.000
 6573.00    0.78780   0.13705    0.000
 6574.00    0.81774   0.13653    0.000
 6575.00    0.83156   0.13552    0.000
 6576.00    0.83937   0.13536    0.000
 6577.00    0.84675   0.13660    0.000
 6578.00    0.85399   0.13793    0.000
 6579.00    0.88725   0.13751    0.000
 6580.00    0.92738   0.13730    0.000
 6581.00    0.93410   0.13849    0.000
 6582.00    0.93359   0.14043    0.000
 6583.00    1.03056   0.14211    0.000
 6584.00    1.14425   0.14273    0.000
 6585.00    1.24992   0.14344    0.000
 6586.00    1.35454   0.14405    0.000
 6587.00    1.34369   0.14414    0.000
 6588.00    1.32230   0.14360    0.000
 6589.00    1.20577   0.14220    0.000
 6590.00    1.08399   0.14034    0.000
 6591.00    1.06198   0.13918    0.000
 6592.00    1.04169   0.13959    0.000
 6593.00    0.98193   0.14093    0.000
 6594.00    0.92330   0.14172    0.000
 6595.00    0.89096   0.14136    0.000
 6596.00    0.86186   0.14050    0.000
 6597.00    0.87388   0.14042    0.000
 6598.00    0.87897   0.14140    0.000
 6599.00    0.82476   0.14232    0.000
 6600.00    0.77852   0.14252    0.000
 6601.00    0.78297   0.14218    0.000
 6602.00    0.78957   0.14154    0.000
 6603.00    0.80683   0.14087    0.000
 6604.00    0.80843   0.14052    0.000
 6605.00    0.74684   0.14027    0.000
 6606.00    0.71200   0.13958    0.000
 6607.00    0.76677   0.13906    0.000
 6608.00    0.82714   0.13976    0.000
 6609.00    0.90333   0.14096    0.010
 6610.00    0.94716   0.14141    0.010
 6611.00    0.91274   0.14113    0.010
 6612.00    0.87476   0.14104    0.010
 6613.00    0.82936   0.14140    0.010
 6614.00    0.81078   0.14152    0.010
 6615.00    0.84085   0.14113    0.010
 6616.00    0.87785   0.14060    0.010
 6617.00    0.92582   0.14042    0.010
 6618.00    0.96345   0.14049    0.010
 6619.00    0.98668   0.14029    0.010
 6620.00    0.97995   0.13968    0.010
 6621.00    0.93649   0.13875    0.010
 6622.00    0.90364   0.13772    0.010
 6623.00    0.88224   0.13714    0.010
 6624.00    0.88398   0.13740    0.010
 6625.00    0.90774   0.13796    0.010
 6626.00    0.93797   0.13818    0.010
 6627.00    0.97364   0.13820    0.010
 6628.00    0.97938   0.13834    0.010
 6629.00    0.96299   0.13852    0.010
 6630.00    0.93440   0.13836    0.010
 6631.00    0.89788   0.13780    0.010
 6632.00    0.85833   0.13725    0.010
 6633.00    0.81705   0.13697    0.010
 6634.00    0.83296   0.13704    0.010
 6635.00    0.87716   0.13732    0.011
 6636.00    0.91223   0.13740    0.011
 6637.00    0.94339   0.13724    0.010
 6638.00    0.91692   0.13729    0.010
 6639.00    0.86932   0.13753    0.010
 6640.00    0.86568   0.13729    0.010
 6641.00    0.87570   0.13674    0.010
 6642.00    0.84502   0.13677    0.010
 6643.00    0.80380   0.13732    0.010
 6644.00    0.82689   0.13753    0.010
 6645.00    0.86355   0.13726    0.010
 6646.00    0.92017   0.13685    0.010
 6647.00    0.98012   0.13602    0.010
 6648.00    0.98395   0.13451    0.010
 6649.00    0.98074   0.13298    0.010
 6650.00    0.97406   0.13251    0.010
 6651.00    0.96707   0.13300    0.010
 6652.00    0.96123   0.13346    0.010
 6653.00    0.95545   0.13348    0.010
 6654.00    0.86967   0.13331    0.010
 6655.00    0.78393   0.13327    0.010
 6656.00    0.80196   0.13334    0.010
 6657.00    0.82143   0.13336    0.010
 6658.00    0.87114   0.13331    0.010
 6659.00    0.91629   0.13315    0.010
 6660.00    0.90655   0.13274    0.010
 6661.00    0.89995   0.13253    0.010
 6662.00    0.91930   0.13295    0.010
 6663.00    0.93940   0.13333    0.010
 6664.00    0.96416   0.13322    0.010
 6665.00    0.97173   0.13320    0.010
 6666.00    0.89582   0.13364    0.010
 6667.00    0.83720   0.13419    0.010
 6668.00    0.84690   0.13455    0.010
 6669.00    0.86062   0.13468    0.010
 6670.00    0.88756   0.13460    0.010
 6671.00    0.90530   0.13435    0.010
 6672.00    0.89749   0.13404    0.010
 6673.00    0.90221   0.13257    0.010
 6674.00    0.93669   0.12818    0.010
 6675.00    0.95185   0.12343    0.010
 6676.00    0.92734   0.12220    0.010
 6677.00    0.89052   0.12479    0.010
 6678.00    0.83169   0.12807    0.010
 6679.00    0.80470   0.12894    0.010
 6680.00    0.82748   0.12894    0.011
 6681.00    0.84490   0.12954    0.011
 6682.00    0.85499   0.13001    0.011
 6683.00    0.81545   0.13006    0.011
 6684.00    0.71598   0.12993    0.011
 6685.00    0.69558   0.12986    0.010
 6686.00    0.75936   0.12996    0.010
 6687.00    0.84204   0.13015    0.010
 6688.00    0.94245   0.13027    0.010
 6689.00    0.99378   0.13023    0.010
 6690.00    1.00447   0.13012    0.010
 6691.00    1.00029   0.13007    0.010
 6692.00    0.98528   0.12995    0.010
 6693.00    0.94430   0.12968    0.010
 6694.00    0.88671   0.12952    0.010
 6695.00    0.86392   0.12970    0.010
 6696.00    0.86061   0.13004    0.000
 6697.00    0.86711   0.13043    0.000
 6698.00    0.87840   0.13076    0.000
 6699.00    0.91339   0.13087    0.000
 6700.00    0.95836   0.13074    0.000
 6701.00    0.94575   0.13045    0.000
 6702.00    0.91241   0.13022    0.000
 6703.00    0.93054   0.13022    0.000
 6704.00    0.96434   0.13034    0.000
 6705.00    0.93595   0.13047    0.000
 6706.00    0.89182   0.13051    0.000
 6707.00    0.93626   0.13038    0.000
 6708.00    0.99893   0.13023    0.000
 6709.00    1.01890   0.13014    0.000
 6710.00    1.03195   0.12977    0.000
 6711.00    0.95933   0.12872    0.000
 6712.00    0.87634   0.12721    0.000
 6713.00    0.89004   0.12595    0.000
 6714.00    0.91177   0.12509    0.000
 6715.00    0.96561   0.12460    0.000
 6716.00    1.02097   0.12476    0.000
 6717.00    1.05933   0.12522    0.000
 6718.00    1.09596   0.12533    0.000
 6719.00    1.04810   0.12519    0.000
 6720.00    0.99919   0.12527    0.000
 6721.00    0.92967   0.12572    0.000
 6722.00    0.86458   0.12598    0.000
 6723.00    0.85031   0.12604    0.000
 6724.00    0.84456   0.12618    0.000
 6725.00    0.90669   0.12640    0.000
 6726.00    0.95309   0.12658    0.000
 6727.00    0.90518   0.12666    0.000
 6728.00    0.86006   0.12670    0.000
 6729.00    0.82816   0.12676    0.000
 6730.00    0.81824   0.12677    0.000
 6731.00    0.89327   0.12670    0.000
 6732.00    0.96297   0.12664    0.000
 6733.00    1.01553   0.12670    0.000
 6734.00    1.05567   0.12680    0.000
 6735.00    1.06195   0.12671    0.000
 6736.00    1.02824   0.12637    0.000
 6737.00    0.90110   0.12619    0.000
 6738.00    0.82245   0.12643    0.000
 6739.00    0.84175   0.12658    0.000
 6740.00    0.84116   0.12624    0.000
 6741.00    0.80557   0.12610    0.000
 6742.00    0.77959   0.12644    0.000
 6743.00    0.76841   0.12656    0.000
 6744.00    0.80064   0.12596    0.000
 6745.00    0.89156   0.12497    0.000
 6746.00    0.91295   0.12432    0.000
 6747.00    0.85159   0.12436    0.000
 6748.00    0.78385   0.12473    0.000
 6749.00    0.70942   0.12475    0.000
 6750.00    0.70232   0.12431    0.000
 6751.00    0.75756   0.12420    0.000
 6752.00    0.76282   0.12468    0.000
 6753.00    0.72728   0.12525    0.012
 6754.00    0.70819   0.12569    0.012
 6755.00    0.70092   0.12601    0.012
 6756.00    0.65431   0.12618    0.013
 6757.00    0.58289   0.12629    0.013
 6758.00    0.62456   0.12636    0.013
 6759.00    0.72856   0.12626    0.012
 6760.00    0.80257   0.12617    0.013
 6761.00    0.86220   0.12631    0.013
 6762.00    0.93949   0.12643    0.013
 6763.00    1.02408   0.12616    0.013
 6764.00    1.10730   0.12573    0.013
 6765.00    1.19004   0.12579    0.013
 6766.00    1.15160   0.12626    0.013
 6767.00    1.07698   0.12641    0.013
 6768.00    1.05489   0.12614    0.013
 6769.00    1.04581   0.12617    0.013
 6770.00    0.98506   0.12667    0.013
 6771.00    0.91395   0.12716    0.013
 6772.00    0.97111   0.12746    0.013
 6773.00    1.04842   0.12769    0.013
 6774.00    0.99393   0.12780    0.012
 6775.00    0.92407   0.12756    0.012
 6776.00    0.92036   0.12692    0.012
 6777.00    0.92187   0.12626    0.012
 6778.00    0.95028   0.12542    0.012
 6779.00    0.97986   0.12404    0.013
 6780.00    0.99555   0.12255    0.012
 6781.00    1.00885   0.12154    0.012
 6782.00    0.91754   0.12122    0.012
 6783.00    0.83667   0.12154    0.012
 6784.00    0.94509   0.12222    0.012
 6785.00    1.04356   0.12283    0.012
 6786.00    1.03308   0.12320    0.012
 6787.00    1.01788   0.12312    0.012
 6788.00    0.96635   0.12284    0.012
 6789.00    0.92677   0.12291    0.012
 6790.00    0.95681   0.12307    0.012
 6791.00    0.96799   0.12313    0.012
 6792.00    0.89197   0.12332    0.012
 6793.00    0.83268   0.12371    0.012
 6794.00    0.83659   0.12408    0.013
 6795.00    0.83599   0.12420    0.013
 6796.00    0.82114   0.12403    0.013
 6797.00    0.83570   0.12400    0.013
 6798.00    0.92901   0.12431    0.012
 6799.00    0.98391   0.12464    0.012
 6800.00    0.95053   0.12488    0.012
 6801.00    0.91593   0.12478    0.013
 6802.00    0.87886   0.12458    0.012
 6803.00    0.85944   0.12454    0.012
 6804.00    0.87058   0.12450    0.012
 6805.00    0.89118   0.12459    0.012
 6806.00    0.92611   0.12479    0.012
 6807.00    0.92378   0.12486    0.012
 6808.00    0.87180   0.12488    0.012
 6809.00    0.83806   0.12495    0.012
 6810.00    0.82574   0.12485    0.012
 6811.00    0.81723   0.12444    0.012
 6812.00    0.81266   0.12363    0.012
 6813.00    0.86344   0.12300    0.013
 6814.00    0.96473   0.12332    0.013
 6815.00    0.99999   0.12404    0.013
 6816.00    0.98212   0.12428    0.013
 6817.00    0.90943   0.12401    0.013
 6818.00    0.79795   0.12384    0.013
 6819.00    0.74898   0.12409    0.013
 6820.00    0.73885   0.12443    0.013
 6821.00    0.72760   0.12458    0.013
 6822.00    0.71575   0.12463    0.012
 6823.00    0.82852   0.12479    0.012
 6824.00    1.00006   0.12475    0.012
 6825.00    0.94668   0.12421    0.012
 6826.00    0.80184   0.12379    0.012
 6827.00    0.72699   0.12387    0.012
 6828.00    0.67643   0.12420    0.012
 6829.00    0.70629   0.12430    0.012
 6830.00    0.75967   0.12406    0.012
 6831.00    0.73917   0.12428    0.012
 6832.00    0.70076   0.12498    0.012
 6833.00    0.72416   0.12544    0.013
 6834.00    0.75964   0.12545    0.013
 6835.00    0.83559   0.12528    0.013
 6836.00    0.91772   0.12500    0.013
 6837.00    0.86434   0.12456    0.013
 6838.00    0.79575   0.12404    0.014
 6839.00    0.71130   0.12379    0.014
 6840.00    0.62566   0.12416    0.014
 6841.00    0.81217   0.12504    0.014
 6842.00    1.00948   0.12572    0.014
 6843.00    0.86349   0.12571    0.013
 6844.00    0.72039   0.12541    0.013
 6845.00    0.78630   0.12527    0.013
 6846.00    0.84744   0.12487    0.013
 6847.00    0.82786   0.12389    0.013
 6848.00    0.80567   0.12303    0.013
 6849.00    0.75604   0.12276    0.012
 6850.00    0.72119   0.12269    0.012
 6851.00    0.79623   0.12252    0.012
 6852.00    0.86064   0.12219    0.012
 6853.00    0.86482   0.12194    0.012
 6854.00    0.85194   0.12205    0.012
 6855.00    0.76203   0.12238    0.012
 6856.00    0.73121   0.12270    0.012
 6857.00    0.91906   0.12269    0.013
 6858.00    1.03171   0.12215    0.013
 6859.00    0.91143   0.12164    0.013
 6860.00    0.84365   0.12210    0.013
 6861.00    0.91395   0.12321    0.013
 6862.00    0.91396   0.12390    0.013
 6863.00    0.75512   0.12386    0.013
 6864.00    0.69172   0.12349    0.013
 6865.00    0.81511   0.12271    0.013
 6866.00    0.87345   0.12194    0.013
 6867.00    0.82078   0.12204    0.013
 6868.00    0.83205   0.12247    0.013
 6869.00    0.93888   0.12251    0.014
 6870.00    0.95654   0.12272    0.014
 6871.00    0.85704   0.12326    0.013
 6872.00    0.80914   0.12370    0.013
 6873.00    0.82097   0.12398    0.013
 6874.00    0.82606   0.12419    0.013
 6875.00    0.82427   0.12441    0.013
 6876.00    0.81769   0.12465    0.013
 6877.00    0.80680   0.12472    0.012
 6878.00    0.81613   0.12441    0.012
 6879.00    0.84150   0.12389    0.013
 6880.00    0.88492   0.12314    0.013
 6881.00    0.94096   0.12246    0.013
 6882.00    0.96510   0.12271    0.013
 6883.00    0.96972   0.12348    0.013
 6884.00    0.95461   0.12393    0.013
 6885.00    0.92896   0.12414    0.013
 6886.00    0.89792   0.12431    0.013
 6887.00    0.86438   0.12443    0.013
 6888.00    0.82648   0.12448    0.013
 6889.00    0.78684   0.12455    0.013
 6890.00    0.80082   0.12454    0.013
 6891.00    0.83307   0.12444    0.013
 6892.00    0.89093   0.12469    0.013
 6893.00    0.95613   0.12497    0.013
 6894.00    0.94052   0.12472    0.013
 6895.00    0.90577   0.12470    0.013
 6896.00    0.87576   0.12515    0.013
 6897.00    0.84667   0.12497    0.013
 6898.00    0.87162   0.12431    0.013
 6899.00    0.90457   0.12457    0.013
 6900.00    0.87189   0.12565    0.013
 6901.00    0.83212   0.12600    0.013
 6902.00    0.73892   0.12542    0.013
 6903.00    0.64193   0.12541    0.013
 6904.00    0.87799   0.12619    0.013
 6905.00    1.12601   0.12667    0.014
 6906.00    1.04374   0.12661    0.013
 6907.00    0.96105   0.12639    0.013
 6908.00    0.90191   0.12632    0.013
 6909.00    0.84833   0.12633    0.013
 6910.00    0.88296   0.12625    0.013
 6911.00    0.90775   0.12596    0.013
 6912.00    0.83397   0.12578    0.013
 6913.00    0.78115   0.12603    0.013
 6914.00    0.87897   0.12643    0.013
 6915.00    0.95827   0.12622    0.013
 6916.00    0.93551   0.12493    0.013
 6917.00    0.91073   0.12380    0.013
 6918.00    0.87704   0.12388    0.013
 6919.00    0.84802   0.12441    0.012
 6920.00    0.83590   0.12445    0.013
 6921.00    0.83530   0.12379    0.013
 6922.00    0.86971   0.12313    0.013
 6923.00    0.87023   0.12301    0.013
 6924.00    0.78315   0.12348    0.013
 6925.00    0.72252   0.12419    0.013
 6926.00    0.72069   0.12463    0.013
 6927.00    0.69828   0.12459    0.013
 6928.00    0.63625   0.12451    0.013
 6929.00    0.62724   0.12459    0.013
 6930.00    0.70738   0.12431    0.013
 6931.00    0.79529   0.12428    0.014
 6932.00    0.89465   0.12483    0.014
 6933.00    0.91061   0.12529    0.014
 6934.00    0.81859   0.12534    0.013
 6935.00    0.79217   0.12529    0.013
 6936.00    0.84057   0.12539    0.014
 6937.00    0.89144   0.12589    0.014
 6938.00    0.94479   0.12657    0.013
 6939.00    0.91257   0.12659    0.013
 6940.00    0.80441   0.12622    0.013
 6941.00    0.83093   0.12589    0.013
 6942.00    0.96277   0.12523    0.013
 6943.00    0.99539   0.12494    0.013
 6944.00    0.95979   0.12581    0.013
 6945.00    0.91806   0.12699    0.013
 6946.00    0.87265   0.12741    0.013
 6947.00    0.89113   0.12744    0.013
 6948.00    0.94321   0.12700    0.013
 6949.00    0.97957   0.12583    0.014
 6950.00    1.00875   0.12471    0.014
 6951.00    0.98466   0.12426    0.014
 6952.00    0.93964   0.12481    0.014
 6953.00    0.84375   0.12571    0.014
 6954.00    0.73083   0.12614    0.014
 6955.00    0.68755   0.12627    0.013
 6956.00    0.66382   0.12632    0.013
 6957.00    0.62409   0.12675    0.013
 6958.00    0.58066   0.12760    0.013
 6959.00    0.71048   0.12788    0.013
 6960.00    0.87247   0.12793    0.013
 6961.00    0.84895   0.12816    0.013
 6962.00    0.79886   0.12809    0.013
 6963.00    0.67708   0.12785    0.013
 6964.00    0.54788   0.12799    0.013
 6965.00    0.71634   0.12876    0.013
 6966.00    0.90465   0.12919    0.013
 6967.00    0.93473   0.12877    0.013
 6968.00    0.95972   0.12837    0.013
 6969.00    0.92249   0.12811    0.013
 6970.00    0.88502   0.12815    0.014
 6971.00    0.84008   0.12860    0.014
 6972.00    0.79492   0.12867    0.014
 6973.00    0.74652   0.12828    0.014
 6974.00    0.71318   0.12784    0.014
 6975.00    0.82441   0.12667    0.014
 6976.00    0.92764   0.12550    0.014
 6977.00    0.97510   0.12605    0.014
 6978.00    1.01148   0.12746    0.014
 6979.00    0.98839   0.12867    0.014
 6980.00    0.95711   0.12947    0.014
 6981.00    0.89051   0.12959    0.014
 6982.00    0.81239   0.12994    0.014
 6983.00    0.69335   0.13063    0.013
 6984.00    0.62560   0.13034    0.012
 6985.00    0.71078   0.12897    0.013
 6986.00    0.75773   0.12717    0.013
 6987.00    0.70759   0.12588    0.013
 6988.00    0.71419   0.12580    0.013
 6989.00    0.84486   0.12681    0.013
 6990.00    0.91005   0.12780    0.013
 6991.00    0.85106   0.12797    0.013
 6992.00    0.77036   0.12754    0.013
 6993.00    0.65373   0.12715    0.013
 6994.00    0.63245   0.12722    0.014
 6995.00    0.74959   0.12756    0.014
 6996.00    0.80653   0.12727    0.014
 6997.00    0.78662   0.12677    0.014
 6998.00    0.80277   0.12700    0.014
 6999.00    0.85949   0.12759    0.014
 7000.00    0.81537   0.12785    0.014
 7001.00    0.67122   0.12739    0.013
 7002.00    0.68481   0.12663    0.013
 7003.00    0.83640   0.12647    0.013
 7004.00    0.85740   0.12693    0.013
 7005.00    0.77773   0.12735    0.013
 7006.00    0.74667   0.12800    0.013
 7007.00    0.74854   0.12855    0.013
 7008.00    0.73273   0.12815    0.013
 7009.00    0.70641   0.12797    0.013
 7010.00    0.71206   0.12870    0.013
 7011.00    0.73428   0.12877    0.013
 7012.00    0.72785   0.12739    0.013
 7013.00    0.70857   0.12587    0.014
 7014.00    0.71519   0.12590    0.014
 7015.00    0.73181   0.12738    0.014
 7016.00    0.80325   0.12891    0.014
 7017.00    0.89266   0.12966    0.014
 7018.00    0.83247   0.12996    0.014
 7019.00    0.73110   0.12963    0.014
 7020.00    0.70331   0.12831    0.014
 7021.00    0.69215   0.12714    0.014
 7022.00    0.73765   0.12705    0.014
 7023.00    0.79338   0.12772    0.014
 7024.00    0.78892   0.12785    0.013
 7025.00    0.77612   0.12734    0.013
 7026.00    0.69949   0.12760    0.013
 7027.00    0.61653   0.12850    0.013
 7028.00    0.63847   0.12898    0.013
 7029.00    0.66698   0.12888    0.013
 7030.00    0.74659   0.12843    0.013
 7031.00    0.82719   0.12826    0.013
 7032.00    0.78764   0.12859    0.013
 7033.00    0.75023   0.12896    0.013
 7034.00    0.77174   0.12865    0.014
 7035.00    0.79839   0.12674    0.014
 7036.00    0.89735   0.12536    0.014
 7037.00    0.98490   0.12671    0.014
 7038.00    0.96734   0.12889    0.014
 7039.00    0.94290   0.13005    0.014
 7040.00    0.87210   0.13070    0.014
 7041.00    0.80587   0.13077    0.014
 7042.00    0.76353   0.13008    0.014
 7043.00    0.74857   0.12973    0.014
 7044.00    0.84883   0.13018    0.014
 7045.00    0.93796   0.13099    0.014
 7046.00    0.98835   0.13164    0.014
 7047.00    1.00519   0.13140    0.014
 7048.00    0.92384   0.13044    0.014
 7049.00    0.85267   0.12885    0.014
 7050.00    0.80693   0.12549   -2.000
 7051.00    0.78476   0.11940   -2.000
 7052.00    0.81330   0.11269   -2.000
 7053.00    0.82457   0.10962   -2.000
 7054.00    0.80360   0.11061   -2.000
 7055.00    0.77064   0.11221   -2.000
 7056.00    0.71812   0.11212   -2.000
 7057.00    0.72543   0.11071   -2.000
 7058.00    0.81830   0.10964   -2.000
 7059.00    0.81338   0.10951   -2.000
 7060.00    0.68542   0.10980   -2.000
 7061.00    0.67699   0.11008   -2.000
 7062.00    0.80113   0.11013   -2.000
 7063.00    0.90719   0.11007   -2.000
 7064.00    0.99557   0.11021   -2.000
 7065.00    1.01207   0.11025   -2.000
 7066.00    0.96657   0.11021   -2.000
 7067.00    0.86221   0.11076   -2.000
 7068.00    0.71314   0.11186   -2.000
 7069.00    0.65534   0.11285   -2.000
 7070.00    0.65847   0.11319   -2.000
 7071.00    0.69581   0.11295   -2.000
 7072.00    0.75315   0.11268   -2.000
 7073.00    0.74427   0.11260   -2.000
 7074.00    0.70164   0.11271   -2.000
 7075.00    0.76668   0.11295   -2.000
 7076.00    0.87926   0.11328   -2.000
 7077.00    0.94704   0.11378   -2.000
 7078.00    0.99783   0.11435   -2.000
 7079.00    0.99204   0.11452   -2.000
 7080.00    0.96802   0.11393   -2.000
 7081.00    1.01459   0.11273   -2.000
 7082.00    1.08018   0.11172   -2.000
 7083.00    0.97425   0.11127   -2.000
 7084.00    0.83044   0.10966   -2.000
 7085.00    0.90704   0.10625   -2.000
 7086.00    1.02237   0.10368   -2.000
 7087.00    1.01563   0.10348   -2.000
 7088.00    0.99254   0.10452   -2.000
 7089.00    1.01285   0.10542   -2.000
 7090.00    1.03728   0.10541   -2.000
 7091.00    0.93282   0.10487   -2.000
 7092.00    0.82080   0.10444   -2.000
 7093.00    0.73947   0.10436   -2.000
 7094.00    0.66048   0.10454   -2.000
 7095.00    0.79763   0.10485   -2.000
 7096.00    0.93143   0.10530   -2.000
 7097.00    0.98187   0.10562   -2.000
 7098.00    1.01702   0.10554   -2.000
 7099.00    0.84917   0.10529   -2.000
 7100.00    0.69642   0.10505   -2.000
 7101.00    0.67756   0.10510   -2.000
 7102.00    0.66999   0.10565   -2.000
 7103.00    0.73608   0.10630   -2.000
 7104.00    0.80665   0.10676   -2.000
 7105.00    0.90001   0.10719   -2.000
 7106.00    0.95972   0.10748   -2.000
 7107.00    0.88092   0.10722   -2.000
 7108.00    0.81200   0.10643   -2.000
 7109.00    0.77682   0.10600   -2.000
 7110.00    0.79394   0.10636   -2.000
 7111.00    0.96138   0.10680   -2.000
 7112.00    1.03771   0.10691   -2.000
 7113.00    0.89049   0.10726   -2.000
 7114.00    0.80018   0.10800   -2.000
 7115.00    0.83029   0.10840   -2.000
 7116.00    0.85299   0.10842   -2.000
 7117.00    0.86205   0.10855   -2.000
 7118.00    0.90725   0.10871   -2.000
 7119.00    1.01049   0.10863   -2.000
 7120.00    1.03788   0.10846   -2.000
 7121.00    0.95835   0.10780   -2.000
 7122.00    0.88085   0.10550   -2.000
 7123.00    0.80586   0.10208   -2.000
 7124.00    0.59585   0.10010   -2.000
 7125.00    0.23824   0.10036   -2.000
 7126.00    0.23763   0.10114   -2.000
 7127.00    0.58132   0.10126   -2.000
 7128.00    0.71495   0.10079   -2.000
 7129.00    0.66994   0.10035   -2.000
 7130.00    0.69231   0.10043   -2.000
 7131.00    0.76514   0.10084   -2.000
 7132.00    0.86341   0.10116   -2.000
 7133.00    0.97841   0.10130   -2.000
 7134.00    1.00554   0.10141   -2.000
 7135.00    0.98204   0.10135   -2.000
 7136.00    0.96591   0.10121   -2.000
 7137.00    0.95349   0.10136   -2.000
 7138.00    0.86460   0.10180   -2.000
 7139.00    0.74251   0.10221   -2.000
 7140.00    0.81742   0.10247   -2.000
 7141.00    0.96571   0.10261   -2.000
 7142.00    0.85628   0.10265   -2.000
 7143.00    0.66544   0.10271   -2.000
 7144.00    0.63986   0.10271   -2.000
 7145.00    0.65785   0.10248   -2.000
 7146.00    0.80724   0.10229   -2.000
 7147.00    0.98495   0.10242   -2.000
 7148.00    1.01108   0.10270   -2.000
 7149.00    1.01130   0.10312   -2.000
 7150.00    0.86652   0.10374   -2.000
 7151.00    0.70297   0.10433   -2.000
 7152.00    0.69652   0.10453   -2.000
 7153.00    0.70434   0.10473   -2.000
 7154.00    0.73853   0.10504   -2.000
 7155.00    0.77416   0.10470   -2.000
 7156.00    0.92873   0.10348   -2.000
 7157.00    1.08295   0.10249   -2.000
 7158.00    0.97725   0.10252   -2.000
 7159.00    0.84676   0.10313   -2.000
 7160.00    0.15325   0.10345   -2.000
 7161.00   -0.74624   0.10307   -2.000
 7162.00   -4.24007   0.10251   -2.000
 7163.00   -6.94130   0.10257   -2.000
 7164.00   -2.88067   0.10323   -2.000
 7165.00    0.65674   0.10368   -2.000
 7166.00    0.87802   0.10346   -2.000
 7167.00    1.03309   0.10334   -2.000
 7168.00    0.85938   0.10375   -2.000
 7169.00    0.69624   0.10422   -2.000
 7170.00    0.57567   0.10434   -2.000
 7171.00    0.52952   0.10415   -2.000
 7172.00    0.73202   0.10404   -2.000
 7173.00    0.88217   0.10416   -2.000
 7174.00    0.88469   0.10425   -2.000
 7175.00    0.87868   0.10434   -2.000
 7176.00    0.85214   0.10438   -2.000
 7177.00    0.84912   0.10425   -2.000
 7178.00    0.89509   0.10398   -2.000
 7179.00    0.90687   0.10403   -2.000
 7180.00    0.85674   0.10469   -2.000
 7181.00    0.82580   0.10561   -2.000
 7182.00    0.82521   0.10612   -2.000
 7183.00    0.83074   0.10574   -2.000
 7184.00    0.84476   0.10475   -2.000
 7185.00    0.86437   0.10374   -2.000
 7186.00    0.89083   0.10347   -2.000
 7187.00    0.91413   0.10423   -2.000
 7188.00    0.93405   0.10521   -2.000
 7189.00    0.88884   0.10545   -2.000
 7190.00    0.78171   0.10518   -2.000
 7191.00    0.72400   0.10529   -2.000
 7192.00    0.70771   0.10561   -2.000
 7193.00    0.72032   0.10541   -2.000
 7194.00    0.75425   0.10426   -2.000
 7195.00    0.76374   0.10288   -2.000
 7196.00    0.75738   0.10279   -2.000
 7197.00    0.79411   0.10360   -2.000
 7198.00    0.85528   0.10387   -2.000
 7199.00    0.79899   0.10358   -2.000
 7200.00    0.68469   0.10364   -2.000
 7201.00    0.52447   0.10413   -2.000
 7202.00    0.34464   0.10442   -2.000
 7203.00    0.33083   0.10404   -2.000
 7204.00    0.37776   0.10313   -2.000
 7205.00    0.52428   0.10252   -2.000
 7206.00    0.70164   0.10256   -2.000
 7207.00    0.76191   0.10309   -2.000
 7208.00    0.79195   0.10402   -2.000
 7209.00    0.77769   0.10483   -2.000
 7210.00    0.75410   0.10493   -2.000
 7211.00    0.75077   0.10463   -2.000
 7212.00    0.75079   0.10449   -2.000
 7213.00    0.63735   0.10462   -2.000
 7214.00    0.50972   0.10493   -2.000
 7215.00    0.47527   0.10561   -2.000
 7216.00    0.44888   0.10612   -2.000
 7217.00    0.54930   0.10611   -2.000
 7218.00    0.65615   0.10618   -2.000
