###################################################################
## OUTPUT of StarlightChains_v04.for    [Cid@UFSC - 01/Apr/2007] ##
###################################################################

## Some input info
KUG0210-078._35_42.txt                   [arq_obs]
Base.CB07.vall.4m                        [arq_base]
Masks.EmLines.NEW.gm                     [arq_masks]
StCv04.C11.config                        [arq_config]
   66                                    [N_base]
    0                                    [N_YAV_components = # of components with extra extinction!]
    0                                    [i_FitPowerLaw (1/0 = Yes/No)]
-9.99                                    [alpha_PowerLaw]
CCM                                      [red_law_option]
 1.458241                                [q_norm = A(l_norm)/A(V)]

## (Re)Sampling Parameters
 3741.00                                 [l_ini (A)]
 7218.00                                 [l_fin (A)]
    1.00                                 [dl    (A)]     (OBS: dl_cushion =    50.00 A)

## Normalization info
 4020.00                                 [l_norm (A) - for base]
 4010.00                                 [llow_norm (A) - window for f_obs]
 4060.00                                 [lupp_norm (A) - window for f_obs]
1.264606E-17                             [fobs_norm (in input units)]

## S/N
 3691.00                                 [llow_SN (A) - window for S/N]
 7268.00                                 [lupp_SN (A) - window for S/N]
   5.119                                 [S/N in S/N window]
   4.455                                 [S/N in norm. window]
   0.019                                 [S/N_err in S/N window]
   0.016                                 [S/N_err in norm. window]
  1.0000                                 [fscale_chi2]

## etc...
    -2007577                             [idum_orig]
  2430                                   [NOl_eff]
  2418                                   [Nl_eff]
    12    NSIGMA                         [Ntot_cliped & clip_method]
   941710                                [Nglobal_steps]
   7                                     [N_chains]
  34                                     [NEX0s_base = N_base in EX0s-fits]
 0   0   1       12   2.0   1.807E+03    [Clip-Bug, RC-Crash & Burn-In warning-flags, n_censored_weights, wei_nsig_threshold & wei_limit]
    21     20.398     19.948      0.450  [idt_all, wdt_TotTime, wdt_UsrTime & wdt_SysTime (sec)]

## Synthesis Results - Best model ##

 6.98328E-06                             [chi2/Nl_eff]
    24.30921                             [adev (%)]

   111.02550                             [sum-of-x (%)]
 1.12962E-17                             [Flux_tot (units of input spectrum!)]
 4.13934E-13                             [Mini_tot (???)]
 2.16040E-13                             [Mcor_tot (???)]

-125.86                                  [v0_min  (km/s)]
 150.00                                  [vd_min  (km/s)]
-0.1619                                  [AV_min  (mag)]
 0.0000                                  [YAV_min (mag)]

# j     x_j(%)      Mini_j(%)     Mcor_j(%)     age_j(yr)     Z_j      (L/M)_j    YAV?  Mstars   component_j        a/Fe...       SSP_chi2r SSP_adev(%)   SSP_AV   SSP_x(%)
  1      0.0000     0.0000E+00    0.0000E+00    1.000000E+06  0.00400  1.094E-02    0   1.0000   age020_m42            0.0000     1.2516E-05    37.7405   3.4345    94.4331
  2      0.0000     0.0000E+00    0.0000E+00    3.160000E+06  0.00400  4.007E-02    0   0.9999   age045_m42            0.0000     1.1047E-05    34.9605   2.6977   101.3089
  3      0.0000     0.0000E+00    0.0000E+00    5.010000E+06  0.00400  2.539E-02    0   0.9488   age055_m42            0.0000     1.1766E-05    36.6459   3.0252    98.5709
  4      0.0000     0.0000E+00    0.0000E+00    6.610000E+06  0.00400  2.620E-02    0   0.9220   age061_m42            0.0000     1.1183E-05    35.1667   2.6269   101.4388
  5      1.4353     2.6687E-03    4.5314E-03    1.000000E+07  0.00400  1.322E-02    0   0.8862   age070_m42            0.0000     1.2465E-05    37.3003   2.3606   103.0724
  6      0.0000     0.0000E+00    0.0000E+00    1.445000E+07  0.00400  7.883E-03    0   0.8571   age078_m42            0.0000     1.2775E-05    38.1230   2.6872   100.4553
  7      0.0000     0.0000E+00    0.0000E+00    2.512000E+07  0.00400  5.251E-03    0   0.8174   age090_m42            0.0000     1.2688E-05    37.5171   2.2322   103.6115
  8      0.0000     0.0000E+00    0.0000E+00    4.000000E+07  0.00400  3.649E-03    0   0.7851   age104_m42            0.0000     1.2209E-05    36.5750   2.0015   104.6132
  9      0.0000     0.0000E+00    0.0000E+00    5.500000E+07  0.00400  3.098E-03    0   0.7629   age110_m42            0.0000     1.1480E-05    34.8574   2.1464   104.9149
 10      0.0000     0.0000E+00    0.0000E+00    1.015200E+08  0.00400  2.228E-03    0   0.7207   age116_m42            0.0000     1.1061E-05    33.6157   2.1605   105.3218
 11      0.0000     0.0000E+00    0.0000E+00    2.861200E+08  0.00400  1.093E-03    0   0.6648   age125_m42            0.0000     1.1235E-05    33.2731   1.5877   108.4834
 12      0.5068     1.8884E-02    2.3030E-02    5.088000E+08  0.00400  6.597E-04    0   0.6365   age130_m42            0.0000     1.0361E-05    30.9517   1.5704   109.6933
 13      0.0000     0.0000E+00    0.0000E+00    1.434000E+09  0.00400  2.132E-04    0   0.5798   age139_m42            0.0000     8.8648E-06    28.5117   0.5953   112.0901
 14     10.2792     4.2860E+00    4.4156E+00    4.250000E+09  0.00400  5.895E-05    0   0.5377   age158_m42            0.0000     7.8981E-06    28.0144   0.1493   107.9106
 15      0.0000     0.0000E+00    0.0000E+00    7.500000E+09  0.00400  3.510E-05    0   0.5212   age171_m42            0.0000     7.6166E-06    26.9695  -0.0427   107.2782
 16      0.0000     0.0000E+00    0.0000E+00    1.300000E+10  0.00400  2.005E-05    0   0.5034   age193_m42            0.0000     7.4547E-06    26.0435  -0.2117   106.7657
 17      0.0000     0.0000E+00    0.0000E+00    1.800000E+10  0.00400  1.525E-05    0   0.4967   age213_m42            0.0000     7.5536E-06    26.3619  -0.2337   106.2668
 18      0.0000     0.0000E+00    0.0000E+00    1.000000E+06  0.00800  1.238E-02    0   1.0000   age020_m52            0.0000     1.2508E-05    37.8093   3.4309    94.6181
 19      0.0000     0.0000E+00    0.0000E+00    3.160000E+06  0.00800  3.074E-02    0   0.9966   age045_m52            0.0000     1.2410E-05    37.8992   3.3541    95.4751
 20      0.0000     0.0000E+00    0.0000E+00    5.010000E+06  0.00800  2.668E-02    0   0.9443   age055_m52            0.0000     1.2014E-05    37.2860   3.1102    97.6136
 21      0.0000     0.0000E+00    0.0000E+00    6.610000E+06  0.00800  2.136E-02    0   0.9177   age061_m52            0.0000     1.1628E-05    36.6091   1.8618   104.2290
 22      0.0000     0.0000E+00    0.0000E+00    1.000000E+07  0.00800  1.215E-02    0   0.8827   age070_m52            0.0000     1.3208E-05    38.6169   2.5424   102.7086
 23      0.0000     0.0000E+00    0.0000E+00    1.445000E+07  0.00800  8.717E-03    0   0.8552   age078_m52            0.0000     1.2648E-05    37.9668   2.6525   101.8642
 24      0.0000     0.0000E+00    0.0000E+00    2.512000E+07  0.00800  5.592E-03    0   0.8162   age090_m52            0.0000     1.2766E-05    37.5824   2.2948   104.8575
 25      0.0000     0.0000E+00    0.0000E+00    4.000000E+07  0.00800  3.896E-03    0   0.7841   age104_m52            0.0000     1.2181E-05    36.3813   2.2011   105.8699
 26      0.0471     5.3855E-04    7.4562E-04    1.015200E+08  0.00800  2.148E-03    0   0.7226   age116_m52            0.0000     1.1254E-05    34.5299   2.1322   105.9803
 27      0.0000     0.0000E+00    0.0000E+00    2.861200E+08  0.00800  9.925E-04    0   0.6683   age125_m52            0.0000     1.0330E-05    30.8199   1.6343   110.7509
 28      0.0000     0.0000E+00    0.0000E+00    9.047900E+08  0.00800  3.141E-04    0   0.6138   age135_m52            0.0000     8.6308E-06    27.3867   0.8212   115.8594
 29      0.0000     0.0000E+00    0.0000E+00    1.434000E+09  0.00800  1.719E-04    0   0.5853   age139_m52            0.0000     8.0905E-06    28.0525   0.2411   113.4281
 30      0.0000     0.0000E+00    0.0000E+00    2.500000E+09  0.00800  7.872E-05    0   0.5600   age150_m52            0.0000     7.3051E-06    26.1517  -0.0323   110.6018
 31     11.0861     6.2844E+00    6.5335E+00    4.250000E+09  0.00800  4.336E-05    0   0.5426   age158_m52            0.0000     7.3570E-06    26.0746  -0.0467   109.5276
 32      0.0000     0.0000E+00    0.0000E+00    6.250000E+09  0.00800  3.159E-05    0   0.5319   age166_m52            0.0000     7.0817E-06    24.4221  -0.2574   109.7960
 33      0.0000     0.0000E+00    0.0000E+00    1.300000E+10  0.00800  1.361E-05    0   0.5073   age193_m52            0.0000     6.9763E-06    22.0846  -0.7338   109.3096
 34      2.7933     6.9450E+00    6.6401E+00    1.800000E+10  0.00800  9.886E-06    0   0.4990   age213_m52            0.0000     7.0210E-06    20.6907  -0.8517   109.0816
 35      0.0000     0.0000E+00    0.0000E+00    1.000000E+06  0.02000  1.544E-02    0   1.0000   age020_m62            0.0000     1.2569E-05    38.0251   3.4272    94.8276
 36      0.0000     0.0000E+00    0.0000E+00    3.160000E+06  0.02000  3.762E-02    0   0.9858   age045_m62            0.0000     1.2590E-05    38.2808   3.3673    95.6167
 37      0.0000     0.0000E+00    0.0000E+00    5.010000E+06  0.02000  3.296E-02    0   0.9342   age055_m62            0.0000     1.1389E-05    36.0101   2.9800    99.9685
 38      0.0000     0.0000E+00    0.0000E+00    8.710000E+06  0.02000  1.154E-02    0   0.8861   age067_m62            0.0000     1.8038E-05    44.5421   2.0171   104.6278
 39      2.9473     9.4536E-03    1.5346E-02    1.445000E+07  0.02000  7.663E-03    0   0.8472   age078_m62            0.0000     1.4237E-05    40.1043   2.1929   104.8214
 40      0.0000     0.0000E+00    0.0000E+00    2.512000E+07  0.02000  4.532E-03    0   0.8099   age090_m62            0.0000     1.4579E-05    40.3294   2.1833   104.5688
 41      0.0000     0.0000E+00    0.0000E+00    5.500000E+07  0.02000  2.733E-03    0   0.7595   age110_m62            0.0000     1.2217E-05    36.7804   2.1847   105.0658
 42      0.7229     1.2979E-02    1.7371E-02    1.609000E+08  0.02000  1.369E-03    0   0.6985   age120_m62            0.0000     1.1017E-05    33.1546   2.0089   108.5168
 43      0.0000     0.0000E+00    0.0000E+00    2.861200E+08  0.02000  9.013E-04    0   0.6714   age125_m62            0.0000     1.0363E-05    30.4031   1.7494   112.0222
 44      0.0000     0.0000E+00    0.0000E+00    5.088000E+08  0.02000  5.028E-04    0   0.6449   age130_m62            0.0000     9.0816E-06    27.1908   1.3556   115.5972
 45      5.8980     5.9708E-01    7.0689E-01    9.047900E+08  0.02000  2.428E-04    0   0.6179   age135_m62            0.0000     7.8947E-06    26.8951   0.7636   115.0707
 46     10.0160     1.9493E+00    2.2065E+00    1.434000E+09  0.02000  1.263E-04    0   0.5908   age139_m62            0.0000     7.4647E-06    26.7299   0.3196   113.3422
 47     15.8139     6.4946E+00    7.0593E+00    2.500000E+09  0.02000  5.985E-05    0   0.5673   age150_m62            0.0000     7.0696E-06    24.8678  -0.0549   112.0395
 48      0.0000     0.0000E+00    0.0000E+00    4.250000E+09  0.02000  3.271E-05    0   0.5468   age158_m62            0.0000     6.8989E-06    22.1409  -0.3712   111.4408
 49      0.0000     0.0000E+00    0.0000E+00    1.000000E+10  0.02000  1.360E-05    0   0.5167   age181_m62            0.0000     7.1897E-06    19.8146  -0.7345   111.4348
 50      0.0000     0.0000E+00    0.0000E+00    1.800000E+10  0.02000  7.124E-06    0   0.5013   age213_m62            0.0000     7.6305E-06    18.6871  -0.9586   110.9763
 51      0.0000     0.0000E+00    0.0000E+00    1.000000E+06  0.05000  2.592E-02    0   0.9998   age020_m72            0.0000     1.2804E-05    38.5500   3.4199    94.8191
 52      0.0000     0.0000E+00    0.0000E+00    3.160000E+06  0.05000  4.845E-02    0   0.9577   age045_m72            0.0000     1.2098E-05    37.5896   3.2454    97.0528
 53      0.0000     0.0000E+00    0.0000E+00    5.010000E+06  0.05000  3.072E-02    0   0.9147   age055_m72            0.0000     1.3719E-05    39.9646   2.7685   101.0529
 54      0.0000     0.0000E+00    0.0000E+00    6.610000E+06  0.05000  1.455E-02    0   0.8877   age061_m72            0.0000     2.2324E-05    48.1132   2.0450   105.5325
 55      0.0000     0.0000E+00    0.0000E+00    1.000000E+07  0.05000  9.074E-03    0   0.8524   age070_m72            0.0000     1.4580E-05    40.4581   2.9334   101.0258
 56      0.0000     0.0000E+00    0.0000E+00    2.512000E+07  0.05000  4.250E-03    0   0.7902   age090_m72            0.0000     1.3681E-05    38.9765   2.6415   102.9332
 57      0.0000     0.0000E+00    0.0000E+00    4.000000E+07  0.05000  3.087E-03    0   0.7618   age104_m72            0.0000     1.3792E-05    38.5802   2.4140   104.6672
 58      0.0000     0.0000E+00    0.0000E+00    1.015200E+08  0.05000  1.700E-03    0   0.7096   age116_m72            0.0000     1.1758E-05    34.5647   2.1537   107.9328
 59      0.0000     0.0000E+00    0.0000E+00    2.861200E+08  0.05000  7.384E-04    0   0.6633   age125_m72            0.0000     9.6586E-06    28.6677   1.6083   113.8951
 60      0.0000     0.0000E+00    0.0000E+00    5.088000E+08  0.05000  3.819E-04    0   0.6372   age130_m72            0.0000     8.2538E-06    26.8954   1.1058   116.1266
 61      0.0000     0.0000E+00    0.0000E+00    9.047900E+08  0.05000  1.676E-04    0   0.6110   age135_m72            0.0000     7.1403E-06    25.6986   0.4016   114.2897
 62      3.3081     9.2013E-01    1.0356E+00    1.434000E+09  0.05000  8.837E-05    0   0.5874   age139_m72            0.0000     7.1404E-06    24.7771  -0.0608   113.8434
 63     36.7533     2.1342E+01    2.2891E+01    2.500000E+09  0.05000  4.233E-05    0   0.5598   age150_m72            0.0000     6.9369E-06    21.7061  -0.3786   112.6291
 64      0.0000     0.0000E+00    0.0000E+00    6.250000E+09  0.05000  1.435E-05    0   0.5249   age166_m72            0.0000     7.2658E-06    19.7144  -0.8383   111.1925
 65      0.0000     0.0000E+00    0.0000E+00    1.300000E+10  0.05000  6.513E-06    0   0.5036   age193_m72            0.0000     8.2806E-06    17.9868  -1.0000   107.9560
 66      9.4183     5.1137E+01    4.8451E+01    1.800000E+10  0.05000  4.527E-06    0   0.4945   age213_m72            0.0000     9.9799E-06    18.1536  -1.0000   101.9744


## Synthesis Results - Average & Chains ##

# j      x_j: min, <> & last-chain-values for 1 ...  7 chains
  1      0.0000      1.4347      0.0000      0.8470      0.2564      0.0000      0.0000      0.5234      0.5455
  2      0.0000      1.4693      0.4185      1.8414      0.4655      0.5162      1.1182      0.2311      0.2996
  3      0.0000      1.7302      0.2456      0.2942      0.0960      0.0000      0.2110      0.3922      0.0194
  4      0.0000      2.0387      0.4800      0.0000      0.5900      0.0000      0.8148      0.7548      0.4629
  5      1.4353      1.5519      0.0000      0.0407      0.4840      1.9452      0.9776      0.0000      0.0882
  6      0.0000      1.2445      0.0000      0.3445      0.2923      0.0000      0.1198      0.8251      0.2162
  7      0.0000      1.6774      0.0000      0.6402      1.1390      1.3658      0.9051      0.6050      0.6724
  8      0.0000      1.2752      0.0000      0.7224      1.5588      0.0000      0.5779      0.3607      0.0826
  9      0.0000      1.3721      1.4266      0.5936      0.4688      2.2064      0.2204      0.0837      0.7441
 10      0.0000      1.8646      0.0000      0.0689      0.0000      1.1144      0.0813      0.0000      0.3397
 11      0.0000      1.5611      0.0738      0.0000      0.0000      0.0863      0.0000      0.8834      0.1421
 12      0.5068      1.8805      2.0551      0.1023      1.6694      0.6472      0.2175      0.5309      0.4061
 13      0.0000      1.8713      1.0892      0.0000      0.0000      1.2073      0.0047      0.0065      0.3513
 14     10.2792      1.2268      0.0000      0.0000      0.9683      2.5726      1.1755      0.0000      0.9060
 15      0.0000      1.1459      0.0000      0.0000      1.6239      1.2426      0.7949      0.0000      0.6024
 16      0.0000      7.4785     18.0175     20.5114     17.6413     13.4498     15.7908     19.4464     21.6099
 17      0.0000      7.3190     16.8094     23.9464     16.6924     18.5544     21.1229     21.8787     27.6931
 18      0.0000      1.3535      0.4543      0.5627      0.0000      0.0000      0.0000      0.5557      0.3618
 19      0.0000      1.5114      0.4630      0.4490      1.1082      0.0000      0.5967      0.0000      0.0000
 20      0.0000      1.3947      0.9421      0.9372      0.5482      0.0000      0.0000      0.3200      0.2342
 21      0.0000      1.3721      0.0000      0.2397      0.1745      0.4966      0.6126      0.0000      0.0009
 22      0.0000      1.6488      0.6214      1.2272      1.1519      0.4814      0.5014      0.0000      0.1776
 23      0.0000      1.7421      0.6911      0.0000      0.0000      0.0000      1.1363      1.8030      0.0000
 24      0.0000      1.3354      0.3923      0.3598      0.0000      0.0000      0.2175      0.3121      0.0375
 25      0.0000      1.3621      0.3453      0.1282      0.0000      0.7149      0.0851      0.5524      0.2800
 26      0.0471      1.4045      0.3666      0.0000      0.8115      2.5796      0.3031      1.3051      0.1194
 27      0.0000      1.2206      0.2889      0.0295      0.0000      0.5376      1.1053      0.9104      0.2572
 28      0.0000      1.1641      0.3110      0.3187      1.0364      0.0000      1.0824      0.3372      0.3870
 29      0.0000      1.2525      0.7895      0.0938      0.0000      0.1149      0.1521      0.3133      0.0000
 30      0.0000      1.6568      0.6992      0.2734      0.0000      0.0000      0.0000      0.5724      0.0000
 31     11.0861      1.3198      0.0039      0.1374      0.9386      0.7237      0.0419      1.1208      0.6282
 32      0.0000      1.2105      2.0665      2.1828      3.1746      0.5208      2.7193      0.6852      2.6726
 33      0.0000      1.4836      0.4506      0.0000      0.0000      1.8150      0.6992      0.0000      0.0362
 34      2.7933     20.7816     67.5553     57.0046     58.0737     60.8273     63.8399     62.4310     61.0145
 35      0.0000      1.2033      0.4557      0.0000      0.0000      0.0000      0.3748      0.0000      0.1605
 36      0.0000      1.5522      0.0000      0.0000      0.0000      1.0412      0.1715      0.0000      0.0000
 37      0.0000      1.4737      0.0000      0.0000      2.6126      0.1879      0.0000      0.3906      0.0499
 38      0.0000      1.5069      1.0941      1.4776      0.2574      0.0000      0.0000      0.0756      0.0316
 39      2.9473      2.2113      0.0000      0.5613      0.8048      0.5318      0.0258      0.2915      0.4161
 40      0.0000      1.4011      1.0706      0.5059      0.0000      0.0000      0.1561      0.6504      0.4201
 41      0.0000      2.2593      0.3336      0.0000      1.2032      0.6448      0.3452      1.1054      0.6853
 42      0.7229      1.5981      0.0140      1.5058      0.2400      0.5510      0.1645      0.6171      0.2389
 43      0.0000      1.5177      0.3241      3.0807      0.6276      1.3365      1.3899      0.0000      0.8964
 44      0.0000      1.2721      0.0000      0.1302      1.6653      0.3291      0.7659      0.0754      0.0935
 45      5.8980      1.2982      0.0644      0.0000      1.2165      0.8432      1.2814      0.0000      0.1731
 46     10.0160      1.6284      0.4928      0.3156      0.0000      0.5974      1.2709      0.0293      0.4133
 47     15.8139      1.3993      0.0621      1.1084      0.0822      0.7604      0.4594      0.0471      0.0637
 48      0.0000      1.4519      1.4181      0.2710      1.3030      0.1686      0.0000      1.4848      0.0000
 49      0.0000      1.5011      0.6051      0.0000      3.5775      0.0000      0.1351      0.2436      0.5572
 50      0.0000      1.8494      0.4207      0.1395      0.0000      0.1255      0.8594      0.4817      0.1524
 51      0.0000      1.3036      0.3184      0.2648      0.2057      0.1757      0.0000      0.2637      0.3555
 52      0.0000      1.7437      0.0000      0.4174      0.0000      0.5642      1.0887      0.8814      0.0828
 53      0.0000      1.2548      0.0704      0.2407      0.4255      1.5178      0.0000      0.6420      0.0000
 54      0.0000      0.9684      0.0000      0.1879      0.0000      0.0000      0.0000      0.2355      0.0000
 55      0.0000      1.4647      0.1356      0.6302      0.0000      0.0000      0.0000      0.0000      0.1005
 56      0.0000      1.3780      0.3659      0.0218      0.5864      0.0000      0.2952      0.4222      0.4011
 57      0.0000      1.6062      0.0000      0.0000      0.0000      1.5888      0.1830      0.7650      0.2401
 58      0.0000      1.4021      0.4563      0.3199      1.0960      0.0000      0.0000      0.2238      0.0703
 59      0.0000      1.6675      0.6325      0.8932      0.0000      0.4512      0.8325      0.5203      0.5652
 60      0.0000      1.4411      0.6677      0.3479      0.2727      1.1496      0.5095      0.0864      0.3086
 61      0.0000      1.2974      0.6972      0.0000      0.0000      0.0291      1.5883      0.0000      0.2232
 62      3.3081      1.1013      0.0021      0.0000      0.7533      0.8837      0.3443      0.3592      0.7002
 63     36.7533      1.2985      1.2090      0.5978      0.1804      0.9904      0.0000      0.0817      0.1357
 64      0.0000      1.5549      0.7694      0.9946      0.0868      0.0000      0.0000      1.2868      0.1527
 65      0.0000      1.2024      0.6160      0.5604      1.1895      0.0568      0.1573      0.2499      0.5450
 66      9.4183      0.9436      0.5244      1.0112      0.3119      1.1891      0.1187      0.4701      0.3235

# j      m_j: min, <> & last-chain-values for 1 ...  7 chains
  1  0.0000E+00  6.0877E-03  0.0000E+00  1.7421E-03  5.4204E-04  0.0000E+00  0.0000E+00  1.0451E-03  1.0550E-03
  2  0.0000E+00  1.7020E-03  2.2174E-04  1.0340E-03  2.6867E-04  2.9756E-04  6.1698E-04  1.2599E-04  1.5818E-04
  3  0.0000E+00  3.0013E-03  1.9493E-04  2.4735E-04  8.2960E-05  0.0000E+00  1.7433E-04  3.2016E-04  1.5302E-05
  4  0.0000E+00  3.3303E-03  3.5866E-04  0.0000E+00  4.8022E-04  0.0000E+00  6.3400E-04  5.8021E-04  3.4463E-04
  5  4.5314E-03  4.8292E-03  0.0000E+00  6.1353E-05  7.5048E-04  3.0125E-03  1.4490E-03  0.0000E+00  1.2510E-04
  6  0.0000E+00  6.2811E-03  0.0000E+00  8.4274E-04  7.3506E-04  0.0000E+00  2.8806E-04  1.9595E-03  4.9740E-04
  7  0.0000E+00  1.2121E-02  0.0000E+00  2.2425E-03  4.1010E-03  4.9117E-03  3.1155E-03  2.0570E-03  2.2145E-03
  8  0.0000E+00  1.2736E-02  0.0000E+00  3.4975E-03  7.7577E-03  0.0000E+00  2.7494E-03  1.6951E-03  3.7601E-04
  9  0.0000E+00  1.5685E-02  7.4599E-03  3.2895E-03  2.6701E-03  1.2552E-02  1.2002E-03  4.5007E-04  3.8769E-03
 10  0.0000E+00  2.7998E-02  0.0000E+00  5.0127E-04  0.0000E+00  8.3276E-03  5.8131E-04  0.0000E+00  2.3249E-03
 11  0.0000E+00  4.4076E-02  9.5375E-04  0.0000E+00  0.0000E+00  1.2130E-03  0.0000E+00  1.1737E-02  1.8284E-03
 12  2.3030E-02  8.4224E-02  4.2105E-02  2.2203E-03  3.7255E-02  1.4425E-02  4.6394E-03  1.1188E-02  8.2904E-03
 13  0.0000E+00  2.3623E-01  6.2899E-02  0.0000E+00  0.0000E+00  7.5850E-02  2.8107E-04  3.8689E-04  2.0211E-02
 14  4.4156E+00  5.1945E-01  0.0000E+00  0.0000E+00  2.0429E-01  5.4209E-01  2.3709E-01  0.0000E+00  1.7484E-01
 15  0.0000E+00  7.8986E-01  0.0000E+00  0.0000E+00  5.5774E-01  4.2626E-01  2.6098E-01  0.0000E+00  1.8926E-01
 16  0.0000E+00  8.7161E+00  9.6060E+00  1.1588E+01  1.0245E+01  7.8013E+00  8.7665E+00  1.0665E+01  1.1480E+01
 17  0.0000E+00  1.1066E+01  1.1626E+01  1.7550E+01  1.2575E+01  1.3961E+01  1.5213E+01  1.5566E+01  1.9084E+01
 18  0.0000E+00  5.0750E-03  7.7917E-04  1.0228E-03  0.0000E+00  0.0000E+00  0.0000E+00  9.8044E-04  6.1830E-04
 19  0.0000E+00  2.2746E-03  3.1874E-04  3.2752E-04  8.3102E-04  0.0000E+00  4.2776E-04  0.0000E+00  0.0000E+00
 20  0.0000E+00  2.2915E-03  7.0808E-04  7.4643E-04  4.4881E-04  0.0000E+00  0.0000E+00  2.4742E-04  1.7539E-04
 21  0.0000E+00  2.7365E-03  0.0000E+00  2.3174E-04  1.7337E-04  4.9290E-04  5.8197E-04  0.0000E+00  8.0548E-07
 22  0.0000E+00  5.5604E-03  9.5870E-04  2.0061E-03  1.9357E-03  8.0799E-04  8.0552E-04  0.0000E+00  2.7301E-04
 23  0.0000E+00  7.9337E-03  1.4397E-03  0.0000E+00  0.0000E+00  0.0000E+00  2.4651E-03  3.8639E-03  0.0000E+00
 24  0.0000E+00  9.0478E-03  1.2158E-03  1.1816E-03  0.0000E+00  0.0000E+00  7.0211E-04  9.9501E-04  1.1575E-04
 25  0.0000E+00  1.2725E-02  1.4757E-03  5.8068E-04  0.0000E+00  3.3238E-03  3.7866E-04  2.4284E-03  1.1922E-03
 26  7.4562E-04  2.1932E-02  2.6192E-03  0.0000E+00  6.3145E-03  2.0048E-02  2.2543E-03  9.5904E-03  8.5009E-04
 27  0.0000E+00  3.8152E-02  4.1313E-03  4.4668E-04  0.0000E+00  8.3635E-03  1.6456E-02  1.3391E-02  3.6649E-03
 28  0.0000E+00  1.0560E-01  1.2904E-02  1.4014E-02  4.6844E-02  0.0000E+00  4.6770E-02  1.4395E-02  1.5999E-02
 29  0.0000E+00  1.9796E-01  5.7084E-02  7.1896E-03  0.0000E+00  9.0359E-03  1.1449E-02  2.3302E-02  0.0000E+00
 30  0.0000E+00  5.4712E-01  1.0562E-01  4.3765E-02  0.0000E+00  0.0000E+00  0.0000E+00  8.8951E-02  0.0000E+00
 31  6.5335E+00  7.6666E-01  1.0258E-03  3.8679E-02  2.7169E-01  2.0923E-01  1.1607E-02  3.0637E-01  1.6634E-01
 32  0.0000E+00  9.4610E-01  7.3888E-01  8.2701E-01  1.2364E+00  2.0258E-01  1.0124E+00  2.5202E-01  9.5211E-01
 33  0.0000E+00  2.5670E+00  3.5667E-01  0.0000E+00  0.0000E+00  1.5629E+00  5.7628E-01  0.0000E+00  2.8555E-02
 34  6.6401E+00  4.8693E+01  7.2408E+01  6.4745E+01  6.7802E+01  7.0930E+01  7.1252E+01  6.8834E+01  6.5161E+01
 35  0.0000E+00  3.6178E-03  6.2679E-04  0.0000E+00  0.0000E+00  0.0000E+00  5.3681E-04  0.0000E+00  2.2000E-04
 36  0.0000E+00  1.8881E-03  0.0000E+00  0.0000E+00  0.0000E+00  6.3033E-04  9.9378E-05  0.0000E+00  0.0000E+00
 37  0.0000E+00  1.9389E-03  0.0000E+00  0.0000E+00  1.7128E-03  1.2305E-04  0.0000E+00  2.4184E-04  2.9930E-05
 38  0.0000E+00  5.3710E-03  1.7839E-03  2.5531E-03  4.5724E-04  0.0000E+00  0.0000E+00  1.2685E-04  5.1396E-05
 39  1.5346E-02  1.1349E-02  0.0000E+00  1.3964E-03  2.0580E-03  1.3583E-03  6.3030E-05  7.0391E-04  9.7326E-04
 40  0.0000E+00  1.1623E-02  4.0627E-03  2.0344E-03  0.0000E+00  0.0000E+00  6.1677E-04  2.5388E-03  1.5884E-03
 41  0.0000E+00  2.9145E-02  1.9685E-03  0.0000E+00  7.7342E-03  4.1397E-03  2.1210E-03  6.7100E-03  4.0291E-03
 42  1.7371E-02  3.7850E-02  1.5168E-04  1.7288E-02  2.8327E-03  6.4948E-03  1.8558E-03  6.8779E-03  2.5789E-03
 43  0.0000E+00  5.2481E-02  5.1261E-03  5.1639E-02  1.0814E-02  2.3001E-02  2.2893E-02  0.0000E+00  1.4129E-02
 44  0.0000E+00  7.5737E-02  0.0000E+00  3.7585E-03  4.9406E-02  9.7510E-03  2.1720E-02  2.1124E-03  2.5371E-03
 45  7.0689E-01  1.5336E-01  3.4825E-03  0.0000E+00  7.1611E-02  4.9575E-02  7.2108E-02  0.0000E+00  9.3183E-03
 46  2.2065E+00  3.5359E-01  4.8955E-02  3.3217E-02  0.0000E+00  6.4557E-02  1.3145E-01  2.9928E-03  4.0909E-02
 47  7.0593E+00  6.1571E-01  1.2493E-02  2.3641E-01  1.8021E-02  1.6651E-01  9.6285E-02  9.7544E-03  1.2767E-02
 48  0.0000E+00  1.1267E+00  5.0339E-01  1.0193E-01  5.0383E-01  6.5126E-02  0.0000E+00  5.4218E-01  0.0000E+00
 49  0.0000E+00  2.6473E+00  4.8817E-01  0.0000E+00  3.1438E+00  0.0000E+00  1.1348E-01  2.0217E-01  4.4793E-01
 50  0.0000E+00  6.0411E+00  6.2866E-01  2.2082E-01  0.0000E+00  2.0398E-01  1.3373E+00  7.4046E-01  2.2684E-01
 51  0.0000E+00  2.3341E-03  2.6081E-04  2.2987E-04  1.8357E-04  1.5657E-04  0.0000E+00  2.2221E-04  2.9011E-04
 52  0.0000E+00  1.6000E-03  0.0000E+00  1.8565E-04  0.0000E+00  2.5765E-04  4.7586E-04  3.8059E-04  3.4619E-05
 53  0.0000E+00  1.7344E-03  4.4533E-05  1.6124E-04  2.9303E-04  1.0440E-03  0.0000E+00  4.1753E-04  0.0000E+00
 54  0.0000E+00  2.7427E-03  0.0000E+00  2.5798E-04  0.0000E+00  0.0000E+00  0.0000E+00  3.1386E-04  0.0000E+00
 55  0.0000E+00  6.3868E-03  2.7055E-04  1.3320E-03  0.0000E+00  0.0000E+00  0.0000E+00  0.0000E+00  1.9985E-04
 56  0.0000E+00  1.1893E-02  1.4448E-03  9.1204E-05  2.5217E-03  0.0000E+00  1.2137E-03  1.7147E-03  1.5777E-03
 57  0.0000E+00  1.8400E-02  0.0000E+00  0.0000E+00  0.0000E+00  9.0577E-03  9.9846E-04  4.1239E-03  1.2535E-03
 58  0.0000E+00  2.7168E-02  4.0445E-03  3.0048E-03  1.0581E-02  0.0000E+00  0.0000E+00  2.0406E-03  6.2079E-04
 59  0.0000E+00  6.9534E-02  1.2065E-02  1.8055E-02  0.0000E+00  9.3624E-03  1.6537E-02  1.0208E-02  1.0741E-02
 60  0.0000E+00  1.1162E-01  2.3655E-02  1.3062E-02  1.0525E-02  4.4313E-02  1.8795E-02  3.1477E-03  1.0895E-02
 61  0.0000E+00  2.1956E-01  5.3970E-02  0.0000E+00  0.0000E+00  2.4480E-03  1.2803E-01  0.0000E+00  1.7216E-02
 62  1.0356E+00  3.3983E-01  2.9232E-04  0.0000E+00  1.1582E-01  1.3570E-01  5.0612E-02  5.2152E-02  9.8474E-02
 63  2.2891E+01  7.9713E-01  3.3952E-01  1.7791E-01  5.5169E-02  3.0259E-01  0.0000E+00  2.3593E-02  3.7957E-02
 64  0.0000E+00  2.6402E+00  5.9760E-01  8.1865E-01  7.3420E-02  0.0000E+00  0.0000E+00  1.0282E+00  1.1814E-01
 65  0.0000E+00  4.3158E+00  1.0115E+00  9.7502E-01  2.1274E+00  1.0138E-01  2.6898E-01  4.2201E-01  8.9163E-01
 66  4.8451E+01  4.7845E+00  1.2163E+00  2.4854E+00  7.8815E-01  3.0007E+00  2.8660E-01  1.1217E+00  7.4767E-01

# AV, chi2 & Mass for <> & i_chain = 1 ...  7 solutions
AV      -0.1619     -0.7817     -0.8451     -0.7436     -0.7317     -0.7155     -0.7911     -0.7892     -0.8596
chi2 6.9833E-06  4.5565E-05  1.1355E-05  1.1533E-05  1.1373E-05  1.1291E-05  1.1341E-05  1.1598E-05  1.1691E-05
Mass 2.1604E-13  9.5339E-14  1.9140E-13  2.0701E-13  2.0464E-13  2.0939E-13  1.9765E-13  2.0058E-13  1.8841E-13
-125.86                                  [v0_min (km/s) before EX0s...]
 150.00                                  [vd_min (km/s) before EX0s...]


## Synthetic spectrum (Best Model) ##l_obs f_obs f_syn wei
 3478    [Nl_obs]
 3741.00    0.47110   0.59703    0.000
 3742.00    0.53487   0.56499    0.000
 3743.00    0.40919   0.52902    0.000
 3744.00    0.38363   0.49433    0.000
 3745.00    0.41641   0.46184    0.028
 3746.00    0.62272   0.43667    0.028
 3747.00    0.91715   0.42768    0.028
 3748.00    0.92913   0.44110    0.028
 3749.00    0.81692   0.47874    0.028
 3750.00    0.77753   0.53474    0.028
 3751.00    0.76565   0.59560    0.028
 3752.00    0.64268   0.64547    0.027
 3753.00    0.48411   0.67228    0.027
 3754.00    0.41886   0.67110    0.026
 3755.00    0.37861   0.64721    0.026
 3756.00    0.43843   0.61507    0.025
 3757.00    0.52020   0.59042    0.025
 3758.00    0.55131   0.58277    0.025
 3759.00    0.57358   0.59013    0.025
 3760.00    0.53726   0.60214    0.029
 3761.00    0.49316   0.61132    0.035
 3762.00    0.43223   0.61458    0.029
 3763.00    0.36973   0.61046    0.025
 3764.00    0.45538   0.60177    0.024
 3765.00    0.54958   0.59193    0.024
 3766.00    0.55030   0.58264    0.024
 3767.00    0.55059   0.57860    0.024
 3768.00    0.76798   0.58465    0.025
 3769.00    0.97509   0.60037    0.025
 3770.00    0.93238   0.62301    0.025
 3771.00    0.87209   0.64921    0.025
 3772.00    0.58155   0.67354    0.024
 3773.00    0.33518   0.69250    0.023
 3774.00    0.47660   0.70767    0.024
 3775.00    0.60956   0.72310    0.024
 3776.00    0.68770   0.74161    0.024
 3777.00    0.77614   0.76223    0.024
 3778.00    0.91668   0.78185    0.025
 3779.00    0.98819   0.79810    0.025
 3780.00    0.77709   0.80816    0.025
 3781.00    0.58000   0.80830    0.024
 3782.00    0.43045   0.79539    0.025
 3783.00    0.33087   0.76934    0.025
 3784.00    0.37421   0.73380    0.025
 3785.00    0.42730   0.69497    0.025
 3786.00    0.50420   0.66232    0.025
 3787.00    0.49484   0.64287    0.025
 3788.00    0.30366   0.63448    0.025
 3789.00    0.14451   0.63004    0.024
 3790.00    0.04399   0.62308    0.024
 3791.00    0.02044   0.60878    0.024
 3792.00    0.12008   0.58574    0.024
 3793.00    0.21908   0.55731    0.024
 3794.00    0.31717   0.52929    0.023
 3795.00    0.39996   0.50873    0.023
 3796.00    0.46384   0.50270    0.023
 3797.00    0.47277   0.51572    0.023
 3798.00    0.42183   0.54833    0.024
 3799.00    0.34160   0.59514    0.024
 3800.00    0.23323   0.64485    0.024
 3801.00    0.21793   0.68598    0.024
 3802.00    0.28150   0.71244    0.024
 3803.00    0.40241   0.72368    0.024
 3804.00    0.56610   0.72485    0.025
 3805.00    0.54224   0.72516    0.025
 3806.00    0.39543   0.73131    0.024
 3807.00    0.25416   0.74348    0.024
 3808.00    0.11609   0.75444    0.023
 3809.00    0.17201   0.75354    0.023
 3810.00    0.32490   0.73570    0.023
 3811.00    0.42984   0.70498    0.024
 3812.00    0.51403   0.67083    0.024
 3813.00    0.55627   0.64432    0.024
 3814.00    0.58293   0.63101    0.024
 3815.00    0.61343   0.62643    0.024
 3816.00    0.64514   0.62269    0.024
 3817.00    0.76673   0.61530    0.024
 3818.00    0.91190   0.60486    0.025
 3819.00    0.82562   0.59497    0.024
 3820.00    0.68974   0.58751    0.024
 3821.00    0.70422   0.57981    0.023
 3822.00    0.74421   0.56667    0.023
 3823.00    0.71688   0.54708    0.023
 3824.00    0.68090   0.52723    0.023
 3825.00    0.35434   0.51385    0.023
 3826.00    0.00168   0.50767    0.022
 3827.00   -0.02507   0.50374    0.000
 3828.00   -0.03431   0.49561    0.000
 3829.00    0.18592   0.48004    0.023
 3830.00    0.40941   0.45820    0.023
 3831.00    0.51997   0.43485    0.023
 3832.00    0.63104   0.41758    0.023
 3833.00    0.75357   0.41122    0.024
 3834.00    0.85859   0.41436    0.024
 3835.00    0.74574   0.42373    0.024
 3836.00    0.64531   0.43712    0.024
 3837.00    0.64995   0.45497    0.025
 3838.00    0.64656   0.48097    0.026
 3839.00    0.59271   0.51643    0.025
 3840.00    0.53623   0.55747    0.024
 3841.00    0.46677   0.59798    0.023
 3842.00    0.43646   0.63179    0.023
 3843.00    0.56286   0.65596    0.024
 3844.00    0.64056   0.67168    0.024
 3845.00    0.55632   0.68021    0.024
 3846.00    0.47911   0.68315    0.025
 3847.00    0.42165   0.68368    0.000
 3848.00    0.41013   0.68397    0.000
 3849.00    0.50899   0.68538    0.000
 3850.00    0.56962   0.68853    0.000
 3851.00    0.55098   0.69006    0.000
 3852.00    0.50724   0.68504    0.000
 3853.00    0.41822   0.67354    0.000
 3854.00    0.50606   0.65826    0.000
 3855.00    0.87282   0.64102    0.000
 3856.00    1.00980   0.62569    0.000
 3857.00    0.82868   0.61768    0.000
 3858.00    0.71275   0.62107    0.000
 3859.00    0.67626   0.63783    0.000
 3860.00    0.69879   0.66438    0.000
 3861.00    0.78472   0.69109    0.000
 3862.00    0.83644   0.70909    0.000
 3863.00    0.85575   0.71570    0.000
 3864.00    0.78446   0.71371    0.000
 3865.00    0.63746   0.70689    0.000
 3866.00    0.62814   0.69646    0.000
 3867.00    0.72007   0.68172    0.000
 3868.00    0.82643   0.66330    0.000
 3869.00    0.94210   0.64589    0.000
 3870.00    0.90377   0.63671    0.000
 3871.00    0.77842   0.64011    0.000
 3872.00    0.73756   0.65357    0.000
 3873.00    0.73826   0.66832    0.000
 3874.00    0.70639   0.67423    0.000
 3875.00    0.66067   0.66820    0.000
 3876.00    0.55888   0.65516    0.000
 3877.00    0.43667   0.64139    0.000
 3878.00    0.48702   0.63181    0.000
 3879.00    0.59057   0.62771    0.000
 3880.00    0.70549   0.62442    0.000
 3881.00    0.82332   0.61634    0.022
 3882.00    0.79820   0.60252    0.022
 3883.00    0.74320   0.58348    0.022
 3884.00    0.58783   0.55914    0.022
 3885.00    0.41591   0.53497    0.023
 3886.00    0.36999   0.52298    0.023
 3887.00    0.33968   0.53076    0.023
 3888.00    0.37011   0.55680    0.023
 3889.00    0.40574   0.59471    0.023
 3890.00    0.43139   0.63508    0.023
 3891.00    0.45655   0.66807    0.023
 3892.00    0.47860   0.69013    0.023
 3893.00    0.50069   0.70392    0.023
 3894.00    0.52927   0.71307    0.023
 3895.00    0.56548   0.72062    0.023
 3896.00    0.75753   0.72858    0.023
 3897.00    0.93825   0.73666    0.023
 3898.00    0.98502   0.74312    0.022
 3899.00    1.03172   0.74752    0.022
 3900.00    1.07782   0.74927    0.022
 3901.00    1.11055   0.74506    0.022
 3902.00    1.06169   0.73581    0.021
 3903.00    1.02339   0.72995    0.020
 3904.00    1.03594   0.73429    0.020
 3905.00    1.00482   0.75010    0.020
 3906.00    0.80265   0.77579    0.019
 3907.00    0.65347   0.80567    0.019
 3908.00    0.67695   0.83129    0.020
 3909.00    0.69897   0.84737    0.020
 3910.00    0.71694   0.85410    0.020
 3911.00    0.74556   0.85347    0.021
 3912.00    0.79936   0.84612    0.021
 3913.00    0.81719   0.83391    0.021
 3914.00    0.76165   0.81891    0.022
 3915.00    0.68849   0.80070    0.022
 3916.00    0.58404   0.77917    0.022
 3917.00    0.58896   0.75662    0.022
 3918.00    0.76382   0.73605    0.023
 3919.00    0.79139   0.72027    0.023
 3920.00    0.61801   0.71100    0.023
 3921.00    0.44807   0.70548    0.023
 3922.00    0.28226   0.69723    0.023
 3923.00    0.28153   0.67930    0.023
 3924.00    0.45564   0.64717    0.023
 3925.00    0.57859   0.60112    0.023
 3926.00    0.65375   0.54532    0.023
 3927.00    0.63050   0.48471    0.023
 3928.00    0.52619   0.42411    0.023
 3929.00    0.49651   0.36872    0.023
 3930.00    0.52091   0.32388    0.023
 3931.00    0.59831   0.29519    0.023
 3932.00    0.70944   0.28770    0.024
 3933.00    0.64239   0.30376    0.024
 3934.00    0.47618   0.34168    0.023
 3935.00    0.46877   0.39555    0.023
 3936.00    0.53824   0.45631    0.024
 3937.00    0.66992   0.51459    0.024
 3938.00    0.82761   0.56358    0.024
 3939.00    0.71098   0.59945    0.024
 3940.00    0.49622   0.62328    0.024
 3941.00    0.60205   0.64194    0.024
 3942.00    0.80478   0.66212    0.024
 3943.00    0.85039   0.68574    0.024
 3944.00    0.85654   0.71225    0.024
 3945.00    0.70962   0.73916    0.024
 3946.00    0.53148   0.76203    0.024
 3947.00    0.59236   0.77910    0.024
 3948.00    0.69150   0.79241    0.024
 3949.00    0.81448   0.80396    0.024
 3950.00    0.94031   0.81285    0.025
 3951.00    0.90959   0.81647    0.024
 3952.00    0.86613   0.81520    0.024
 3953.00    0.80277   0.81165    0.024
 3954.00    0.73850   0.80544    0.024
 3955.00    0.76867   0.79464    0.024
 3956.00    0.80080   0.77891    0.024
 3957.00    0.87192   0.75628    0.024
 3958.00    0.93582   0.72288    0.024
 3959.00    0.86292   0.67733    0.024
 3960.00    0.78145   0.62304    0.000
 3961.00    0.60342   0.56628    0.000
 3962.00    0.46204   0.51052    0.000
 3963.00    0.60874   0.45439    0.000
 3964.00    0.74660   0.39743    0.000
 3965.00    0.83201   0.34521    0.000
 3966.00    0.85528   0.30751    0.000
 3967.00    0.58681   0.29325    0.000
 3968.00    0.34785   0.30617    0.000
 3969.00    0.22194   0.34360    0.000
 3970.00    0.16402   0.39853    0.000
 3971.00    0.32346   0.46254    0.000
 3972.00    0.48244   0.52844    0.000
 3973.00    0.64015   0.59250    0.000
 3974.00    0.78526   0.65353    0.000
 3975.00    0.90115   0.71031    0.000
 3976.00    0.97032   0.76096    0.000
 3977.00    0.94565   0.80313    0.000
 3978.00    0.91395   0.83438    0.000
 3979.00    0.86995   0.85379    0.000
 3980.00    0.84158   0.86351    0.000
 3981.00    0.83711   0.86882    0.025
 3982.00    0.95763   0.87547    0.025
 3983.00    1.24624   0.88663    0.025
 3984.00    1.38672   0.90162    0.025
 3985.00    1.35178   0.91700    0.025
 3986.00    1.25592   0.93060    0.025
 3987.00    1.09645   0.94265    0.025
 3988.00    1.05398   0.95275    0.025
 3989.00    1.11928   0.96063    0.025
 3990.00    1.18365   0.96702    0.024
 3991.00    1.24726   0.97031    0.024
 3992.00    1.17533   0.96711    0.024
 3993.00    1.00656   0.95736    0.024
 3994.00    1.04920   0.94650    0.024
 3995.00    1.22440   0.94212    0.024
 3996.00    1.15608   0.94856    0.024
 3997.00    0.95432   0.96573    0.024
 3998.00    0.94498   0.98918    0.024
 3999.00    1.02730   1.00925    0.024
 4000.00    1.06263   1.01560    0.024
 4001.00    1.07865   1.00572    0.023
 4002.00    1.21515   0.98556    0.024
 4003.00    1.39396   0.96371    0.024
 4004.00    1.30159   0.94947    0.024
 4005.00    1.12888   0.95109    0.023
 4006.00    0.98615   0.96883    0.023
 4007.00    0.85078   0.99305    0.023
 4008.00    1.06917   1.01385    0.024
 4009.00    1.35790   1.02833    0.024
 4010.00    1.17320   1.03831    0.023
 4011.00    0.91494   1.04604    0.023
 4012.00    1.03658   1.05228    0.023
 4013.00    1.20190   1.05700    0.023
 4014.00    1.17652   1.06098    0.023
 4015.00    1.13640   1.06485    0.023
 4016.00    0.97663   1.06809    0.023
 4017.00    0.81182   1.07106    0.023
 4018.00    0.82746   1.07340    0.023
 4019.00    0.84777   1.07155    0.023
 4020.00    1.00000   1.06395    0.023
 4021.00    1.14640   1.05517    0.024
 4022.00    1.19005   1.05082    0.024
 4023.00    1.22399   1.05294    0.024
 4024.00    1.15349   1.05988    0.024
 4025.00    1.09177   1.06549    0.023
 4026.00    1.09672   1.06022    0.023
 4027.00    1.08671   1.03820    0.024
 4028.00    0.99052   1.00171    0.024
 4029.00    0.90800   0.96052    0.023
 4030.00    0.88816   0.92897    0.023
 4031.00    0.87364   0.91878    0.023
 4032.00    0.87909   0.93259    0.023
 4033.00    0.86294   0.96557    0.023
 4034.00    0.77907   1.00875    0.023
 4035.00    0.73366   1.05069    0.023
 4036.00    0.79059   1.08117    0.023
 4037.00    0.91615   1.09500    0.023
 4038.00    1.19847   1.09239    0.023
 4039.00    1.29846   1.07579    0.024
 4040.00    1.03802   1.04744    0.024
 4041.00    0.84560   1.01027    0.024
 4042.00    0.77035   0.96990    0.024
 4043.00    0.79254   0.93604    0.024
 4044.00    0.96174   0.92162    0.024
 4045.00    1.01665   0.93560    0.025
 4046.00    0.92005   0.97347    0.025
 4047.00    0.96655   1.01725    0.025
 4048.00    1.18012   1.04922    0.025
 4049.00    1.20113   1.06278    0.025
 4050.00    1.02389   1.05942    0.024
 4051.00    1.03356   1.04380    0.024
 4052.00    1.21298   1.02231    0.024
 4053.00    1.37019   1.00107    0.025
 4054.00    1.50962   0.98488    0.025
 4055.00    1.38345   0.97690    0.024
 4056.00    1.07025   0.97667    0.024
 4057.00    0.95695   0.98026    0.024
 4058.00    0.96713   0.98218    0.024
 4059.00    0.95287   0.97673    0.024
 4060.00    0.92544   0.96169    0.024
 4061.00    0.81647   0.94165    0.024
 4062.00    0.66928   0.92698    0.023
 4063.00    0.81477   0.92809    0.023
 4064.00    1.07851   0.94629    0.024
 4065.00    1.10757   0.97114    0.024
 4066.00    1.05571   0.99100    0.024
 4067.00    0.92064   1.00204    0.023
 4068.00    0.76141   1.00470    0.023
 4069.00    0.83789   0.99953    0.023
 4070.00    0.97098   0.99004    0.023
 4071.00    1.06139   0.98161    0.023
 4072.00    1.14353   0.97436    0.023
 4073.00    1.22008   0.96234    0.023
 4074.00    1.29579   0.94401    0.023
 4075.00    1.12712   0.92852    0.023
 4076.00    0.93142   0.92855    0.023
 4077.00    0.92412   0.94922    0.023
 4078.00    0.93062   0.98355    0.023
 4079.00    1.01186   1.01724    0.023
 4080.00    1.09597   1.03854    0.023
 4081.00    0.98297   1.04475    0.023
 4082.00    0.87545   1.04276    0.023
 4083.00    1.01572   1.04363    0.023
 4084.00    1.14833   1.05394    0.023
 4085.00    1.15468   1.07233    0.023
 4086.00    1.16235   1.09215    0.023
 4087.00    1.18349   1.10539    0.023
 4088.00    1.18732   1.10729    0.023
 4089.00    1.06406   1.09839    0.023
 4090.00    0.92511   1.08176    0.023
 4091.00    0.69809   1.06002    0.023
 4092.00    0.57678   1.03429    0.000
 4093.00    0.92846   1.00416    0.000
 4094.00    1.19203   0.96897    0.000
 4095.00    1.13200   0.92992    0.000
 4096.00    1.05459   0.88938    0.000
 4097.00    0.92373   0.84901    0.000
 4098.00    0.80301   0.81171    0.000
 4099.00    0.70882   0.78393    0.000
 4100.00    0.74368   0.77485    0.000
 4101.00    1.06838   0.79120    0.000
 4102.00    1.20997   0.83005    0.000
 4103.00    0.99526   0.87887    0.000
 4104.00    0.86579   0.92382    0.000
 4105.00    0.88095   0.95669    0.000
 4106.00    0.98981   0.97522    0.000
 4107.00    1.23798   0.98263    0.000
 4108.00    1.27384   0.98575    0.000
 4109.00    1.03230   0.99113    0.000
 4110.00    0.97104   1.00253    0.000
 4111.00    1.11728   1.01977    0.000
 4112.00    1.16407   1.03871    0.000
 4113.00    1.10992   1.05306    0.024
 4114.00    1.16662   1.05830    0.024
 4115.00    1.32258   1.05411    0.024
 4116.00    1.37083   1.04301    0.024
 4117.00    1.33411   1.02941    0.024
 4118.00    1.18166   1.01940    0.024
 4119.00    0.94889   1.01713    0.023
 4120.00    0.87634   1.02123    0.023
 4121.00    0.90128   1.02757    0.024
 4122.00    0.95073   1.03362    0.024
 4123.00    1.01319   1.03744    0.024
 4124.00    1.05942   1.03623    0.024
 4125.00    1.09816   1.02811    0.024
 4126.00    1.17996   1.01423    0.024
 4127.00    1.27885   0.99757    0.024
 4128.00    1.20383   0.98083    0.024
 4129.00    1.06995   0.96594    0.023
 4130.00    0.98156   0.95593    0.023
 4131.00    0.90610   0.95534    0.023
 4132.00    0.83045   0.96776    0.023
 4133.00    0.75475   0.99236    0.022
 4134.00    0.81532   1.02301    0.023
 4135.00    0.90162   1.05146    0.023
 4136.00    1.02213   1.07021    0.023
 4137.00    1.14764   1.07485    0.023
 4138.00    0.97431   1.06400    0.023
 4139.00    0.76923   1.03913    0.023
 4140.00    0.85005   1.00664    0.023
 4141.00    0.95065   0.97692    0.023
 4142.00    0.97139   0.96091    0.023
 4143.00    0.98938   0.96429    0.023
 4144.00    1.02158   0.98210    0.023
 4145.00    1.04723   1.00155    0.023
 4146.00    0.85587   1.01275    0.023
 4147.00    0.67942   1.01396    0.022
 4148.00    0.73345   1.00832    0.022
 4149.00    0.79252   0.99992    0.022
 4150.00    0.90132   0.99162    0.022
 4151.00    1.00433   0.98389    0.022
 4152.00    1.06613   0.97731    0.023
 4153.00    1.11388   0.97428    0.023
 4154.00    1.08490   0.97774    0.023
 4155.00    1.05359   0.98875    0.023
 4156.00    1.01209   1.00593    0.022
 4157.00    0.95327   1.02676    0.022
 4158.00    0.83221   1.04735    0.022
 4159.00    0.75157   1.06400    0.022
 4160.00    0.79292   1.07519    0.022
 4161.00    0.85553   1.08053    0.022
 4162.00    0.97273   1.07901    0.022
 4163.00    1.08385   1.07050    0.022
 4164.00    1.18149   1.05820    0.022
 4165.00    1.26724   1.04586    0.022
 4166.00    1.33017   1.03436    0.023
 4167.00    1.31821   1.02232    0.023
 4168.00    1.18107   1.00689    0.023
 4169.00    1.08866   0.98553    0.022
 4170.00    1.06175   0.96047    0.022
 4171.00    1.00055   0.93919    0.022
 4172.00    0.89519   0.92906    0.022
 4173.00    0.88533   0.93157    0.023
 4174.00    0.98384   0.94176    0.023
 4175.00    1.03993   0.95351    0.023
 4176.00    1.05358   0.96397    0.023
 4177.00    1.08319   0.97356    0.023
 4178.00    1.12689   0.98316    0.023
 4179.00    1.16459   0.99211    0.023
 4180.00    1.19763   0.99932    0.023
 4181.00    1.07545   1.00522    0.023
 4182.00    0.84712   1.01075    0.023
 4183.00    0.78017   1.01484    0.022
 4184.00    0.80995   1.01550    0.022
 4185.00    0.91802   1.01291    0.023
 4186.00    1.06705   1.01101    0.023
 4187.00    1.06048   1.01585    0.023
 4188.00    0.98333   1.02854    0.023
 4189.00    0.86011   1.04335    0.023
 4190.00    0.71891   1.05406    0.023
 4191.00    0.70487   1.05741    0.023
 4192.00    0.73306   1.05069    0.023
 4193.00    0.80652   1.03174    0.023
 4194.00    0.89259   1.00382    0.023
 4195.00    1.09817   0.97557    0.023
 4196.00    1.33116   0.95450    0.024
 4197.00    1.23140   0.94318    0.023
 4198.00    1.07049   0.94120    0.023
 4199.00    0.98194   0.94677    0.023
 4200.00    0.90361   0.95715    0.023
 4201.00    1.02554   0.97166    0.023
 4202.00    1.16789   0.99139    0.023
 4203.00    1.05017   1.01459    0.023
 4204.00    0.91550   1.03730    0.022
 4205.00    0.88542   1.05676    0.022
 4206.00    0.85897   1.07113    0.022
 4207.00    1.10190   1.07947    0.023
 4208.00    1.33369   1.08211    0.023
 4209.00    1.23784   1.07986    0.023
 4210.00    1.15426   1.07344    0.023
 4211.00    1.24932   1.06292    0.023
 4212.00    1.33056   1.04960    0.023
 4213.00    1.28111   1.03902    0.023
 4214.00    1.22864   1.03894    0.023
 4215.00    1.15541   1.05388    0.023
 4216.00    1.09711   1.07996    0.023
 4217.00    1.11815   1.10500    0.022
 4218.00    1.11213   1.11657    0.022
 4219.00    0.99046   1.10800    0.022
 4220.00    0.88512   1.07724    0.022
 4221.00    0.83729   1.02621    0.022
 4222.00    0.77574   0.96359    0.022
 4223.00    0.67359   0.90419    0.022
 4224.00    0.60623   0.86449    0.022
 4225.00    0.62668   0.85723    0.022
 4226.00    0.69508   0.88561    0.022
 4227.00    0.86768   0.93938    0.021
 4228.00    1.03264   0.99698    0.021
 4229.00    1.18319   1.03815    0.021
 4230.00    1.26427   1.05539    0.021
 4231.00    1.23097   1.05254    0.021
 4232.00    1.13348   1.03897    0.021
 4233.00    0.94333   1.02512    0.021
 4234.00    0.92257   1.01674    0.020
 4235.00    1.11688   1.01532    0.020
 4236.00    1.21775   1.02201    0.020
 4237.00    1.21405   1.03635    0.020
 4238.00    1.13371   1.05607    0.020
 4239.00    0.97773   1.07920    0.020
 4240.00    0.96254   1.10288    0.020
 4241.00    1.06987   1.12205    0.020
 4242.00    1.07247   1.13218    0.020
 4243.00    0.99478   1.13089    0.020
 4244.00    0.90367   1.11662    0.021
 4245.00    0.80352   1.09126    0.021
 4246.00    0.88178   1.06220    0.021
 4247.00    1.06537   1.03779    0.022
 4248.00    1.01306   1.02241    0.022
 4249.00    0.83930   1.01625    0.022
 4250.00    0.89997   1.01806    0.022
 4251.00    1.06525   1.02500    0.022
 4252.00    1.11484   1.03248    0.022
 4253.00    1.12007   1.03866    0.022
 4254.00    0.99987   1.04414    0.021
 4255.00    0.83880   1.04697    0.021
 4256.00    0.92178   1.04299    0.021
 4257.00    1.07137   1.03258    0.021
 4258.00    1.09194   1.02475    0.021
 4259.00    1.08359   1.03098    0.021
 4260.00    0.95211   1.05580    0.021
 4261.00    0.79860   1.09315    0.022
 4262.00    0.77428   1.12945    0.022
 4263.00    0.76763   1.15162    0.022
 4264.00    0.98694   1.15343    0.022
 4265.00    1.22833   1.13461    0.022
 4266.00    1.27784   1.09808    0.022
 4267.00    1.31562   1.05026    0.022
 4268.00    1.04900   1.00000    0.021
 4269.00    0.77486   0.95620    0.021
 4270.00    0.63701   0.92725    0.021
 4271.00    0.50984   0.92023    0.021
 4272.00    0.66508   0.93628    0.021
 4273.00    0.82172   0.96860    0.021
 4274.00    0.99772   1.00845    0.022
 4275.00    1.16343   1.04780    0.022
 4276.00    1.23567   1.07744    0.022
 4277.00    1.27362   1.09122    0.023
 4278.00    1.08307   1.09022    0.022
 4279.00    0.93040   1.08105    0.022
 4280.00    0.97383   1.07124    0.022
 4281.00    1.00448   1.06337    0.022
 4282.00    0.98174   1.05496   -2.000
 4283.00    0.93995   1.04259   -2.000
 4284.00    0.83237   1.02409   -2.000
 4285.00    0.73316   1.00057   -2.000
 4286.00    0.65828   0.97600   -2.000
 4287.00    0.64861   0.95525   -2.000
 4288.00    0.80070   0.94410   -2.000
 4289.00    0.97880   0.94764   -2.000
 4290.00    1.21251   0.96467   -2.000
 4291.00    1.26099   0.98542   -2.000
 4292.00    0.96554   0.99764   -2.000
 4293.00    0.72380   0.99395   -2.000
 4294.00    0.56919   0.97443   -2.000
 4295.00    0.58927   0.94240   -2.000
 4296.00    0.85788   0.90226   -2.000
 4297.00    0.93547   0.86142   -2.000
 4298.00    0.77398   0.82858    0.023
 4299.00    0.72365   0.81022    0.023
 4300.00    0.79592   0.80656    0.023
 4301.00    0.83865   0.81045    0.022
 4302.00    0.85262   0.81394    0.022
 4303.00    0.81716   0.81258    0.022
 4304.00    0.73928   0.80502    0.022
 4305.00    0.73146   0.79489    0.022
 4306.00    0.77657   0.78973    0.022
 4307.00    0.85384   0.79684    0.023
 4308.00    0.95246   0.82026    0.023
 4309.00    0.87057   0.85856    0.023
 4310.00    0.68371   0.90669    0.022
 4311.00    0.80022   0.96065    0.022
 4312.00    1.07048   1.01899    0.022
 4313.00    1.09779   1.07985    0.022
 4314.00    1.01850   1.13857    0.022
 4315.00    1.12303   1.18705    0.022
 4316.00    1.29681   1.21541    0.023
 4317.00    1.23487   1.21894    0.023
 4318.00    1.09758   1.20016    0.023
 4319.00    1.02789   1.16385    0.023
 4320.00    0.97627   1.11508    0.023
 4321.00    1.06514   1.06105    0.023
 4322.00    1.18476   1.01164    0.022
 4323.00    0.97863   0.97988    0.022
 4324.00    0.71584   0.97738    0.022
 4325.00    0.84674   1.00608    0.022
 4326.00    1.02970   1.05518    0.023
 4327.00    1.07321   1.10594    0.022
 4328.00    1.10368   1.14361    0.022
 4329.00    1.21129   1.16471    0.023
 4330.00    1.32330   1.17381    0.000
 4331.00    1.11266   1.17409    0.000
 4332.00    0.89691   1.16242    0.000
 4333.00    0.95699   1.13331    0.000
 4334.00    1.01767   1.08429    0.000
 4335.00    1.09246   1.01874    0.000
 4336.00    1.14944   0.94799    0.000
 4337.00    0.97451   0.88994    0.000
 4338.00    0.83604   0.85954    0.000
 4339.00    1.01612   0.86181    0.000
 4340.00    1.14394   0.89359    0.000
 4341.00    0.93422   0.94468    0.000
 4342.00    0.80098   1.00060    0.000
 4343.00    1.05350   1.05149    0.000
 4344.00    1.22524   1.09393    0.000
 4345.00    1.06719   1.12484    0.000
 4346.00    0.93909   1.14063    0.000
 4347.00    0.91228   1.14008    0.000
 4348.00    0.89489   1.12482    0.000
 4349.00    0.90435   1.10066    0.000
 4350.00    0.97292   1.07933    0.000
 4351.00    1.18560   1.07399    0.023
 4352.00    1.31428   1.08874    0.023
 4353.00    1.26631   1.11506    0.023
 4354.00    1.25774   1.14113    0.023
 4355.00    1.32121   1.16071    0.023
 4356.00    1.30925   1.17307    0.022
 4357.00    1.17676   1.18130    0.023
 4358.00    1.15565   1.19138    0.023
 4359.00    1.29069   1.20783    0.022
 4360.00    1.28854   1.22866    0.022
 4361.00    1.11713   1.24701    0.022
 4362.00    1.00942   1.25704    0.022
 4363.00    0.97099   1.25651    0.022
 4364.00    0.99883   1.24523    0.022
 4365.00    1.09024   1.22537    0.022
 4366.00    1.16169   1.20303    0.022
 4367.00    1.21627   1.18500    0.022
 4368.00    1.17636   1.17284    0.022
 4369.00    1.06607   1.16219    0.022
 4370.00    1.03294   1.14869    0.022
 4371.00    1.05029   1.13227    0.022
 4372.00    1.04656   1.11731    0.022
 4373.00    1.03076   1.11101    0.022
 4374.00    1.14057   1.11866    0.022
 4375.00    1.31303   1.13729    0.022
 4376.00    1.23081   1.15477    0.022
 4377.00    1.03867   1.15670    0.022
 4378.00    0.87581   1.13472    0.022
 4379.00    0.72377   1.09058    0.022
 4380.00    0.77833   1.03476    0.022
 4381.00    0.89766   0.98245    0.021
 4382.00    0.93401   0.94966    0.021
 4383.00    0.94864   0.94748    0.021
 4384.00    1.04509   0.97374    0.021
 4385.00    1.15901   1.01303    0.021
 4386.00    1.14655   1.04848    0.021
 4387.00    1.11272   1.07292    0.021
 4388.00    1.18926   1.08854    0.021
 4389.00    1.27990   1.09982    0.021
 4390.00    1.28248   1.11027    0.021
 4391.00    1.27721   1.12164    0.021
 4392.00    1.01738   1.13408    0.021
 4393.00    0.74399   1.14775    0.021
 4394.00    1.02280   1.16279    0.021
 4395.00    1.30859   1.17656    0.021
 4396.00    1.28332   1.18276    0.021
 4397.00    1.25778   1.17685    0.021
 4398.00    1.22647   1.16080    0.022
 4399.00    1.19559   1.13988    0.022
 4400.00    1.16998   1.11821    0.022
 4401.00    1.13312   1.09681    0.021
 4402.00    1.00151   1.07533    0.021
 4403.00    0.89206   1.05807    0.021
 4404.00    0.92143   1.05428    0.021
 4405.00    0.95453   1.06822    0.022
 4406.00    1.00596   1.09532    0.022
 4407.00    1.06774   1.12916    0.022
 4408.00    1.17088   1.16468    0.022
 4409.00    1.25315   1.19379    0.021
 4410.00    1.26616   1.20713    0.021
 4411.00    1.26137   1.20161    0.021
 4412.00    1.20668   1.18271    0.021
 4413.00    1.15808   1.16151    0.021
 4414.00    1.12406   1.15116    0.021
 4415.00    1.12937   1.15929    0.021
 4416.00    1.21609   1.18089    0.021
 4417.00    1.26061   1.20408    0.021
 4418.00    1.22915   1.21889    0.021
 4419.00    1.19968   1.22085    0.021
 4420.00    1.17334   1.21254    0.021
 4421.00    1.11595   1.20158    0.021
 4422.00    1.01567   1.19522    0.021
 4423.00    1.01562   1.19518    0.021
 4424.00    1.13749   1.19807    0.021
 4425.00    1.21902   1.20042    0.021
 4426.00    1.25731   1.20069    0.021
 4427.00    1.28516   1.19822    0.021
 4428.00    1.30314   1.19211    0.021
 4429.00    1.27438   1.18217    0.021
 4430.00    1.20665   1.17048    0.022
 4431.00    1.30293   1.15888    0.022
 4432.00    1.51961   1.14963    0.022
 4433.00    1.52152   1.14850    0.022
 4434.00    1.38494   1.16107    0.022
 4435.00    1.15706   1.18621    0.022
 4436.00    0.87769   1.21380    0.022
 4437.00    0.92144   1.23070    0.022
 4438.00    1.12382   1.23000    0.022
 4439.00    1.09160   1.21490    0.022
 4440.00    0.95982   1.19663    0.022
 4441.00    0.86709   1.18785    0.022
 4442.00    0.78856   1.19522    0.022
 4443.00    0.93027   1.21621    0.022
 4444.00    1.13971   1.24156    0.022
 4445.00    1.11590   1.26098    0.022
 4446.00    1.03236   1.26967    0.022
 4447.00    1.10470   1.26896    0.022
 4448.00    1.20954   1.26030    0.022
 4449.00    1.28342   1.24380    0.022
 4450.00    1.35221   1.22080    0.022
 4451.00    1.31801   1.19263    0.022
 4452.00    1.27111   1.16144    0.022
 4453.00    1.26907   1.13225    0.022
 4454.00    1.27083   1.11079    0.021
 4455.00    1.14379   1.09946    0.021
 4456.00    1.01039   1.09520    0.021
 4457.00    1.04302   1.09409    0.021
 4458.00    1.08033   1.09608    0.021
 4459.00    1.24496   1.10362    0.021
 4460.00    1.39874   1.11771    0.021
 4461.00    1.33300   1.13766    0.000
 4462.00    1.26514   1.15997    0.000
 4463.00    1.17235   1.17765    0.000
 4464.00    1.08317   1.18660    0.000
 4465.00    1.02321   1.18883    0.000
 4466.00    0.97286   1.18892    0.000
 4467.00    0.98100   1.19171    0.000
 4468.00    1.01769   1.20145    0.000
 4469.00    1.19132   1.22042    0.000
 4470.00    1.33373   1.24642    0.000
 4471.00    1.35419   1.27421    0.000
 4472.00    1.37288   1.29877    0.000
 4473.00    1.38580   1.31626    0.000
 4474.00    1.38392   1.32409    0.000
 4475.00    1.34131   1.32099    0.000
 4476.00    1.31358   1.30607    0.000
 4477.00    1.32093   1.28032    0.000
 4478.00    1.28857   1.25037    0.000
 4479.00    1.17531   1.22796    0.000
 4480.00    1.12886   1.22329    0.000
 4481.00    1.20083   1.23823    0.000
 4482.00    1.24631   1.26507    0.021
 4483.00    1.25071   1.29032    0.021
 4484.00    1.32007   1.30272    0.021
 4485.00    1.47790   1.29864    0.021
 4486.00    1.53015   1.28205    0.021
 4487.00    1.45578   1.26162    0.021
 4488.00    1.35578   1.24607    0.021
 4489.00    1.22870   1.23906    0.021
 4490.00    1.21681   1.23772    0.021
 4491.00    1.31236   1.23657    0.021
 4492.00    1.32103   1.23331    0.021
 4493.00    1.25826   1.23130    0.021
 4494.00    1.23308   1.23665    0.021
 4495.00    1.23510   1.25120    0.021
 4496.00    1.21116   1.27123    0.021
 4497.00    1.17074   1.29166    0.021
 4498.00    1.19799   1.30971    0.021
 4499.00    1.26284   1.32644    0.021
 4500.00    1.28954   1.34467    0.021
 4501.00    1.29782   1.36566    0.021
 4502.00    1.33089   1.38560    0.021
 4503.00    1.37431   1.39776    0.021
 4504.00    1.38102   1.39981    0.021
 4505.00    1.37463   1.39498    0.021
 4506.00    1.47011   1.38793    0.022
 4507.00    1.59631   1.38142    0.022
 4508.00    1.49907   1.37489    0.021
 4509.00    1.34587   1.36570    0.021
 4510.00    1.42919   1.35201    0.021
 4511.00    1.56058   1.33526    0.021
 4512.00    1.48270   1.31962    0.021
 4513.00    1.37143   1.30877    0.021
 4514.00    1.33211   1.30423    0.021
 4515.00    1.30134   1.30545    0.021
 4516.00    1.22142   1.31010    0.021
 4517.00    1.13753   1.31603    0.021
 4518.00    1.09876   1.32080    0.021
 4519.00    1.06203   1.31999    0.021
 4520.00    1.20589   1.31000    0.021
 4521.00    1.34908   1.28983    0.021
 4522.00    1.34488   1.26209    0.021
 4523.00    1.34027   1.23073    0.021
 4524.00    1.32808   1.19849    0.022
 4525.00    1.30740   1.16962    0.022
 4526.00    1.19147   1.14921    0.022
 4527.00    1.10532   1.13998    0.021
 4528.00    1.25216   1.14119    0.022
 4529.00    1.36747   1.14887    0.022
 4530.00    1.29640   1.15820    0.021
 4531.00    1.23397   1.16745    0.021
 4532.00    1.21204   1.17822    0.021
 4533.00    1.20017   1.19476    0.022
 4534.00    1.22681   1.21980    0.021
 4535.00    1.24204   1.24980    0.021
 4536.00    1.22089   1.27625    0.021
 4537.00    1.23623   1.29112    0.021
 4538.00    1.35019   1.29405    0.021
 4539.00    1.39292   1.29062    0.021
 4540.00    1.27062   1.28601    0.021
 4541.00    1.28457   1.28208    0.021
 4542.00    1.57161   1.27714    0.021
 4543.00    1.65521   1.26932    0.022
 4544.00    1.38365   1.25968    0.022
 4545.00    1.23187   1.25029    0.021
 4546.00    1.26313   1.24170    0.021
 4547.00    1.30952   1.23438    0.021
 4548.00    1.37623   1.22954    0.021
 4549.00    1.34302   1.22837    0.021
 4550.00    1.19169   1.22951    0.000
 4551.00    1.15440   1.23100    0.000
 4552.00    1.23600   1.23525    0.000
 4553.00    1.32670   1.24630    0.000
 4554.00    1.42576   1.26573    0.000
 4555.00    1.44173   1.29139    0.000
 4556.00    1.39034   1.31725    0.000
 4557.00    1.37929   1.33637    0.000
 4558.00    1.39700   1.34500    0.000
 4559.00    1.39645   1.34271    0.000
 4560.00    1.38445   1.33170    0.000
 4561.00    1.29031   1.31631    0.000
 4562.00    1.15123   1.30247    0.000
 4563.00    1.21256   1.29686    0.000
 4564.00    1.36917   1.30244    0.000
 4565.00    1.44367   1.31559    0.000
 4566.00    1.48449   1.32859    0.000
 4567.00    1.48122   1.33457    0.000
 4568.00    1.46250   1.33287    0.000
 4569.00    1.50512   1.32810    0.000
 4570.00    1.56586   1.32565    0.000
 4571.00    1.44816   1.32916    0.000
 4572.00    1.28675   1.33645    0.000
 4573.00    1.16237   1.34050    0.000
 4574.00    1.04532   1.33690    0.000
 4575.00    1.06673   1.32537    0.000
 4576.00    1.10958   1.30721    0.000
 4577.00    1.19998   1.28558    0.000
 4578.00    1.29583   1.26523    0.000
 4579.00    1.18434   1.25082    0.000
 4580.00    1.05693   1.24451    0.000
 4581.00    1.19324   1.24516    0.000
 4582.00    1.34053   1.25044    0.000
 4583.00    1.26013   1.25965    0.000
 4584.00    1.17968   1.27280    0.000
 4585.00    1.18165   1.28839    0.000
 4586.00    1.18613   1.30301    0.000
 4587.00    1.23427   1.31187    0.000
 4588.00    1.27741   1.31155    0.000
 4589.00    1.26700   1.30261    0.000
 4590.00    1.25283   1.28914    0.000
 4591.00    1.21012   1.27628    0.000
 4592.00    1.18005   1.26742    0.000
 4593.00    1.22253   1.26301    0.000
 4594.00    1.25968   1.26224    0.000
 4595.00    1.27242   1.26421    0.000
 4596.00    1.26510   1.26731    0.000
 4597.00    1.18273   1.27010    0.000
 4598.00    1.13111   1.27204    0.000
 4599.00    1.17561   1.27337    0.000
 4600.00    1.20883   1.27580    0.000
 4601.00    1.21210   1.28067    0.000
 4602.00    1.19997   1.28846    0.000
 4603.00    1.15274   1.30052    0.000
 4604.00    1.16672   1.31782    0.000
 4605.00    1.30148   1.33928    0.000
 4606.00    1.38629   1.36061    0.000
 4607.00    1.38518   1.37608    0.000
 4608.00    1.35625   1.38191    0.000
 4609.00    1.28543   1.37877    0.000
 4610.00    1.24517   1.37149    0.000
 4611.00    1.24533   1.36541    0.000
 4612.00    1.21028   1.36314    0.000
 4613.00    1.13419   1.36446    0.000
 4614.00    1.18193   1.36697    0.000
 4615.00    1.35692   1.36842    0.000
 4616.00    1.49550   1.36900    0.000
 4617.00    1.60107   1.36951    0.000
 4618.00    1.58127   1.37099    0.000
 4619.00    1.46131   1.37415    0.000
 4620.00    1.39612   1.37730    0.000
 4621.00    1.36943   1.37806    0.000
 4622.00    1.32278   1.37613    0.000
 4623.00    1.26382   1.37232    0.000
 4624.00    1.23701   1.36763    0.000
 4625.00    1.22751   1.36368    0.000
 4626.00    1.26238   1.36126    0.000
 4627.00    1.31802   1.35978    0.000
 4628.00    1.39026   1.35835    0.000
 4629.00    1.46919   1.35613    0.000
 4630.00    1.52842   1.35120    0.000
 4631.00    1.58086   1.34207    0.000
 4632.00    1.52907   1.32998    0.000
 4633.00    1.44710   1.31741    0.000
 4634.00    1.49161   1.30556    0.000
 4635.00    1.56641   1.29502    0.000
 4636.00    1.44507   1.28708    0.000
 4637.00    1.28585   1.28335    0.000
 4638.00    1.20290   1.28392    0.000
 4639.00    1.13140   1.28637    0.000
 4640.00    1.14534   1.28657    0.000
 4641.00    1.16868   1.28003    0.000
 4642.00    1.26031   1.26542    0.000
 4643.00    1.35691   1.24617    0.000
 4644.00    1.30850   1.22847    0.000
 4645.00    1.25461   1.21893    0.000
 4646.00    1.37896   1.22195    0.000
 4647.00    1.49705   1.23672    0.000
 4648.00    1.34971   1.25763    0.000
 4649.00    1.20935   1.27732    0.000
 4650.00    1.18335   1.29021    0.000
 4651.00    1.16480   1.29481    0.000
 4652.00    1.22250   1.29389    0.000
 4653.00    1.25824   1.29334    0.000
 4654.00    1.13348   1.29952    0.000
 4655.00    1.05789   1.31481    0.000
 4656.00    1.25720   1.33568    0.000
 4657.00    1.42948   1.35443    0.000
 4658.00    1.48113   1.36284    0.000
 4659.00    1.50570   1.35656    0.000
 4660.00    1.43105   1.33657    0.000
 4661.00    1.39848   1.30706    0.000
 4662.00    1.49501   1.27282    0.000
 4663.00    1.54431   1.23812    0.000
 4664.00    1.47042   1.20741    0.000
 4665.00    1.40215   1.18658    0.000
 4666.00    1.34648   1.18175    0.000
 4667.00    1.29201   1.19442    0.000
 4668.00    1.23984   1.21911    0.000
 4669.00    1.22160   1.24699    0.000
 4670.00    1.26082   1.27111    0.000
 4671.00    1.27822   1.28871    0.000
 4672.00    1.26327   1.30051    0.000
 4673.00    1.26076   1.30782    0.000
 4674.00    1.27446   1.31030    0.000
 4675.00    1.24125   1.30653    0.000
 4676.00    1.15412   1.29659    0.000
 4677.00    1.16983   1.28379    0.000
 4678.00    1.28974   1.27335    0.000
 4679.00    1.34770   1.26916    0.000
 4680.00    1.35029   1.27227    0.000
 4681.00    1.33642   1.28074    0.000
 4682.00    1.30959   1.29049    0.000
 4683.00    1.30494   1.29758    0.000
 4684.00    1.31567   1.30032    0.000
 4685.00    1.36022   1.29916    0.000
 4686.00    1.42532   1.29568    0.000
 4687.00    1.41864   1.29196    0.000
 4688.00    1.37390   1.28963    0.000
 4689.00    1.32472   1.28985    0.000
 4690.00    1.27349   1.29352    0.000
 4691.00    1.24018   1.30025    0.000
 4692.00    1.21397   1.30749    0.000
 4693.00    1.21865   1.31141    0.000
 4694.00    1.23375   1.30862    0.000
 4695.00    1.23353   1.29777    0.000
 4696.00    1.22897   1.28086    0.000
 4697.00    1.26298   1.26259    0.000
 4698.00    1.30602   1.24743    0.000
 4699.00    1.31393   1.23731    0.000
 4700.00    1.31522   1.23222    0.000
 4701.00    1.17242   1.23170    0.000
 4702.00    1.00867   1.23464    0.000
 4703.00    1.09894   1.23858    0.000
 4704.00    1.21607   1.24105    0.000
 4705.00    1.43307   1.24199    0.000
 4706.00    1.65693   1.24394    0.000
 4707.00    1.53606   1.24942    0.000
 4708.00    1.40347   1.25862    0.000
 4709.00    1.35900   1.26905    0.000
 4710.00    1.31517   1.27745    0.000
 4711.00    1.28791   1.28304    0.000
 4712.00    1.26274   1.28872    0.000
 4713.00    1.26954   1.29872    0.000
 4714.00    1.28178   1.31508    0.000
 4715.00    1.34731   1.33552    0.000
 4716.00    1.41447   1.35568    0.000
 4717.00    1.49316   1.37196    0.000
 4718.00    1.54440   1.38246    0.000
 4719.00    1.44628   1.38706    0.000
 4720.00    1.32854   1.38689    0.000
 4721.00    1.12533   1.38286    0.000
 4722.00    0.99711   1.37416    0.000
 4723.00    1.13792   1.35849    0.000
 4724.00    1.27428   1.33477    0.000
 4725.00    1.39725   1.30588    0.000
 4726.00    1.48034   1.27858    0.000
 4727.00    1.46128   1.25997    0.000
 4728.00    1.45523   1.25339    0.000
 4729.00    1.47788   1.25786    0.000
 4730.00    1.48884   1.26955    0.000
 4731.00    1.47745   1.28350    0.000
 4732.00    1.44425   1.29584    0.000
 4733.00    1.37466   1.30519    0.000
 4734.00    1.30536   1.31203    0.000
 4735.00    1.23650   1.31824    0.000
 4736.00    1.25435   1.32532    0.000
 4737.00    1.38368   1.33229    0.000
 4738.00    1.40480   1.33769    0.000
 4739.00    1.30334   1.34190    0.000
 4740.00    1.28895   1.34616    0.000
 4741.00    1.36154   1.35108    0.000
 4742.00    1.40631   1.35641    0.000
 4743.00    1.42654   1.36190    0.000
 4744.00    1.49838   1.36743    0.000
 4745.00    1.61028   1.37194    0.000
 4746.00    1.59881   1.37387    0.000
 4747.00    1.50312   1.37235    0.000
 4748.00    1.46690   1.36697    0.000
 4749.00    1.46626   1.35768    0.000
 4750.00    1.34781   1.34568    0.000
 4751.00    1.16785   1.33345    0.000
 4752.00    1.23177   1.32351    0.000
 4753.00    1.40607   1.31773    0.000
 4754.00    1.48501   1.31644    0.000
 4755.00    1.52682   1.31833    0.000
 4756.00    1.57936   1.32056    0.000
 4757.00    1.63546   1.31963    0.000
 4758.00    1.56176   1.31269    0.000
 4759.00    1.45197   1.29883    0.000
 4760.00    1.32438   1.28035    0.000
 4761.00    1.19271   1.26191    0.021
 4762.00    1.15081   1.24793    0.021
 4763.00    1.12535   1.24165    0.021
 4764.00    1.20074   1.24499    0.021
 4765.00    1.29032   1.25734    0.021
 4766.00    1.27410   1.27509    0.021
 4767.00    1.24715   1.29350    0.020
 4768.00    1.28213   1.30897    0.020
 4769.00    1.32111   1.32066    0.021
 4770.00    1.34786   1.33072    0.021
 4771.00    1.37415   1.34160    0.021
 4772.00    1.35520   1.35344    0.021
 4773.00    1.33603   1.36422    0.021
 4774.00    1.31027   1.37191    0.021
 4775.00    1.28657   1.37544    0.020
 4776.00    1.29268   1.37405    0.021
 4777.00    1.30421   1.36775    0.021
 4778.00    1.36672   1.35766    0.021
 4779.00    1.39705   1.34520    0.022
 4780.00    1.20705   1.33171    0.048
 4781.00    1.09345   1.31901   -1.000
 4782.00    1.38454   1.30880   -1.000
 4783.00    1.64131   1.30140   -1.000
 4784.00    1.75197   1.29657   -1.000
 4785.00    1.82234   1.29496   -1.000
 4786.00    1.75116   1.29708   -1.000
 4787.00    1.67607   1.30335   -1.000
 4788.00    1.58946   1.31469   -1.000
 4789.00    1.49110   1.33115    0.139
 4790.00    1.36314   1.35108    0.031
 4791.00    1.31908   1.37116    0.020
 4792.00    1.45698   1.38670    0.021
 4793.00    1.56696   1.39348    0.021
 4794.00    1.62438   1.39016    0.021
 4795.00    1.65229   1.37927    0.021
 4796.00    1.63172   1.36602    0.021
 4797.00    1.56112   1.35610    0.021
 4798.00    1.41844   1.35287    0.021
 4799.00    1.33381   1.35554    0.021
 4800.00    1.32276   1.35982    0.021
 4801.00    1.26363   1.36086    0.021
 4802.00    1.15079   1.35632    0.020
 4803.00    1.24294   1.34747    0.020
 4804.00    1.53701   1.33767    0.020
 4805.00    1.57436   1.33030    0.021
 4806.00    1.38869   1.32758    0.021
 4807.00    1.36620   1.32979    0.021
 4808.00    1.46860   1.33538    0.021
 4809.00    1.51395   1.34243    0.021
 4810.00    1.52091   1.34986    0.021
 4811.00    1.49032   1.35761    0.021
 4812.00    1.43760   1.36612    0.020
 4813.00    1.42194   1.37564    0.020
 4814.00    1.42532   1.38558    0.020
 4815.00    1.53781   1.39428    0.020
 4816.00    1.69889   1.39945    0.021
 4817.00    1.65590   1.39868    0.021
 4818.00    1.53483   1.39061    0.021
 4819.00    1.39962   1.37601    0.021
 4820.00    1.25980   1.35813    0.021
 4821.00    1.27960   1.34216    0.021
 4822.00    1.34286   1.33260    0.020
 4823.00    1.40186   1.33011    0.020
 4824.00    1.45991   1.33185    0.020
 4825.00    1.43034   1.33400    0.020
 4826.00    1.38515   1.33398    0.020
 4827.00    1.37766   1.33140    0.020
 4828.00    1.37530   1.32735    0.020
 4829.00    1.39633   1.32395    0.020
 4830.00    1.41963   1.32344    0.020
 4831.00    1.43210   1.32624    0.020
 4832.00    1.44391   1.33063    0.020
 4833.00    1.35365   1.33393    0.020
 4834.00    1.26126   1.33390    0.019
 4835.00    1.27372   1.32937    0.019
 4836.00    1.28430   1.32107    0.020
 4837.00    1.24586   1.31168    0.020
 4838.00    1.21122   1.30425    0.019
 4839.00    1.22822   1.30061    0.020
 4840.00    1.25452   1.30125    0.020
 4841.00    1.36494   1.30565    0.020
 4842.00    1.45363   1.31177    0.020
 4843.00    1.39814   1.31652    0.019
 4844.00    1.35099   1.31751    0.019
 4845.00    1.34689   1.31444    0.019
 4846.00    1.34263   1.30913    0.020
 4847.00    1.33770   1.30347    0.020
 4848.00    1.34305   1.29740    0.000
 4849.00    1.38380   1.28897    0.000
 4850.00    1.38404   1.27563    0.000
 4851.00    1.26680   1.25589    0.000
 4852.00    1.20155   1.23080    0.000
 4853.00    1.26498   1.20276    0.000
 4854.00    1.32627   1.17258    0.000
 4855.00    1.38296   1.13887    0.000
 4856.00    1.44643   1.10061    0.000
 4857.00    1.52245   1.06055    0.000
 4858.00    1.57969   1.02656    0.000
 4859.00    1.60654   1.00847    0.000
 4860.00    1.61586   1.01216    0.000
 4861.00    1.60027   1.03654    0.000
 4862.00    1.55433   1.07447    0.000
 4863.00    1.47045   1.11599    0.000
 4864.00    1.35021   1.15202    0.000
 4865.00    1.18994   1.17684    0.000
 4866.00    1.10705   1.18837    0.000
 4867.00    1.09931   1.18826    0.000
 4868.00    1.13454   1.18193    0.000
 4869.00    1.20658   1.17656    0.000
 4870.00    1.17967   1.17776    0.000
 4871.00    1.07811   1.18778    0.000
 4872.00    1.06258   1.20546    0.000
 4873.00    1.10406   1.22753    0.000
 4874.00    1.27294   1.25048    0.000
 4875.00    1.51577   1.27163    0.019
 4876.00    1.52893   1.28857    0.019
 4877.00    1.42592   1.29913    0.019
 4878.00    1.34591   1.30239    0.019
 4879.00    1.27596   1.29861    0.019
 4880.00    1.29086   1.28896    0.019
 4881.00    1.33765   1.27541    0.020
 4882.00    1.30424   1.26032    0.020
 4883.00    1.24525   1.24579    0.020
 4884.00    1.24767   1.23321    0.020
 4885.00    1.26647   1.22311    0.020
 4886.00    1.30952   1.21585    0.020
 4887.00    1.35786   1.21305    0.019
 4888.00    1.31689   1.21808    0.020
 4889.00    1.26044   1.23433    0.020
 4890.00    1.34497   1.26271    0.020
 4891.00    1.44808   1.29983    0.020
 4892.00    1.41009   1.33845    0.020
 4893.00    1.35899   1.37054    0.020
 4894.00    1.37599   1.39045    0.020
 4895.00    1.39685   1.39674    0.021
 4896.00    1.33021   1.39191    0.021
 4897.00    1.26263   1.38052    0.021
 4898.00    1.31084   1.36739    0.021
 4899.00    1.35839   1.35654    0.020
 4900.00    1.39049   1.35038    0.021
 4901.00    1.42395   1.34941    0.021
 4902.00    1.47482   1.35200    0.021
 4903.00    1.50512   1.35470    0.021
 4904.00    1.35646   1.35340    0.021
 4905.00    1.24592   1.34550    0.020
 4906.00    1.38064   1.33185    0.020
 4907.00    1.48426   1.31680    0.020
 4908.00    1.43145   1.30616    0.020
 4909.00    1.37289   1.30403    0.021
 4910.00    1.29095   1.31048    0.021
 4911.00    1.22999   1.32107    0.021
 4912.00    1.23983   1.32852    0.021
 4913.00    1.24021   1.32560    0.021
 4914.00    1.21363   1.30818    0.021
 4915.00    1.19342   1.27761    0.021
 4916.00    1.18870   1.24086    0.020
 4917.00    1.23196   1.20789    0.020
 4918.00    1.37595   1.18762    0.021
 4919.00    1.44144   1.18413    0.021
 4920.00    1.36367   1.19607    0.021
 4921.00    1.33516   1.21878    0.020
 4922.00    1.38520   1.24739    0.020
 4923.00    1.37592   1.27848    0.020
 4924.00    1.28365   1.30958    0.020
 4925.00    1.28890   1.33810    0.020
 4926.00    1.41424   1.36081    0.021
 4927.00    1.47488   1.37450    0.021
 4928.00    1.46530   1.37722    0.020
 4929.00    1.46431   1.36928    0.020
 4930.00    1.47155   1.35344    0.020
 4931.00    1.46643   1.33372    0.020
 4932.00    1.45088   1.31366    0.020
 4933.00    1.35675   1.29516    0.020
 4934.00    1.20419   1.27932    0.020
 4935.00    1.19558   1.26790    0.020
 4936.00    1.28100   1.26412    0.019
 4937.00    1.34605   1.27091    0.019
 4938.00    1.39948   1.28849    0.019
 4939.00    1.39914   1.31321    0.019
 4940.00    1.37204   1.33904    0.000
 4941.00    1.36244   1.36056    0.000
 4942.00    1.36038   1.37533    0.000
 4943.00    1.43447   1.38423    0.000
 4944.00    1.53668   1.38996    0.000
 4945.00    1.49666   1.39496    0.000
 4946.00    1.41214   1.39999    0.000
 4947.00    1.52279   1.40398    0.000
 4948.00    1.68435   1.40478    0.000
 4949.00    1.62319   1.40006    0.000
 4950.00    1.51460   1.38808    0.000
 4951.00    1.42685   1.36813    0.000
 4952.00    1.34261   1.34130    0.000
 4953.00    1.24660   1.31126    0.000
 4954.00    1.14910   1.28442    0.000
 4955.00    1.18118   1.26812    0.000
 4956.00    1.22476   1.26705    0.000
 4957.00    1.19981   1.28040    0.000
 4958.00    1.17125   1.30180    0.000
 4959.00    1.22972   1.32235    0.000
 4960.00    1.29008   1.33489    0.000
 4961.00    1.36744   1.33659    0.000
 4962.00    1.44294   1.32908    0.000
 4963.00    1.47796   1.31685    0.000
 4964.00    1.50955   1.30506    0.000
 4965.00    1.49901   1.29782    0.000
 4966.00    1.48558   1.29722    0.000
 4967.00    1.44802   1.30329    0.000
 4968.00    1.41598   1.31449    0.000
 4969.00    1.41838   1.32835    0.000
 4970.00    1.42159   1.34194    0.000
 4971.00    1.42871   1.35220    0.000
 4972.00    1.43949   1.35652    0.000
 4973.00    1.46480   1.35321    0.000
 4974.00    1.45216   1.34186    0.000
 4975.00    1.31397   1.32321    0.000
 4976.00    1.21398   1.29878    0.000
 4977.00    1.22076   1.27055    0.000
 4978.00    1.24948   1.24108    0.000
 4979.00    1.33065   1.21399    0.000
 4980.00    1.36202   1.19386    0.000
 4981.00    1.29050   1.18511    0.000
 4982.00    1.26157   1.18989    0.000
 4983.00    1.30914   1.20669    0.000
 4984.00    1.37534   1.23046    0.000
 4985.00    1.47082   1.25470    0.000
 4986.00    1.46773   1.27404    0.000
 4987.00    1.32868   1.28617    0.000
 4988.00    1.17460   1.29201    0.000
 4989.00    1.00227   1.29426    0.000
 4990.00    1.00889   1.29563    0.000
 4991.00    1.20704   1.29751    0.000
 4992.00    1.34539   1.29953    0.000
 4993.00    1.42727   1.29999    0.000
 4994.00    1.46743   1.29668    0.000
 4995.00    1.47286   1.28807    0.000
 4996.00    1.44238   1.27421    0.000
 4997.00    1.38558   1.25697    0.000
 4998.00    1.32311   1.23910    0.000
 4999.00    1.25697   1.22288    0.000
 5000.00    1.21033   1.20926    0.000
 5001.00    1.17465   1.19833    0.000
 5002.00    1.17374   1.19051    0.000
 5003.00    1.18985   1.18714    0.000
 5004.00    1.20991   1.18959    0.000
 5005.00    1.23165   1.19729    0.000
 5006.00    1.42309   1.20672    0.000
 5007.00    1.67608   1.21256    0.000
 5008.00    1.56586   1.21052    0.000
 5009.00    1.34423   1.19996    0.000
 5010.00    1.34794   1.18428    0.000
 5011.00    1.40919   1.16901    0.000
 5012.00    1.46209   1.15876    0.000
 5013.00    1.51325   1.15540    0.000
 5014.00    1.47864   1.15801    0.000
 5015.00    1.42998   1.16437    0.000
 5016.00    1.42157   1.17250    0.000
 5017.00    1.41809   1.18130    0.000
 5018.00    1.37502   1.19043    0.000
 5019.00    1.32859   1.19986    0.000
 5020.00    1.49922   1.20951    0.000
 5021.00    1.68045   1.21898    0.000
 5022.00    1.47127   1.22750    0.000
 5023.00    1.26166   1.23456    0.000
 5024.00    1.39421   1.24060    0.000
 5025.00    1.50947   1.24729    0.000
 5026.00    1.27817   1.25662    0.000
 5027.00    1.08252   1.26939    0.000
 5028.00    1.30322   1.28427    0.000
 5029.00    1.49109   1.29782    0.020
 5030.00    1.41390   1.30578    0.020
 5031.00    1.35593   1.30476    0.020
 5032.00    1.41450   1.29365    0.019
 5033.00    1.44960   1.27378    0.019
 5034.00    1.37252   1.24812    0.019
 5035.00    1.30874   1.22007    0.019
 5036.00    1.29679   1.19320    0.019
 5037.00    1.29883   1.17183    0.019
 5038.00    1.34625   1.16113    0.019
 5039.00    1.39079   1.16538    0.019
 5040.00    1.42743   1.18545    0.019
 5041.00    1.44580   1.21673    0.019
 5042.00    1.42116   1.25038    0.019
 5043.00    1.41489   1.27668    0.019
 5044.00    1.44594   1.28914    0.019
 5045.00    1.42015   1.28690    0.019
 5046.00    1.29379   1.27446    0.019
 5047.00    1.26622   1.25929    0.019
 5048.00    1.39158   1.24859    0.018
 5049.00    1.42518   1.24678    0.018
 5050.00    1.33402   1.25459    0.018
 5051.00    1.32078   1.26975    0.018
 5052.00    1.40082   1.28843    0.018
 5053.00    1.41585   1.30703    0.018
 5054.00    1.36228   1.32321    0.019
 5055.00    1.36338   1.33608    0.018
 5056.00    1.41539   1.34548    0.018
 5057.00    1.39051   1.35102    0.018
 5058.00    1.30253   1.35149    0.018
 5059.00    1.29257   1.34532    0.018
 5060.00    1.33896   1.33185    0.018
 5061.00    1.37715   1.31256    0.018
 5062.00    1.41014   1.29114    0.018
 5063.00    1.41044   1.27216    0.019
 5064.00    1.39262   1.25911    0.019
 5065.00    1.39380   1.25301    0.019
 5066.00    1.40414   1.25246    0.018
 5067.00    1.41079   1.25485    0.019
 5068.00    1.41591   1.25774    0.019
 5069.00    1.42660   1.25975    0.019
 5070.00    1.43928   1.26050    0.019
 5071.00    1.35657   1.26000    0.019
 5072.00    1.24517   1.25773    0.019
 5073.00    1.21206   1.25232    0.019
 5074.00    1.19852   1.24227    0.019
 5075.00    1.11418   1.22715    0.019
 5076.00    1.01549   1.20882    0.019
 5077.00    1.14500   1.19138    0.019
 5078.00    1.31078   1.17965    0.019
 5079.00    1.36497   1.17705    0.019
 5080.00    1.40595   1.18412    0.019
 5081.00    1.38958   1.19869    0.019
 5082.00    1.36860   1.21719    0.019
 5083.00    1.18390   1.23620    0.018
 5084.00    0.99183   1.25346    0.018
 5085.00    1.03387   1.26809    0.018
 5086.00    1.08012   1.28033    0.018
 5087.00    1.19795   1.29085    0.019
 5088.00    1.30428   1.30001    0.019
 5089.00    1.19681   1.30723    0.019
 5090.00    1.10973   1.31089    0.018
 5091.00    1.24968   1.30880    0.019
 5092.00    1.37410   1.29934    0.019
 5093.00    1.37746   1.28266    0.019
 5094.00    1.36384   1.26145    0.019
 5095.00    1.25015   1.24050    0.019
 5096.00    1.17290   1.22511    0.019
 5097.00    1.26567   1.21883    0.019
 5098.00    1.30923   1.22181    0.019
 5099.00    1.16524   1.23072    0.019
 5100.00    1.08902   1.24033    0.019
 5101.00    1.22832   1.24608    0.019
 5102.00    1.31363   1.24578    0.019
 5103.00    1.25334   1.23998    0.019
 5104.00    1.24024   1.23122    0.019
 5105.00    1.33623   1.22277    0.019
 5106.00    1.36020   1.21769    0.019
 5107.00    1.24010   1.21806    0.019
 5108.00    1.16867   1.22460    0.019
 5109.00    1.18204   1.23656    0.019
 5110.00    1.19875   1.25210    0.019
 5111.00    1.22054   1.26894    0.019
 5112.00    1.25872   1.28501    0.019
 5113.00    1.31888   1.29860    0.019
 5114.00    1.35232   1.30815    0.019
 5115.00    1.35423   1.31204    0.019
 5116.00    1.33880   1.30879    0.019
 5117.00    1.30531   1.29766    0.019
 5118.00    1.27054   1.27929    0.019
 5119.00    1.23461   1.25599    0.019
 5120.00    1.23612   1.23127    0.019
 5121.00    1.26793   1.20893    0.019
 5122.00    1.32066   1.19190    0.019
 5123.00    1.38827   1.18151    0.019
 5124.00    1.33347   1.17753    0.019
 5125.00    1.20219   1.17884    0.018
 5126.00    1.08224   1.18426    0.018
 5127.00    0.96848   1.19294    0.018
 5128.00    0.96656   1.20415    0.018
 5129.00    1.01770   1.21675    0.018
 5130.00    1.13157   1.22900    0.018
 5131.00    1.27113   1.23874    0.018
 5132.00    1.34241   1.24389    0.018
 5133.00    1.38981   1.24317    0.018
 5134.00    1.29840   1.23674    0.018
 5135.00    1.16607   1.22635    0.018
 5136.00    1.15100   1.21479    0.018
 5137.00    1.16457   1.20473    0.018
 5138.00    1.22856   1.19764    0.018
 5139.00    1.30251   1.19355    0.018
 5140.00    1.31587   1.19162    0.018
 5141.00    1.31988   1.19078    0.018
 5142.00    1.16241   1.19026    0.018
 5143.00    0.98654   1.18961    0.018
 5144.00    1.03785   1.18883    0.018
 5145.00    1.10648   1.18808    0.018
 5146.00    1.14511   1.18752    0.018
 5147.00    1.18250   1.18702    0.018
 5148.00    1.25986   1.18655    0.018
 5149.00    1.33504   1.18674    0.019
 5150.00    1.30501   1.18910    0.019
 5151.00    1.27411   1.19543    0.019
 5152.00    1.22818   1.20675    0.019
 5153.00    1.20251   1.22247    0.019
 5154.00    1.39244   1.24018    0.019
 5155.00    1.52540   1.25640    0.020
 5156.00    1.22951   1.26755    0.019
 5157.00    0.99826   1.27081    0.019
 5158.00    1.13730   1.26439    0.019
 5159.00    1.24705   1.24733    0.019
 5160.00    1.22346   1.21922    0.019
 5161.00    1.19302   1.18068    0.019
 5162.00    1.13703   1.13398    0.019
 5163.00    1.06107   1.08373    0.019
 5164.00    0.92282   1.03637    0.019
 5165.00    0.83867   0.99812    0.019
 5166.00    0.89778   0.97267    0.019
 5167.00    0.94669   0.96002    0.019
 5168.00    0.97238   0.95797    0.019
 5169.00    1.01709   0.96499    0.019
 5170.00    1.09927   0.98167    0.019
 5171.00    1.15268   1.00925    0.020
 5172.00    1.15672   1.04668    0.020
 5173.00    1.20595   1.08873    0.020
 5174.00    1.32309   1.12715    0.020
 5175.00    1.39306   1.15356    0.020
 5176.00    1.40072   1.16232    0.020
 5177.00    1.38328   1.15191    0.019
 5178.00    1.33666   1.12548    0.019
 5179.00    1.26455   1.09074    0.019
 5180.00    1.16630   1.05856    0.019
 5181.00    1.18268   1.03975    0.018
 5182.00    1.30281   1.04123    0.018
 5183.00    1.29903   1.06290    0.018
 5184.00    1.19643   1.09760    0.018
 5185.00    1.15609   1.13443    0.018
 5186.00    1.15941   1.16350    0.018
 5187.00    1.14152   1.17951    0.018
 5188.00    1.11058   1.18252    0.018
 5189.00    1.11642   1.17701    0.018
 5190.00    1.14204   1.16939    0.000
 5191.00    1.22809   1.16537    0.000
 5192.00    1.34236   1.16812    0.000
 5193.00    1.37723   1.17785    0.000
 5194.00    1.38015   1.19266    0.000
 5195.00    1.42579   1.20947    0.000
 5196.00    1.48609   1.22464    0.000
 5197.00    1.38280   1.23463    0.000
 5198.00    1.23225   1.23667    0.000
 5199.00    1.19732   1.22919    0.000
 5200.00    1.19000   1.21224    0.000
 5201.00    1.23131   1.18796    0.000
 5202.00    1.28197   1.16040    0.000
 5203.00    1.21597   1.13470    0.000
 5204.00    1.13253   1.11605    0.000
 5205.00    1.16448   1.10836    0.000
 5206.00    1.20906   1.11338    0.000
 5207.00    1.14814   1.13022    0.000
 5208.00    1.07959   1.15547    0.000
 5209.00    1.04603   1.18371    0.000
 5210.00    1.01378   1.20918    0.000
 5211.00    1.12191   1.22792    0.018
 5212.00    1.23237   1.23913    0.018
 5213.00    1.40364   1.24513    0.018
 5214.00    1.55624   1.24994    0.018
 5215.00    1.40595   1.25672    0.018
 5216.00    1.27313   1.26580    0.019
 5217.00    1.31817   1.27443    0.019
 5218.00    1.35282   1.27808    0.019
 5219.00    1.31177   1.27263    0.019
 5220.00    1.29074   1.25624    0.019
 5221.00    1.38116   1.23071    0.019
 5222.00    1.41506   1.20136    0.019
 5223.00    1.19752   1.17568    0.019
 5224.00    1.04396   1.16062    0.019
 5225.00    1.12412   1.15988    0.019
 5226.00    1.17952   1.17215    0.019
 5227.00    1.15916   1.19183    0.019
 5228.00    1.13593   1.21180    0.019
 5229.00    1.10524   1.22699    0.019
 5230.00    1.11363   1.23652    0.019
 5231.00    1.20943   1.24297    0.019
 5232.00    1.22842   1.25038    0.019
 5233.00    1.09854   1.26153    0.019
 5234.00    1.09959   1.27623    0.019
 5235.00    1.32194   1.29207    0.019
 5236.00    1.46586   1.30616    0.019
 5237.00    1.49363   1.31645    0.019
 5238.00    1.44262   1.32244    0.019
 5239.00    1.28905   1.32458    0.019
 5240.00    1.21879   1.32329    0.019
 5241.00    1.24408   1.31848    0.018
 5242.00    1.28073   1.30963    0.018
 5243.00    1.32887   1.29663    0.019
 5244.00    1.31485   1.28053    0.019
 5245.00    1.24536   1.26374    0.019
 5246.00    1.22197   1.24920    0.019
 5247.00    1.23482   1.23918    0.019
 5248.00    1.23737   1.23474    0.019
 5249.00    1.23279   1.23585    0.019
 5250.00    1.21405   1.24172    0.019
 5251.00    1.18672   1.25120    0.019
 5252.00    1.19397   1.26347    0.019
 5253.00    1.21954   1.27770    0.019
 5254.00    1.25433   1.29170    0.018
 5255.00    1.29337   1.30162    0.018
 5256.00    1.30462   1.30290    0.018
 5257.00    1.30488   1.29187    0.018
 5258.00    1.29747   1.26738    0.018
 5259.00    1.28749   1.23161    0.018
 5260.00    1.30003   1.18983    0.018
 5261.00    1.31895   1.14861    0.018
 5262.00    1.32571   1.11354    0.018
 5263.00    1.32962   1.08774    0.018
 5264.00    1.37121   1.07167    0.018
 5265.00    1.41987   1.06430    0.018
 5266.00    1.33701   1.06455    0.019
 5267.00    1.23509   1.07226    0.019
 5268.00    1.17690   1.08772    0.019
 5269.00    1.12331   1.11041    0.018
 5270.00    1.10853   1.13804    0.018
 5271.00    1.09639   1.16762    0.019
 5272.00    1.02165   1.19684    0.018
 5273.00    0.94481   1.22397    0.018
 5274.00    1.08403   1.24757    0.018
 5275.00    1.22177   1.26634    0.019
 5276.00    1.30428   1.27864    0.019
 5277.00    1.37336   1.28323    0.018
 5278.00    1.23787   1.28101    0.018
 5279.00    1.12653   1.27561    0.018
 5280.00    1.25081   1.27218    0.019
 5281.00    1.36207   1.27546    0.019
 5282.00    1.38172   1.28753    0.019
 5283.00    1.40797   1.30693    0.019
 5284.00    1.47006   1.32958    0.019
 5285.00    1.50899   1.35087    0.019
 5286.00    1.44730   1.36730    0.019
 5287.00    1.41128   1.37713    0.019
 5288.00    1.46715   1.37982    0.019
 5289.00    1.49873   1.37557    0.019
 5290.00    1.45741   1.36472    0.019
 5291.00    1.41810   1.34762    0.019
 5292.00    1.38393   1.32528    0.019
 5293.00    1.35017   1.30009    0.019
 5294.00    1.31731   1.27598    0.019
 5295.00    1.28064   1.25744    0.019
 5296.00    1.23670   1.24809    0.019
 5297.00    1.19075   1.24945    0.019
 5298.00    1.14149   1.26069    0.019
 5299.00    1.10480   1.27919    0.019
 5300.00    1.08644   1.30142    0.019
 5301.00    1.12909   1.32381    0.019
 5302.00    1.25002   1.34354    0.019
 5303.00    1.37010   1.35916    0.019
 5304.00    1.48924   1.37044    0.019
 5305.00    1.47367   1.37779    0.019
 5306.00    1.32374   1.38207    0.018
 5307.00    1.28903   1.38394    0.018
 5308.00    1.35567   1.38355    0.018
 5309.00    1.37252   1.38057    0.018
 5310.00    1.35077   1.37474    0.018
 5311.00    1.31386   1.36641    0.018
 5312.00    1.26663   1.35674    0.018
 5313.00    1.25040   1.34731    0.018
 5314.00    1.25268   1.33941    0.018
 5315.00    1.24106   1.33348    0.018
 5316.00    1.22220   1.32889    0.018
 5317.00    1.22767   1.32406    0.018
 5318.00    1.24414   1.31703    0.018
 5319.00    1.25187   1.30606    0.017
 5320.00    1.25619   1.29000    0.017
 5321.00    1.25780   1.26887    0.017
 5322.00    1.25850   1.24399    0.017
 5323.00    1.23336   1.21790    0.017
 5324.00    1.20105   1.19436    0.017
 5325.00    1.23704   1.17799    0.017
 5326.00    1.28861   1.17319    0.017
 5327.00    1.29214   1.18191    0.017
 5328.00    1.28691   1.20265    0.017
 5329.00    1.26361   1.23104    0.017
 5330.00    1.23779   1.26131    0.017
 5331.00    1.28911   1.28775    0.018
 5332.00    1.34820   1.30622    0.018
 5333.00    1.39379   1.31528    0.018
 5334.00    1.43851   1.31570    0.018
 5335.00    1.40036   1.30935    0.018
 5336.00    1.35979   1.29893    0.017
 5337.00    1.34200   1.28801    0.017
 5338.00    1.32286   1.28026    0.018
 5339.00    1.26522   1.27789    0.018
 5340.00    1.21540   1.28055    0.018
 5341.00    1.27782   1.28593    0.018
 5342.00    1.33050   1.29131    0.018
 5343.00    1.29201   1.29467    0.018
 5344.00    1.26608   1.29570    0.018
 5345.00    1.32585   1.29617    0.018
 5346.00    1.36949   1.29889    0.018
 5347.00    1.32801   1.30615    0.018
 5348.00    1.28368   1.31870    0.018
 5349.00    1.22726   1.33559    0.018
 5350.00    1.20046   1.35491    0.018
 5351.00    1.27754   1.37444    0.018
 5352.00    1.31128   1.39189    0.018
 5353.00    1.21729   1.40535    0.018
 5354.00    1.18963   1.41370    0.018
 5355.00    1.32866   1.41649    0.018
 5356.00    1.41794   1.41350    0.018
 5357.00    1.39958   1.40494    0.018
 5358.00    1.37355   1.39183    0.018
 5359.00    1.33314   1.37576    0.018
 5360.00    1.27469   1.35841    0.018
 5361.00    1.18666   1.34116    0.018
 5362.00    1.16566   1.32471    0.017
 5363.00    1.24108   1.30901    0.017
 5364.00    1.30033   1.29355    0.017
 5365.00    1.33912   1.27799    0.017
 5366.00    1.36113   1.26323    0.017
 5367.00    1.36442   1.25191    0.017
 5368.00    1.36001   1.24730   -2.000
 5369.00    1.34802   1.25203   -2.000
 5370.00    1.35892   1.26647   -2.000
 5371.00    1.38968   1.28805   -2.000
 5372.00    1.38496   1.31217   -2.000
 5373.00    1.35314   1.33373   -2.000
 5374.00    1.28798   1.34893   -2.000
 5375.00    1.20042   1.35640   -2.000
 5376.00    1.17603   1.35737   -2.000
 5377.00    1.18878   1.35420   -2.000
 5378.00    1.16361   1.34923   -2.000
 5379.00    1.11899   1.34437   -2.000
 5380.00    1.17383   1.34077   -2.000
 5381.00    1.27285   1.33878   -2.000
 5382.00    1.42570   1.33798   -2.000
 5383.00    1.59908   1.33701    0.017
 5384.00    1.55375   1.33406    0.017
 5385.00    1.43748   1.32795    0.017
 5386.00    1.41482   1.31848    0.017
 5387.00    1.41758   1.30644    0.017
 5388.00    1.37463   1.29344    0.017
 5389.00    1.32149   1.28090    0.017
 5390.00    1.34428   1.26947    0.017
 5391.00    1.38056   1.25932    0.017
 5392.00    1.34689   1.25057    0.017
 5393.00    1.30372   1.24373    0.018
 5394.00    1.24209   1.23976    0.018
 5395.00    1.17869   1.23955    0.017
 5396.00    1.16415   1.24282    0.018
 5397.00    1.15255   1.24746    0.018
 5398.00    1.17764   1.25041    0.017
 5399.00    1.20428   1.24881    0.017
 5400.00    1.32930   1.24086    0.017
 5401.00    1.44646   1.22748    0.017
 5402.00    1.36093   1.21251    0.018
 5403.00    1.27964   1.20051    0.018
 5404.00    1.25603   1.19463    0.018
 5405.00    1.23499   1.19636    0.017
 5406.00    1.23696   1.20545    0.017
 5407.00    1.24235   1.22021    0.017
 5408.00    1.27033   1.23833    0.017
 5409.00    1.28984   1.25775    0.017
 5410.00    1.26578   1.27708    0.017
 5411.00    1.26070   1.29542    0.017
 5412.00    1.33439   1.31166    0.017
 5413.00    1.37331   1.32433    0.017
 5414.00    1.29279   1.33256    0.017
 5415.00    1.24457   1.33642    0.017
 5416.00    1.28979   1.33648    0.017
 5417.00    1.31040   1.33346    0.017
 5418.00    1.27019   1.32829    0.017
 5419.00    1.25642   1.32239    0.016
 5420.00    1.29895   1.31738    0.016
 5421.00    1.33358   1.31406    0.016
 5422.00    1.35363   1.31210    0.016
 5423.00    1.34056   1.31014    0.016
 5424.00    1.27398   1.30630    0.016
 5425.00    1.23244   1.29946    0.016
 5426.00    1.22637   1.28978    0.016
 5427.00    1.25862   1.27807    0.016
 5428.00    1.33865   1.26592    0.016
 5429.00    1.39674   1.25556    0.016
 5430.00    1.43073   1.24908    0.016
 5431.00    1.41771   1.24821    0.016
 5432.00    1.35912   1.25350    0.016
 5433.00    1.31884   1.26475    0.016
 5434.00    1.29422   1.28200    0.016
 5435.00    1.27610   1.30413    0.016
 5436.00    1.26288   1.32776    0.016
 5437.00    1.26506   1.34840    0.016
 5438.00    1.27743   1.36185    0.016
 5439.00    1.30609   1.36543    0.016
 5440.00    1.34419   1.35852    0.016
 5441.00    1.37360   1.34295    0.016
 5442.00    1.39863   1.32264    0.017
 5443.00    1.31497   1.30264    0.017
 5444.00    1.18380   1.28773    0.017
 5445.00    1.23695   1.28070    0.017
 5446.00    1.35922   1.28153    0.017
 5447.00    1.36820   1.28723    0.017
 5448.00    1.34114   1.29329    0.017
 5449.00    1.34042   1.29548    0.017
 5450.00    1.34669   1.29171    0.017
 5451.00    1.31386   1.28365    0.017
 5452.00    1.27252   1.27551    0.017
 5453.00    1.33909   1.27129    0.017
 5454.00    1.42431   1.27279    0.017
 5455.00    1.43475   1.27902    0.017
 5456.00    1.43538   1.28698    0.017
 5457.00    1.37291   1.29348    0.017
 5458.00    1.30460   1.29604    0.017
 5459.00    1.30115   1.29423    0.017
 5460.00    1.30134   1.29032    0.016
 5461.00    1.29361   1.28750    0.016
 5462.00    1.28576   1.28772    0.016
 5463.00    1.28227   1.29084    0.016
 5464.00    1.27877   1.29531    0.016
 5465.00    1.27473   1.29920    0.016
 5466.00    1.27444   1.30035    0.016
 5467.00    1.32219   1.29755    0.016
 5468.00    1.36542   1.29109    0.016
 5469.00    1.36952   1.28149    0.016
 5470.00    1.37616   1.26931    0.016
 5471.00    1.39912   1.25583    0.016
 5472.00    1.41225   1.24301    0.016
 5473.00    1.37614   1.23259    0.016
 5474.00    1.35479   1.22602    0.016
 5475.00    1.39339   1.22446    0.016
 5476.00    1.43755   1.22767    0.016
 5477.00    1.50047   1.23431    0.016
 5478.00    1.54504   1.24353   -2.000
 5479.00    1.53749   1.25424   -2.000
 5480.00    1.54357   1.26470   -2.000
 5481.00    1.58274   1.27401   -2.000
 5482.00    1.62483   1.28203   -2.000
 5483.00    1.67305   1.28836   -2.000
 5484.00    1.67735   1.29200   -2.000
 5485.00    1.60168   1.29298   -2.000
 5486.00    1.47656   1.29253   -2.000
 5487.00    1.27276   1.29203   -2.000
 5488.00    1.14224   1.29244   -2.000
 5489.00    1.11412   1.29393   -2.000
 5490.00    1.07023   1.29557   -2.000
 5491.00    1.00694   1.29632   -2.000
 5492.00    0.92418   1.29629   -2.000
 5493.00    0.82030   1.29589   -2.000
 5494.00    0.92236   1.29529   -2.000
 5495.00    1.22128   1.29469   -2.000
 5496.00    1.37868   1.29369   -2.000
 5497.00    1.41681   1.29135   -2.000
 5498.00    1.42812   1.28744   -2.000
 5499.00    1.41953   1.28254   -2.000
 5500.00    1.38334   1.27698   -2.000
 5501.00    1.32915   1.27119   -2.000
 5502.00    1.34192   1.26650    0.016
 5503.00    1.39291   1.26395    0.016
 5504.00    1.35575   1.26314    0.016
 5505.00    1.27481   1.26283    0.016
 5506.00    1.29638   1.26189    0.016
 5507.00    1.36200   1.25974    0.016
 5508.00    1.41805   1.25667    0.016
 5509.00    1.47058   1.25326    0.016
 5510.00    1.39112   1.25069    0.016
 5511.00    1.27047   1.25124    0.016
 5512.00    1.29753   1.25656    0.016
 5513.00    1.36303   1.26669    0.016
 5514.00    1.35744   1.28040    0.016
 5515.00    1.33677   1.29530    0.016
 5516.00    1.29450   1.30872    0.016
 5517.00    1.24860   1.31877    0.016
 5518.00    1.32835   1.32434    0.016
 5519.00    1.42401   1.32505    0.015
 5520.00    1.46520   1.32084    0.015
 5521.00    1.50159   1.31245    0.016
 5522.00    1.35275   1.30131    0.016
 5523.00    1.19423   1.28920    0.015
 5524.00    1.16744   1.27814    0.015
 5525.00    1.14408   1.27022    0.015
 5526.00    1.19447   1.26683    0.015
 5527.00    1.24432   1.26821    0.015
 5528.00    1.28246   1.27307    0.015
 5529.00    1.31870   1.27937    0.015
 5530.00    1.33166   1.28528    0.015
 5531.00    1.35286   1.28942    0.015
 5532.00    1.44280   1.29172    0.016
 5533.00    1.50381   1.29377    0.016
 5534.00    1.38487   1.29713    0.016
 5535.00    1.29088   1.30208    0.016
 5536.00    1.31883   1.30795    0.016
 5537.00    1.32722   1.31368    0.016
 5538.00    1.25803   1.31783    0.016
 5539.00    1.21620   1.31972    0.016
 5540.00    1.26469   1.31992    0.016
 5541.00    1.32249   1.31940    0.018
 5542.00    1.40628   1.31937    0.044
 5543.00    1.46244   1.32107   -1.000
 5544.00    1.45266   1.32512   -1.000
 5545.00    1.44321   1.33104   -1.000
 5546.00    1.43441   1.33708   -1.000
 5547.00    1.42255   1.34140    0.090
 5548.00    1.40522   1.34300    0.024
 5549.00    1.38607   1.34146    0.016
 5550.00    1.36407   1.33705    0.016
 5551.00    1.33111   1.33117    0.016
 5552.00    1.28306   1.32537    0.016
 5553.00    1.25493   1.32053    0.015
 5554.00    1.25093   1.31691    0.016
 5555.00    1.19445   1.31424    0.016
 5556.00    1.08187   1.31178    0.015
 5557.00    1.08023   1.30858    0.015
 5558.00    1.18314   1.30412    0.015
 5559.00    1.23866   1.29868    0.015
 5560.00    1.25481   1.29274    0.015
 5561.00    1.24071   1.28668    0.015
 5562.00    1.20447   1.28116    0.015
 5563.00    1.22698   1.27672    0.015
 5564.00    1.28722   1.27368    0.015
 5565.00    1.31051   1.27204    0.015
 5566.00    1.31305   1.27145    0.015
 5567.00    1.33700   1.27184    0.015
 5568.00    1.37141   1.27335    0.015
 5569.00    1.38563   1.27573    0.015
 5570.00    1.39133   1.27887    0.015
 5571.00    1.34827   1.28306    0.015
 5572.00    1.28759   1.28808    0.015
 5573.00    1.31347   1.29316    0.015
 5574.00    1.36585   1.29828    0.015
 5575.00    1.41408   1.30296    0.015
 5576.00    1.46126   1.30562    0.015
 5577.00    1.44311   1.30566    0.016
 5578.00    1.41144   1.30305    0.016
 5579.00    1.28159   1.29694    0.016
 5580.00    1.13572   1.28681    0.016
 5581.00    1.12123   1.27290    0.016
 5582.00    1.12278   1.25590    0.016
 5583.00    1.24158   1.23772    0.016
 5584.00    1.37023   1.22099    0.016
 5585.00    1.25319   1.20794    0.016
 5586.00    1.12425   1.20046    0.016
 5587.00    1.17117   1.19960    0.016
 5588.00    1.22007   1.20505    0.016
 5589.00    1.23000   1.21502    0.016
 5590.00    1.23656   1.22689    0.016
 5591.00    1.17605   1.23835    0.016
 5592.00    1.12447   1.24757    0.016
 5593.00    1.17648   1.25329    0.016
 5594.00    1.22422   1.25509    0.016
 5595.00    1.23765   1.25318    0.016
 5596.00    1.23728   1.24863    0.016
 5597.00    1.15358   1.24308    0.016
 5598.00    1.09095   1.23886    0.016
 5599.00    1.12874   1.23926    0.016
 5600.00    1.15826   1.24639    0.016
 5601.00    1.15566   1.25958    0.016
 5602.00    1.15593   1.27675    0.016
 5603.00    1.16550   1.29554    0.016
 5604.00    1.18910   1.31327    0.015
 5605.00    1.25111   1.32728    0.015
 5606.00    1.28686   1.33549    0.015
 5607.00    1.26099   1.33710    0.015
 5608.00    1.25118   1.33254    0.015
 5609.00    1.27393   1.32264    0.015
 5610.00    1.26777   1.30850    0.015
 5611.00    1.21055   1.29190    0.015
 5612.00    1.13912   1.27544    0.015
 5613.00    1.04573   1.26191    0.015
 5614.00    1.00946   1.25333    0.015
 5615.00    1.05068   1.25043    0.015
 5616.00    1.09697   1.25253    0.015
 5617.00    1.14933   1.25748    0.015
 5618.00    1.21330   1.26169    0.015
 5619.00    1.28951   1.26255    0.015
 5620.00    1.32969   1.26060    0.015
 5621.00    1.33640   1.25804    0.015
 5622.00    1.27360   1.25680    0.015
 5623.00    1.15387   1.25839    0.015
 5624.00    1.13960   1.26377    0.015
 5625.00    1.20136   1.27305    0.015
 5626.00    1.28318   1.28494    0.016
 5627.00    1.37768   1.29646    0.016
 5628.00    1.46205   1.30450    0.016
 5629.00    1.54082   1.30772    0.016
 5630.00    1.51601   1.30626    0.016
 5631.00    1.44137   1.30081    0.016
 5632.00    1.36145   1.29269    0.016
 5633.00    1.27935   1.28360    0.016
 5634.00    1.24798   1.27507    0.016
 5635.00    1.23464   1.26814    0.015
 5636.00    1.28187   1.26329    0.015
 5637.00    1.34727   1.26058    0.015
 5638.00    1.32236   1.25999    0.015
 5639.00    1.27495   1.26137    0.015
 5640.00    1.25192   1.26426    0.015
 5641.00    1.23382   1.26809    0.015
 5642.00    1.23091   1.27272    0.015
 5643.00    1.23040   1.27796    0.015
 5644.00    1.29560   1.28301    0.015
 5645.00    1.36853   1.28720    0.015
 5646.00    1.37142   1.29035    0.015
 5647.00    1.36872   1.29229    0.015
 5648.00    1.30542   1.29280    0.015
 5649.00    1.23943   1.29141    0.015
 5650.00    1.29799   1.28742    0.015
 5651.00    1.35778   1.28053    0.015
 5652.00    1.40874   1.27095    0.015
 5653.00    1.45308   1.25935    0.015
 5654.00    1.37540   1.24703    0.015
 5655.00    1.29914   1.23614    0.015
 5656.00    1.23859   1.22881    0.015
 5657.00    1.18551   1.22593    0.015
 5658.00    1.19040   1.22715    0.015
 5659.00    1.19276   1.23224    0.015
 5660.00    1.18025   1.24054    0.015
 5661.00    1.17328   1.24953    0.015
 5662.00    1.19204   1.25693    0.015
 5663.00    1.19901   1.26280    0.015
 5664.00    1.16114   1.26800    0.015
 5665.00    1.12748   1.27279    0.015
 5666.00    1.10716   1.27749    0.015
 5667.00    1.10058   1.28296    0.015
 5668.00    1.13098   1.29002    0.015
 5669.00    1.14380   1.29867    0.015
 5670.00    1.11611   1.30770    0.015
 5671.00    1.11378   1.31556    0.015
 5672.00    1.16211   1.32122    0.015
 5673.00    1.19698   1.32416    0.015
 5674.00    1.20843   1.32385    0.015
 5675.00    1.24132   1.32023    0.015
 5676.00    1.30684   1.31415    0.016
 5677.00    1.35489   1.30656    0.016
 5678.00    1.37957   1.29787    0.016
 5679.00    1.38491   1.28866    0.016
 5680.00    1.36746   1.28005    0.015
 5681.00    1.37181   1.27291    0.015
 5682.00    1.39879   1.26759    0.015
 5683.00    1.37810   1.26469    0.015
 5684.00    1.31375   1.26484    0.014
 5685.00    1.29159   1.26794    0.014
 5686.00    1.30350   1.27334    0.014
 5687.00    1.31075   1.28062    0.014
 5688.00    1.31468   1.28938    0.014
 5689.00    1.31136   1.29855    0.014
 5690.00    1.30352   1.30622    0.014
 5691.00    1.31144   1.31063    0.015
 5692.00    1.32794   1.31112    0.015
 5693.00    1.37923   1.30785    0.015
 5694.00    1.44698   1.30120    0.015
 5695.00    1.42158   1.29229    0.015
 5696.00    1.35814   1.28264    0.015
 5697.00    1.29931   1.27331    0.015
 5698.00    1.24209   1.26480    0.015
 5699.00    1.24711   1.25751    0.015
 5700.00    1.27043   1.25144    0.015
 5701.00    1.31654   1.24549    0.015
 5702.00    1.36820   1.23868    0.015
 5703.00    1.34554   1.23106    0.015
 5704.00    1.30825   1.22269    0.015
 5705.00    1.29670   1.21427    0.016
 5706.00    1.28910   1.20797    0.016
 5707.00    1.30692   1.20608    0.015
 5708.00    1.32763   1.20986    0.015
 5709.00    1.31231   1.21918    0.015
 5710.00    1.29427   1.23292    0.015
 5711.00    1.34603   1.24922    0.015
 5712.00    1.40064   1.26596    0.015
 5713.00    1.32092   1.28175    0.015
 5714.00    1.24248   1.29575    0.015
 5715.00    1.25998   1.30731    0.015
 5716.00    1.27774   1.31676    0.015
 5717.00    1.29983   1.32473    0.015
 5718.00    1.31955   1.33129    0.014
 5719.00    1.31422   1.33608    0.014
 5720.00    1.30869   1.33857    0.014
 5721.00    1.30165   1.33858    0.015
 5722.00    1.29113   1.33648    0.015
 5723.00    1.26077   1.33260    0.015
 5724.00    1.23112   1.32740    0.014
 5725.00    1.20474   1.32203    0.014
 5726.00    1.19677   1.31770    0.014
 5727.00    1.25733   1.31502    0.014
 5728.00    1.30766   1.31444    0.014
 5729.00    1.32614   1.31576    0.014
 5730.00    1.31781   1.31796    0.014
 5731.00    1.23863   1.32033    0.014
 5732.00    1.19269   1.32287    0.014
 5733.00    1.22216   1.32547    0.015
 5734.00    1.26452   1.32715    0.015
 5735.00    1.33219   1.32714    0.015
 5736.00    1.37291   1.32581    0.015
 5737.00    1.36746   1.32420    0.015
 5738.00    1.36186   1.32319    0.015
 5739.00    1.35605   1.32293    0.015
 5740.00    1.31982   1.32289    0.000
 5741.00    1.24349   1.32253    0.000
 5742.00    1.18647   1.32176    0.000
 5743.00    1.15187   1.32063    0.000
 5744.00    1.16093   1.31898    0.000
 5745.00    1.21470   1.31625    0.000
 5746.00    1.28205   1.31181    0.000
 5747.00    1.36167   1.30577    0.000
 5748.00    1.40491   1.29947    0.000
 5749.00    1.41918   1.29457    0.000
 5750.00    1.38148   1.29180    0.000
 5751.00    1.30738   1.29098    0.000
 5752.00    1.27812   1.29194    0.000
 5753.00    1.27641   1.29459    0.000
 5754.00    1.29766   1.29817    0.000
 5755.00    1.33124   1.30103    0.000
 5756.00    1.33733   1.30152    0.000
 5757.00    1.33061   1.29928    0.000
 5758.00    1.30864   1.29574    0.000
 5759.00    1.28054   1.29318    0.000
 5760.00    1.27569   1.29356    0.000
 5761.00    1.27878   1.29781    0.000
 5762.00    1.30708   1.30546    0.000
 5763.00    1.34263   1.31489    0.000
 5764.00    1.42288   1.32398    0.000
 5765.00    1.51377   1.33043    0.000
 5766.00    1.53011   1.33290    0.000
 5767.00    1.53215   1.33186    0.000
 5768.00    1.45254   1.32864    0.000
 5769.00    1.36077   1.32451    0.000
 5770.00    1.30756   1.32048    0.000
 5771.00    1.25856   1.31701    0.000
 5772.00    1.21833   1.31377    0.000
 5773.00    1.17873   1.30975    0.000
 5774.00    1.21782   1.30361    0.000
 5775.00    1.25981   1.29451    0.000
 5776.00    1.30433   1.28277    0.000
 5777.00    1.34881   1.26907    0.000
 5778.00    1.39143   1.25430    0.000
 5779.00    1.42643   1.24050    0.000
 5780.00    1.33895   1.23025    0.000
 5781.00    1.25746   1.22542    0.000
 5782.00    1.23661   1.22675    0.000
 5783.00    1.22014   1.23331    0.000
 5784.00    1.23539   1.24263    0.000
 5785.00    1.25767   1.25292    0.000
 5786.00    1.31903   1.26375    0.000
 5787.00    1.35959   1.27453    0.000
 5788.00    1.30790   1.28411    0.000
 5789.00    1.25335   1.29197    0.000
 5790.00    1.18838   1.29817    0.000
 5791.00    1.14810   1.30294   -2.000
 5792.00    1.18317   1.30718   -2.000
 5793.00    1.23014   1.31155   -2.000
 5794.00    1.30800   1.31577   -2.000
 5795.00    1.36310   1.31987   -2.000
 5796.00    1.36739   1.32395   -2.000
 5797.00    1.38947   1.32753   -2.000
 5798.00    1.44596   1.33028   -2.000
 5799.00    1.45444   1.33207   -2.000
 5800.00    1.38192   1.33209   -2.000
 5801.00    1.32082   1.32967   -2.000
 5802.00    1.27660   1.32563   -2.000
 5803.00    1.25675   1.32161   -2.000
 5804.00    1.26858   1.31894   -2.000
 5805.00    1.31842   1.31840   -2.000
 5806.00    1.41177   1.31985   -2.000
 5807.00    1.45260   1.32207   -2.000
 5808.00    1.44038   1.32360   -2.000
 5809.00    1.41853   1.32346   -2.000
 5810.00    1.38811   1.32178   -2.000
 5811.00    1.37975   1.31957    0.000
 5812.00    1.38872   1.31792    0.000
 5813.00    1.39353   1.31763    0.000
 5814.00    1.39548   1.31927    0.000
 5815.00    1.38276   1.32287    0.000
 5816.00    1.36118   1.32793    0.000
 5817.00    1.35842   1.33378    0.000
 5818.00    1.36559   1.33939    0.000
 5819.00    1.41003   1.34351    0.000
 5820.00    1.47155   1.34562    0.000
 5821.00    1.50973   1.34632    0.000
 5822.00    1.53870   1.34653    0.000
 5823.00    1.53860   1.34680    0.000
 5824.00    1.52873   1.34730    0.000
 5825.00    1.47263   1.34778    0.000
 5826.00    1.40348   1.34788    0.000
 5827.00    1.40608   1.34725    0.000
 5828.00    1.42538   1.34571    0.000
 5829.00    1.43944   1.34353    0.000
 5830.00    1.45252   1.34111    0.000
 5831.00    1.42174   1.33852    0.000
 5832.00    1.38462   1.33603    0.000
 5833.00    1.39244   1.33445    0.000
 5834.00    1.40496   1.33431    0.000
 5835.00    1.40246   1.33564    0.000
 5836.00    1.39895   1.33832    0.000
 5837.00    1.42144   1.34156    0.000
 5838.00    1.44480   1.34419    0.000
 5839.00    1.43214   1.34565    0.000
 5840.00    1.41893   1.34555    0.000
 5841.00    1.38898   1.34320    0.000
 5842.00    1.35925   1.33858    0.000
 5843.00    1.33289   1.33248    0.000
 5844.00    1.30698   1.32568    0.000
 5845.00    1.28550   1.31854    0.000
 5846.00    1.26763   1.31106    0.000
 5847.00    1.27512   1.30331    0.000
 5848.00    1.28020   1.29576    0.000
 5849.00    1.27221   1.28851    0.000
 5850.00    1.27994   1.28068    0.000
 5851.00    1.35575   1.27178    0.000
 5852.00    1.41702   1.26291    0.000
 5853.00    1.42638   1.25593    0.000
 5854.00    1.41512   1.25196    0.000
 5855.00    1.34201   1.25108    0.000
 5856.00    1.28400   1.25224    0.000
 5857.00    1.26446   1.25512    0.000
 5858.00    1.25096   1.26031    0.000
 5859.00    1.25070   1.26725    0.000
 5860.00    1.26599   1.27386    0.000
 5861.00    1.31090   1.27897    0.000
 5862.00    1.35788   1.28311    0.000
 5863.00    1.40832   1.28713    0.000
 5864.00    1.44717   1.29161    0.000
 5865.00    1.46917   1.29626    0.000
 5866.00    1.47519   1.30035    0.000
 5867.00    1.46072   1.30386    0.000
 5868.00    1.44130   1.30717    0.000
 5869.00    1.41628   1.30965    0.000
 5870.00    1.38662   1.31017    0.000
 5871.00    1.35234   1.30861    0.000
 5872.00    1.33772   1.30539    0.000
 5873.00    1.34037   1.30079    0.000
 5874.00    1.35541   1.29513    0.000
 5875.00    1.38004   1.28905    0.000
 5876.00    1.38776   1.28284    0.000
 5877.00    1.38397   1.27633    0.000
 5878.00    1.35461   1.26962    0.000
 5879.00    1.31000   1.26264    0.000
 5880.00    1.22930   1.25438    0.000
 5881.00    1.12984   1.24284    0.000
 5882.00    1.10601   1.22492    0.000
 5883.00    1.11628   1.19745    0.000
 5884.00    1.10067   1.16189    0.000
 5885.00    1.07503   1.12474    0.000
 5886.00    1.07333   1.09091    0.000
 5887.00    1.07953   1.06271    0.000
 5888.00    1.07848   1.04148    0.000
 5889.00    1.07543   1.02719    0.000
 5890.00    1.05846   1.02113    0.000
 5891.00    1.03832   1.02624    0.000
 5892.00    1.06085   1.04012    0.000
 5893.00    1.09113   1.05733    0.000
 5894.00    1.10553   1.07680    0.000
 5895.00    1.11771   1.09998    0.000
 5896.00    1.15970   1.12745    0.000
 5897.00    1.20467   1.15878    0.000
 5898.00    1.20747   1.18995    0.000
 5899.00    1.20758   1.21547    0.000
 5900.00    1.14869   1.23398    0.000
 5901.00    1.08840   1.24728    0.014
 5902.00    1.14056   1.25660    0.013
 5903.00    1.19154   1.26280    0.013
 5904.00    1.20935   1.26702    0.013
 5905.00    1.22731   1.27012    0.014
 5906.00    1.24744   1.27230    0.014
 5907.00    1.27085   1.27305    0.014
 5908.00    1.32483   1.27164    0.014
 5909.00    1.36890   1.26818    0.014
 5910.00    1.34555   1.26363    0.014
 5911.00    1.32314   1.25937    0.014
 5912.00    1.30558   1.25629    0.014
 5913.00    1.29005   1.25476    0.014
 5914.00    1.28315   1.25545    0.014
 5915.00    1.26245   1.25856    0.014
 5916.00    1.19356   1.26322    0.014
 5917.00    1.15110   1.26826    0.014
 5918.00    1.18633   1.27286    0.014
 5919.00    1.21795   1.27650    0.015
 5920.00    1.24050   1.27916    0.014
 5921.00    1.26958   1.28067    0.014
 5922.00    1.31278   1.28079    0.015
 5923.00    1.34739   1.27964    0.014
 5924.00    1.36591   1.27750    0.014
 5925.00    1.34886   1.27502    0.014
 5926.00    1.27361   1.27294    0.014
 5927.00    1.23544   1.27115    0.014
 5928.00    1.25052   1.26932    0.014
 5929.00    1.26747   1.26799    0.014
 5930.00    1.28678   1.26823    0.013
 5931.00    1.28347   1.27021    0.013
 5932.00    1.25500   1.27298    0.013
 5933.00    1.23530   1.27539    0.013
 5934.00    1.22422   1.27693    0.014
 5935.00    1.22688   1.27776    0.014
 5936.00    1.24146   1.27833    0.014
 5937.00    1.24386   1.27860    0.014
 5938.00    1.23698   1.27841    0.014
 5939.00    1.23698   1.27824    0.014
 5940.00    1.24159   1.27839    0.014
 5941.00    1.27831   1.27860    0.014
 5942.00    1.33388   1.27859    0.014
 5943.00    1.34969   1.27800    0.014
 5944.00    1.34515   1.27681    0.014
 5945.00    1.31779   1.27512    0.014
 5946.00    1.28032   1.27245    0.014
 5947.00    1.28276   1.26866    0.014
 5948.00    1.30041   1.26505    0.014
 5949.00    1.32775   1.26304    0.014
 5950.00    1.35822   1.26252    0.014
 5951.00    1.33231   1.26236    0.014
 5952.00    1.29114   1.26212    0.014
 5953.00    1.28989   1.26275    0.014
 5954.00    1.29752   1.26541    0.014
 5955.00    1.29162   1.26971    0.014
 5956.00    1.28333   1.27447    0.014
 5957.00    1.28176   1.27937    0.014
 5958.00    1.28111   1.28453    0.014
 5959.00    1.28211   1.28927    0.014
 5960.00    1.28327   1.29262    0.013
 5961.00    1.27134   1.29469    0.014
 5962.00    1.25863   1.29609    0.014
 5963.00    1.27686   1.29728    0.014
 5964.00    1.29555   1.29874    0.014
 5965.00    1.26363   1.30074    0.013
 5966.00    1.23167   1.30306    0.013
 5967.00    1.19857   1.30524    0.013
 5968.00    1.16787   1.30632    0.013
 5969.00    1.16964   1.30511    0.013
 5970.00    1.17217   1.30127    0.013
 5971.00    1.18161   1.29538    0.013
 5972.00    1.19159   1.28847    0.013
 5973.00    1.20509   1.28180    0.013
 5974.00    1.22045   1.27642    0.014
 5975.00    1.24533   1.27266    0.014
 5976.00    1.27598   1.27011    0.014
 5977.00    1.33059   1.26808    0.014
 5978.00    1.36371   1.26563    0.014
 5979.00    1.32326   1.26267    0.014
 5980.00    1.28606   1.25999    0.014
 5981.00    1.25824   1.25787    0.014
 5982.00    1.23499   1.25634    0.014
 5983.00    1.22297   1.25628    0.014
 5984.00    1.21227   1.25848    0.014
 5985.00    1.20438   1.26274    0.014
 5986.00    1.21433   1.26794    0.014
 5987.00    1.25724   1.27306    0.014
 5988.00    1.28462   1.27781    0.014
 5989.00    1.28695   1.28176    0.014
 5990.00    1.29722   1.28402    0.013
 5991.00    1.31871   1.28403    0.013
 5992.00    1.32570   1.28235    0.013
 5993.00    1.31462   1.28012    0.013
 5994.00    1.31528   1.27767    0.013
 5995.00    1.32882   1.27480    0.013
 5996.00    1.34900   1.27156    0.013
 5997.00    1.37560   1.26824    0.013
 5998.00    1.36258   1.26570    0.013
 5999.00    1.31575   1.26441    0.013
 6000.00    1.28904   1.26313    0.013
 6001.00    1.27748   1.26044    0.013
 6002.00    1.29045   1.25616    0.013
 6003.00    1.31964   1.25179    0.014
 6004.00    1.32933   1.24962    0.014
 6005.00    1.32775   1.24959    0.014
 6006.00    1.31993   1.24982    0.014
 6007.00    1.30898   1.24955    0.014
 6008.00    1.31726   1.24951    0.014
 6009.00    1.33393   1.25065    0.014
 6010.00    1.32526   1.25201    0.014
 6011.00    1.30710   1.25147    0.014
 6012.00    1.28137   1.24917    0.014
 6013.00    1.25323   1.24674    0.014
 6014.00    1.24935   1.24474    0.014
 6015.00    1.25189   1.24296    0.014
 6016.00    1.21868   1.24147    0.014
 6017.00    1.17772   1.24090    0.014
 6018.00    1.19022   1.24176    0.014
 6019.00    1.21193   1.24390    0.014
 6020.00    1.18645   1.24745    0.014
 6021.00    1.15481   1.25245    0.014
 6022.00    1.16547   1.25855    0.013
 6023.00    1.18003   1.26550    0.013
 6024.00    1.24763   1.27263    0.013
 6025.00    1.31820   1.27933    0.013
 6026.00    1.29586   1.28541    0.013
 6027.00    1.27135   1.29089    0.014
 6028.00    1.23255   1.29593    0.013
 6029.00    1.19529   1.30026    0.013
 6030.00    1.19370   1.30343    0.013
 6031.00    1.19166   1.30560    0.013
 6032.00    1.18380   1.30714    0.013
 6033.00    1.17782   1.30790    0.013
 6034.00    1.18812   1.30747    0.013
 6035.00    1.19415   1.30619    0.013
 6036.00    1.17289   1.30476    0.014
 6037.00    1.16244   1.30366    0.014
 6038.00    1.20594   1.30348    0.014
 6039.00    1.24393   1.30428    0.014
 6040.00    1.25957   1.30581    0.014
 6041.00    1.27664   1.30814    0.014
 6042.00    1.29851   1.31095    0.014
 6043.00    1.31525   1.31361    0.014
 6044.00    1.31748   1.31561    0.014
 6045.00    1.32269   1.31668    0.014
 6046.00    1.33510   1.31645    0.014
 6047.00    1.34654   1.31459    0.014
 6048.00    1.35594   1.31113    0.014
 6049.00    1.34205   1.30673    0.014
 6050.00    1.28583   1.30194    0.014
 6051.00    1.25603   1.29690    0.014
 6052.00    1.26821   1.29234    0.014
 6053.00    1.27604   1.28920    0.014
 6054.00    1.27782   1.28792    0.013
 6055.00    1.27795   1.28791    0.013
 6056.00    1.27608   1.28811    0.013
 6057.00    1.26586   1.28780    0.013
 6058.00    1.24662   1.28665    0.013
 6059.00    1.24137   1.28418    0.013
 6060.00    1.24946   1.28051    0.013
 6061.00    1.25532   1.27799    0.013
 6062.00    1.25930   1.27853    0.013
 6063.00    1.25758   1.28177    0.013
 6064.00    1.25162   1.28711    0.013
 6065.00    1.25142   1.29422    0.013
 6066.00    1.25496   1.30284    0.013
 6067.00    1.25881   1.31180    0.013
 6068.00    1.26284   1.31877    0.013
 6069.00    1.25322   1.32242    0.014
 6070.00    1.23684   1.32301    0.014
 6071.00    1.20308   1.32092    0.014
 6072.00    1.16186   1.31625    0.014
 6073.00    1.16224   1.30913    0.014
 6074.00    1.17790   1.30083    0.014
 6075.00    1.22475   1.29280    0.014
 6076.00    1.28130   1.28477    0.014
 6077.00    1.28845   1.27700    0.014
 6078.00    1.28279   1.27101    0.013
 6079.00    1.25999   1.26737    0.013
 6080.00    1.23356   1.26531    0.013
 6081.00    1.25043   1.26418    0.013
 6082.00    1.27454   1.26390    0.013
 6083.00    1.28271   1.26452    0.013
 6084.00    1.28886   1.26490    0.013
 6085.00    1.25210   1.26404    0.013
 6086.00    1.21157   1.26306    0.013
 6087.00    1.20330   1.26281    0.013
 6088.00    1.19670   1.26302    0.013
 6089.00    1.23302   1.26410    0.013
 6090.00    1.27004   1.26657    0.013
 6091.00    1.30057   1.26977    0.013
 6092.00    1.32986   1.27281    0.013
 6093.00    1.33263   1.27529    0.013
 6094.00    1.33222   1.27701    0.013
 6095.00    1.29322   1.27701    0.013
 6096.00    1.25638   1.27313    0.013
 6097.00    1.23744   1.26451    0.014
 6098.00    1.21826   1.25496    0.014
 6099.00    1.19765   1.24925    0.014
 6100.00    1.17372   1.24707    0.014
 6101.00    1.13360   1.24635    0.014
 6102.00    1.10410   1.24704    0.013
 6103.00    1.11667   1.25091    0.014
 6104.00    1.12644   1.25907    0.014
 6105.00    1.12701   1.26814    0.014
 6106.00    1.13333   1.27421    0.013
 6107.00    1.15564   1.27794    0.014
 6108.00    1.17890   1.28149    0.014
 6109.00    1.20444   1.28507    0.013
 6110.00    1.22209   1.28710    0.013
 6111.00    1.22350   1.28636    0.013
 6112.00    1.23691   1.28420    0.013
 6113.00    1.27179   1.28172    0.013
 6114.00    1.29469   1.27731    0.013
 6115.00    1.29885   1.26993    0.013
 6116.00    1.27867   1.26032    0.013
 6117.00    1.22506   1.25042    0.013
 6118.00    1.18751   1.24353    0.013
 6119.00    1.16938   1.24039    0.013
 6120.00    1.17429   1.23916    0.013
 6121.00    1.20375   1.23949    0.013
 6122.00    1.23865   1.24185    0.013
 6123.00    1.27866   1.24638    0.013
 6124.00    1.28571   1.25222    0.014
 6125.00    1.26543   1.25743    0.014
 6126.00    1.25801   1.26082    0.014
 6127.00    1.26000   1.26229    0.014
 6128.00    1.26508   1.26171    0.014
 6129.00    1.27215   1.25828    0.014
 6130.00    1.25907   1.25079    0.014
 6131.00    1.23470   1.23849    0.014
 6132.00    1.18739   1.22342    0.014
 6133.00    1.12887   1.21126    0.013
 6134.00    1.10878   1.20540    0.014
 6135.00    1.10490   1.20438    0.014
 6136.00    1.14699   1.20603    0.014
 6137.00    1.20569   1.21159    0.014
 6138.00    1.24876   1.22333    0.014
 6139.00    1.28706   1.23853    0.013
 6140.00    1.32583   1.25131    0.013
 6141.00    1.36471   1.25928    0.013
 6142.00    1.33843   1.26405    0.013
 6143.00    1.29869   1.26707    0.013
 6144.00    1.26438   1.26770    0.013
 6145.00    1.23095   1.26558    0.013
 6146.00    1.22461   1.26222    0.013
 6147.00    1.22158   1.25921    0.013
 6148.00    1.21758   1.25673    0.013
 6149.00    1.21351   1.25401    0.013
 6150.00    1.21311   1.25099    0.013
 6151.00    1.21290   1.24810    0.013
 6152.00    1.21512   1.24427    0.013
 6153.00    1.21759   1.23794    0.013
 6154.00    1.23251   1.22853    0.013
 6155.00    1.24744   1.21569    0.013
 6156.00    1.26238   1.19923    0.013
 6157.00    1.27442   1.18103    0.014
 6158.00    1.25306   1.16496    0.014
 6159.00    1.23532   1.15378    0.014
 6160.00    1.24664   1.14733    0.014
 6161.00    1.25186   1.14473    0.014
 6162.00    1.22037   1.14683    0.014
 6163.00    1.18605   1.15291    0.014
 6164.00    1.13830   1.15910    0.013
 6165.00    1.10027   1.16376    0.013
 6166.00    1.09991   1.16887    0.013
 6167.00    1.10590   1.17518    0.013
 6168.00    1.13240   1.18097    0.013
 6169.00    1.16326   1.18599    0.013
 6170.00    1.20607   1.19226    0.013
 6171.00    1.23272   1.20036    0.013
 6172.00    1.22154   1.20825    0.013
 6173.00    1.21297   1.21472    0.013
 6174.00    1.20969   1.22025    0.013
 6175.00    1.20959   1.22502    0.013
 6176.00    1.21510   1.22917    0.013
 6177.00    1.20887   1.23310    0.013
 6178.00    1.18455   1.23639    0.013
 6179.00    1.17010   1.23805    0.013
 6180.00    1.16903   1.23740    0.013
 6181.00    1.19182   1.23410    0.013
 6182.00    1.24306   1.22831    0.013
 6183.00    1.25728   1.22063    0.014
 6184.00    1.23256   1.21210    0.014
 6185.00    1.22096   1.20297    0.014
 6186.00    1.22153   1.19304    0.014
 6187.00    1.24193   1.18506    0.014
 6188.00    1.27855   1.18268    0.014
 6189.00    1.29672   1.18527    0.014
 6190.00    1.30160   1.18992    0.014
 6191.00    1.29237   1.19573    0.014
 6192.00    1.27421   1.20349    0.014
 6193.00    1.19242   1.21196    0.013
 6194.00    1.07550   1.21754    0.013
 6195.00    0.82528   1.21943    0.013
 6196.00    0.51105   1.22061   -2.000
 6197.00    0.37772   1.22292   -2.000
 6198.00    0.31938   1.22557   -2.000
 6199.00    0.63655   1.22789   -2.000
 6200.00    1.08681   1.23076   -2.000
 6201.00    1.45879   1.23502   -2.000
 6202.00    1.80735   1.23934   -2.000
 6203.00    1.90262   1.24162   -2.000
 6204.00    1.93498   1.24113   -2.000
 6205.00    1.75437   1.23807   -2.000
 6206.00    1.53087   1.23268   -2.000
 6207.00    1.43034   1.22494   -2.000
 6208.00    1.34921   1.21452    0.014
 6209.00    1.35176   1.20207    0.014
 6210.00    1.36411   1.18950    0.014
 6211.00    1.35056   1.17874    0.013
 6212.00    1.33495   1.17096    0.013
 6213.00    1.25280   1.16587    0.013
 6214.00    1.16773   1.16249    0.013
 6215.00    1.13777   1.16104    0.013
 6216.00    1.11001   1.16234    0.013
 6217.00    1.15790   1.16607    0.013
 6218.00    1.20255   1.17038    0.013
 6219.00    1.18809   1.17356    0.013
 6220.00    1.17813   1.17612    0.013
 6221.00    1.21782   1.17888    0.013
 6222.00    1.25794   1.18084    0.013
 6223.00    1.30133   1.18049    0.013
 6224.00    1.33003   1.17712    0.013
 6225.00    1.27277   1.17111    0.013
 6226.00    1.21970   1.16441    0.012
 6227.00    1.18604   1.15970    0.013
 6228.00    1.16640   1.15818    0.013
 6229.00    1.19991   1.15967    0.013
 6230.00    1.21718   1.16384    0.013
 6231.00    1.18302   1.16997    0.013
 6232.00    1.14812   1.17638    0.013
 6233.00    1.11126   1.18070    0.013
 6234.00    1.09966   1.18158    0.013
 6235.00    1.14622   1.17889    0.013
 6236.00    1.16855   1.17360    0.013
 6237.00    1.14260   1.16701    0.013
 6238.00    1.10356   1.15965    0.013
 6239.00    1.04181   1.15296    0.013
 6240.00    1.02363   1.14906    0.013
 6241.00    1.07168   1.14824    0.013
 6242.00    1.12371   1.14964    0.013
 6243.00    1.18106   1.15284    0.014
 6244.00    1.20103   1.15749    0.014
 6245.00    1.17703   1.16202    0.013
 6246.00    1.14425   1.16433    0.013
 6247.00    1.10237   1.16333    0.013
 6248.00    1.07546   1.15914    0.013
 6249.00    1.06223   1.15272    0.013
 6250.00    1.05504   1.14524    0.013
 6251.00    1.05274   1.13733    0.013
 6252.00    1.06374   1.12957    0.012
 6253.00    1.08420   1.12390    0.013
 6254.00    1.13571   1.12243    0.013
 6255.00    1.20655   1.12572    0.013
 6256.00    1.20981   1.13229    0.013
 6257.00    1.17632   1.14076    0.013
 6258.00    1.06881   1.15128    0.013
 6259.00    0.92634   1.16276    0.014
 6260.00    0.88286   1.17253    0.014
 6261.00    0.87972   1.17951    0.015
 6262.00    0.97695   1.18517    0.016
 6263.00    1.10911   1.18980    0.017
 6264.00    1.20718   1.19199    0.017
 6265.00    1.29526   1.19237    0.017
 6266.00    1.28461   1.19342    0.016
 6267.00    1.24998   1.19593    0.015
 6268.00    1.21709   1.19860    0.014
 6269.00    1.18455   1.20053    0.014
 6270.00    1.13289   1.20198    0.013
 6271.00    1.07831   1.20328    0.013
 6272.00    1.05463   1.20405    0.013
 6273.00    1.03443   1.20362    0.013
 6274.00    1.08327   1.20183    0.013
 6275.00    1.13730   1.19893    0.013
 6276.00    1.15747   1.19587    0.013
 6277.00    1.17627   1.19422    0.013
 6278.00    1.16886   1.19466    0.012
 6279.00    1.16113   1.19688    0.012
 6280.00    1.14855   1.20027    0.000
 6281.00    1.13583   1.20479    0.000
 6282.00    1.12095   1.21064    0.000
 6283.00    1.10904   1.21687    0.000
 6284.00    1.12830   1.22190    0.000
 6285.00    1.14583   1.22461    0.000
 6286.00    1.15038   1.22484    0.000
 6287.00    1.15389   1.22327    0.000
 6288.00    1.15150   1.22028    0.000
 6289.00    1.15414   1.21618    0.000
 6290.00    1.17959   1.21128    0.000
 6291.00    1.20621   1.20532    0.000
 6292.00    1.23713   1.19839    0.000
 6293.00    1.24635   1.19185    0.000
 6294.00    1.18817   1.18707    0.000
 6295.00    1.13868   1.18350    0.000
 6296.00    1.11206   1.17961    0.000
 6297.00    1.11128   1.17607    0.000
 6298.00    1.16902   1.17546    0.000
 6299.00    1.20720   1.17853    0.000
 6300.00    1.20701   1.18311    0.000
 6301.00    1.19686   1.18763    0.000
 6302.00    1.16966   1.19327    0.000
 6303.00    1.14902   1.20067    0.000
 6304.00    1.13820   1.20742    0.000
 6305.00    1.11778   1.21091    0.000
 6306.00    1.08472   1.21108    0.000
 6307.00    1.06678   1.20948    0.000
 6308.00    1.06639   1.20651    0.000
 6309.00    1.07041   1.20129    0.000
 6310.00    1.07893   1.19360    0.000
 6311.00    1.07034   1.18565    0.000
 6312.00    1.04634   1.17976    0.000
 6313.00    1.04160   1.17492    0.000
 6314.00    1.05218   1.17036    0.000
 6315.00    1.07233   1.16882    0.000
 6316.00    1.09917   1.17174    0.000
 6317.00    1.10004   1.17672    0.000
 6318.00    1.08498   1.18204    0.000
 6319.00    1.07737   1.18922    0.000
 6320.00    1.07375   1.19842    0.000
 6321.00    1.07645   1.20676    0.013
 6322.00    1.08210   1.21277    0.013
 6323.00    1.13940   1.21738    0.013
 6324.00    1.21739   1.22169    0.013
 6325.00    1.27001   1.22454    0.013
 6326.00    1.31396   1.22452    0.012
 6327.00    1.30934   1.22290    0.012
 6328.00    1.29076   1.22117    0.013
 6329.00    1.23162   1.21842    0.012
 6330.00    1.16285   1.21269    0.012
 6331.00    1.14883   1.20486    0.012
 6332.00    1.14529   1.19846    0.012
 6333.00    1.15146   1.19488    0.012
 6334.00    1.15908   1.19236    0.012
 6335.00    1.09832   1.19015    0.012
 6336.00    1.03015   1.19032    0.012
 6337.00    1.01262   1.19284    0.012
 6338.00    0.99869   1.19476    0.012
 6339.00    1.04844   1.19483    0.013
 6340.00    1.10052   1.19489    0.013
 6341.00    1.10235   1.19646    0.013
 6342.00    1.10445   1.19849    0.013
 6343.00    1.12277   1.20046    0.013
 6344.00    1.14169   1.20367    0.013
 6345.00    1.16998   1.20814    0.013
 6346.00    1.19378   1.21209    0.013
 6347.00    1.17243   1.21452    0.013
 6348.00    1.15406   1.21525    0.013
 6349.00    1.15718   1.21331    0.013
 6350.00    1.16565   1.20813    0.013
 6351.00    1.20375   1.20124    0.012
 6352.00    1.22729   1.19414    0.012
 6353.00    1.18644   1.18560    0.012
 6354.00    1.14822   1.17496    0.012
 6355.00    1.11958   1.16490    0.012
 6356.00    1.09739   1.15762    0.012
 6357.00    1.09485   1.15192    0.012
 6358.00    1.09598   1.14731    0.012
 6359.00    1.10664   1.14618    0.012
 6360.00    1.11451   1.14974    0.012
 6361.00    1.11617   1.15633    0.012
 6362.00    1.12265   1.16457    0.013
 6363.00    1.13841   1.17471    0.013
 6364.00    1.14268   1.18618    0.013
 6365.00    1.12759   1.19673    0.013
 6366.00    1.11642   1.20533    0.013
 6367.00    1.11101   1.21309    0.013
 6368.00    1.11778   1.22057    0.013
 6369.00    1.14032   1.22639    0.013
 6370.00    1.14293   1.22965    0.013
 6371.00    1.12274   1.23147    0.013
 6372.00    1.11582   1.23280    0.013
 6373.00    1.12225   1.23269    0.013
 6374.00    1.12690   1.23032    0.013
 6375.00    1.12997   1.22703    0.013
 6376.00    1.15259   1.22430    0.013
 6377.00    1.19052   1.22227    0.012
 6378.00    1.21245   1.22109    0.012
 6379.00    1.22335   1.22069    0.013
 6380.00    1.20640   1.22084    0.012
 6381.00    1.17263   1.22206    0.012
 6382.00    1.15452   1.22443    0.012
 6383.00    1.14468   1.22638    0.012
 6384.00    1.15683   1.22649    0.012
 6385.00    1.17903   1.22537    0.012
 6386.00    1.18310   1.22372    0.012
 6387.00    1.18001   1.22070    0.013
 6388.00    1.14556   1.21526    0.013
 6389.00    1.10058   1.20868    0.013
 6390.00    1.08995   1.20430    0.013
 6391.00    1.08900   1.20266    0.013
 6392.00    1.10744   1.20167    0.013
 6393.00    1.13036   1.20102    0.013
 6394.00    1.13285   1.20124    0.013
 6395.00    1.13154   1.20092    0.013
 6396.00    1.11791   1.20020    0.013
 6397.00    1.10252   1.20244    0.013
 6398.00    1.11620   1.20668    0.013
 6399.00    1.13290   1.20947    0.013
 6400.00    1.13857   1.21159    0.013
 6401.00    1.14349   1.21502    0.013
 6402.00    1.11577   1.21780    0.013
 6403.00    1.08698   1.21685    0.012
 6404.00    1.07407   1.21376    0.012
 6405.00    1.06146   1.21187    0.012
 6406.00    1.05792   1.20994    0.012
 6407.00    1.05496   1.20618    0.012
 6408.00    1.06057   1.20370    0.012
 6409.00    1.06579   1.20446    0.012
 6410.00    1.06716   1.20569    0.012
 6411.00    1.07107   1.20568    0.012
 6412.00    1.09275   1.20571    0.012
 6413.00    1.11807   1.20602    0.013
 6414.00    1.16292   1.20566    0.013
 6415.00    1.19521   1.20418    0.013
 6416.00    1.17324   1.20201    0.013
 6417.00    1.14464   1.20116    0.013
 6418.00    1.09248   1.20371    0.013
 6419.00    1.04392   1.20882    0.013
 6420.00    1.00618   1.21364    0.013
 6421.00    0.98040   1.21796    0.013
 6422.00    0.98504   1.22283    0.013
 6423.00    0.99863   1.22703    0.012
 6424.00    1.03183   1.22814    0.012
 6425.00    1.05992   1.22533    0.012
 6426.00    1.07827   1.21988    0.012
 6427.00    1.08623   1.21475    0.012
 6428.00    1.07693   1.21226    0.012
 6429.00    1.07909   1.21117    0.012
 6430.00    1.09789   1.21011    0.013
 6431.00    1.12098   1.21018    0.013
 6432.00    1.14955   1.21239    0.013
 6433.00    1.17832   1.21484    0.013
 6434.00    1.20733   1.21491    0.013
 6435.00    1.23457   1.21456    0.013
 6436.00    1.26007   1.21770    0.013
 6437.00    1.27205   1.22326    0.013
 6438.00    1.27217   1.22803    0.013
 6439.00    1.25829   1.23225    0.013
 6440.00    1.23360   1.23672    0.013
 6441.00    1.21029   1.23954    0.013
 6442.00    1.18792   1.23867    0.013
 6443.00    1.17311   1.23412    0.013
 6444.00    1.16281   1.22586    0.013
 6445.00    1.12518   1.21412    0.013
 6446.00    1.07338   1.20298    0.013
 6447.00    1.07142   1.19683    0.013
 6448.00    1.09188   1.19439    0.013
 6449.00    1.11677   1.19381    0.013
 6450.00    1.14336   1.19564    0.013
 6451.00    1.14310   1.19991    0.013
 6452.00    1.13399   1.20558    0.012
 6453.00    1.13444   1.21166    0.012
 6454.00    1.13752   1.21636    0.012
 6455.00    1.13540   1.21874    0.012
 6456.00    1.13209   1.21970    0.012
 6457.00    1.13579   1.21886    0.012
 6458.00    1.14076   1.21518    0.012
 6459.00    1.13371   1.21182    0.013
 6460.00    1.12499   1.21190    0.013
 6461.00    1.12674   1.21316    0.013
 6462.00    1.12953   1.21409    0.013
 6463.00    1.14131   1.21648    0.013
 6464.00    1.15366   1.22073    0.013
 6465.00    1.16570   1.22422    0.013
 6466.00    1.17759   1.22546    0.013
 6467.00    1.14535   1.22494    0.013
 6468.00    1.11392   1.22442    0.013
 6469.00    1.10510   1.22482    0.013
 6470.00    1.09876   1.22448    0.013
 6471.00    1.12743   1.22317    0.013
 6472.00    1.15715   1.22298    0.013
 6473.00    1.19656   1.22375    0.013
 6474.00    1.23046   1.22271    0.013
 6475.00    1.22706   1.21991    0.012
 6476.00    1.22264   1.21695    0.012
 6477.00    1.21281   1.21295    0.012
 6478.00    1.20439   1.20763    0.012
 6479.00    1.20193   1.20376    0.012
 6480.00    1.20154   1.20266    0.012
 6481.00    1.20833   1.20247    0.012
 6482.00    1.21170   1.20215    0.012
 6483.00    1.20506   1.20248    0.012
 6484.00    1.21317   1.20266    0.012
 6485.00    1.25819   1.19954    0.013
 6486.00    1.27991   1.19135    0.013
 6487.00    1.25138   1.17954    0.013
 6488.00    1.21341   1.16540    0.013
 6489.00    1.15777   1.14800    0.013
 6490.00    1.10145   1.12810    0.013
 6491.00    1.04403   1.11071    0.013
 6492.00    1.01202   1.09972    0.012
 6493.00    1.01641   1.09480    0.012
 6494.00    1.02776   1.09518    0.012
 6495.00    1.04788   1.10113    0.012
 6496.00    1.04137   1.11325    0.012
 6497.00    1.00526   1.12938    0.012
 6498.00    1.00638   1.14611    0.012
 6499.00    1.04397   1.16151    0.012
 6500.00    1.08683   1.17526    0.012
 6501.00    1.13424   1.18718    0.012
 6502.00    1.14740   1.19663    0.012
 6503.00    1.13448   1.20302    0.012
 6504.00    1.12655   1.20656    0.012
 6505.00    1.12196   1.20876    0.012
 6506.00    1.15648   1.21057    0.012
 6507.00    1.21393   1.21122    0.012
 6508.00    1.23099   1.21020    0.013
 6509.00    1.22741   1.20859    0.013
 6510.00    1.21509   1.20656    0.013
 6511.00    1.19888   1.20335    0.013
 6512.00    1.18721   1.19961    0.013
 6513.00    1.17726   1.19661    0.013
 6514.00    1.17563   1.19426    0.013
 6515.00    1.17667   1.19306    0.013
 6516.00    1.18191   1.19446    0.013
 6517.00    1.18827   1.19771    0.013
 6518.00    1.20505   1.20076    0.013
 6519.00    1.22413   1.20333    0.012
 6520.00    1.23127   1.20637    0.012
 6521.00    1.23630   1.20883    0.012
 6522.00    1.21650   1.20882    0.012
 6523.00    1.19336   1.20705    0.012
 6524.00    1.18000   1.20569    0.012
 6525.00    1.16758   1.20501    0.012
 6526.00    1.16922   1.20397    0.012
 6527.00    1.17169   1.20260    0.012
 6528.00    1.14290   1.20167    0.000
 6529.00    1.11366   1.20159    0.000
 6530.00    1.13186   1.20260    0.000
 6531.00    1.14996   1.20465    0.000
 6532.00    1.16595   1.20678    0.000
 6533.00    1.18139   1.20834    0.000
 6534.00    1.18937   1.21000    0.000
 6535.00    1.19856   1.21203    0.000
 6536.00    1.21858   1.21287    0.000
 6537.00    1.23402   1.21089    0.000
 6538.00    1.21939   1.20647    0.000
 6539.00    1.20703   1.20130    0.000
 6540.00    1.20618   1.19580    0.000
 6541.00    1.20840   1.18899    0.000
 6542.00    1.22333   1.18113    0.000
 6543.00    1.24630   1.17486    0.000
 6544.00    1.29680   1.17129    0.000
 6545.00    1.31925   1.16840    0.000
 6546.00    1.26091   1.16449    0.000
 6547.00    1.20722   1.16010    0.000
 6548.00    1.16497   1.15589    0.000
 6549.00    1.14737   1.15065    0.000
 6550.00    1.18203   1.14274    0.000
 6551.00    1.19657   1.13241    0.000
 6552.00    1.17404   1.12128    0.000
 6553.00    1.15794   1.10862    0.000
 6554.00    1.15219   1.09116    0.000
 6555.00    1.21586   1.06937    0.000
 6556.00    1.37758   1.04770    0.000
 6557.00    1.56555   1.02602    0.000
 6558.00    1.78615   1.00174    0.000
 6559.00    1.92989   0.98211    0.000
 6560.00    1.98943   0.97800    0.000
 6561.00    1.95643   0.98672    0.000
 6562.00    1.83404   1.00007    0.000
 6563.00    1.67161   1.01904    0.000
 6564.00    1.47507   1.04457    0.000
 6565.00    1.33753   1.06952    0.000
 6566.00    1.24427   1.08858    0.000
 6567.00    1.20020   1.10278    0.000
 6568.00    1.18856   1.11300    0.000
 6569.00    1.19039   1.11946    0.000
 6570.00    1.19999   1.12432    0.000
 6571.00    1.19393   1.12961    0.000
 6572.00    1.17999   1.13580    0.000
 6573.00    1.17293   1.14246    0.000
 6574.00    1.16888   1.14921    0.000
 6575.00    1.20202   1.15561    0.000
 6576.00    1.24904   1.16100    0.000
 6577.00    1.33560   1.16500    0.000
 6578.00    1.43467   1.16814    0.000
 6579.00    1.52473   1.17093    0.000
 6580.00    1.61241   1.17313    0.000
 6581.00    1.63905   1.17466    0.000
 6582.00    1.65249   1.17602    0.000
 6583.00    1.54356   1.17752    0.000
 6584.00    1.41365   1.17800    0.000
 6585.00    1.32857   1.17610    0.000
 6586.00    1.24931   1.17250    0.000
 6587.00    1.23073   1.16817    0.000
 6588.00    1.21768   1.16207    0.000
 6589.00    1.20727   1.15451    0.000
 6590.00    1.19701   1.14920    0.000
 6591.00    1.20282   1.14791    0.000
 6592.00    1.20860   1.14861    0.000
 6593.00    1.18037   1.15042    0.000
 6594.00    1.15299   1.15456    0.000
 6595.00    1.14498   1.16086    0.000
 6596.00    1.13817   1.16736    0.000
 6597.00    1.14665   1.17238    0.000
 6598.00    1.15143   1.17536    0.000
 6599.00    1.12456   1.17657    0.000
 6600.00    1.10216   1.17592    0.000
 6601.00    1.10825   1.17315    0.000
 6602.00    1.11551   1.16925    0.000
 6603.00    1.12858   1.16559    0.000
 6604.00    1.13657   1.16224    0.000
 6605.00    1.12408   1.15943    0.000
 6606.00    1.10545   1.15922    0.000
 6607.00    1.06626   1.16253    0.000
 6608.00    1.03763   1.16702    0.000
 6609.00    1.03885   1.17091    0.012
 6610.00    1.04394   1.17548    0.012
 6611.00    1.05837   1.18151    0.012
 6612.00    1.06750   1.18671    0.012
 6613.00    1.06554   1.18952    0.012
 6614.00    1.07370   1.19125    0.012
 6615.00    1.10021   1.19290    0.012
 6616.00    1.10890   1.19326    0.012
 6617.00    1.08930   1.19163    0.012
 6618.00    1.07127   1.18898    0.012
 6619.00    1.05542   1.18568    0.012
 6620.00    1.07280   1.18128    0.012
 6621.00    1.13090   1.17658    0.013
 6622.00    1.17052   1.17308    0.013
 6623.00    1.19020   1.17030    0.012
 6624.00    1.18188   1.16712    0.013
 6625.00    1.14688   1.16381    0.013
 6626.00    1.11063   1.16088    0.013
 6627.00    1.07333   1.15797    0.013
 6628.00    1.06060   1.15469    0.012
 6629.00    1.06603   1.15123    0.012
 6630.00    1.06760   1.14865    0.012
 6631.00    1.06665   1.14822    0.012
 6632.00    1.07229   1.14968    0.012
 6633.00    1.08165   1.15203    0.012
 6634.00    1.12842   1.15484    0.012
 6635.00    1.19369   1.15739    0.012
 6636.00    1.22835   1.15917    0.012
 6637.00    1.24992   1.16077    0.012
 6638.00    1.20825   1.16160    0.012
 6639.00    1.14339   1.16024    0.012
 6640.00    1.09708   1.15844    0.012
 6641.00    1.05654   1.15881    0.012
 6642.00    1.05088   1.16003    0.013
 6643.00    1.05424   1.16003    0.013
 6644.00    1.09465   1.16032    0.013
 6645.00    1.14286   1.16227    0.013
 6646.00    1.17204   1.16420    0.013
 6647.00    1.19805   1.16475    0.013
 6648.00    1.15246   1.16482    0.013
 6649.00    1.09790   1.16509    0.012
 6650.00    1.07061   1.16510    0.012
 6651.00    1.04571   1.16464    0.012
 6652.00    1.08892   1.16366    0.012
 6653.00    1.13562   1.16219    0.013
 6654.00    1.16602   1.16039    0.012
 6655.00    1.19562   1.15775    0.012
 6656.00    1.18859   1.15379    0.012
 6657.00    1.18075   1.14946    0.012
 6658.00    1.15577   1.14522    0.012
 6659.00    1.13087   1.14042    0.012
 6660.00    1.10694   1.13635    0.012
 6661.00    1.08714   1.13490    0.012
 6662.00    1.10139   1.13529    0.012
 6663.00    1.11384   1.13637    0.012
 6664.00    1.11518   1.13914    0.012
 6665.00    1.11659   1.14394    0.012
 6666.00    1.11832   1.14906    0.013
 6667.00    1.12145   1.15319    0.013
 6668.00    1.13010   1.15623    0.013
 6669.00    1.13580   1.15773    0.013
 6670.00    1.13184   1.15687    0.013
 6671.00    1.13006   1.15413    0.013
 6672.00    1.13435   1.15042    0.013
 6673.00    1.13852   1.14514    0.013
 6674.00    1.14245   1.13892    0.012
 6675.00    1.14509   1.13523    0.012
 6676.00    1.14508   1.13504    0.012
 6677.00    1.13881   1.13570    0.012
 6678.00    1.12137   1.13706    0.012
 6679.00    1.09631   1.14107    0.012
 6680.00    1.05937   1.14640    0.012
 6681.00    1.04491   1.15050    0.012
 6682.00    1.06129   1.15351    0.012
 6683.00    1.08280   1.15606    0.012
 6684.00    1.11051   1.15768    0.012
 6685.00    1.13698   1.15834    0.013
 6686.00    1.16210   1.15848    0.013
 6687.00    1.17920   1.15785    0.013
 6688.00    1.18874   1.15607    0.013
 6689.00    1.16056   1.15364    0.013
 6690.00    1.10114   1.15104    0.013
 6691.00    1.07815   1.14787    0.012
 6692.00    1.08171   1.14417    0.012
 6693.00    1.09622   1.14132    0.013
 6694.00    1.11773   1.14001    0.013
 6695.00    1.08763   1.13953    0.013
 6696.00    1.02864   1.13961    0.000
 6697.00    1.00902   1.14053    0.000
 6698.00    1.00857   1.14177    0.000
 6699.00    1.05827   1.14247    0.000
 6700.00    1.12909   1.14258    0.000
 6701.00    1.14768   1.14259    0.000
 6702.00    1.14746   1.14266    0.000
 6703.00    1.13227   1.14235    0.000
 6704.00    1.11252   1.14166    0.000
 6705.00    1.13301   1.14078    0.000
 6706.00    1.16369   1.13911    0.000
 6707.00    1.15004   1.13634    0.000
 6708.00    1.12728   1.13276    0.000
 6709.00    1.15280   1.12802    0.000
 6710.00    1.18614   1.12218    0.000
 6711.00    1.25932   1.11677    0.000
 6712.00    1.33732   1.11247    0.000
 6713.00    1.37724   1.10874    0.000
 6714.00    1.41400   1.10652    0.000
 6715.00    1.39238   1.10749    0.000
 6716.00    1.36800   1.11087    0.000
 6717.00    1.27179   1.11446    0.000
 6718.00    1.17586   1.11819    0.000
 6719.00    1.15236   1.12294    0.000
 6720.00    1.12894   1.12769    0.000
 6721.00    1.10699   1.13073    0.000
 6722.00    1.08550   1.13240    0.000
 6723.00    1.06917   1.13435    0.000
 6724.00    1.06109   1.13659    0.000
 6725.00    1.11872   1.13802    0.000
 6726.00    1.18505   1.13888    0.000
 6727.00    1.30350   1.14004    0.000
 6728.00    1.40367   1.14103    0.000
 6729.00    1.41724   1.14105    0.000
 6730.00    1.40791   1.14026    0.000
 6731.00    1.31015   1.13902    0.000
 6732.00    1.22391   1.13745    0.000
 6733.00    1.17475   1.13541    0.000
 6734.00    1.12470   1.13275    0.000
 6735.00    1.07223   1.12979    0.000
 6736.00    1.02478   1.12745    0.000
 6737.00    0.98904   1.12587    0.000
 6738.00    0.98143   1.12407    0.000
 6739.00    1.03063   1.12195    0.000
 6740.00    1.05812   1.12071    0.000
 6741.00    1.04740   1.12020    0.000
 6742.00    1.04154   1.11887    0.000
 6743.00    1.04316   1.11693    0.000
 6744.00    1.03887   1.11573    0.000
 6745.00    1.02658   1.11470    0.000
 6746.00    1.01008   1.11329    0.000
 6747.00    0.98855   1.11294    0.000
 6748.00    0.98814   1.11396    0.000
 6749.00    1.00989   1.11534    0.000
 6750.00    1.00914   1.11775    0.000
 6751.00    0.98754   1.12197    0.000
 6752.00    1.00181   1.12670    0.000
 6753.00    1.04536   1.13127    0.014
 6754.00    1.06704   1.13612    0.014
 6755.00    1.07301   1.14051    0.015
 6756.00    1.02151   1.14381    0.015
 6757.00    0.93378   1.14589    0.015
 6758.00    0.87367   1.14646    0.014
 6759.00    0.82877   1.14544    0.014
 6760.00    0.90962   1.14330    0.015
 6761.00    1.05072   1.14039    0.015
 6762.00    1.16755   1.13682    0.015
 6763.00    1.27433   1.13275    0.015
 6764.00    1.29540   1.12911    0.015
 6765.00    1.28616   1.12720    0.015
 6766.00    1.26170   1.12672    0.014
 6767.00    1.23269   1.12691    0.014
 6768.00    1.20722   1.12868    0.014
 6769.00    1.18262   1.13260    0.014
 6770.00    1.19851   1.13720    0.014
 6771.00    1.22252   1.14150    0.014
 6772.00    1.16707   1.14571    0.014
 6773.00    1.09914   1.14918    0.013
 6774.00    1.06009   1.15096    0.013
 6775.00    1.02441   1.15089    0.013
 6776.00    1.02371   1.14891    0.013
 6777.00    1.02576   1.14497    0.013
 6778.00    1.10819   1.13971    0.013
 6779.00    1.19413   1.13382    0.013
 6780.00    1.15185   1.12811    0.014
 6781.00    1.10782   1.12371    0.014
 6782.00    1.04533   1.12090    0.014
 6783.00    0.98607   1.11975    0.014
 6784.00    0.98524   1.12062    0.013
 6785.00    0.98745   1.12259    0.013
 6786.00    1.02296   1.12423    0.013
 6787.00    1.05800   1.12585    0.013
 6788.00    1.08953   1.12747    0.013
 6789.00    1.12562   1.12778    0.013
 6790.00    1.18823   1.12722    0.014
 6791.00    1.24026   1.12716    0.014
 6792.00    1.24339   1.12733    0.014
 6793.00    1.25125   1.12747    0.014
 6794.00    1.27699   1.12836    0.014
 6795.00    1.29066   1.12989    0.014
 6796.00    1.26623   1.13124    0.014
 6797.00    1.24947   1.13263    0.014
 6798.00    1.25330   1.13417    0.014
 6799.00    1.25305   1.13495    0.014
 6800.00    1.24343   1.13479    0.014
 6801.00    1.20822   1.13481    0.014
 6802.00    1.12212   1.13475    0.013
 6803.00    1.05461   1.13363    0.013
 6804.00    1.01929   1.13256    0.013
 6805.00    1.01745   1.13239    0.013
 6806.00    1.06639   1.13175    0.013
 6807.00    1.07568   1.13056    0.013
 6808.00    1.03212   1.13021    0.013
 6809.00    1.02520   1.13054    0.013
 6810.00    1.06127   1.13054    0.013
 6811.00    1.11412   1.13045    0.013
 6812.00    1.18433   1.13106    0.014
 6813.00    1.19723   1.13235    0.014
 6814.00    1.15780   1.13369    0.014
 6815.00    1.12451   1.13490    0.014
 6816.00    1.09616   1.13633    0.014
 6817.00    1.09902   1.13794    0.014
 6818.00    1.12397   1.13964    0.014
 6819.00    1.15619   1.14118    0.014
 6820.00    1.19292   1.14196    0.014
 6821.00    1.19837   1.14195    0.013
 6822.00    1.18685   1.14176    0.013
 6823.00    1.17493   1.14132    0.013
 6824.00    1.16284   1.13998    0.013
 6825.00    1.15742   1.13831    0.013
 6826.00    1.15473   1.13763    0.013
 6827.00    1.12261   1.13788    0.013
 6828.00    1.08029   1.13801    0.013
 6829.00    1.06962   1.13772    0.013
 6830.00    1.06822   1.13742    0.013
 6831.00    1.08314   1.13669    0.013
 6832.00    1.10202   1.13430    0.013
 6833.00    1.10818   1.13013    0.013
 6834.00    1.11185   1.12501    0.013
 6835.00    1.08003   1.11949    0.013
 6836.00    1.04281   1.11396    0.014
 6837.00    1.08181   1.10936    0.014
 6838.00    1.12936   1.10649    0.015
 6839.00    1.07766   1.10581    0.015
 6840.00    1.01853   1.10761    0.014
 6841.00    0.97823   1.11134    0.014
 6842.00    0.93868   1.11590    0.014
 6843.00    0.97945   1.12055    0.013
 6844.00    1.02216   1.12486    0.013
 6845.00    1.12048   1.12815    0.013
 6846.00    1.21276   1.12979    0.013
 6847.00    1.20314   1.12949    0.012
 6848.00    1.19026   1.12762    0.012
 6849.00    1.14322   1.12516    0.013
 6850.00    1.09886   1.12196    0.013
 6851.00    1.07436   1.11749    0.013
 6852.00    1.06402   1.11336    0.013
 6853.00    1.13394   1.11072    0.013
 6854.00    1.18491   1.10821    0.013
 6855.00    1.15030   1.10619    0.013
 6856.00    1.12386   1.10641    0.013
 6857.00    1.12765   1.10747    0.013
 6858.00    1.13617   1.10803    0.014
 6859.00    1.15934   1.10962    0.013
 6860.00    1.17570   1.11187    0.013
 6861.00    1.17417   1.11283    0.014
 6862.00    1.16970   1.11325    0.014
 6863.00    1.15858   1.11382    0.013
 6864.00    1.14987   1.11306    0.013
 6865.00    1.14586   1.11136    0.013
 6866.00    1.15454   1.11095    0.013
 6867.00    1.18485   1.11111    0.013
 6868.00    1.20098   1.11043    0.013
 6869.00    1.19591   1.11054    0.013
 6870.00    1.16513   1.11249    0.013
 6871.00    1.10057   1.11448    0.013
 6872.00    1.07660   1.11564    0.013
 6873.00    1.09959   1.11741    0.013
 6874.00    1.10582   1.11955    0.013
 6875.00    1.09496   1.12035    0.013
 6876.00    1.11519   1.12014    0.013
 6877.00    1.16339   1.12032    0.013
 6878.00    1.16296   1.12009    0.013
 6879.00    1.12396   1.11910    0.013
 6880.00    1.08827   1.11956    0.013
 6881.00    1.05490   1.12179    0.013
 6882.00    1.04182   1.12401    0.013
 6883.00    1.04116   1.12675    0.013
 6884.00    1.04908   1.13128    0.013
 6885.00    1.06159   1.13554    0.013
 6886.00    1.11039   1.13841    0.013
 6887.00    1.17604   1.14136    0.013
 6888.00    1.16961   1.14368    0.013
 6889.00    1.13438   1.14411    0.012
 6890.00    1.09675   1.14408    0.013
 6891.00    1.05831   1.14430    0.013
 6892.00    1.06035   1.14347    0.013
 6893.00    1.07400   1.14228    0.013
 6894.00    1.08963   1.14235    0.013
 6895.00    1.10573   1.14290    0.013
 6896.00    1.04643   1.14284    0.013
 6897.00    0.97277   1.14304    0.013
 6898.00    1.02358   1.14435    0.013
 6899.00    1.09279   1.14579    0.013
 6900.00    1.10265   1.14666    0.014
 6901.00    1.10612   1.14756    0.014
 6902.00    1.11388   1.14886    0.014
 6903.00    1.12194   1.14986    0.014
 6904.00    1.04879   1.14997    0.013
 6905.00    0.97273   1.14943    0.013
 6906.00    1.03175   1.14835    0.013
 6907.00    1.08942   1.14619    0.013
 6908.00    1.08452   1.14327    0.013
 6909.00    1.07812   1.14034    0.012
 6910.00    1.04810   1.13714    0.012
 6911.00    1.01925   1.13437    0.012
 6912.00    1.00217   1.13335    0.012
 6913.00    0.98164   1.13324    0.013
 6914.00    0.93640   1.13338    0.013
 6915.00    0.90700   1.13480    0.013
 6916.00    0.96496   1.13657    0.013
 6917.00    1.01385   1.13708    0.013
 6918.00    1.02278   1.13677    0.013
 6919.00    1.02918   1.13607    0.014
 6920.00    1.02646   1.13453    0.013
 6921.00    1.03275   1.13218    0.013
 6922.00    1.06644   1.13020    0.013
 6923.00    1.09998   1.12926    0.013
 6924.00    1.13314   1.12920    0.013
 6925.00    1.15604   1.12949    0.013
 6926.00    1.15613   1.12996    0.013
 6927.00    1.13626   1.13108    0.013
 6928.00    1.07791   1.13241    0.013
 6929.00    1.05034   1.13302    0.013
 6930.00    1.07449   1.13333    0.013
 6931.00    1.08706   1.13459    0.013
 6932.00    1.08256   1.13623    0.013
 6933.00    1.06836   1.13722    0.013
 6934.00    1.04162   1.13820    0.013
 6935.00    1.04229   1.13919    0.013
 6936.00    1.07424   1.13941    0.014
 6937.00    1.09499   1.13863    0.014
 6938.00    1.10448   1.13687    0.014
 6939.00    1.12234   1.13459    0.014
 6940.00    1.14763   1.13238    0.014
 6941.00    1.14569   1.13001    0.014
 6942.00    1.12246   1.12797    0.014
 6943.00    1.12045   1.12751    0.014
 6944.00    1.13302   1.12764    0.013
 6945.00    1.09640   1.12753    0.013
 6946.00    1.03013   1.12804    0.013
 6947.00    1.00802   1.12842    0.013
 6948.00    1.00914   1.12790    0.013
 6949.00    1.03591   1.12795    0.013
 6950.00    1.07439   1.12867    0.013
 6951.00    1.04967   1.12930    0.013
 6952.00    1.00012   1.13084    0.013
 6953.00    1.03576   1.13359    0.013
 6954.00    1.09989   1.13643    0.013
 6955.00    1.14616   1.13904    0.013
 6956.00    1.18741   1.14179    0.014
 6957.00    1.15065   1.14443    0.014
 6958.00    1.09584   1.14644    0.014
 6959.00    1.09581   1.14774    0.014
 6960.00    1.10596   1.14897    0.014
 6961.00    1.10563   1.15032    0.014
 6962.00    1.10381   1.15093    0.014
 6963.00    1.11010   1.15110    0.014
 6964.00    1.11724   1.15165    0.014
 6965.00    1.10692   1.15198    0.013
 6966.00    1.09543   1.15143    0.013
 6967.00    1.14764   1.14983    0.014
 6968.00    1.20187   1.14691    0.014
 6969.00    1.13604   1.14318    0.014
 6970.00    1.06930   1.13852    0.013
 6971.00    0.97470   1.13159    0.013
 6972.00    0.88712   1.12389    0.013
 6973.00    0.90419   1.11801    0.013
 6974.00    0.92798   1.11326    0.014
 6975.00    1.01616   1.10924    0.014
 6976.00    1.09061   1.10904    0.014
 6977.00    1.06947   1.11339    0.014
 6978.00    1.05673   1.11900    0.014
 6979.00    1.08906   1.12533    0.014
 6980.00    1.11837   1.13303    0.014
 6981.00    1.13470   1.13992    0.014
 6982.00    1.14585   1.14446    0.014
 6983.00    1.13866   1.14751    0.014
 6984.00    1.13120   1.14957    0.014
 6985.00    1.12292   1.15029    0.014
 6986.00    1.12572   1.15001    0.014
 6987.00    1.15665   1.14986    0.014
 6988.00    1.16093   1.15004    0.013
 6989.00    1.10695   1.14992    0.013
 6990.00    1.07825   1.14941    0.013
 6991.00    1.09751   1.14857    0.013
 6992.00    1.11641   1.14717    0.013
 6993.00    1.13471   1.14492    0.014
 6994.00    1.12055   1.14221    0.014
 6995.00    1.05928   1.13939    0.014
 6996.00    1.02732   1.13599    0.014
 6997.00    1.03280   1.13258    0.014
 6998.00    1.02830   1.13038    0.014
 6999.00    1.01259   1.12891    0.014
 7000.00    1.01162   1.12727    0.014
 7001.00    1.02527   1.12616    0.014
 7002.00    1.03954   1.12644    0.014
 7003.00    1.05436   1.12726    0.014
 7004.00    1.06260   1.12788    0.014
 7005.00    1.06577   1.12870    0.014
 7006.00    1.06011   1.12973    0.014
 7007.00    1.04847   1.12995    0.014
 7008.00    1.05118   1.12878    0.014
 7009.00    1.06243   1.12661    0.014
 7010.00    1.08439   1.12423    0.014
 7011.00    1.11191   1.12221    0.014
 7012.00    1.08771   1.11996    0.014
 7013.00    1.04029   1.11789    0.014
 7014.00    1.00784   1.11850    0.014
 7015.00    0.98117   1.12120    0.014
 7016.00    1.06353   1.12291    0.015
 7017.00    1.18167   1.12428    0.015
 7018.00    1.09621   1.12640    0.015
 7019.00    0.95473   1.12749    0.014
 7020.00    0.99165   1.12680    0.014
 7021.00    1.06891   1.12628    0.015
 7022.00    1.09464   1.12708    0.015
 7023.00    1.11107   1.12842    0.015
 7024.00    1.08588   1.12984    0.014
 7025.00    1.05493   1.13203    0.014
 7026.00    1.07525   1.13495    0.014
 7027.00    1.10067   1.13736    0.014
 7028.00    1.06047   1.13874    0.014
 7029.00    1.01617   1.13985    0.014
 7030.00    1.00266   1.14093    0.014
 7031.00    0.99016   1.14089    0.014
 7032.00    1.01599   1.14059    0.014
 7033.00    1.03920   1.14222    0.014
 7034.00    0.99028   1.14429    0.014
 7035.00    0.94556   1.14576    0.015
 7036.00    0.95963   1.14979    0.015
 7037.00    0.97587   1.15611    0.015
 7038.00    1.01214   1.16116    0.015
 7039.00    1.04911   1.16566    0.015
 7040.00    1.09081   1.17075    0.015
 7041.00    1.12821   1.17420    0.015
 7042.00    1.14311   1.17546    0.015
 7043.00    1.16678   1.17602    0.015
 7044.00    1.22743   1.17538    0.015
 7045.00    1.26068   1.17237    0.015
 7046.00    1.19862   1.16712    0.015
 7047.00    1.15088   1.16024    0.014
 7048.00    1.14502   1.15193    0.014
 7049.00    1.14093   1.14194    0.014
 7050.00    1.14125   1.13165   -2.000
 7051.00    1.13096   1.12277   -2.000
 7052.00    1.09784   1.11481   -2.000
 7053.00    1.10007   1.10794   -2.000
 7054.00    1.16834   1.10302   -2.000
 7055.00    1.21709   1.09946   -2.000
 7056.00    1.23399   1.09604   -2.000
 7057.00    1.21903   1.09324   -2.000
 7058.00    1.15850   1.09188   -2.000
 7059.00    1.11698   1.09057   -2.000
 7060.00    1.09940   1.08871   -2.000
 7061.00    1.10266   1.08757   -2.000
 7062.00    1.12904   1.08656   -2.000
 7063.00    1.21104   1.08527   -2.000
 7064.00    1.34744   1.08495   -2.000
 7065.00    1.37015   1.08542   -2.000
 7066.00    1.29479   1.08708   -2.000
 7067.00    1.23740   1.09081   -2.000
 7068.00    1.19367   1.09505   -2.000
 7069.00    1.14369   1.09893   -2.000
 7070.00    1.08954   1.10330   -2.000
 7071.00    1.13146   1.10746   -2.000
 7072.00    1.22956   1.11014   -2.000
 7073.00    1.29972   1.11168   -2.000
 7074.00    1.35562   1.11250   -2.000
 7075.00    1.30303   1.11198   -2.000
 7076.00    1.20254   1.10948   -2.000
 7077.00    1.22252   1.10525   -2.000
 7078.00    1.28817   1.09945   -2.000
 7079.00    1.24944   1.09219   -2.000
 7080.00    1.17708   1.08374   -2.000
 7081.00    1.22080   1.07428   -2.000
 7082.00    1.29578   1.06567   -2.000
 7083.00    1.29347   1.05884   -2.000
 7084.00    1.27409   1.05214   -2.000
 7085.00    1.16273   1.04658   -2.000
 7086.00    1.03520   1.04330   -2.000
 7087.00    1.10031   1.04065   -2.000
 7088.00    1.19123   1.03907   -2.000
 7089.00    1.05901   1.03907   -2.000
 7090.00    0.90559   1.03943   -2.000
 7091.00    0.97992   1.04073   -2.000
 7092.00    1.06761   1.04300   -2.000
 7093.00    1.12062   1.04552   -2.000
 7094.00    1.17215   1.04827   -2.000
 7095.00    1.13951   1.05119   -2.000
 7096.00    1.10766   1.05414   -2.000
 7097.00    1.09554   1.05642   -2.000
 7098.00    1.08668   1.05830   -2.000
 7099.00    1.12099   1.05968   -2.000
 7100.00    1.14320   1.06014   -2.000
 7101.00    1.05819   1.06032   -2.000
 7102.00    0.98041   1.06037   -2.000
 7103.00    0.94990   1.05934   -2.000
 7104.00    0.92819   1.05743   -2.000
 7105.00    0.95130   1.05597   -2.000
 7106.00    0.99302   1.05499   -2.000
 7107.00    1.11129   1.05367   -2.000
 7108.00    1.19037   1.05261   -2.000
 7109.00    1.13582   1.05297   -2.000
 7110.00    1.09292   1.05434   -2.000
 7111.00    1.08347   1.05562   -2.000
 7112.00    1.07896   1.05681   -2.000
 7113.00    1.08658   1.05837   -2.000
 7114.00    1.10600   1.05945   -2.000
 7115.00    1.15040   1.05938   -2.000
 7116.00    1.15408   1.05861   -2.000
 7117.00    1.08291   1.05773   -2.000
 7118.00    1.04621   1.05626   -2.000
 7119.00    1.06489   1.05337   -2.000
 7120.00    1.02877   1.05064   -2.000
 7121.00    0.91537   1.04832   -2.000
 7122.00    0.93083   1.04470   -2.000
 7123.00    1.10611   1.04052   -2.000
 7124.00    1.20723   1.03708   -2.000
 7125.00    1.22729   1.03441   -2.000
 7126.00    1.19704   1.03226   -2.000
 7127.00    1.11829   1.03066   -2.000
 7128.00    1.07603   1.03097   -2.000
 7129.00    1.06480   1.03324   -2.000
 7130.00    1.09342   1.03611   -2.000
 7131.00    1.15188   1.03999   -2.000
 7132.00    1.22366   1.04400   -2.000
 7133.00    1.30420   1.04708   -2.000
 7134.00    1.24668   1.05051   -2.000
 7135.00    1.10964   1.05312   -2.000
 7136.00    1.03685   1.05364   -2.000
 7137.00    0.99631   1.05424   -2.000
 7138.00    1.02580   1.05506   -2.000
 7139.00    1.08570   1.05408   -2.000
 7140.00    1.16750   1.05259   -2.000
 7141.00    1.25745   1.05118   -2.000
 7142.00    1.21932   1.04875   -2.000
 7143.00    1.14074   1.04711   -2.000
 7144.00    1.11319   1.04606   -2.000
 7145.00    1.09911   1.04451   -2.000
 7146.00    1.08722   1.04550   -2.000
 7147.00    1.07580   1.04871   -2.000
 7148.00    1.09344   1.05129   -2.000
 7149.00    1.11606   1.05463   -2.000
 7150.00    1.17105   1.05943   -2.000
 7151.00    1.23023   1.06312   -2.000
 7152.00    1.26761   1.06476   -2.000
 7153.00    1.30302   1.06626   -2.000
 7154.00    1.22301   1.06744   -2.000
 7155.00    1.13669   1.06624   -2.000
 7156.00    1.07838   1.06383   -2.000
 7157.00    1.02027   1.06125   -2.000
 7158.00    0.92610   1.05780   -2.000
 7159.00    0.84583   1.05458   -2.000
 7160.00    1.08099   1.05231   -2.000
 7161.00    1.30145   1.05038   -2.000
 7162.00    1.33682   1.04998   -2.000
 7163.00    1.37597   1.05227   -2.000
 7164.00    1.44728   1.05595   -2.000
 7165.00    1.45768   1.06025   -2.000
 7166.00    1.08199   1.06492   -2.000
 7167.00    0.80718   1.06920   -2.000
 7168.00    1.03328   1.07282   -2.000
 7169.00    1.20131   1.07515   -2.000
 7170.00    1.13554   1.07561   -2.000
 7171.00    1.10548   1.07503   -2.000
 7172.00    1.19478   1.07351   -2.000
 7173.00    1.21300   1.07038   -2.000
 7174.00    1.03075   1.06701   -2.000
 7175.00    0.91201   1.06436   -2.000
 7176.00    0.94648   1.06148   -2.000
 7177.00    1.02152   1.05856   -2.000
 7178.00    1.18102   1.05618   -2.000
 7179.00    1.26124   1.05480   -2.000
 7180.00    1.19792   1.05392   -2.000
 7181.00    1.14428   1.05186   -2.000
 7182.00    1.10596   1.04968   -2.000
 7183.00    1.03307   1.04792   -2.000
 7184.00    0.91212   1.04524   -2.000
 7185.00    0.82723   1.04331   -2.000
 7186.00    0.78644   1.04262   -2.000
 7187.00    0.83162   1.04229   -2.000
 7188.00    0.96946   1.04349   -2.000
 7189.00    1.07229   1.04563   -2.000
 7190.00    1.14182   1.04734   -2.000
 7191.00    1.11519   1.04960   -2.000
 7192.00    1.00793   1.05279   -2.000
 7193.00    0.96345   1.05508   -2.000
 7194.00    0.96530   1.05641   -2.000
 7195.00    1.00609   1.05838   -2.000
 7196.00    1.07212   1.06006   -2.000
 7197.00    0.97094   1.06067   -2.000
 7198.00    0.77491   1.06088   -2.000
 7199.00    0.91562   1.06047   -2.000
 7200.00    1.22263   1.05907   -2.000
 7201.00    1.35858   1.05704   -2.000
 7202.00    1.42149   1.05516   -2.000
 7203.00    1.33395   1.05283   -2.000
 7204.00    1.19137   1.05043   -2.000
 7205.00    1.01558   1.05034   -2.000
 7206.00    0.82951   1.05130   -2.000
 7207.00    0.89226   1.05250   -2.000
 7208.00    1.01924   1.05546   -2.000
 7209.00    0.98658   1.05855   -2.000
 7210.00    0.92035   1.06083   -2.000
 7211.00    0.95374   1.06372   -2.000
 7212.00    1.00366   1.06648   -2.000
 7213.00    1.11041   1.06820   -2.000
 7214.00    1.22426   1.07004   -2.000
 7215.00    1.21532   1.07206   -2.000
 7216.00    1.19574   1.07316   -2.000
 7217.00    1.00259   1.07389   -2.000
 7218.00    0.80062   1.07524   -2.000
