###################################################################
## OUTPUT of StarlightChains_v04.for    [Cid@UFSC - 01/Apr/2007] ##
###################################################################

## Some input info
KUG0210-078._36_41.txt                   [arq_obs]
Base.CB07.vall.4m                        [arq_base]
Masks.EmLines.NEW.gm                     [arq_masks]
StCv04.C11.config                        [arq_config]
   66                                    [N_base]
    0                                    [N_YAV_components = # of components with extra extinction!]
    0                                    [i_FitPowerLaw (1/0 = Yes/No)]
-9.99                                    [alpha_PowerLaw]
CCM                                      [red_law_option]
 1.458241                                [q_norm = A(l_norm)/A(V)]

## (Re)Sampling Parameters
 3741.00                                 [l_ini (A)]
 7218.00                                 [l_fin (A)]
    1.00                                 [dl    (A)]     (OBS: dl_cushion =    50.00 A)

## Normalization info
 4020.00                                 [l_norm (A) - for base]
 4010.00                                 [llow_norm (A) - window for f_obs]
 4060.00                                 [lupp_norm (A) - window for f_obs]
1.217020E-17                             [fobs_norm (in input units)]

## S/N
 3691.00                                 [llow_SN (A) - window for S/N]
 7268.00                                 [lupp_SN (A) - window for S/N]
   4.962                                 [S/N in S/N window]
   4.034                                 [S/N in norm. window]
   0.017                                 [S/N_err in S/N window]
   0.014                                 [S/N_err in norm. window]
  1.0000                                 [fscale_chi2]

## etc...
    -2007605                             [idum_orig]
  2429                                   [NOl_eff]
  2415                                   [Nl_eff]
    14    NSIGMA                         [Ntot_cliped & clip_method]
  3710840                                [Nglobal_steps]
   7                                     [N_chains]
  44                                     [NEX0s_base = N_base in EX0s-fits]
 0   0   1       14   2.0   1.883E+03    [Clip-Bug, RC-Crash & Burn-In warning-flags, n_censored_weights, wei_nsig_threshold & wei_limit]
   120    117.028    115.419      1.609  [idt_all, wdt_TotTime, wdt_UsrTime & wdt_SysTime (sec)]

## Synthesis Results - Best model ##

 9.31743E-06                             [chi2/Nl_eff]
    17.59705                             [adev (%)]

   106.93623                             [sum-of-x (%)]
 2.86604E-17                             [Flux_tot (units of input spectrum!)]
 6.50345E-13                             [Mini_tot (???)]
 3.38273E-13                             [Mcor_tot (???)]

-137.15                                  [v0_min  (km/s)]
 196.69                                  [vd_min  (km/s)]
 0.5878                                  [AV_min  (mag)]
 0.0000                                  [YAV_min (mag)]

# j     x_j(%)      Mini_j(%)     Mcor_j(%)     age_j(yr)     Z_j      (L/M)_j    YAV?  Mstars   component_j        a/Fe...       SSP_chi2r SSP_adev(%)   SSP_AV   SSP_x(%)
  1      0.0000     0.0000E+00    0.0000E+00    1.000000E+06  0.00400  1.094E-02    0   1.0000   age020_m42            0.0000     1.2800E-05    22.6660   3.7026    89.7031
  2      0.0000     0.0000E+00    0.0000E+00    3.160000E+06  0.00400  4.007E-02    0   0.9999   age045_m42            0.0000     1.1296E-05    20.8019   2.9667    96.0687
  3      0.0000     0.0000E+00    0.0000E+00    5.010000E+06  0.00400  2.539E-02    0   0.9488   age055_m42            0.0000     1.1998E-05    21.6118   3.2942    93.5231
  4      0.0000     0.0000E+00    0.0000E+00    6.610000E+06  0.00400  2.620E-02    0   0.9220   age061_m42            0.0000     1.1301E-05    20.5800   2.8964    96.1436
  5      0.6723     2.0958E-03    3.5707E-03    1.000000E+07  0.00400  1.322E-02    0   0.8862   age070_m42            0.0000     1.1432E-05    20.9538   2.6333    97.4306
  6      0.0000     0.0000E+00    0.0000E+00    1.445000E+07  0.00400  7.883E-03    0   0.8571   age078_m42            0.0000     1.1911E-05    21.5084   2.9608    94.9836
  7      0.6912     5.4243E-03    8.5243E-03    2.512000E+07  0.00400  5.251E-03    0   0.8174   age090_m42            0.0000     1.1425E-05    20.9693   2.5063    97.8517
  8      0.0000     0.0000E+00    0.0000E+00    4.000000E+07  0.00400  3.649E-03    0   0.7851   age104_m42            0.0000     1.1099E-05    20.4979   2.2756    98.8048
  9      4.4050     5.8597E-02    8.5944E-02    5.500000E+07  0.00400  3.098E-03    0   0.7629   age110_m42            0.0000     1.0917E-05    19.8249   2.4199    99.1572
 10      0.0000     0.0000E+00    0.0000E+00    1.015200E+08  0.00400  2.228E-03    0   0.7207   age116_m42            0.0000     1.0827E-05    19.3128   2.4332    99.5874
 11      9.2408     3.4842E-01    4.4532E-01    2.861200E+08  0.00400  1.093E-03    0   0.6648   age125_m42            0.0000     1.0498E-05    19.0311   1.8618   102.4070
 12      0.0000     0.0000E+00    0.0000E+00    5.088000E+08  0.00400  6.597E-04    0   0.6365   age130_m42            0.0000     1.0315E-05    18.1619   1.8426   103.6816
 13      0.0000     0.0000E+00    0.0000E+00    1.434000E+09  0.00400  2.132E-04    0   0.5798   age139_m42            0.0000     9.4821E-06    17.2285   0.8660   106.0802
 14      0.6031     4.2162E-01    4.3585E-01    4.250000E+09  0.00400  5.895E-05    0   0.5377   age158_m42            0.0000     9.5051E-06    18.0497   0.4115   102.6471
 15      6.6147     7.7663E+00    7.7821E+00    7.500000E+09  0.00400  3.510E-05    0   0.5212   age171_m42            0.0000     9.6814E-06    18.1296   0.2160   102.2311
 16      0.0000     0.0000E+00    0.0000E+00    1.300000E+10  0.00400  2.005E-05    0   0.5034   age193_m42            0.0000     9.9216E-06    18.2303   0.0448   101.8696
 17      0.1655     4.4737E-01    4.2721E-01    1.800000E+10  0.00400  1.525E-05    0   0.4967   age213_m42            0.0000     9.9376E-06    18.3375   0.0228   101.3814
 18      0.0000     0.0000E+00    0.0000E+00    1.000000E+06  0.00800  1.238E-02    0   1.0000   age020_m52            0.0000     1.2819E-05    22.6943   3.6985    89.8908
 19      0.0000     0.0000E+00    0.0000E+00    3.160000E+06  0.00800  3.074E-02    0   0.9966   age045_m52            0.0000     1.2795E-05    22.6311   3.6223    90.6852
 20      0.0000     0.0000E+00    0.0000E+00    5.010000E+06  0.00800  2.668E-02    0   0.9443   age055_m52            0.0000     1.2242E-05    21.8701   3.3783    92.6495
 21      0.0000     0.0000E+00    0.0000E+00    6.610000E+06  0.00800  2.136E-02    0   0.9177   age061_m52            0.0000     1.1036E-05    20.8632   2.1331    98.6726
 22      0.0000     0.0000E+00    0.0000E+00    1.000000E+07  0.00800  1.215E-02    0   0.8827   age070_m52            0.0000     1.1841E-05    21.5767   2.8174    96.9826
 23      0.0000     0.0000E+00    0.0000E+00    1.445000E+07  0.00800  8.717E-03    0   0.8552   age078_m52            0.0000     1.1771E-05    21.3196   2.9261    96.2988
 24      0.0000     0.0000E+00    0.0000E+00    2.512000E+07  0.00800  5.592E-03    0   0.8162   age090_m52            0.0000     1.1418E-05    20.9209   2.5707    98.9537
 25      2.0949     2.2160E-02    3.3405E-02    4.000000E+07  0.00800  3.896E-03    0   0.7841   age104_m52            0.0000     1.1097E-05    20.3620   2.4752    99.9691
 26      3.0396     5.8317E-02    8.1016E-02    1.015200E+08  0.00800  2.148E-03    0   0.7226   age116_m52            0.0000     1.0726E-05    19.5309   2.4044   100.2009
 27      0.0000     0.0000E+00    0.0000E+00    2.861200E+08  0.00800  9.925E-04    0   0.6683   age125_m52            0.0000     1.0240E-05    17.9735   1.9075   104.6529
 28      0.0000     0.0000E+00    0.0000E+00    9.047900E+08  0.00800  3.141E-04    0   0.6138   age135_m52            0.0000     9.6115E-06    16.9525   1.0880   109.8343
 29      0.7366     1.7660E-01    1.9872E-01    1.434000E+09  0.00800  1.719E-04    0   0.5853   age139_m52            0.0000     9.3623E-06    17.4909   0.5070   107.6525
 30      6.9598     3.6436E+00    3.9228E+00    2.500000E+09  0.00800  7.872E-05    0   0.5600   age150_m52            0.0000     9.6263E-06    17.6632   0.2269   105.4128
 31      1.2089     1.1490E+00    1.1986E+00    4.250000E+09  0.00800  4.336E-05    0   0.5426   age158_m52            0.0000     9.7531E-06    17.8946   0.2110   104.4583
 32      0.0000     0.0000E+00    0.0000E+00    6.250000E+09  0.00800  3.159E-05    0   0.5319   age166_m52            0.0000     1.0083E-05    17.8539  -0.0034   104.9126
 33     14.7276     4.4595E+01    4.3494E+01    1.300000E+10  0.00800  1.361E-05    0   0.5073   age193_m52            0.0000     1.0779E-05    17.7445  -0.4841   104.7033
 34      4.0007     1.6678E+01    1.6000E+01    1.800000E+10  0.00800  9.886E-06    0   0.4990   age213_m52            0.0000     1.1430E-05    17.7675  -0.6037   104.6218
 35      0.0000     0.0000E+00    0.0000E+00    1.000000E+06  0.02000  1.544E-02    0   1.0000   age020_m62            0.0000     1.2895E-05    22.7858   3.6949    90.0916
 36      0.0129     1.4125E-05    2.6771E-05    3.160000E+06  0.02000  3.762E-02    0   0.9858   age045_m62            0.0000     1.3027E-05    22.8196   3.6341    90.8664
 37      0.0000     0.0000E+00    0.0000E+00    5.010000E+06  0.02000  3.296E-02    0   0.9342   age055_m62            0.0000     1.1775E-05    21.2081   3.2491    94.8475
 38      0.0000     0.0000E+00    0.0000E+00    8.710000E+06  0.02000  1.154E-02    0   0.8861   age067_m62            0.0000     1.3940E-05    24.8888   2.2957    98.3468
 39      0.9127     4.9083E-03    7.9945E-03    1.445000E+07  0.02000  7.663E-03    0   0.8472   age078_m62            0.0000     1.2103E-05    22.3228   2.4679    98.8613
 40      0.0000     0.0000E+00    0.0000E+00    2.512000E+07  0.02000  4.532E-03    0   0.8099   age090_m62            0.0000     1.2204E-05    22.3714   2.4606    98.5049
 41      0.3054     4.6056E-03    6.7249E-03    5.500000E+07  0.02000  2.733E-03    0   0.7595   age110_m62            0.0000     1.1174E-05    20.4630   2.4597    99.2097
 42      0.0000     0.0000E+00    0.0000E+00    1.609000E+08  0.02000  1.369E-03    0   0.6985   age120_m62            0.0000     1.0639E-05    18.7787   2.2824   102.5409
 43      0.0000     0.0000E+00    0.0000E+00    2.861200E+08  0.02000  9.013E-04    0   0.6714   age125_m62            0.0000     1.0419E-05    17.6269   2.0230   105.8623
 44      0.0000     0.0000E+00    0.0000E+00    5.088000E+08  0.02000  5.028E-04    0   0.6449   age130_m62            0.0000     1.0117E-05    16.7700   1.6261   109.4655
 45      6.7463     1.1451E+00    1.3603E+00    9.047900E+08  0.02000  2.428E-04    0   0.6179   age135_m62            0.0000     9.5675E-06    17.0960   1.0262   109.3984
 46      0.0000     0.0000E+00    0.0000E+00    1.434000E+09  0.02000  1.263E-04    0   0.5908   age139_m62            0.0000     9.5779E-06    17.4954   0.5790   107.9832
 47      0.0000     0.0000E+00    0.0000E+00    2.500000E+09  0.02000  5.985E-05    0   0.5673   age150_m62            0.0000     1.0049E-05    17.8491   0.1995   107.0741
 48      0.0000     0.0000E+00    0.0000E+00    4.250000E+09  0.02000  3.271E-05    0   0.5468   age158_m62            0.0000     1.0806E-05    17.8195  -0.1215   106.7904
 49      2.7277     8.2656E+00    8.2108E+00    1.000000E+10  0.02000  1.360E-05    0   0.5167   age181_m62            0.0000     1.2125E-05    17.7842  -0.4903   107.0930
 50      0.0000     0.0000E+00    0.0000E+00    1.800000E+10  0.02000  7.124E-06    0   0.5013   age213_m62            0.0000     1.3336E-05    17.8930  -0.7187   106.8896
 51      0.0000     0.0000E+00    0.0000E+00    1.000000E+06  0.05000  2.592E-02    0   0.9998   age020_m72            0.0000     1.3105E-05    23.0457   3.6872    90.0941
 52      0.0000     0.0000E+00    0.0000E+00    3.160000E+06  0.05000  4.845E-02    0   0.9577   age045_m72            0.0000     1.2613E-05    22.2706   3.5144    92.1475
 53      0.0000     0.0000E+00    0.0000E+00    5.010000E+06  0.05000  3.072E-02    0   0.9147   age055_m72            0.0000     1.2526E-05    22.6299   3.0399    95.5564
 54      0.0000     0.0000E+00    0.0000E+00    6.610000E+06  0.05000  1.455E-02    0   0.8877   age061_m72            0.0000     1.6418E-05    27.9692   2.3222    98.9312
 55      0.0060     2.7217E-05    4.4603E-05    1.000000E+07  0.05000  9.074E-03    0   0.8524   age070_m72            0.0000     1.3128E-05    23.5866   3.2030    95.4833
 56      0.0000     0.0000E+00    0.0000E+00    2.512000E+07  0.05000  4.250E-03    0   0.7902   age090_m72            0.0000     1.2146E-05    22.1144   2.9142    97.1789
 57      5.5271     7.3785E-02    1.0807E-01    4.000000E+07  0.05000  3.087E-03    0   0.7618   age104_m72            0.0000     1.1947E-05    21.7954   2.6881    98.7133
 58      0.0000     0.0000E+00    0.0000E+00    1.015200E+08  0.05000  1.700E-03    0   0.7096   age116_m72            0.0000     1.0857E-05    19.3544   2.4287   101.8809
 59     14.5355     8.1125E-01    1.0345E+00    2.861200E+08  0.05000  7.384E-04    0   0.6633   age125_m72            0.0000     1.0295E-05    17.1171   1.8810   107.7338
 60      0.0000     0.0000E+00    0.0000E+00    5.088000E+08  0.05000  3.819E-04    0   0.6372   age130_m72            0.0000     9.8809E-06    16.9657   1.3717   110.2782
 61      5.5070     1.3541E+00    1.5906E+00    9.047900E+08  0.05000  1.676E-04    0   0.6110   age135_m72            0.0000     1.0065E-05    17.9232   0.6572   109.1976
 62     14.8300     6.9159E+00    7.8102E+00    1.434000E+09  0.05000  8.837E-05    0   0.5874   age139_m72            0.0000     1.0265E-05    17.9131   0.1931   108.8584
 63      0.0000     0.0000E+00    0.0000E+00    2.500000E+09  0.05000  4.233E-05    0   0.5598   age150_m72            0.0000     1.1123E-05    17.9029  -0.1313   108.0726
 64      0.0000     0.0000E+00    0.0000E+00    6.250000E+09  0.05000  1.435E-05    0   0.5249   age166_m72            0.0000     1.2441E-05    17.9109  -0.5965   107.0025
 65      0.0000     0.0000E+00    0.0000E+00    1.300000E+10  0.05000  6.513E-06    0   0.5036   age193_m72            0.0000     1.4135E-05    18.0959  -0.8959   108.6519
 66      0.6649     6.0524E+00    5.7540E+00    1.800000E+10  0.05000  4.527E-06    0   0.4945   age213_m72            0.0000     1.5405E-05    17.7954  -1.0000   106.6328


## Synthesis Results - Average & Chains ##

# j      x_j: min, <> & last-chain-values for 1 ...  7 chains
  1      0.0000      1.7100      1.7142      0.0000      2.4805      1.5919      1.0296      1.6510      0.0000
  2      0.0000      1.0663      0.0000      0.2920      1.4333      0.1013      0.0000      1.5720      0.7238
  3      0.0000      1.9911      2.3319      7.5632      1.2106      2.5202      2.3465      2.0059      2.0373
  4      0.0000      1.5477      0.2274      0.0000      0.0000      0.1367      0.0000      0.0000      0.1358
  5      0.6723      1.2086      0.4427      0.0000      0.6075      0.3159      0.8304      1.3158      0.7558
  6      0.0000      1.6164      0.5265      0.2213      0.8616      0.1993      0.3343      0.1920      0.0000
  7      0.6912      2.1189      2.0718      2.7405      2.8841      2.9316      0.4705      1.9844      1.0436
  8      0.0000      1.5726      1.3083      0.0000      2.7960      1.4236      3.4300      1.0853      0.4129
  9      4.4050      1.6073      0.5352      0.7230      0.0000      0.9893      0.7712      0.4579      1.0049
 10      0.0000      1.5838      1.1865      0.0000      0.8577      0.3982      0.0000      0.4691      0.3270
 11      9.2408      1.8918      0.2450      0.0000      1.3702      0.1645      0.4957      0.0693      0.8243
 12      0.0000      2.2027      0.1358      0.0000      1.0946      0.4486      0.7381      0.0000      0.0000
 13      0.0000      1.2819      0.0000      0.2470      0.7431      0.1426      0.0000      0.0000      0.0000
 14      0.6031      1.6290      0.2724      0.0000      0.0000      0.0863      2.4765      0.0000      0.7270
 15      6.6147      1.4965      0.3928      0.0000      0.8943      0.0000      0.0000      0.0271      6.6036
 16      0.0000      1.5749      0.6295      0.0000      1.6284      0.4587      1.1796      0.0800      0.0000
 17      0.1655      1.0824      0.1891      0.0000      1.1633      0.3294      0.1186      0.0000      0.6337
 18      0.0000      1.4594      0.7239      0.9334      1.3138      0.4816      0.2967      0.9616      0.3573
 19      0.0000      1.2050      0.1802      0.3837      0.1654      0.0000      0.0000      0.0000      0.0602
 20      0.0000      1.3970      0.0000      0.0000      0.0000      0.3795      0.1074      0.0000      0.2107
 21      0.0000      1.8128      1.1322      0.7358      0.9383      1.4441      0.0000      0.4525      1.0710
 22      0.0000      1.1273      0.4453      2.6144      0.3557      0.9330      0.3769      0.4310      0.0000
 23      0.0000      1.3805      0.1507      0.1101      0.8376      0.0442      3.0015      0.1074      0.0000
 24      0.0000      1.3567      0.6188      1.0313      0.0185      0.1479      0.0000      0.0016      0.4977
 25      2.0949      1.5552      0.0000      0.1589      0.1875      0.3779      2.5047      0.9949      0.7482
 26      3.0396      1.0246      1.2607      0.0499      0.0000      0.0000      0.0000      0.0000      0.9787
 27      0.0000      2.0579      2.9155      2.7976      0.0000      3.1494      2.5259      2.4582      3.1650
 28      0.0000      1.4167      0.0000      0.0000      1.3347      0.2560      4.5100      0.0000      0.1693
 29      0.7366      1.6246      0.1291      0.0000      2.0270      0.3321      0.2789      0.2662      1.2469
 30      6.9598      1.3336      0.0000      0.0000      1.9671      0.2418      0.4209      0.0000      0.7631
 31      1.2089      2.2156      0.0000      0.0000      0.0000      0.0000      1.0287      4.6402      0.8657
 32      0.0000      1.6475      0.6457      0.2396      0.0000      0.4381      0.0270      1.8977      0.0000
 33     14.7276      1.0813      0.6334      0.0000      6.8136      0.4131      0.5334      0.0000      3.4513
 34      4.0007      1.6456      0.1552      0.0000      3.2619      0.0000      0.0000      2.4023      0.6291
 35      0.0000      1.4310      0.0969      0.3708      0.0573      0.1167      0.0000      0.2350      0.0610
 36      0.0129      1.6761      0.9163      0.9929      2.7858      1.2143      0.9449      0.5300      0.9759
 37      0.0000      1.4671      0.6651      0.0000      0.3794      0.7574      0.0000      0.4083      0.0000
 38      0.0000      1.2527      0.0000      0.4300      0.0000      0.0000      1.2574      0.5627      0.8171
 39      0.9127      1.4687      1.1107      0.4937      0.6357      0.1746      0.5924      0.0000      0.5216
 40      0.0000      1.2662      0.1704      0.4012      0.3164      0.4260      0.4160      0.2750      0.5168
 41      0.3054      1.4856      0.3585      0.1429      0.6694      0.1301      0.0000      0.0917      0.4396
 42      0.0000      1.5508      0.5368      0.1109      0.3963      0.0913      0.4809      0.0000      0.1243
 43      0.0000      1.6195      0.1525      0.0000      0.6819      0.3721      0.0523      0.0000      0.5309
 44      0.0000      1.0195      0.9645      0.4196      0.0000      0.4248      0.8140      0.6437      0.3908
 45      6.7463      0.9492      0.1955      0.1122      1.3252      0.1183      0.0882      0.0000      1.0852
 46      0.0000      1.7526      0.0000      2.5196      0.4276      0.3279      0.0199      2.0087      0.0541
 47      0.0000      1.3527      0.1406      0.0000      0.5203      0.0000      0.5021      0.0000      1.5718
 48      0.0000      1.3889      0.2459      0.0000      0.3332      0.1778      0.0000      1.4714      0.0000
 49      2.7277      1.3336      0.8666      1.9155      2.5642      1.5470      0.0000      1.3956      5.9084
 50      0.0000      1.6113      0.0000      0.0000      0.0000      0.1042      0.4204      0.0282      0.0000
 51      0.0000      1.0434      1.9715      0.4502      0.1088      1.4265      1.4664      1.0970      1.0977
 52      0.0000      1.1662      0.2896      0.9029      0.2433      0.0000      0.0000      0.2249      0.6863
 53      0.0000      1.2970      0.3629      0.0975      0.0000      0.4797      0.1459      0.0000      0.5999
 54      0.0000      2.0150      4.5921      5.0045      2.9254      4.1105      4.4718      3.4147      3.7832
 55      0.0060      2.8256      7.0547      8.6675      9.9560      9.5366      8.8061      8.5202      7.6381
 56      0.0000      1.1449      0.2768      0.2238      0.0000      0.0754      0.0374      0.0000      0.0000
 57      5.5271      1.3538      0.8526      0.6816      1.2149      1.2338      0.5163      4.8145      0.5554
 58      0.0000      1.4260      0.3993      0.7997      0.1480      0.6288      0.0000      0.0000      1.6105
 59     14.5355      1.2656      0.7466      0.0177      2.4997      0.0000      0.4422      2.7259      0.5574
 60      0.0000      0.9592      0.3488      0.0959      1.6790      0.0000      0.0000      0.1392      0.5647
 61      5.5070      1.4572      2.6271      2.5197      0.3637      2.2867      3.2944      2.3955      3.8281
 62     14.8300      2.9219     13.0153     11.5408      2.8246     12.1102      7.4907      9.9829     11.2793
 63      0.0000      2.4965      9.8613     12.7097      6.9458     11.2721      9.6144      9.0983      8.5334
 64      0.0000      2.2687      7.4374      9.0679      8.3468      9.3474      7.5199      8.6704      5.7108
 65      0.0000      1.8311      4.3428      4.0722      5.7136      4.5473      7.0060      3.7067      4.0119
 66      0.6649      4.6939     23.2961     19.4024     10.7413     20.9218     19.9096     18.3667     12.3995

# j      m_j: min, <> & last-chain-values for 1 ...  7 chains
  1  0.0000E+00  1.1711E-02  4.4770E-03  0.0000E+00  8.4179E-03  4.3508E-03  2.8303E-03  4.8400E-03  0.0000E+00
  2  0.0000E+00  1.9936E-03  0.0000E+00  2.3389E-04  1.3279E-03  7.5593E-05  0.0000E+00  1.2580E-03  6.8596E-04
  3  0.0000E+00  5.5750E-03  2.4897E-03  9.0717E-03  1.6796E-03  2.8159E-03  2.6369E-03  2.4040E-03  2.8916E-03
  4  0.0000E+00  4.0807E-03  2.2861E-04  0.0000E+00  0.0000E+00  1.4379E-04  0.0000E+00  0.0000E+00  1.8152E-04
  5  3.5707E-03  6.0703E-03  8.4783E-04  0.0000E+00  1.5119E-03  6.3324E-04  1.6740E-03  2.8287E-03  1.9243E-03
  6  0.0000E+00  1.3168E-02  1.6354E-03  7.7217E-04  3.4782E-03  6.4797E-04  1.0932E-03  6.6955E-04  0.0000E+00
  7  8.5243E-03  2.4714E-02  9.2144E-03  1.3693E-02  1.6669E-02  1.3645E-02  2.2027E-03  9.9066E-03  6.1701E-03
  8  0.0000E+00  2.5351E-02  8.0426E-03  0.0000E+00  2.2334E-02  9.1584E-03  2.2192E-02  7.4889E-03  3.3740E-03
  9  8.5944E-02  2.9656E-02  3.7655E-03  5.7145E-03  0.0000E+00  7.2841E-03  5.7114E-03  3.6161E-03  9.3991E-03
 10  0.0000E+00  3.8386E-02  1.0966E-02  0.0000E+00  1.0300E-02  3.8515E-03  0.0000E+00  4.8661E-03  4.0173E-03
 11  4.4532E-01  8.6216E-02  4.2572E-03  0.0000E+00  3.0942E-02  2.9922E-03  9.0659E-03  1.3516E-03  1.9042E-02
 12  0.0000E+00  1.5923E-01  3.7447E-03  0.0000E+00  3.9211E-02  1.2942E-02  2.1415E-02  0.0000E+00  0.0000E+00
 13  0.0000E+00  2.6121E-01  0.0000E+00  2.1561E-02  7.5033E-02  1.1598E-02  0.0000E+00  0.0000E+00  0.0000E+00
 14  4.3585E-01  1.1133E+00  7.0985E-02  0.0000E+00  0.0000E+00  2.3550E-02  6.7930E-01  0.0000E+00  2.5187E-01
 15  7.7821E+00  1.6650E+00  1.6666E-01  0.0000E+00  4.9303E-01  0.0000E+00  0.0000E+00  1.2893E-02  3.7243E+00
 16  0.0000E+00  2.9627E+00  4.5161E-01  0.0000E+00  1.5180E+00  3.4434E-01  8.9064E-01  6.4406E-02  0.0000E+00
 17  4.2721E-01  2.6415E+00  1.7601E-01  0.0000E+00  1.4067E+00  3.2075E-01  1.1618E-01  0.0000E+00  7.8393E-01
 18  0.0000E+00  8.8327E-03  1.6707E-03  2.4201E-03  3.9400E-03  1.1630E-03  7.2060E-04  2.4909E-03  1.0961E-03
 19  0.0000E+00  2.9270E-03  1.6695E-04  3.9923E-04  1.9907E-04  0.0000E+00  0.0000E+00  0.0000E+00  7.4107E-05
 20  0.0000E+00  3.7046E-03  0.0000E+00  0.0000E+00  0.0000E+00  4.0166E-04  1.1432E-04  0.0000E+00  2.8323E-04
 21  0.0000E+00  5.8354E-03  1.3898E-03  1.0147E-03  1.4967E-03  1.8551E-03  0.0000E+00  6.2343E-04  1.7477E-03
 22  0.0000E+00  6.1365E-03  9.2436E-04  6.0964E-03  9.5951E-04  2.0267E-03  8.2336E-04  1.0041E-03  0.0000E+00
 23  0.0000E+00  1.0148E-02  4.2250E-04  3.4667E-04  3.0508E-03  1.2980E-04  8.8552E-03  3.3805E-04  0.0000E+00
 24  0.0000E+00  1.4837E-02  2.5804E-03  4.8315E-03  1.0036E-04  6.4526E-04  0.0000E+00  7.5431E-06  2.7588E-03
 25  3.3405E-02  2.3451E-02  0.0000E+00  1.0264E-03  1.4008E-03  2.2739E-03  1.5159E-02  6.4215E-03  5.7190E-03
 26  8.1016E-02  2.5825E-02  1.2117E-02  5.3882E-04  0.0000E+00  0.0000E+00  0.0000E+00  0.0000E+00  1.2505E-02
 27  0.0000E+00  1.0382E-01  5.6091E-02  6.0463E-02  0.0000E+00  6.3408E-02  5.1147E-02  5.3084E-02  8.0942E-02
 28  0.0000E+00  2.0743E-01  0.0000E+00  0.0000E+00  9.6838E-02  1.4960E-02  2.6503E-01  0.0000E+00  1.2566E-02
 29  1.9872E-01  4.1447E-01  1.2561E-02  0.0000E+00  2.5624E-01  3.3815E-02  2.8561E-02  2.9071E-02  1.6125E-01
 30  3.9228E+00  7.1082E-01  0.0000E+00  0.0000E+00  5.1953E-01  5.1429E-02  9.0041E-02  0.0000E+00  2.0617E-01
 31  1.1986E+00  2.0774E+00  0.0000E+00  0.0000E+00  0.0000E+00  0.0000E+00  3.8710E-01  1.8622E+00  4.1147E-01
 32  0.0000E+00  2.0784E+00  3.1065E-01  1.2949E-01  0.0000E+00  2.2055E-01  1.3694E-02  1.0247E+00  0.0000E+00
 33  4.3494E+01  3.0198E+00  6.7458E-01  0.0000E+00  9.4292E+00  4.6040E-01  5.9794E-01  0.0000E+00  4.8860E+00
 34  1.6000E+01  6.2237E+00  2.2375E-01  0.0000E+00  6.1127E+00  0.0000E+00  0.0000E+00  3.8887E+00  1.2060E+00
 35  0.0000E+00  6.9441E-03  1.7929E-04  7.7088E-04  1.3780E-04  2.2594E-04  0.0000E+00  4.8807E-04  1.4996E-04
 36  2.6771E-05  3.2908E-03  6.8600E-04  8.3510E-04  2.7102E-03  9.5141E-04  7.4462E-04  4.4543E-04  9.7126E-04
 37  0.0000E+00  3.1157E-03  5.3859E-04  0.0000E+00  3.9924E-04  6.4189E-04  0.0000E+00  3.7117E-04  0.0000E+00
 38  0.0000E+00  7.2070E-03  0.0000E+00  1.0597E-03  0.0000E+00  0.0000E+00  2.9034E-03  1.3858E-03  2.3829E-03
 39  7.9945E-03  1.2166E-02  3.5084E-03  1.7520E-03  2.6093E-03  5.7732E-04  1.9697E-03  0.0000E+00  2.1902E-03
 40  0.0000E+00  1.6954E-02  8.6987E-04  2.3014E-03  2.0995E-03  2.2762E-03  2.2358E-03  1.5758E-03  3.5078E-03
 41  6.7249E-03  3.0932E-02  2.8468E-03  1.2743E-03  6.9061E-03  1.0814E-03  0.0000E+00  8.1732E-04  4.6398E-03
 42  0.0000E+00  5.9287E-02  7.8256E-03  1.8155E-03  7.5068E-03  1.3928E-03  7.3784E-03  0.0000E+00  2.4081E-03
 43  0.0000E+00  9.0390E-02  3.2466E-03  0.0000E+00  1.8859E-02  8.2879E-03  1.1719E-03  0.0000E+00  1.5022E-02
 44  0.0000E+00  9.7979E-02  3.5347E-02  1.7276E-02  0.0000E+00  1.6292E-02  3.1398E-02  2.6480E-02  1.9040E-02
 45  1.3603E+00  1.8098E-01  1.4215E-02  9.1640E-03  1.2521E-01  9.0031E-03  6.7530E-03  0.0000E+00  1.0489E-01
 46  0.0000E+00  6.1426E-01  0.0000E+00  3.7830E-01  7.4267E-02  4.5861E-02  2.7975E-03  3.0134E-01  9.6157E-03
 47  0.0000E+00  9.6067E-01  3.8075E-02  0.0000E+00  1.8310E-01  0.0000E+00  1.4311E-01  0.0000E+00  5.6588E-01
 48  0.0000E+00  1.7395E+00  1.1744E-01  0.0000E+00  2.0678E-01  8.8885E-02  0.0000E+00  7.8884E-01  0.0000E+00
 49  8.2108E+00  3.7963E+00  9.4069E-01  2.3359E+00  3.6169E+00  1.7574E+00  0.0000E+00  1.7005E+00  8.5257E+00
 50  0.0000E+00  8.4956E+00  0.0000E+00  0.0000E+00  0.0000E+00  2.1921E-01  8.8961E-01  6.3582E-02  0.0000E+00
 51  0.0000E+00  3.0154E-03  2.1728E-03  5.5743E-04  1.5580E-04  1.6452E-03  1.7010E-03  1.3570E-03  1.6081E-03
 52  0.0000E+00  1.7272E-03  1.6354E-04  5.7287E-04  1.7856E-04  0.0000E+00  0.0000E+00  1.4258E-04  5.1524E-04
 53  0.0000E+00  2.8936E-03  3.0872E-04  9.3140E-05  0.0000E+00  4.2707E-04  1.3062E-04  0.0000E+00  6.7837E-04
 54  0.0000E+00  9.2109E-03  8.0047E-03  9.8001E-03  6.6264E-03  7.4985E-03  8.2044E-03  6.6813E-03  8.7665E-03
 55  4.4603E-05  1.9888E-02  1.8935E-02  2.6134E-02  3.4723E-02  2.6786E-02  2.4877E-02  2.5668E-02  2.7252E-02
 56  0.0000E+00  1.5950E-02  1.4705E-03  1.3356E-03  0.0000E+00  4.1906E-04  2.0888E-04  0.0000E+00  0.0000E+00
 57  1.0807E-01  2.5031E-02  6.0116E-03  5.3990E-03  1.1131E-02  9.1041E-03  3.8313E-03  3.8103E-02  5.2052E-03
 58  0.0000E+00  4.4598E-02  4.7625E-03  1.0714E-02  2.2937E-03  7.8473E-03  0.0000E+00  0.0000E+00  2.5533E-02
 59  1.0345E+00  8.5181E-02  1.9161E-02  5.1104E-04  8.3366E-02  0.0000E+00  1.1945E-02  7.8530E-02  1.9016E-02
 60  0.0000E+00  1.1991E-01  1.6628E-02  5.1382E-03  1.0401E-01  0.0000E+00  0.0000E+00  7.4479E-03  3.5783E-02
 61  1.5906E+00  3.9803E-01  2.7363E-01  2.9484E-01  4.9225E-02  2.4926E-01  3.6117E-01  2.8007E-01  5.3005E-01
 62  7.8102E+00  1.4552E+00  2.4718E+00  2.4623E+00  6.9706E-01  2.4069E+00  1.4973E+00  2.1281E+00  2.8476E+00
 63  0.0000E+00  2.4737E+00  3.7261E+00  5.3949E+00  3.4103E+00  4.4572E+00  3.8236E+00  3.8588E+00  4.2862E+00
 64  0.0000E+00  6.2177E+00  7.7729E+00  1.0646E+01  1.1335E+01  1.0223E+01  8.2718E+00  1.0171E+01  7.9339E+00
 65  0.0000E+00  1.0608E+01  9.5943E+00  1.0107E+01  1.6402E+01  1.0513E+01  1.6291E+01  9.1918E+00  1.1782E+01
 66  5.7540E+00  3.8417E+01  7.2706E+01  6.8027E+01  4.3561E+01  6.8333E+01  6.5400E+01  6.4341E+01  5.1443E+01

# AV, chi2 & Mass for <> & i_chain = 1 ...  7 solutions
AV       0.5878      0.3197      0.2500      0.3265      0.4264      0.2656      0.2830      0.2771      0.3268
chi2 9.3174E-06  2.6184E-05  9.7715E-06  9.7842E-06  9.6821E-06  9.7903E-06  9.6780E-06  9.6549E-06  9.6169E-06
Mass 3.3827E-13  2.4955E-13  5.9591E-13  5.8790E-13  5.8118E-13  5.8146E-13  5.9188E-13  5.5059E-13  4.9701E-13
-137.15                                  [v0_min (km/s) before EX0s...]
 196.69                                  [vd_min (km/s) before EX0s...]


## Synthetic spectrum (Best Model) ##l_obs f_obs f_syn wei
 3478    [Nl_obs]
 3741.00    0.61701   0.58321    0.000
 3742.00    0.73649   0.56317    0.000
 3743.00    0.62489   0.53610    0.000
 3744.00    0.56441   0.50613    0.000
 3745.00    0.53372   0.47779    0.030
 3746.00    0.68750   0.45626    0.029
 3747.00    0.93496   0.44671    0.029
 3748.00    0.93605   0.45278    0.029
 3749.00    0.82881   0.47473    0.029
 3750.00    0.76897   0.50870    0.028
 3751.00    0.72702   0.54757    0.028
 3752.00    0.64279   0.58324    0.028
 3753.00    0.54501   0.60929    0.027
 3754.00    0.55927   0.62304    0.027
 3755.00    0.60354   0.62614    0.026
 3756.00    0.64090   0.62335    0.026
 3757.00    0.67673   0.61996    0.026
 3758.00    0.63557   0.61922    0.026
 3759.00    0.58099   0.62123    0.025
 3760.00    0.47464   0.62367    0.031
 3761.00    0.36142   0.62341    0.043
 3762.00    0.31589   0.61811    0.033
 3763.00    0.27672   0.60696    0.025
 3764.00    0.38595   0.59089    0.025
 3765.00    0.50375   0.57233    0.025
 3766.00    0.57952   0.55487    0.025
 3767.00    0.65501   0.54242    0.025
 3768.00    0.81778   0.53837    0.026
 3769.00    0.96849   0.54448    0.026
 3770.00    0.82621   0.56032    0.026
 3771.00    0.67913   0.58350    0.026
 3772.00    0.46926   0.61076    0.025
 3773.00    0.30392   0.63933    0.024
 3774.00    0.52952   0.66760    0.025
 3775.00    0.73317   0.69489    0.025
 3776.00    0.79454   0.72078    0.026
 3777.00    0.88273   0.74447    0.026
 3778.00    1.10665   0.76468    0.027
 3779.00    1.22392   0.77981    0.027
 3780.00    0.90463   0.78833    0.026
 3781.00    0.60259   0.78906    0.026
 3782.00    0.35907   0.78152    0.026
 3783.00    0.22892   0.76644    0.026
 3784.00    0.42306   0.74601    0.027
 3785.00    0.59363   0.72338    0.027
 3786.00    0.70663   0.70155    0.027
 3787.00    0.67014   0.68206    0.027
 3788.00    0.31855   0.66437    0.026
 3789.00    0.06144   0.64624    0.025
 3790.00   -0.02261   0.62508    0.000
 3791.00   -0.07646   0.59937    0.000
 3792.00   -0.08197   0.56975    0.000
 3793.00    0.00818   0.53920    0.024
 3794.00    0.23272   0.51248    0.024
 3795.00    0.42173   0.49504    0.024
 3796.00    0.56683   0.49151    0.024
 3797.00    0.62689   0.50407    0.024
 3798.00    0.59430   0.53143    0.025
 3799.00    0.52037   0.56895    0.025
 3800.00    0.40670   0.61013    0.025
 3801.00    0.36656   0.64874    0.025
 3802.00    0.38873   0.68080    0.025
 3803.00    0.47330   0.70538    0.025
 3804.00    0.60444   0.72419    0.026
 3805.00    0.54899   0.73989    0.026
 3806.00    0.37122   0.75413    0.025
 3807.00    0.19830   0.76634    0.025
 3808.00    0.02816   0.77412    0.025
 3809.00    0.10243   0.77503    0.025
 3810.00    0.29886   0.76841    0.025
 3811.00    0.45692   0.75621    0.026
 3812.00    0.59838   0.74206    0.028
 3813.00    0.67385   0.72942    0.027
 3814.00    0.72483   0.71983    0.026
 3815.00    0.72478   0.71270    0.026
 3816.00    0.70868   0.70640    0.026
 3817.00    0.89175   0.69973    0.027
 3818.00    1.12707   0.69249    0.029
 3819.00    1.09519   0.68481    0.027
 3820.00    1.00605   0.67620    0.026
 3821.00    0.91701   0.66555    0.025
 3822.00    0.82797   0.65202    0.025
 3823.00    0.65801   0.63589    0.025
 3824.00    0.47765   0.61833    0.025
 3825.00    0.24471   0.60037    0.024
 3826.00    0.00704   0.58194    0.024
 3827.00    0.08280   0.56182    0.025
 3828.00    0.17542   0.53863    0.025
 3829.00    0.20268   0.51211    0.025
 3830.00    0.22903   0.48395    0.024
 3831.00    0.28929   0.45765    0.025
 3832.00    0.36385   0.43738    0.025
 3833.00    0.75607   0.42654    0.025
 3834.00    1.10134   0.42678    0.025
 3835.00    0.86285   0.43799    0.025
 3836.00    0.63811   0.45894    0.025
 3837.00    0.52962   0.48793    0.025
 3838.00    0.45818   0.52304    0.025
 3839.00    0.61987   0.56192    0.025
 3840.00    0.72636   0.60168    0.025
 3841.00    0.56053   0.63927    0.025
 3842.00    0.42595   0.67215    0.025
 3843.00    0.41649   0.69889    0.025
 3844.00    0.43413   0.71931    0.026
 3845.00    0.54186   0.73416    0.026
 3846.00    0.63238   0.74477    0.027
 3847.00    0.67455   0.75268    0.000
 3848.00    0.71336   0.75917    0.000
 3849.00    0.74409   0.76472    0.000
 3850.00    0.76855   0.76890    0.000
 3851.00    0.78000   0.77070    0.000
 3852.00    0.74310   0.76939    0.000
 3853.00    0.61901   0.76506    0.000
 3854.00    0.65011   0.75882    0.000
 3855.00    0.92594   0.75254    0.000
 3856.00    1.02303   0.74839    0.000
 3857.00    0.87268   0.74834    0.000
 3858.00    0.80674   0.75345    0.000
 3859.00    0.84367   0.76317    0.000
 3860.00    0.85200   0.77533    0.000
 3861.00    0.82960   0.78696    0.000
 3862.00    0.88976   0.79557    0.000
 3863.00    1.02814   0.79994    0.000
 3864.00    0.99090   0.80006    0.000
 3865.00    0.80693   0.79644    0.000
 3866.00    0.71152   0.78959    0.000
 3867.00    0.68124   0.78011    0.000
 3868.00    0.74083   0.76919    0.000
 3869.00    0.85847   0.75882    0.000
 3870.00    0.91299   0.75104    0.000
 3871.00    0.93183   0.74675    0.000
 3872.00    0.94977   0.74484    0.000
 3873.00    0.96725   0.74265    0.000
 3874.00    0.88769   0.73758    0.000
 3875.00    0.76687   0.72855    0.000
 3876.00    0.64434   0.71625    0.000
 3877.00    0.52119   0.70222    0.000
 3878.00    0.57160   0.68740    0.000
 3879.00    0.67551   0.67152    0.000
 3880.00    0.80927   0.65334    0.000
 3881.00    0.95069   0.63150    0.024
 3882.00    0.83354   0.60548    0.024
 3883.00    0.66233   0.57649    0.024
 3884.00    0.41138   0.54778    0.024
 3885.00    0.14728   0.52424    0.024
 3886.00    0.20210   0.51094    0.024
 3887.00    0.29642   0.51128    0.024
 3888.00    0.32055   0.52556    0.024
 3889.00    0.33867   0.55085    0.025
 3890.00    0.40665   0.58219    0.025
 3891.00    0.47712   0.61459    0.025
 3892.00    0.60923   0.64460    0.025
 3893.00    0.74055   0.67076    0.025
 3894.00    0.75546   0.69311    0.025
 3895.00    0.77342   0.71233    0.026
 3896.00    0.85374   0.72914    0.025
 3897.00    0.92581   0.74398    0.025
 3898.00    0.90027   0.75689    0.025
 3899.00    0.89892   0.76754    0.024
 3900.00    1.09461   0.77563    0.025
 3901.00    1.24666   0.78145    0.025
 3902.00    1.13223   0.78639    0.023
 3903.00    1.05015   0.79266    0.022
 3904.00    1.12379   0.80236    0.022
 3905.00    1.12833   0.81633    0.022
 3906.00    0.86222   0.83352    0.021
 3907.00    0.65380   0.85139    0.021
 3908.00    0.63340   0.86693    0.022
 3909.00    0.62732   0.87780    0.022
 3910.00    0.66073   0.88298    0.023
 3911.00    0.74169   0.88273    0.023
 3912.00    0.93495   0.87809    0.023
 3913.00    1.04196   0.87026    0.024
 3914.00    0.97290   0.86023    0.024
 3915.00    0.90171   0.84878    0.025
 3916.00    0.82673   0.83676    0.025
 3917.00    0.80308   0.82521    0.025
 3918.00    0.85922   0.81522    0.025
 3919.00    0.82920   0.80729    0.025
 3920.00    0.68165   0.80074    0.025
 3921.00    0.55621   0.79358    0.025
 3922.00    0.45734   0.78306    0.024
 3923.00    0.48308   0.76663    0.024
 3924.00    0.64081   0.74285    0.024
 3925.00    0.75262   0.71169    0.024
 3926.00    0.82154   0.67442    0.025
 3927.00    0.80293   0.63327    0.025
 3928.00    0.71225   0.59128    0.025
 3929.00    0.54516   0.55238    0.025
 3930.00    0.32268   0.52120    0.024
 3931.00    0.28942   0.50240    0.024
 3932.00    0.37658   0.49938    0.025
 3933.00    0.45052   0.51299    0.025
 3934.00    0.51711   0.54093    0.025
 3935.00    0.58639   0.57842    0.025
 3936.00    0.65698   0.61950    0.026
 3937.00    0.69229   0.65869    0.026
 3938.00    0.71285   0.69234    0.026
 3939.00    0.63574   0.71913    0.026
 3940.00    0.52370   0.73990    0.026
 3941.00    0.58874   0.75680    0.026
 3942.00    0.70731   0.77201    0.026
 3943.00    0.77462   0.78671    0.026
 3944.00    0.82907   0.80085    0.026
 3945.00    0.67715   0.81363    0.026
 3946.00    0.48316   0.82435    0.026
 3947.00    0.32775   0.83275    0.026
 3948.00    0.17853   0.83888    0.026
 3949.00    0.37852   0.84283    0.027
 3950.00    0.62021   0.84456    0.028
 3951.00    0.64778   0.84382    0.028
 3952.00    0.65791   0.84022    0.027
 3953.00    0.57082   0.83336    0.027
 3954.00    0.47926   0.82293    0.027
 3955.00    0.73018   0.80847    0.027
 3956.00    0.98300   0.78919    0.027
 3957.00    1.10731   0.76402    0.027
 3958.00    1.22001   0.73223    0.027
 3959.00    1.11282   0.69389    0.027
 3960.00    0.99461   0.64993    0.000
 3961.00    0.75227   0.60162    0.000
 3962.00    0.56004   0.55033    0.000
 3963.00    0.76170   0.49799    0.000
 3964.00    0.93771   0.44775    0.000
 3965.00    0.96145   0.40427    0.000
 3966.00    0.96817   0.37301    0.000
 3967.00    0.89495   0.35876    0.000
 3968.00    0.78039   0.36400    0.000
 3969.00    0.50743   0.38815    0.000
 3970.00    0.33476   0.42782    0.000
 3971.00    0.48266   0.47802    0.000
 3972.00    0.57313   0.53359    0.000
 3973.00    0.50804   0.59020    0.000
 3974.00    0.45370   0.64464    0.000
 3975.00    0.42432   0.69458    0.000
 3976.00    0.53486   0.73838    0.000
 3977.00    0.92648   0.77499    0.000
 3978.00    1.18613   0.80413    0.000
 3979.00    1.21496   0.82655    0.000
 3980.00    1.17370   0.84394    0.000
 3981.00    1.02511   0.85851    0.026
 3982.00    0.96291   0.87216    0.026
 3983.00    1.01688   0.88582    0.027
 3984.00    1.10073   0.89945    0.027
 3985.00    1.21996   0.91255    0.027
 3986.00    1.20999   0.92465    0.027
 3987.00    1.06510   0.93544    0.027
 3988.00    0.99550   0.94476    0.026
 3989.00    0.99524   0.95228    0.026
 3990.00    1.10490   0.95740    0.026
 3991.00    1.30379   0.95949    0.026
 3992.00    1.25635   0.95856    0.026
 3993.00    1.03290   0.95589    0.026
 3994.00    1.14813   0.95376    0.026
 3995.00    1.47572   0.95439    0.027
 3996.00    1.38908   0.95894    0.027
 3997.00    1.07544   0.96681    0.027
 3998.00    0.89350   0.97557    0.027
 3999.00    0.77431   0.98183    0.027
 4000.00    0.83869   0.98312    0.027
 4001.00    0.97853   0.97935    0.026
 4002.00    1.15826   0.97279    0.026
 4003.00    1.35199   0.96686    0.027
 4004.00    1.49218   0.96476    0.027
 4005.00    1.61652   0.96810    0.027
 4006.00    1.29935   0.97625    0.027
 4007.00    0.87373   0.98699    0.027
 4008.00    1.07231   0.99792    0.027
 4009.00    1.39501   1.00745    0.027
 4010.00    1.18302   1.01510    0.027
 4011.00    0.88795   1.02101    0.027
 4012.00    1.06306   1.02551    0.027
 4013.00    1.29224   1.02921    0.027
 4014.00    1.14051   1.03262    0.027
 4015.00    0.95932   1.03571    0.027
 4016.00    0.92523   1.03809    0.027
 4017.00    0.89732   1.03922    0.027
 4018.00    0.79432   1.03839    0.026
 4019.00    0.69189   1.03522    0.026
 4020.00    0.64446   1.03031    0.026
 4021.00    0.61996   1.02530    0.027
 4022.00    1.00000   1.02177    0.026
 4023.00    1.34062   1.02024    0.026
 4024.00    1.25713   1.01952    0.026
 4025.00    1.15975   1.01700    0.026
 4026.00    0.95690   1.01030    0.026
 4027.00    0.81173   0.99888    0.026
 4028.00    0.99929   0.98456    0.026
 4029.00    1.17767   0.97117    0.026
 4030.00    1.31392   0.96313    0.026
 4031.00    1.36552   0.96377    0.025
 4032.00    1.09956   0.97392    0.025
 4033.00    0.87613   0.99159    0.025
 4034.00    0.78598   1.01258    0.025
 4035.00    0.73874   1.03204    0.025
 4036.00    0.80564   1.04602    0.025
 4037.00    0.92932   1.05242    0.025
 4038.00    1.18265   1.05069    0.025
 4039.00    1.34832   1.04105    0.025
 4040.00    1.34071   1.02468    0.025
 4041.00    1.16388   1.00472    0.026
 4042.00    0.69551   0.98624    0.026
 4043.00    0.40373   0.97439    0.026
 4044.00    0.37833   0.97206    0.026
 4045.00    0.49627   0.97924    0.026
 4046.00    0.80422   0.99310    0.026
 4047.00    1.01707   1.00865    0.026
 4048.00    1.11889   1.02092    0.026
 4049.00    1.13958   1.02696    0.026
 4050.00    1.07674   1.02631    0.026
 4051.00    1.07865   1.02060    0.026
 4052.00    1.13936   1.01246    0.027
 4053.00    1.31996   1.00420    0.027
 4054.00    1.59652   0.99782    0.027
 4055.00    1.52885   0.99451    0.028
 4056.00    1.21879   0.99366    0.028
 4057.00    0.93380   0.99300    0.027
 4058.00    0.66430   0.98984    0.027
 4059.00    0.70893   0.98310    0.027
 4060.00    0.92308   0.97456    0.027
 4061.00    0.90342   0.96731    0.027
 4062.00    0.77419   0.96350    0.027
 4063.00    0.77344   0.96441    0.027
 4064.00    0.82461   0.97028    0.027
 4065.00    1.02641   0.97899    0.027
 4066.00    1.28015   0.98669    0.027
 4067.00    1.07599   0.99055    0.027
 4068.00    0.73887   0.99053    0.026
 4069.00    0.80098   0.98795    0.027
 4070.00    0.95897   0.98321    0.027
 4071.00    1.08399   0.97606    0.027
 4072.00    1.20263   0.96649    0.026
 4073.00    1.30813   0.95563    0.026
 4074.00    1.41165   0.94648    0.026
 4075.00    1.22201   0.94253    0.026
 4076.00    0.99995   0.94585    0.026
 4077.00    0.98770   0.95592    0.025
 4078.00    0.99082   0.96938    0.025
 4079.00    1.08949   0.98204    0.025
 4080.00    1.19182   0.99109    0.025
 4081.00    1.20619   0.99615    0.025
 4082.00    1.21889   0.99893    0.026
 4083.00    1.18737   1.00189    0.026
 4084.00    1.15496   1.00627    0.026
 4085.00    1.10770   1.01124    0.026
 4086.00    1.06976   1.01467    0.026
 4087.00    1.12764   1.01429    0.025
 4088.00    1.15438   1.00857    0.025
 4089.00    0.95258   0.99718    0.025
 4090.00    0.77608   0.98029    0.025
 4091.00    0.74156   0.95778    0.025
 4092.00    0.77846   0.92988    0.000
 4093.00    1.13500   0.89750    0.000
 4094.00    1.38722   0.86164    0.000
 4095.00    1.25633   0.82327    0.000
 4096.00    1.13089   0.78377    0.000
 4097.00    1.02223   0.74593    0.000
 4098.00    0.95417   0.71475    0.000
 4099.00    0.99222   0.69604    0.000
 4100.00    1.01358   0.69341    0.000
 4101.00    0.99743   0.70690    0.000
 4102.00    1.00837   0.73335    0.000
 4103.00    1.07200   0.76720    0.000
 4104.00    1.11566   0.80238    0.000
 4105.00    1.12546   0.83436    0.000
 4106.00    1.17318   0.86111    0.000
 4107.00    1.27727   0.88305    0.000
 4108.00    1.27916   0.90215    0.000
 4109.00    1.14751   0.92040    0.000
 4110.00    1.09964   0.93875    0.000
 4111.00    1.14819   0.95669    0.000
 4112.00    1.16359   0.97280    0.000
 4113.00    1.14533   0.98521    0.025
 4114.00    1.17520   0.99238    0.025
 4115.00    1.24814   0.99440    0.025
 4116.00    1.28126   0.99336    0.025
 4117.00    1.28296   0.99176    0.025
 4118.00    1.30430   0.99107    0.026
 4119.00    1.33928   0.99218    0.026
 4120.00    1.15256   0.99539    0.026
 4121.00    0.83093   0.99990    0.025
 4122.00    0.84731   1.00374    0.025
 4123.00    1.04326   1.00477    0.025
 4124.00    1.19160   1.00205    0.026
 4125.00    1.31797   0.99606    0.026
 4126.00    1.40265   0.98805    0.026
 4127.00    1.47076   0.97924    0.026
 4128.00    1.22391   0.97102    0.026
 4129.00    0.87046   0.96550    0.026
 4130.00    0.75419   0.96506    0.026
 4131.00    0.70542   0.97102    0.025
 4132.00    0.88854   0.98316    0.025
 4133.00    1.12611   0.99930    0.026
 4134.00    1.22351   1.01608    0.026
 4135.00    1.29445   1.03058    0.026
 4136.00    1.36724   1.03988    0.026
 4137.00    1.44029   1.04150    0.026
 4138.00    1.23924   1.03460    0.026
 4139.00    1.00905   1.02059    0.026
 4140.00    0.99603   1.00400    0.026
 4141.00    0.99803   0.99119    0.026
 4142.00    1.04025   0.98603    0.026
 4143.00    1.08385   0.98809    0.026
 4144.00    1.06561   0.99471    0.026
 4145.00    1.05071   1.00250    0.026
 4146.00    1.15057   1.00849    0.026
 4147.00    1.24489   1.01147    0.026
 4148.00    1.25349   1.01167    0.025
 4149.00    1.25996   1.00951    0.025
 4150.00    1.24549   1.00591    0.025
 4151.00    1.22905   1.00222    0.025
 4152.00    1.19864   1.00009    0.025
 4153.00    1.18365   1.00067    0.025
 4154.00    1.25282   1.00465    0.025
 4155.00    1.32057   1.01221    0.025
 4156.00    1.38209   1.02216    0.024
 4157.00    1.34391   1.03268    0.024
 4158.00    0.94713   1.04242    0.024
 4159.00    0.64382   1.05081    0.024
 4160.00    0.62255   1.05683    0.024
 4161.00    0.64988   1.05946    0.024
 4162.00    0.80204   1.05889    0.024
 4163.00    1.00217   1.05537    0.024
 4164.00    1.30828   1.04930    0.024
 4165.00    1.51453   1.04181    0.024
 4166.00    1.52950   1.03321    0.024
 4167.00    1.44066   1.02224    0.024
 4168.00    1.17831   1.00810    0.024
 4169.00    0.93335   0.99202    0.024
 4170.00    0.71388   0.97744    0.023
 4171.00    0.61402   0.96749    0.023
 4172.00    0.66822   0.96311    0.023
 4173.00    0.72156   0.96339    0.023
 4174.00    0.77392   0.96673    0.024
 4175.00    0.81956   0.97225    0.024
 4176.00    0.85847   0.97973    0.024
 4177.00    0.92601   0.98810    0.024
 4178.00    1.01883   0.99561    0.024
 4179.00    1.07213   1.00170    0.024
 4180.00    1.09468   1.00700    0.023
 4181.00    1.02167   1.01163    0.023
 4182.00    0.88330   1.01519    0.023
 4183.00    0.95054   1.01677    0.023
 4184.00    1.14104   1.01653    0.023
 4185.00    1.32499   1.01704    0.024
 4186.00    1.50551   1.02015    0.024
 4187.00    1.41203   1.02520    0.024
 4188.00    1.19426   1.03095    0.024
 4189.00    1.03311   1.03688    0.024
 4190.00    0.89405   1.04149    0.023
 4191.00    0.86272   1.04172    0.023
 4192.00    0.86717   1.03564    0.023
 4193.00    0.84739   1.02435    0.023
 4194.00    0.82085   1.01038    0.023
 4195.00    0.74345   0.99618    0.023
 4196.00    0.65439   0.98466    0.023
 4197.00    0.71874   0.97783    0.024
 4198.00    0.81130   0.97537    0.024
 4199.00    0.97658   0.97683    0.024
 4200.00    1.15215   0.98258    0.024
 4201.00    1.05425   0.99192    0.024
 4202.00    0.92846   1.00359    0.023
 4203.00    1.08307   1.01677    0.023
 4204.00    1.25594   1.03025    0.024
 4205.00    1.03856   1.04232    0.024
 4206.00    0.80978   1.05148    0.024
 4207.00    0.95609   1.05720    0.024
 4208.00    1.09748   1.06006    0.024
 4209.00    1.09450   1.06024    0.024
 4210.00    1.08747   1.05738    0.024
 4211.00    1.02135   1.05173    0.024
 4212.00    0.95808   1.04511    0.024
 4213.00    0.92163   1.04119    0.024
 4214.00    0.89197   1.04316    0.024
 4215.00    0.90902   1.05026    0.024
 4216.00    0.94346   1.05878    0.024
 4217.00    1.07034   1.06478    0.024
 4218.00    1.18568   1.06463    0.024
 4219.00    1.25172   1.05517    0.024
 4220.00    1.26750   1.03563    0.024
 4221.00    1.10619   1.00846    0.023
 4222.00    0.93077   0.97846    0.023
 4223.00    0.71359   0.95206    0.024
 4224.00    0.64008   0.93666    0.024
 4225.00    0.92914   0.93742    0.024
 4226.00    1.18045   0.95273    0.024
 4227.00    1.34973   0.97554    0.023
 4228.00    1.45491   0.99835    0.023
 4229.00    1.43923   1.01541    0.023
 4230.00    1.45041   1.02413    0.023
 4231.00    1.50581   1.02615    0.023
 4232.00    1.43733   1.02441    0.023
 4233.00    1.19003   1.02122    0.022
 4234.00    1.08361   1.01946    0.022
 4235.00    1.15603   1.02124    0.022
 4236.00    1.22581   1.02664    0.022
 4237.00    1.29263   1.03534    0.022
 4238.00    1.30957   1.04671    0.022
 4239.00    1.27728   1.05862    0.022
 4240.00    1.27106   1.06877    0.022
 4241.00    1.28750   1.07595    0.022
 4242.00    1.22135   1.07854    0.022
 4243.00    1.09188   1.07472    0.022
 4244.00    0.83607   1.06503    0.022
 4245.00    0.49512   1.05244    0.023
 4246.00    0.61221   1.03984    0.023
 4247.00    0.99974   1.02894    0.023
 4248.00    1.21767   1.02159    0.023
 4249.00    1.34829   1.01921    0.024
 4250.00    1.30584   1.02041    0.024
 4251.00    1.18617   1.02264    0.023
 4252.00    1.16043   1.02535    0.023
 4253.00    1.17072   1.02907    0.023
 4254.00    1.01000   1.03266    0.023
 4255.00    0.79356   1.03371    0.022
 4256.00    0.82575   1.03179    0.022
 4257.00    0.92581   1.02963    0.022
 4258.00    0.88155   1.03114    0.022
 4259.00    0.80495   1.03914    0.023
 4260.00    0.87144   1.05304    0.022
 4261.00    0.96352   1.06882    0.022
 4262.00    1.13071   1.08187    0.023
 4263.00    1.30818   1.08863    0.023
 4264.00    1.33957   1.08636    0.023
 4265.00    1.35669   1.07437    0.023
 4266.00    1.20829   1.05475    0.023
 4267.00    1.04978   1.03058    0.022
 4268.00    0.98671   1.00531    0.022
 4269.00    0.92605   0.98404    0.021
 4270.00    0.82997   0.97207    0.022
 4271.00    0.73938   0.97080    0.022
 4272.00    0.79405   0.97853    0.022
 4273.00    0.85761   0.99371    0.022
 4274.00    1.04357   1.01341    0.022
 4275.00    1.21384   1.03245    0.022
 4276.00    1.24173   1.04639    0.022
 4277.00    1.24887   1.05343    0.022
 4278.00    1.11784   1.05461    0.022
 4279.00    1.03639   1.05235    0.022
 4280.00    1.21167   1.04789    0.022
 4281.00    1.35521   1.04159    0.023
 4282.00    1.36626   1.03317   -2.000
 4283.00    1.30271   1.02229   -2.000
 4284.00    0.98166   1.00990   -2.000
 4285.00    0.69197   0.99702   -2.000
 4286.00    0.49339   0.98425   -2.000
 4287.00    0.48855   0.97376   -2.000
 4288.00    0.96425   0.96916   -2.000
 4289.00    1.32257   0.97162   -2.000
 4290.00    1.42994   0.97767   -2.000
 4291.00    1.35792   0.98196   -2.000
 4292.00    0.95283   0.98109   -2.000
 4293.00    0.70504   0.97445   -2.000
 4294.00    0.71237   0.96160   -2.000
 4295.00    0.71988   0.94275   -2.000
 4296.00    0.72763   0.92010   -2.000
 4297.00    0.76747   0.89750   -2.000
 4298.00    0.84748   0.87969    0.023
 4299.00    0.88506   0.86866    0.023
 4300.00    0.87586   0.86284    0.023
 4301.00    0.87381   0.86082    0.023
 4302.00    0.87873   0.86095    0.023
 4303.00    0.82790   0.86076    0.023
 4304.00    0.72923   0.85968    0.022
 4305.00    0.69979   0.85905    0.022
 4306.00    0.72266   0.86167    0.022
 4307.00    0.76899   0.87082    0.022
 4308.00    0.83090   0.88740    0.022
 4309.00    0.86947   0.91019    0.022
 4310.00    0.89448   0.93762    0.022
 4311.00    1.01719   0.96851    0.022
 4312.00    1.18942   1.00192    0.022
 4313.00    1.28969   1.03672    0.022
 4314.00    1.35839   1.06930    0.022
 4315.00    1.37519   1.09366    0.022
 4316.00    1.37243   1.10615    0.022
 4317.00    1.22906   1.10638    0.022
 4318.00    1.04073   1.09513    0.022
 4319.00    1.04186   1.07476    0.022
 4320.00    1.09363   1.04886    0.022
 4321.00    1.04772   1.02073    0.022
 4322.00    0.98044   0.99533    0.022
 4323.00    1.00634   0.97885    0.022
 4324.00    1.04845   0.97589    0.022
 4325.00    1.10287   0.98592    0.022
 4326.00    1.15893   1.00234    0.022
 4327.00    1.28129   1.01759    0.023
 4328.00    1.40985   1.02764    0.023
 4329.00    1.18463   1.03149    0.023
 4330.00    0.93918   1.02798    0.000
 4331.00    0.98965   1.01499    0.000
 4332.00    1.04659   0.99184    0.000
 4333.00    1.05573   0.95880    0.000
 4334.00    1.05583   0.91645    0.000
 4335.00    0.83870   0.86888    0.000
 4336.00    0.65995   0.82464    0.000
 4337.00    0.98070   0.79132    0.000
 4338.00    1.26940   0.77397    0.000
 4339.00    1.27806   0.77703    0.000
 4340.00    1.25653   0.79910    0.000
 4341.00    1.04010   0.83262    0.000
 4342.00    0.87708   0.87128    0.000
 4343.00    0.98355   0.91103    0.000
 4344.00    1.02310   0.94648    0.000
 4345.00    0.78952   0.97407    0.000
 4346.00    0.64235   0.99362    0.000
 4347.00    0.78757   1.00499    0.000
 4348.00    0.90814   1.00796    0.000
 4349.00    0.95838   1.00622    0.000
 4350.00    1.04921   1.00754    0.000
 4351.00    1.23900   1.01653    0.023
 4352.00    1.27845   1.03090    0.023
 4353.00    1.00168   1.04736    0.023
 4354.00    0.91195   1.06467    0.023
 4355.00    1.16415   1.08081    0.023
 4356.00    1.18883   1.09385    0.023
 4357.00    0.84998   1.10534    0.022
 4358.00    0.75741   1.11816    0.022
 4359.00    1.01015   1.13189    0.022
 4360.00    1.14334   1.14367    0.023
 4361.00    1.12904   1.15206    0.023
 4362.00    1.11164   1.15716    0.023
 4363.00    1.09089   1.15789    0.023
 4364.00    0.99056   1.15261    0.023
 4365.00    0.81390   1.14273    0.022
 4366.00    0.90258   1.13209    0.022
 4367.00    1.21570   1.12280    0.023
 4368.00    1.34082   1.11424    0.022
 4369.00    1.32591   1.10626    0.022
 4370.00    1.31256   1.09899    0.022
 4371.00    1.30023   1.09200    0.022
 4372.00    1.13792   1.08647    0.022
 4373.00    0.88970   1.08562    0.022
 4374.00    0.96258   1.09050    0.022
 4375.00    1.19562   1.09723    0.022
 4376.00    1.18921   1.09956    0.022
 4377.00    1.07945   1.09352    0.022
 4378.00    1.04602   1.07891    0.022
 4379.00    1.04083   1.05760    0.023
 4380.00    0.96581   1.03171    0.022
 4381.00    0.86889   1.00638    0.022
 4382.00    0.83196   0.99064    0.022
 4383.00    0.81071   0.98985    0.022
 4384.00    0.77667   1.00085    0.021
 4385.00    0.73991   1.01659    0.021
 4386.00    0.78747   1.03298    0.021
 4387.00    0.84929   1.04856    0.021
 4388.00    0.92603   1.06213    0.021
 4389.00    1.00468   1.07400    0.022
 4390.00    1.06486   1.08495    0.022
 4391.00    1.12338   1.09386    0.021
 4392.00    0.80857   1.10017    0.021
 4393.00    0.47387   1.10609    0.021
 4394.00    0.64845   1.11343    0.021
 4395.00    0.83336   1.11956    0.021
 4396.00    1.04651   1.12042    0.021
 4397.00    1.24755   1.11552    0.022
 4398.00    1.18227   1.10701    0.022
 4399.00    1.11296   1.09835    0.022
 4400.00    0.99378   1.09093    0.022
 4401.00    0.88468   1.08214    0.022
 4402.00    0.86043   1.07219    0.022
 4403.00    0.83677   1.06736    0.022
 4404.00    0.81684   1.07127    0.021
 4405.00    0.81664   1.08046    0.021
 4406.00    0.91346   1.09212    0.022
 4407.00    0.99084   1.10676    0.022
 4408.00    0.99065   1.12225    0.022
 4409.00    1.03238   1.13386    0.021
 4410.00    1.21313   1.13932    0.021
 4411.00    1.32839   1.13840    0.021
 4412.00    1.26016   1.13179    0.021
 4413.00    1.13897   1.12435    0.021
 4414.00    0.89085   1.12231    0.021
 4415.00    0.81894   1.12645    0.021
 4416.00    1.11174   1.13444    0.021
 4417.00    1.25107   1.14395    0.021
 4418.00    1.11413   1.15144    0.021
 4419.00    1.01722   1.15437    0.021
 4420.00    0.98331   1.15371    0.021
 4421.00    1.02892   1.15255    0.021
 4422.00    1.18442   1.15240    0.021
 4423.00    1.22767   1.15211    0.021
 4424.00    1.13438   1.15110    0.021
 4425.00    1.01209   1.14992    0.020
 4426.00    0.85869   1.14877    0.020
 4427.00    0.87765   1.14627    0.021
 4428.00    1.05962   1.14145    0.021
 4429.00    1.14845   1.13667    0.021
 4430.00    1.15959   1.13325    0.021
 4431.00    1.16801   1.13004    0.021
 4432.00    1.17442   1.12783    0.021
 4433.00    1.11941   1.12949    0.021
 4434.00    1.02478   1.13699    0.021
 4435.00    1.06767   1.14838    0.021
 4436.00    1.18811   1.15885    0.021
 4437.00    1.18551   1.16469    0.021
 4438.00    1.12251   1.16445    0.021
 4439.00    0.94800   1.15969    0.021
 4440.00    0.72618   1.15435    0.021
 4441.00    0.77453   1.15262    0.021
 4442.00    0.92107   1.15698    0.021
 4443.00    1.08358   1.16651    0.021
 4444.00    1.25102   1.17669    0.020
 4445.00    1.26062   1.18376    0.021
 4446.00    1.22981   1.18748    0.021
 4447.00    1.07190   1.18699    0.021
 4448.00    0.88749   1.18108    0.020
 4449.00    0.98896   1.17131    0.020
 4450.00    1.13739   1.15907    0.020
 4451.00    1.11485   1.14394    0.020
 4452.00    1.07123   1.12673    0.020
 4453.00    0.95192   1.11083    0.020
 4454.00    0.82616   1.09987    0.020
 4455.00    0.83938   1.09385    0.020
 4456.00    0.85947   1.09067    0.020
 4457.00    0.93973   1.08998    0.020
 4458.00    1.02129   1.09238    0.020
 4459.00    1.12355   1.09721    0.020
 4460.00    1.21519   1.10462    0.020
 4461.00    1.09158   1.11497    0.000
 4462.00    0.98336   1.12513    0.000
 4463.00    1.05601   1.13219    0.000
 4464.00    1.13413   1.13675    0.000
 4465.00    1.25659   1.14018    0.000
 4466.00    1.35372   1.14337    0.000
 4467.00    1.29666   1.14790    0.000
 4468.00    1.22349   1.15618    0.000
 4469.00    1.07307   1.16895    0.000
 4470.00    0.97583   1.18498    0.000
 4471.00    1.08632   1.20191    0.000
 4472.00    1.18371   1.21633    0.000
 4473.00    1.23852   1.22521    0.000
 4474.00    1.26680   1.22821    0.000
 4475.00    1.22210   1.22615    0.000
 4476.00    1.17407   1.21869    0.000
 4477.00    1.11822   1.20646    0.000
 4478.00    1.11880   1.19314    0.000
 4479.00    1.23433   1.18401    0.000
 4480.00    1.33428   1.18297    0.000
 4481.00    1.40661   1.18991    0.000
 4482.00    1.43751   1.20046    0.020
 4483.00    1.40416   1.20973    0.020
 4484.00    1.34044   1.21500    0.020
 4485.00    1.23538   1.21500    0.020
 4486.00    1.21996   1.20983    0.020
 4487.00    1.31204   1.20219    0.020
 4488.00    1.32162   1.19585    0.020
 4489.00    1.24400   1.19272    0.019
 4490.00    1.18655   1.19212    0.019
 4491.00    1.14790   1.19204    0.019
 4492.00    1.17185   1.19176    0.019
 4493.00    1.24726   1.19337    0.019
 4494.00    1.24049   1.19888    0.019
 4495.00    1.17426   1.20825    0.019
 4496.00    1.08205   1.22015    0.019
 4497.00    0.97335   1.23266    0.019
 4498.00    1.00868   1.24425    0.020
 4499.00    1.12401   1.25494    0.019
 4500.00    1.19336   1.26671    0.019
 4501.00    1.24049   1.27981    0.020
 4502.00    1.17525   1.29085    0.020
 4503.00    1.06313   1.29712    0.020
 4504.00    1.14783   1.29882    0.020
 4505.00    1.30277   1.29733    0.020
 4506.00    1.32691   1.29411    0.019
 4507.00    1.31160   1.29031    0.019
 4508.00    1.29530   1.28596    0.019
 4509.00    1.27874   1.27987    0.019
 4510.00    1.26818   1.27158    0.019
 4511.00    1.25884   1.26248    0.020
 4512.00    1.15265   1.25430    0.019
 4513.00    1.03101   1.24824    0.019
 4514.00    1.08423   1.24464    0.019
 4515.00    1.15822   1.24226    0.019
 4516.00    1.28569   1.24023    0.019
 4517.00    1.41749   1.23870    0.019
 4518.00    1.31162   1.23666    0.019
 4519.00    1.19494   1.23183    0.019
 4520.00    1.16226   1.22216    0.019
 4521.00    1.13128   1.20844    0.019
 4522.00    1.13448   1.19348    0.019
 4523.00    1.12908   1.17794    0.019
 4524.00    0.96224   1.16229    0.019
 4525.00    0.81202   1.14829    0.019
 4526.00    0.84797   1.13755    0.019
 4527.00    0.90472   1.13127    0.019
 4528.00    1.12420   1.13001    0.019
 4529.00    1.28486   1.13308    0.019
 4530.00    1.09775   1.13934    0.019
 4531.00    0.94072   1.14702    0.019
 4532.00    0.92448   1.15566    0.019
 4533.00    0.92431   1.16714    0.019
 4534.00    0.98557   1.18292    0.019
 4535.00    1.05107   1.20105    0.019
 4536.00    1.13006   1.21626    0.019
 4537.00    1.20841   1.22502    0.019
 4538.00    1.28507   1.22836    0.019
 4539.00    1.30210   1.22900    0.019
 4540.00    1.18097   1.22869    0.019
 4541.00    1.13412   1.22675    0.019
 4542.00    1.23617   1.22151    0.019
 4543.00    1.31031   1.21423    0.019
 4544.00    1.33574   1.20770    0.019
 4545.00    1.30286   1.20209    0.019
 4546.00    1.18088   1.19580    0.019
 4547.00    1.12173   1.18877    0.019
 4548.00    1.14695   1.18407    0.019
 4549.00    1.12658   1.18388    0.019
 4550.00    1.05234   1.18595    0.000
 4551.00    1.05934   1.18855    0.000
 4552.00    1.15102   1.19297    0.000
 4553.00    1.23635   1.20094    0.000
 4554.00    1.31582   1.21328    0.000
 4555.00    1.32245   1.22828    0.000
 4556.00    1.27005   1.24162    0.000
 4557.00    1.27240   1.25063    0.000
 4558.00    1.31380   1.25548    0.000
 4559.00    1.26118   1.25703    0.000
 4560.00    1.14972   1.25583    0.000
 4561.00    1.11570   1.25221    0.000
 4562.00    1.12403   1.24820    0.000
 4563.00    1.22149   1.24686    0.000
 4564.00    1.36130   1.24928    0.000
 4565.00    1.38850   1.25444    0.000
 4566.00    1.36951   1.25968    0.000
 4567.00    1.20846   1.26273    0.000
 4568.00    0.99762   1.26339    0.000
 4569.00    1.06813   1.26233    0.000
 4570.00    1.22179   1.26192    0.000
 4571.00    1.28996   1.26420    0.000
 4572.00    1.33718   1.26629    0.000
 4573.00    1.21214   1.26458    0.000
 4574.00    1.05295   1.25964    0.000
 4575.00    1.03312   1.25273    0.000
 4576.00    1.03487   1.24360    0.000
 4577.00    1.07897   1.23240    0.000
 4578.00    1.12792   1.22101    0.000
 4579.00    1.21761   1.21251    0.000
 4580.00    1.31044   1.20872    0.000
 4581.00    1.19425   1.20879    0.000
 4582.00    1.06936   1.21166    0.000
 4583.00    1.11824   1.21712    0.000
 4584.00    1.16600   1.22411    0.000
 4585.00    1.10087   1.23143    0.000
 4586.00    1.03860   1.23796    0.000
 4587.00    1.02648   1.24193    0.000
 4588.00    1.03123   1.24227    0.000
 4589.00    1.21643   1.23941    0.000
 4590.00    1.36039   1.23516    0.000
 4591.00    1.19262   1.23188    0.000
 4592.00    1.04007   1.23029    0.000
 4593.00    0.97490   1.22938    0.000
 4594.00    0.92754   1.22922    0.000
 4595.00    0.96150   1.23036    0.000
 4596.00    0.98023   1.23233    0.000
 4597.00    0.94196   1.23443    0.000
 4598.00    0.94811   1.23577    0.000
 4599.00    1.09315   1.23712    0.000
 4600.00    1.20434   1.24068    0.000
 4601.00    1.22567   1.24671    0.000
 4602.00    1.21587   1.25424    0.000
 4603.00    1.13510   1.26269    0.000
 4604.00    1.09422   1.27203    0.000
 4605.00    1.13201   1.28239    0.000
 4606.00    1.19871   1.29252    0.000
 4607.00    1.31512   1.30040    0.000
 4608.00    1.41425   1.30434    0.000
 4609.00    1.48734   1.30426    0.000
 4610.00    1.43661   1.30233    0.000
 4611.00    1.22202   1.30000    0.000
 4612.00    1.11383   1.29777    0.000
 4613.00    1.12962   1.29637    0.000
 4614.00    1.17245   1.29543    0.000
 4615.00    1.24306   1.29497    0.000
 4616.00    1.24711   1.29549    0.000
 4617.00    1.19080   1.29623    0.000
 4618.00    1.14959   1.29765    0.000
 4619.00    1.12044   1.30062    0.000
 4620.00    1.16456   1.30345    0.000
 4621.00    1.26019   1.30448    0.000
 4622.00    1.24550   1.30380    0.000
 4623.00    1.16280   1.30190    0.000
 4624.00    1.08294   1.29970    0.000
 4625.00    1.00460   1.29775    0.000
 4626.00    1.01719   1.29526    0.000
 4627.00    1.07230   1.29178    0.000
 4628.00    1.11051   1.28870    0.000
 4629.00    1.14191   1.28689    0.000
 4630.00    1.20044   1.28402    0.000
 4631.00    1.26830   1.27816    0.000
 4632.00    1.27577   1.27105    0.000
 4633.00    1.26575   1.26512    0.000
 4634.00    1.23246   1.26088    0.000
 4635.00    1.19359   1.25749    0.000
 4636.00    1.20898   1.25464    0.000
 4637.00    1.23484   1.25318    0.000
 4638.00    1.18767   1.25282    0.000
 4639.00    1.12953   1.25226    0.000
 4640.00    1.15592   1.25031    0.000
 4641.00    1.19162   1.24563    0.000
 4642.00    1.27094   1.23873    0.000
 4643.00    1.35343   1.23153    0.000
 4644.00    1.23441   1.22515    0.000
 4645.00    1.10776   1.22155    0.000
 4646.00    1.07044   1.22290    0.000
 4647.00    1.03544   1.22836    0.000
 4648.00    1.06955   1.23566    0.000
 4649.00    1.10307   1.24264    0.000
 4650.00    1.12682   1.24831    0.000
 4651.00    1.14971   1.25344    0.000
 4652.00    1.16388   1.25803    0.000
 4653.00    1.15929   1.26239    0.000
 4654.00    1.01752   1.26816    0.000
 4655.00    0.91646   1.27578    0.000
 4656.00    1.04299   1.28422    0.000
 4657.00    1.15624   1.29118    0.000
 4658.00    1.21024   1.29311    0.000
 4659.00    1.25635   1.28754    0.000
 4660.00    1.27354   1.27456    0.000
 4661.00    1.24993   1.25707    0.000
 4662.00    1.10117   1.23900    0.000
 4663.00    0.97380   1.22267    0.000
 4664.00    0.90221   1.20847    0.000
 4665.00    0.90573   1.19765    0.000
 4666.00    1.07758   1.19395    0.000
 4667.00    1.13546   1.19949    0.000
 4668.00    0.97199   1.21167    0.000
 4669.00    0.92714   1.22649    0.000
 4670.00    1.08318   1.24068    0.000
 4671.00    1.16300   1.25201    0.000
 4672.00    1.12975   1.26020    0.000
 4673.00    1.11800   1.26572    0.000
 4674.00    1.13430   1.26845    0.000
 4675.00    1.10205   1.26784    0.000
 4676.00    1.01400   1.26399    0.000
 4677.00    0.98972   1.25898    0.000
 4678.00    1.03007   1.25540    0.000
 4679.00    1.05965   1.25417    0.000
 4680.00    1.07960   1.25520    0.000
 4681.00    1.14987   1.25836    0.000
 4682.00    1.25977   1.26269    0.000
 4683.00    1.32879   1.26631    0.000
 4684.00    1.36949   1.26836    0.000
 4685.00    1.25864   1.26919    0.000
 4686.00    1.05575   1.26951    0.000
 4687.00    1.02177   1.27017    0.000
 4688.00    1.07735   1.27140    0.000
 4689.00    1.11088   1.27307    0.000
 4690.00    1.13427   1.27542    0.000
 4691.00    1.12347   1.27792    0.000
 4692.00    1.09914   1.27913    0.000
 4693.00    1.04845   1.27857    0.000
 4694.00    0.98885   1.27590    0.000
 4695.00    0.99885   1.26976    0.000
 4696.00    1.02859   1.25989    0.000
 4697.00    1.04643   1.24916    0.000
 4698.00    1.06148   1.24132    0.000
 4699.00    1.07091   1.23630    0.000
 4700.00    1.07929   1.23170    0.000
 4701.00    1.07338   1.22756    0.000
 4702.00    1.06539   1.22604    0.000
 4703.00    1.11632   1.22773    0.000
 4704.00    1.17349   1.23041    0.000
 4705.00    1.10266   1.23235    0.000
 4706.00    1.02305   1.23432    0.000
 4707.00    1.02860   1.23764    0.000
 4708.00    1.03706   1.24279    0.000
 4709.00    1.04995   1.24987    0.000
 4710.00    1.06266   1.25762    0.000
 4711.00    1.06900   1.26418    0.000
 4712.00    1.07384   1.27014    0.000
 4713.00    1.05578   1.27780    0.000
 4714.00    1.04436   1.28841    0.000
 4715.00    1.09810   1.30005    0.000
 4716.00    1.14551   1.30972    0.000
 4717.00    1.14812   1.31740    0.000
 4718.00    1.15319   1.32386    0.000
 4719.00    1.17160   1.32773    0.000
 4720.00    1.17941   1.32702    0.000
 4721.00    1.14106   1.32177    0.000
 4722.00    1.10563   1.31406    0.000
 4723.00    1.08069   1.30479    0.000
 4724.00    1.10651   1.29294    0.000
 4725.00    1.28508   1.27876    0.000
 4726.00    1.37468   1.26548    0.000
 4727.00    1.23627   1.25697    0.000
 4728.00    1.17732   1.25406    0.000
 4729.00    1.29352   1.25479    0.000
 4730.00    1.35348   1.25779    0.000
 4731.00    1.30590   1.26318    0.000
 4732.00    1.23168   1.27032    0.000
 4733.00    1.11301   1.27724    0.000
 4734.00    1.08307   1.28216    0.000
 4735.00    1.18289   1.28532    0.000
 4736.00    1.16527   1.28978    0.000
 4737.00    0.99668   1.29590    0.000
 4738.00    0.88730   1.30036    0.000
 4739.00    0.84498   1.30298    0.000
 4740.00    0.88004   1.30664    0.000
 4741.00    0.99241   1.31196    0.000
 4742.00    1.08135   1.31683    0.000
 4743.00    1.14965   1.32000    0.000
 4744.00    1.24199   1.32267    0.000
 4745.00    1.35297   1.32530    0.000
 4746.00    1.32630   1.32594    0.000
 4747.00    1.20566   1.32391    0.000
 4748.00    1.14131   1.32038    0.000
 4749.00    1.11065   1.31586    0.000
 4750.00    1.10737   1.30994    0.000
 4751.00    1.11840   1.30335    0.000
 4752.00    1.06214   1.29770    0.000
 4753.00    0.97542   1.29369    0.000
 4754.00    1.02951   1.29087    0.000
 4755.00    1.13843   1.28781    0.000
 4756.00    1.17758   1.28377    0.000
 4757.00    1.19362   1.27895    0.000
 4758.00    1.20543   1.27285    0.000
 4759.00    1.21606   1.26449    0.000
 4760.00    1.11676   1.25428    0.000
 4761.00    0.99232   1.24545    0.017
 4762.00    1.02922   1.24093    0.017
 4763.00    1.09568   1.24062    0.017
 4764.00    1.22586   1.24348    0.017
 4765.00    1.36501   1.24924    0.017
 4766.00    1.21224   1.25795    0.017
 4767.00    1.02986   1.26866    0.017
 4768.00    1.06462   1.27967    0.017
 4769.00    1.11342   1.28873    0.017
 4770.00    1.30359   1.29544    0.017
 4771.00    1.49770   1.30237    0.017
 4772.00    1.51952   1.30999    0.017
 4773.00    1.53399   1.31579    0.017
 4774.00    1.33549   1.31820    0.017
 4775.00    1.15599   1.31843    0.017
 4776.00    1.25085   1.31719    0.017
 4777.00    1.33715   1.31313    0.017
 4778.00    1.34286   1.30708    0.017
 4779.00    1.33073   1.30099    0.017
 4780.00    1.19650   1.29440    0.016
 4781.00    1.09884   1.28726    0.016
 4782.00    1.19484   1.28140    0.016
 4783.00    1.26924   1.27804    0.016
 4784.00    1.25163   1.27627    0.016
 4785.00    1.22826   1.27564    0.016
 4786.00    1.18467   1.27830    0.016
 4787.00    1.17044   1.28449    0.016
 4788.00    1.24296   1.29265    0.016
 4789.00    1.29398   1.30241    0.016
 4790.00    1.29090   1.31251    0.017
 4791.00    1.26694   1.32140    0.017
 4792.00    1.19771   1.32813    0.017
 4793.00    1.17737   1.33154    0.017
 4794.00    1.24901   1.33110    0.016
 4795.00    1.28021   1.32808    0.016
 4796.00    1.24495   1.32428    0.017
 4797.00    1.18570   1.32031    0.017
 4798.00    1.09189   1.31666    0.017
 4799.00    1.09683   1.31433    0.017
 4800.00    1.22691   1.31379    0.017
 4801.00    1.31009   1.31290    0.017
 4802.00    1.34089   1.30978    0.017
 4803.00    1.32615   1.30552    0.017
 4804.00    1.26654   1.30229    0.017
 4805.00    1.25677   1.30092    0.017
 4806.00    1.29032   1.30033    0.017
 4807.00    1.31099   1.30102    0.017
 4808.00    1.32180   1.30411    0.017
 4809.00    1.29038   1.30874    0.017
 4810.00    1.23055   1.31390    0.017
 4811.00    1.22079   1.31960    0.017
 4812.00    1.24052   1.32579    0.017
 4813.00    1.27067   1.33176    0.016
 4814.00    1.30617   1.33647    0.016
 4815.00    1.34804   1.33953    0.016
 4816.00    1.39274   1.33990    0.016
 4817.00    1.36245   1.33610    0.017
 4818.00    1.30347   1.32945    0.016
 4819.00    1.15643   1.32233    0.017
 4820.00    0.98076   1.31514    0.017
 4821.00    1.03912   1.30700    0.017
 4822.00    1.16121   1.29896    0.017
 4823.00    1.14417   1.29508    0.017
 4824.00    1.09604   1.29577    0.017
 4825.00    1.09052   1.29612    0.017
 4826.00    1.09258   1.29405    0.017
 4827.00    1.21065   1.29227    0.017
 4828.00    1.34452   1.29245    0.017
 4829.00    1.26434   1.29275    0.017
 4830.00    1.16337   1.29127    0.016
 4831.00    1.15078   1.29011    0.016
 4832.00    1.14355   1.29073    0.016
 4833.00    1.23341   1.29034    0.016
 4834.00    1.32484   1.28728    0.016
 4835.00    1.23669   1.28354    0.016
 4836.00    1.15507   1.28022    0.016
 4837.00    1.24370   1.27539    0.016
 4838.00    1.32446   1.26993    0.016
 4839.00    1.29787   1.26708    0.016
 4840.00    1.27314   1.26676    0.016
 4841.00    1.26515   1.26554    0.016
 4842.00    1.25204   1.26227    0.016
 4843.00    1.20483   1.25971    0.016
 4844.00    1.16584   1.25802    0.016
 4845.00    1.16923   1.25354    0.016
 4846.00    1.16578   1.24505    0.016
 4847.00    1.13385   1.23486    0.016
 4848.00    1.13030   1.22418    0.000
 4849.00    1.22446   1.21061    0.000
 4850.00    1.28461   1.19248    0.000
 4851.00    1.24615   1.17154    0.000
 4852.00    1.21678   1.14784    0.000
 4853.00    1.20989   1.11863    0.000
 4854.00    1.21219   1.08452    0.000
 4855.00    1.23409   1.05052    0.000
 4856.00    1.27084   1.02076    0.000
 4857.00    1.33512   0.99578    0.000
 4858.00    1.39501   0.97593    0.000
 4859.00    1.44780   0.96482    0.000
 4860.00    1.42514   0.96786    0.000
 4861.00    1.29532   0.98666    0.000
 4862.00    1.18208   1.01412    0.000
 4863.00    1.08953   1.04250    0.000
 4864.00    1.05003   1.06985    0.000
 4865.00    1.06894   1.09369    0.000
 4866.00    1.03899   1.11207    0.000
 4867.00    0.96157   1.12648    0.000
 4868.00    0.92980   1.13817    0.000
 4869.00    0.93715   1.14619    0.000
 4870.00    0.95641   1.15338    0.000
 4871.00    0.98467   1.16544    0.000
 4872.00    0.99482   1.18187    0.000
 4873.00    0.99297   1.19840    0.000
 4874.00    1.01465   1.21366    0.000
 4875.00    1.04998   1.22751    0.016
 4876.00    1.09265   1.23902    0.016
 4877.00    1.13904   1.24792    0.016
 4878.00    1.13196   1.25399    0.016
 4879.00    1.10146   1.25424    0.016
 4880.00    1.10686   1.24903    0.016
 4881.00    1.12577   1.24360    0.016
 4882.00    1.19118   1.23945    0.016
 4883.00    1.27142   1.23378    0.016
 4884.00    1.27579   1.22665    0.016
 4885.00    1.25993   1.22149    0.016
 4886.00    1.33160   1.22158    0.016
 4887.00    1.42237   1.22719    0.017
 4888.00    1.30434   1.23639    0.017
 4889.00    1.15013   1.24837    0.016
 4890.00    1.20116   1.26484    0.016
 4891.00    1.27923   1.28711    0.016
 4892.00    1.26876   1.30979    0.017
 4893.00    1.25005   1.32680    0.017
 4894.00    1.27239   1.33756    0.017
 4895.00    1.29705   1.34380    0.016
 4896.00    1.35490   1.34612    0.016
 4897.00    1.41163   1.34352    0.017
 4898.00    1.26437   1.33722    0.016
 4899.00    1.13015   1.33232    0.016
 4900.00    1.30534   1.33133    0.016
 4901.00    1.46743   1.33035    0.016
 4902.00    1.46003   1.32750    0.017
 4903.00    1.43885   1.32531    0.016
 4904.00    1.29769   1.32388    0.016
 4905.00    1.17977   1.32043    0.016
 4906.00    1.21132   1.31490    0.016
 4907.00    1.25084   1.30954    0.016
 4908.00    1.33044   1.30530    0.016
 4909.00    1.38420   1.30289    0.017
 4910.00    1.33281   1.30329    0.016
 4911.00    1.24688   1.30392    0.016
 4912.00    1.04444   1.30034    0.016
 4913.00    0.93815   1.29151    0.016
 4914.00    1.10564   1.27888    0.016
 4915.00    1.21010   1.26325    0.016
 4916.00    1.16122   1.24632    0.016
 4917.00    1.15106   1.23074    0.016
 4918.00    1.22222   1.21943    0.016
 4919.00    1.21968   1.21606    0.016
 4920.00    1.08268   1.22337    0.016
 4921.00    1.03145   1.23884    0.016
 4922.00    1.11699   1.25622    0.016
 4923.00    1.18540   1.27441    0.016
 4924.00    1.22984   1.29505    0.016
 4925.00    1.26575   1.31512    0.016
 4926.00    1.29116   1.32896    0.016
 4927.00    1.30346   1.33528    0.016
 4928.00    1.30153   1.33566    0.016
 4929.00    1.31631   1.33187    0.016
 4930.00    1.34708   1.32543    0.016
 4931.00    1.31184   1.31503    0.016
 4932.00    1.22087   1.30079    0.016
 4933.00    1.21079   1.28914    0.016
 4934.00    1.26085   1.28472    0.016
 4935.00    1.29545   1.28416    0.016
 4936.00    1.31996   1.28440    0.016
 4937.00    1.32057   1.28808    0.016
 4938.00    1.30752   1.29880    0.016
 4939.00    1.29847   1.31437    0.016
 4940.00    1.29140   1.32858    0.000
 4941.00    1.28515   1.33976    0.000
 4942.00    1.27926   1.35094    0.000
 4943.00    1.31505   1.36089    0.000
 4944.00    1.36623   1.36661    0.000
 4945.00    1.37494   1.37025    0.000
 4946.00    1.37036   1.37386    0.000
 4947.00    1.42810   1.37438    0.000
 4948.00    1.50210   1.37021    0.000
 4949.00    1.41372   1.36370    0.000
 4950.00    1.29077   1.35478    0.000
 4951.00    1.29355   1.33997    0.000
 4952.00    1.31751   1.32126    0.000
 4953.00    1.32896   1.30671    0.000
 4954.00    1.33883   1.29837    0.000
 4955.00    1.31440   1.29100    0.000
 4956.00    1.28693   1.28485    0.000
 4957.00    1.19409   1.28833    0.000
 4958.00    1.09779   1.30020    0.000
 4959.00    1.18307   1.30887    0.000
 4960.00    1.27165   1.31102    0.000
 4961.00    1.34779   1.31211    0.000
 4962.00    1.41771   1.31353    0.000
 4963.00    1.35237   1.31145    0.000
 4964.00    1.29063   1.30668    0.000
 4965.00    1.27322   1.30438    0.000
 4966.00    1.25742   1.30623    0.000
 4967.00    1.25514   1.31011    0.000
 4968.00    1.24161   1.31527    0.000
 4969.00    1.15787   1.32169    0.000
 4970.00    1.11556   1.32809    0.000
 4971.00    1.27637   1.33241    0.000
 4972.00    1.41725   1.33272    0.000
 4973.00    1.47875   1.32850    0.000
 4974.00    1.49021   1.32006    0.000
 4975.00    1.33614   1.30792    0.000
 4976.00    1.22221   1.29162    0.000
 4977.00    1.22050   1.27221    0.000
 4978.00    1.22471   1.25476    0.000
 4979.00    1.24310   1.24197    0.000
 4980.00    1.23695   1.23216    0.000
 4981.00    1.18009   1.22658    0.000
 4982.00    1.15786   1.22928    0.000
 4983.00    1.19787   1.23868    0.000
 4984.00    1.24237   1.24956    0.000
 4985.00    1.29393   1.26066    0.000
 4986.00    1.29749   1.27242    0.000
 4987.00    1.23484   1.28236    0.000
 4988.00    1.16232   1.28802    0.000
 4989.00    1.07782   1.29105    0.000
 4990.00    1.13571   1.29424    0.000
 4991.00    1.34603   1.29706    0.000
 4992.00    1.42806   1.29678    0.000
 4993.00    1.38896   1.29394    0.000
 4994.00    1.38398   1.29015    0.000
 4995.00    1.40741   1.28399    0.000
 4996.00    1.38227   1.27513    0.000
 4997.00    1.32155   1.26487    0.000
 4998.00    1.24496   1.25426    0.000
 4999.00    1.15815   1.24422    0.000
 5000.00    1.16915   1.23510    0.000
 5001.00    1.23522   1.22801    0.000
 5002.00    1.31118   1.22523    0.000
 5003.00    1.39199   1.22538    0.000
 5004.00    1.31842   1.22475    0.000
 5005.00    1.17947   1.22425    0.000
 5006.00    1.19168   1.22628    0.000
 5007.00    1.25870   1.22741    0.000
 5008.00    1.25150   1.22345    0.000
 5009.00    1.22152   1.21633    0.000
 5010.00    1.23669   1.21005    0.000
 5011.00    1.26338   1.20416    0.000
 5012.00    1.17560   1.19775    0.000
 5013.00    1.06404   1.19354    0.000
 5014.00    1.10962   1.19544    0.000
 5015.00    1.18092   1.20104    0.000
 5016.00    1.11865   1.20522    0.000
 5017.00    1.03999   1.20953    0.000
 5018.00    1.07197   1.21849    0.000
 5019.00    1.11331   1.22956    0.000
 5020.00    1.22925   1.23760    0.000
 5021.00    1.34883   1.24344    0.000
 5022.00    1.22594   1.25036    0.000
 5023.00    1.10272   1.25883    0.000
 5024.00    1.18814   1.26695    0.000
 5025.00    1.26494   1.27327    0.000
 5026.00    1.16865   1.27838    0.000
 5027.00    1.08280   1.28576    0.000
 5028.00    1.11878   1.29454    0.000
 5029.00    1.15421   1.29864    0.015
 5030.00    1.18524   1.29634    0.015
 5031.00    1.21838   1.29160    0.015
 5032.00    1.26430   1.28554    0.015
 5033.00    1.29458   1.27404    0.015
 5034.00    1.25003   1.25642    0.015
 5035.00    1.21670   1.23866    0.015
 5036.00    1.22707   1.22625    0.015
 5037.00    1.21941   1.21991    0.015
 5038.00    1.15331   1.21823    0.015
 5039.00    1.11324   1.22061    0.015
 5040.00    1.14464   1.22982    0.015
 5041.00    1.19697   1.24702    0.015
 5042.00    1.29851   1.26430    0.015
 5043.00    1.33833   1.27450    0.015
 5044.00    1.25268   1.28086    0.015
 5045.00    1.16106   1.28575    0.015
 5046.00    1.05888   1.28551    0.015
 5047.00    1.04050   1.28096    0.015
 5048.00    1.15186   1.27930    0.015
 5049.00    1.23498   1.28264    0.015
 5050.00    1.27972   1.28765    0.015
 5051.00    1.28782   1.29422    0.015
 5052.00    1.25207   1.30469    0.015
 5053.00    1.26020   1.31683    0.015
 5054.00    1.31463   1.32636    0.015
 5055.00    1.35670   1.33305    0.015
 5056.00    1.38727   1.33867    0.015
 5057.00    1.39571   1.34208    0.015
 5058.00    1.38597   1.34011    0.015
 5059.00    1.32400   1.33261    0.015
 5060.00    1.22430   1.32354    0.015
 5061.00    1.26757   1.31550    0.015
 5062.00    1.40150   1.30528    0.015
 5063.00    1.40732   1.29210    0.015
 5064.00    1.34212   1.28325    0.015
 5065.00    1.25732   1.28190    0.015
 5066.00    1.16308   1.27992    0.015
 5067.00    1.14339   1.27518    0.015
 5068.00    1.15474   1.27521    0.015
 5069.00    1.18197   1.27890    0.015
 5070.00    1.21485   1.27710    0.015
 5071.00    1.25784   1.27167    0.015
 5072.00    1.30386   1.26997    0.015
 5073.00    1.29112   1.26713    0.015
 5074.00    1.26369   1.25636    0.015
 5075.00    1.11282   1.24509    0.015
 5076.00    0.93694   1.24013    0.015
 5077.00    0.98783   1.23551    0.015
 5078.00    1.07476   1.22789    0.015
 5079.00    1.12566   1.22654    0.015
 5080.00    1.17229   1.23484    0.015
 5081.00    1.20469   1.24474    0.015
 5082.00    1.23594   1.25268    0.015
 5083.00    1.24167   1.26371    0.015
 5084.00    1.24625   1.27788    0.015
 5085.00    1.20511   1.28923    0.015
 5086.00    1.16601   1.29681    0.015
 5087.00    1.25518   1.30449    0.015
 5088.00    1.33255   1.31180    0.015
 5089.00    1.19041   1.31479    0.015
 5090.00    1.07456   1.31319    0.015
 5091.00    1.25164   1.30966    0.015
 5092.00    1.39639   1.30393    0.015
 5093.00    1.28933   1.29397    0.015
 5094.00    1.21063   1.28156    0.015
 5095.00    1.29897   1.27199    0.015
 5096.00    1.36476   1.26621    0.015
 5097.00    1.32527   1.26157    0.015
 5098.00    1.27789   1.25849    0.015
 5099.00    1.20041   1.25992    0.015
 5100.00    1.16314   1.26374    0.015
 5101.00    1.25373   1.26499    0.015
 5102.00    1.28794   1.26294    0.015
 5103.00    1.17012   1.26124    0.015
 5104.00    1.11276   1.26047    0.015
 5105.00    1.19521   1.25829    0.015
 5106.00    1.25623   1.25712    0.015
 5107.00    1.27438   1.26059    0.015
 5108.00    1.26716   1.26672    0.015
 5109.00    1.21576   1.27344    0.015
 5110.00    1.20222   1.28284    0.015
 5111.00    1.24642   1.29369    0.015
 5112.00    1.26139   1.30293    0.015
 5113.00    1.23719   1.30992    0.015
 5114.00    1.26826   1.31361    0.015
 5115.00    1.36456   1.31323    0.015
 5116.00    1.40393   1.30945    0.015
 5117.00    1.38406   1.30165    0.015
 5118.00    1.34305   1.28898    0.015
 5119.00    1.28263   1.27421    0.015
 5120.00    1.27311   1.26082    0.015
 5121.00    1.30479   1.24881    0.015
 5122.00    1.26311   1.23740    0.015
 5123.00    1.16922   1.22951    0.015
 5124.00    1.13679   1.22671    0.015
 5125.00    1.14276   1.22721    0.015
 5126.00    1.09126   1.23031    0.015
 5127.00    1.00840   1.23562    0.015
 5128.00    1.02179   1.24153    0.015
 5129.00    1.08083   1.24839    0.014
 5130.00    1.17847   1.25641    0.014
 5131.00    1.29190   1.26145    0.015
 5132.00    1.35312   1.26228    0.015
 5133.00    1.39608   1.26152    0.014
 5134.00    1.37842   1.25914    0.014
 5135.00    1.34288   1.25468    0.014
 5136.00    1.23359   1.24951    0.015
 5137.00    1.10629   1.24260    0.015
 5138.00    1.17517   1.23581    0.015
 5139.00    1.28280   1.23485    0.014
 5140.00    1.28785   1.23495    0.015
 5141.00    1.27709   1.23038    0.015
 5142.00    1.20300   1.22797    0.015
 5143.00    1.12169   1.23058    0.015
 5144.00    1.15293   1.23158    0.015
 5145.00    1.19276   1.22948    0.015
 5146.00    1.21133   1.22810    0.015
 5147.00    1.22902   1.22900    0.015
 5148.00    1.27618   1.23094    0.015
 5149.00    1.32117   1.23236    0.015
 5150.00    1.26481   1.23541    0.015
 5151.00    1.21078   1.24254    0.015
 5152.00    1.19708   1.25208    0.015
 5153.00    1.18723   1.26169    0.015
 5154.00    1.21830   1.27135    0.015
 5155.00    1.24449   1.28050    0.015
 5156.00    1.23397   1.28600    0.015
 5157.00    1.22674   1.28406    0.015
 5158.00    1.23824   1.27509    0.015
 5159.00    1.24609   1.26108    0.015
 5160.00    1.23726   1.23942    0.015
 5161.00    1.22027   1.20936    0.015
 5162.00    1.17285   1.17621    0.015
 5163.00    1.14422   1.14348    0.015
 5164.00    1.17417   1.11269    0.015
 5165.00    1.16038   1.08744    0.015
 5166.00    1.03073   1.06798    0.015
 5167.00    0.95593   1.05475    0.015
 5168.00    1.00588   1.05348    0.015
 5169.00    1.03146   1.06570    0.015
 5170.00    1.00906   1.08176    0.015
 5171.00    0.99190   1.09725    0.015
 5172.00    0.98374   1.11982    0.015
 5173.00    1.00547   1.14850    0.015
 5174.00    1.07209   1.16969    0.015
 5175.00    1.13784   1.17879    0.015
 5176.00    1.20242   1.18235    0.015
 5177.00    1.23455   1.18016    0.015
 5178.00    1.22893   1.16750    0.015
 5179.00    1.20561   1.15145    0.015
 5180.00    1.16414   1.14259    0.014
 5181.00    1.15277   1.13927    0.014
 5182.00    1.16864   1.13783    0.014
 5183.00    1.16166   1.14420    0.014
 5184.00    1.13646   1.16171    0.014
 5185.00    1.14189   1.18156    0.014
 5186.00    1.16881   1.19457    0.014
 5187.00    1.19400   1.20094    0.014
 5188.00    1.21813   1.20869    0.014
 5189.00    1.24491   1.21696    0.014
 5190.00    1.27311   1.21726    0.000
 5191.00    1.28585   1.21565    0.000
 5192.00    1.29136   1.22224    0.000
 5193.00    1.21603   1.23157    0.000
 5194.00    1.10816   1.23757    0.000
 5195.00    1.16926   1.24468    0.000
 5196.00    1.28835   1.25211    0.000
 5197.00    1.28186   1.25475    0.000
 5198.00    1.23910   1.25346    0.000
 5199.00    1.15244   1.24779    0.000
 5200.00    1.05529   1.23571    0.000
 5201.00    1.05825   1.22165    0.000
 5202.00    1.08048   1.21012    0.000
 5203.00    1.10600   1.19806    0.000
 5204.00    1.13202   1.18793    0.000
 5205.00    1.09654   1.18751    0.000
 5206.00    1.05432   1.19465    0.000
 5207.00    1.03814   1.20348    0.000
 5208.00    1.02383   1.21692    0.000
 5209.00    1.02644   1.23459    0.000
 5210.00    1.02969   1.25013    0.000
 5211.00    1.11847   1.26303    0.014
 5212.00    1.20934   1.27501    0.014
 5213.00    1.36206   1.28509    0.014
 5214.00    1.50086   1.29172    0.014
 5215.00    1.41384   1.29675    0.014
 5216.00    1.32908   1.30161    0.014
 5217.00    1.26739   1.30420    0.014
 5218.00    1.21858   1.30150    0.014
 5219.00    1.26346   1.29377    0.014
 5220.00    1.29535   1.28357    0.014
 5221.00    1.25482   1.27000    0.014
 5222.00    1.21161   1.25422    0.014
 5223.00    1.15644   1.24303    0.015
 5224.00    1.11582   1.23780    0.015
 5225.00    1.12836   1.23471    0.015
 5226.00    1.12732   1.23691    0.015
 5227.00    1.08475   1.24710    0.015
 5228.00    1.06692   1.25738    0.015
 5229.00    1.11346   1.26522    0.015
 5230.00    1.16268   1.27512    0.015
 5231.00    1.21789   1.28466    0.015
 5232.00    1.25608   1.29257    0.015
 5233.00    1.26129   1.30227    0.014
 5234.00    1.27894   1.31272    0.014
 5235.00    1.31763   1.32259    0.015
 5236.00    1.35361   1.33225    0.015
 5237.00    1.38559   1.34001    0.015
 5238.00    1.38826   1.34373    0.014
 5239.00    1.35279   1.34528    0.015
 5240.00    1.33802   1.34633    0.015
 5241.00    1.34700   1.34255    0.014
 5242.00    1.33271   1.33319    0.014
 5243.00    1.29490   1.32514    0.014
 5244.00    1.24981   1.31876    0.014
 5245.00    1.19821   1.30796    0.014
 5246.00    1.20547   1.29655    0.014
 5247.00    1.25899   1.29265    0.014
 5248.00    1.28479   1.29271    0.014
 5249.00    1.29142   1.29146    0.014
 5250.00    1.30914   1.29322    0.014
 5251.00    1.33358   1.30059    0.014
 5252.00    1.33502   1.30934    0.014
 5253.00    1.32429   1.31514    0.015
 5254.00    1.29651   1.31781    0.014
 5255.00    1.26090   1.31902    0.014
 5256.00    1.26611   1.31510    0.014
 5257.00    1.28745   1.30234    0.014
 5258.00    1.22900   1.28306    0.014
 5259.00    1.14367   1.26115    0.014
 5260.00    1.11927   1.23643    0.014
 5261.00    1.11210   1.20914    0.014
 5262.00    1.08576   1.18656    0.014
 5263.00    1.05494   1.17234    0.014
 5264.00    1.09614   1.15998    0.014
 5265.00    1.15085   1.15040    0.015
 5266.00    1.16896   1.15399    0.015
 5267.00    1.18177   1.16485    0.015
 5268.00    1.10391   1.17235    0.015
 5269.00    1.01651   1.18544    0.015
 5270.00    1.02722   1.20859    0.015
 5271.00    1.04461   1.23005    0.015
 5272.00    1.07839   1.24808    0.015
 5273.00    1.11272   1.26812    0.015
 5274.00    1.11042   1.28515    0.015
 5275.00    1.11054   1.29689    0.015
 5276.00    1.18922   1.30726    0.015
 5277.00    1.26059   1.31502    0.014
 5278.00    1.22076   1.31842    0.014
 5279.00    1.19398   1.32006    0.014
 5280.00    1.29457   1.32429    0.015
 5281.00    1.37057   1.33240    0.015
 5282.00    1.27345   1.34157    0.015
 5283.00    1.22246   1.35148    0.014
 5284.00    1.42157   1.36457    0.014
 5285.00    1.56289   1.37766    0.014
 5286.00    1.45307   1.38641    0.014
 5287.00    1.36769   1.39072    0.014
 5288.00    1.36976   1.39119    0.014
 5289.00    1.37004   1.38741    0.014
 5290.00    1.36496   1.37946    0.014
 5291.00    1.34367   1.36803    0.014
 5292.00    1.28092   1.35366    0.015
 5293.00    1.25147   1.33886    0.015
 5294.00    1.29527   1.32724    0.015
 5295.00    1.33725   1.31957    0.015
 5296.00    1.37575   1.31441    0.015
 5297.00    1.36410   1.31404    0.015
 5298.00    1.26895   1.32170    0.015
 5299.00    1.23974   1.33310    0.015
 5300.00    1.30675   1.34410    0.014
 5301.00    1.36103   1.35621    0.014
 5302.00    1.39896   1.36906    0.014
 5303.00    1.42653   1.37998    0.014
 5304.00    1.44239   1.38841    0.014
 5305.00    1.40869   1.39429    0.014
 5306.00    1.32555   1.39744    0.014
 5307.00    1.31603   1.39906    0.014
 5308.00    1.37126   1.39878    0.014
 5309.00    1.39160   1.39594    0.014
 5310.00    1.38489   1.39199    0.014
 5311.00    1.37946   1.38668    0.014
 5312.00    1.37491   1.37964    0.014
 5313.00    1.39148   1.37400    0.014
 5314.00    1.42067   1.36954    0.014
 5315.00    1.45959   1.36296    0.014
 5316.00    1.50359   1.35619    0.014
 5317.00    1.44578   1.35119    0.014
 5318.00    1.34199   1.34419    0.014
 5319.00    1.30010   1.33225    0.014
 5320.00    1.28226   1.31764    0.014
 5321.00    1.29272   1.30446    0.014
 5322.00    1.31254   1.29058    0.014
 5323.00    1.26116   1.27326    0.014
 5324.00    1.19005   1.26027    0.014
 5325.00    1.22013   1.25737    0.014
 5326.00    1.27330   1.25847    0.014
 5327.00    1.27090   1.26124    0.014
 5328.00    1.25834   1.27239    0.014
 5329.00    1.20570   1.29013    0.014
 5330.00    1.14744   1.30682    0.014
 5331.00    1.20205   1.31908    0.014
 5332.00    1.26805   1.32774    0.014
 5333.00    1.30625   1.33479    0.014
 5334.00    1.34266   1.33864    0.014
 5335.00    1.34464   1.33637    0.014
 5336.00    1.34552   1.33168    0.013
 5337.00    1.31862   1.33020    0.014
 5338.00    1.29465   1.32955    0.014
 5339.00    1.35418   1.32740    0.014
 5340.00    1.41043   1.32804    0.014
 5341.00    1.41971   1.33151    0.014
 5342.00    1.42817   1.33461    0.014
 5343.00    1.42890   1.33828    0.014
 5344.00    1.42312   1.34127    0.014
 5345.00    1.37297   1.34450    0.014
 5346.00    1.32674   1.35194    0.014
 5347.00    1.30122   1.36081    0.014
 5348.00    1.28064   1.36890    0.014
 5349.00    1.28105   1.37980    0.014
 5350.00    1.29087   1.39377    0.014
 5351.00    1.33363   1.40579    0.014
 5352.00    1.37314   1.41458    0.014
 5353.00    1.40308   1.42253    0.014
 5354.00    1.42153   1.42785    0.014
 5355.00    1.41107   1.42831    0.014
 5356.00    1.42230   1.42502    0.014
 5357.00    1.48044   1.41823    0.014
 5358.00    1.48779   1.40877    0.014
 5359.00    1.39974   1.39793    0.014
 5360.00    1.32247   1.38507    0.013
 5361.00    1.26292   1.37130    0.014
 5362.00    1.28430   1.35904    0.014
 5363.00    1.42208   1.34685    0.014
 5364.00    1.47746   1.33509    0.014
 5365.00    1.42859   1.32609    0.014
 5366.00    1.36451   1.31857    0.013
 5367.00    1.28347   1.31440    0.013
 5368.00    1.26206   1.31640   -2.000
 5369.00    1.29930   1.32206   -2.000
 5370.00    1.27949   1.33040   -2.000
 5371.00    1.21020   1.34357   -2.000
 5372.00    1.19784   1.35801   -2.000
 5373.00    1.22895   1.36936   -2.000
 5374.00    1.23200   1.37902   -2.000
 5375.00    1.21619   1.38531   -2.000
 5376.00    1.26558   1.38701   -2.000
 5377.00    1.35332   1.38766   -2.000
 5378.00    1.33869   1.38689   -2.000
 5379.00    1.27155   1.38353   -2.000
 5380.00    1.28715   1.38150   -2.000
 5381.00    1.33951   1.38070   -2.000
 5382.00    1.40228   1.37773   -2.000
 5383.00    1.46903   1.37498    0.013
 5384.00    1.45936   1.37272    0.013
 5385.00    1.42491   1.36723    0.013
 5386.00    1.44518   1.35990    0.013
 5387.00    1.48031   1.35290    0.013
 5388.00    1.44373   1.34422    0.013
 5389.00    1.39118   1.33390    0.013
 5390.00    1.39747   1.32544    0.013
 5391.00    1.41422   1.31902    0.013
 5392.00    1.37508   1.31134    0.013
 5393.00    1.32836   1.30493    0.013
 5394.00    1.26242   1.30441    0.013
 5395.00    1.19461   1.30393    0.013
 5396.00    1.20462   1.30041    0.013
 5397.00    1.21932   1.30041    0.013
 5398.00    1.27598   1.30137    0.013
 5399.00    1.33328   1.29655    0.013
 5400.00    1.31409   1.28977    0.013
 5401.00    1.29497   1.28448    0.013
 5402.00    1.27735   1.27868    0.013
 5403.00    1.26237   1.27423    0.013
 5404.00    1.28300   1.27331    0.013
 5405.00    1.29808   1.27535    0.013
 5406.00    1.26315   1.28184    0.013
 5407.00    1.23796   1.29276    0.013
 5408.00    1.27704   1.30449    0.013
 5409.00    1.30617   1.31653    0.013
 5410.00    1.28405   1.33012    0.013
 5411.00    1.29235   1.34341    0.013
 5412.00    1.42692   1.35450    0.013
 5413.00    1.51812   1.36261    0.013
 5414.00    1.46041   1.36852    0.013
 5415.00    1.40640   1.37296    0.013
 5416.00    1.36314   1.37405    0.013
 5417.00    1.33629   1.37289    0.013
 5418.00    1.34995   1.37196    0.013
 5419.00    1.36854   1.36897    0.013
 5420.00    1.39760   1.36473    0.013
 5421.00    1.43401   1.36243    0.013
 5422.00    1.48401   1.35912    0.013
 5423.00    1.47465   1.35439    0.013
 5424.00    1.36939   1.34957    0.013
 5425.00    1.31770   1.34226    0.013
 5426.00    1.34194   1.33589    0.013
 5427.00    1.35266   1.33110    0.013
 5428.00    1.34652   1.32297    0.013
 5429.00    1.36169   1.31761    0.013
 5430.00    1.40029   1.31892    0.013
 5431.00    1.39590   1.32138    0.013
 5432.00    1.34983   1.32622    0.013
 5433.00    1.33046   1.33631    0.013
 5434.00    1.33392   1.34933    0.013
 5435.00    1.34716   1.36257    0.013
 5436.00    1.36777   1.37494    0.013
 5437.00    1.36600   1.38504    0.013
 5438.00    1.34944   1.39057    0.013
 5439.00    1.38280   1.39077    0.013
 5440.00    1.44508   1.38641    0.013
 5441.00    1.47358   1.37850    0.013
 5442.00    1.48503   1.36774    0.013
 5443.00    1.44787   1.35758    0.013
 5444.00    1.38948   1.35100    0.013
 5445.00    1.40130   1.34543    0.013
 5446.00    1.43944   1.34185    0.013
 5447.00    1.44239   1.34203    0.013
 5448.00    1.43414   1.34199    0.013
 5449.00    1.41470   1.34097    0.013
 5450.00    1.39228   1.33952    0.013
 5451.00    1.35711   1.33643    0.013
 5452.00    1.31916   1.33497    0.013
 5453.00    1.37362   1.33604    0.013
 5454.00    1.44404   1.33625    0.013
 5455.00    1.47987   1.33755    0.013
 5456.00    1.51117   1.34138    0.013
 5457.00    1.50762   1.34471    0.013
 5458.00    1.50086   1.34561    0.013
 5459.00    1.43707   1.34533    0.013
 5460.00    1.37007   1.34716    0.013
 5461.00    1.42217   1.34880    0.013
 5462.00    1.47643   1.34782    0.013
 5463.00    1.47935   1.34922    0.013
 5464.00    1.48202   1.35250    0.013
 5465.00    1.47919   1.35188    0.013
 5466.00    1.47325   1.34907    0.013
 5467.00    1.42738   1.34756    0.013
 5468.00    1.38443   1.34323    0.013
 5469.00    1.36664   1.33378    0.013
 5470.00    1.35472   1.32605    0.013
 5471.00    1.38045   1.32026    0.013
 5472.00    1.39793   1.31047    0.013
 5473.00    1.37409   1.30312    0.013
 5474.00    1.36049   1.30292    0.013
 5475.00    1.38848   1.30279    0.013
 5476.00    1.41827   1.30273    0.013
 5477.00    1.45414   1.30798    0.013
 5478.00    1.48893   1.31629   -2.000
 5479.00    1.52066   1.32279   -2.000
 5480.00    1.53672   1.32886   -2.000
 5481.00    1.51477   1.33725   -2.000
 5482.00    1.51266   1.34387   -2.000
 5483.00    1.55211   1.34687   -2.000
 5484.00    1.46112   1.35097   -2.000
 5485.00    1.13260   1.35494   -2.000
 5486.00    0.78678   1.35482   -2.000
 5487.00    0.41344   1.35566   -2.000
 5488.00    0.12921   1.35863   -2.000
 5489.00   -0.03054   1.35796   -2.000
 5490.00    0.05906   1.35692   -2.000
 5491.00    0.45522   1.35892   -2.000
 5492.00    0.73826   1.35848   -2.000
 5493.00    0.89871   1.35519   -2.000
 5494.00    1.09180   1.35472   -2.000
 5495.00    1.31610   1.35489   -2.000
 5496.00    1.43732   1.35104   -2.000
 5497.00    1.47167   1.34727   -2.000
 5498.00    1.48870   1.34573   -2.000
 5499.00    1.49287   1.34225   -2.000
 5500.00    1.47934   1.33818   -2.000
 5501.00    1.45426   1.33571   -2.000
 5502.00    1.45223   1.33216    0.013
 5503.00    1.46335   1.32999    0.013
 5504.00    1.46650   1.32974    0.013
 5505.00    1.46571   1.32700    0.012
 5506.00    1.45397   1.32535    0.012
 5507.00    1.43752   1.32601    0.012
 5508.00    1.43261   1.32475    0.012
 5509.00    1.43195   1.32462    0.012
 5510.00    1.37879   1.32755    0.012
 5511.00    1.30924   1.33153    0.012
 5512.00    1.33835   1.33706    0.012
 5513.00    1.39311   1.34467    0.012
 5514.00    1.39110   1.35382    0.013
 5515.00    1.37704   1.36233    0.013
 5516.00    1.36994   1.36900    0.013
 5517.00    1.36401   1.37439    0.012
 5518.00    1.42648   1.37695    0.012
 5519.00    1.49761   1.37614    0.012
 5520.00    1.49730   1.37264    0.012
 5521.00    1.49068   1.36662    0.012
 5522.00    1.43695   1.36012    0.012
 5523.00    1.38077   1.35334    0.012
 5524.00    1.32918   1.34609    0.012
 5525.00    1.27908   1.34238    0.012
 5526.00    1.33417   1.34194    0.012
 5527.00    1.38749   1.34123    0.012
 5528.00    1.40264   1.34265    0.012
 5529.00    1.41916   1.34729    0.012
 5530.00    1.45229   1.35070    0.012
 5531.00    1.48720   1.35298    0.012
 5532.00    1.53695   1.35788    0.012
 5533.00    1.56479   1.36256    0.012
 5534.00    1.45626   1.36530    0.012
 5535.00    1.36496   1.36974    0.012
 5536.00    1.35787   1.37442    0.012
 5537.00    1.35849   1.37745    0.012
 5538.00    1.38975   1.37990    0.012
 5539.00    1.40414   1.38133    0.014
 5540.00    1.36285   1.38287    0.033
 5541.00    1.34144   1.38456   -1.000
 5542.00    1.37546   1.38505   -1.000
 5543.00    1.40571   1.38704   -1.000
 5544.00    1.42698   1.39074   -1.000
 5545.00    1.44738   1.39296   -1.000
 5546.00    1.46598   1.39491   -1.000
 5547.00    1.46840   1.39718   -1.000
 5548.00    1.44182   1.39762   -1.000
 5549.00    1.42167   1.39635   -1.000
 5550.00    1.41161   1.39408   -1.000
 5551.00    1.39777   1.39160   -1.000
 5552.00    1.37873   1.38900   -1.000
 5553.00    1.36982   1.38542   -1.000
 5554.00    1.37319   1.38244   -1.000
 5555.00    1.32632   1.38020    0.049
 5556.00    1.22577   1.37679    0.016
 5557.00    1.21706   1.37355    0.012
 5558.00    1.29492   1.36999    0.012
 5559.00    1.34721   1.36508    0.012
 5560.00    1.37826   1.36144    0.012
 5561.00    1.38064   1.35757    0.012
 5562.00    1.36206   1.35222    0.012
 5563.00    1.34150   1.34954    0.012
 5564.00    1.31968   1.34852    0.012
 5565.00    1.32326   1.34504    0.012
 5566.00    1.34110   1.34384    0.012
 5567.00    1.35522   1.34697    0.012
 5568.00    1.36752   1.34661    0.012
 5569.00    1.39089   1.34634    0.012
 5570.00    1.41896   1.35236    0.012
 5571.00    1.42375   1.35560    0.012
 5572.00    1.42013   1.35644    0.012
 5573.00    1.43061   1.36254    0.012
 5574.00    1.44541   1.36649    0.012
 5575.00    1.45741   1.36659    0.012
 5576.00    1.46870   1.36899    0.012
 5577.00    1.46388   1.36858    0.012
 5578.00    1.45571   1.36370    0.012
 5579.00    1.41129   1.35865    0.012
 5580.00    1.36095   1.35086    0.012
 5581.00    1.33926   1.34004    0.012
 5582.00    1.32108   1.32887    0.012
 5583.00    1.29774   1.31774    0.012
 5584.00    1.27396   1.30801    0.012
 5585.00    1.23142   1.30062    0.012
 5586.00    1.18797   1.29664    0.012
 5587.00    1.25775   1.29611    0.012
 5588.00    1.32846   1.29834    0.012
 5589.00    1.35384   1.30370    0.012
 5590.00    1.37471   1.30896    0.012
 5591.00    1.30595   1.31379    0.012
 5592.00    1.24496   1.32021    0.012
 5593.00    1.27419   1.32330    0.012
 5594.00    1.29807   1.32293    0.012
 5595.00    1.27894   1.32430    0.012
 5596.00    1.25345   1.32470    0.012
 5597.00    1.18959   1.32361    0.012
 5598.00    1.14534   1.32556    0.012
 5599.00    1.19457   1.33030    0.012
 5600.00    1.22945   1.33727    0.012
 5601.00    1.20856   1.34666    0.012
 5602.00    1.20781   1.35742    0.012
 5603.00    1.27220   1.36890    0.012
 5604.00    1.31769   1.37909    0.012
 5605.00    1.31143   1.38638    0.012
 5606.00    1.30642   1.39106    0.012
 5607.00    1.30438   1.39180    0.012
 5608.00    1.31141   1.38765    0.012
 5609.00    1.33686   1.38178    0.012
 5610.00    1.34815   1.37421    0.012
 5611.00    1.33444   1.36312    0.012
 5612.00    1.30167   1.35419    0.012
 5613.00    1.23946   1.34872    0.012
 5614.00    1.20559   1.34256    0.012
 5615.00    1.21017   1.33944    0.012
 5616.00    1.24531   1.34034    0.012
 5617.00    1.31694   1.34017    0.012
 5618.00    1.36773   1.34068    0.012
 5619.00    1.39655   1.34286    0.012
 5620.00    1.39736   1.34302    0.012
 5621.00    1.37215   1.34364    0.012
 5622.00    1.30150   1.34709    0.012
 5623.00    1.19361   1.34983    0.012
 5624.00    1.19268   1.35340    0.012
 5625.00    1.26885   1.36006    0.012
 5626.00    1.32322   1.36582    0.012
 5627.00    1.36380   1.36993    0.012
 5628.00    1.39782   1.37407    0.012
 5629.00    1.42820   1.37587    0.012
 5630.00    1.41697   1.37450    0.012
 5631.00    1.38572   1.37192    0.012
 5632.00    1.35047   1.36825    0.012
 5633.00    1.31356   1.36291    0.012
 5634.00    1.34351   1.35753    0.012
 5635.00    1.39721   1.35395    0.012
 5636.00    1.41790   1.35078    0.012
 5637.00    1.42868   1.34795    0.012
 5638.00    1.42595   1.34821    0.012
 5639.00    1.41985   1.34971    0.012
 5640.00    1.40187   1.35095    0.012
 5641.00    1.38150   1.35434    0.012
 5642.00    1.35066   1.35835    0.012
 5643.00    1.31818   1.36153    0.012
 5644.00    1.35789   1.36510    0.012
 5645.00    1.40610   1.36799    0.012
 5646.00    1.38698   1.36980    0.012
 5647.00    1.36248   1.37048    0.012
 5648.00    1.35172   1.36913    0.012
 5649.00    1.34157   1.36700    0.012
 5650.00    1.35676   1.36275    0.012
 5651.00    1.37182   1.35512    0.012
 5652.00    1.36662   1.34844    0.012
 5653.00    1.36254   1.34168    0.011
 5654.00    1.37927   1.33192    0.012
 5655.00    1.39242   1.32543    0.012
 5656.00    1.36610   1.32323    0.011
 5657.00    1.34114   1.32014    0.011
 5658.00    1.32677   1.31956    0.011
 5659.00    1.30805   1.32389    0.011
 5660.00    1.26379   1.32826    0.011
 5661.00    1.22609   1.33236    0.011
 5662.00    1.21895   1.33836    0.011
 5663.00    1.21598   1.34418    0.011
 5664.00    1.22883   1.34903    0.011
 5665.00    1.24909   1.35452    0.012
 5666.00    1.29286   1.36035    0.012
 5667.00    1.32171   1.36597    0.012
 5668.00    1.31040   1.37199    0.012
 5669.00    1.31502   1.37849    0.011
 5670.00    1.35639   1.38429    0.011
 5671.00    1.38926   1.38855    0.012
 5672.00    1.40515   1.39196    0.012
 5673.00    1.39563   1.39408    0.012
 5674.00    1.34194   1.39332    0.012
 5675.00    1.31722   1.39053    0.012
 5676.00    1.33660   1.38719    0.012
 5677.00    1.35227   1.38233    0.012
 5678.00    1.36299   1.37580    0.012
 5679.00    1.34942   1.36997    0.012
 5680.00    1.30723   1.36518    0.012
 5681.00    1.28441   1.36045    0.012
 5682.00    1.28170   1.35739    0.012
 5683.00    1.28392   1.35665    0.012
 5684.00    1.29065   1.35717    0.012
 5685.00    1.29832   1.35969    0.011
 5686.00    1.30674   1.36406    0.011
 5687.00    1.33570   1.36874    0.011
 5688.00    1.37924   1.37411    0.011
 5689.00    1.41101   1.37953    0.011
 5690.00    1.43543   1.38296    0.011
 5691.00    1.43962   1.38456    0.011
 5692.00    1.43278   1.38497    0.011
 5693.00    1.46969   1.38303    0.011
 5694.00    1.52730   1.37820    0.011
 5695.00    1.50847   1.37301    0.012
 5696.00    1.45842   1.36758    0.012
 5697.00    1.38364   1.36031    0.012
 5698.00    1.30022   1.35366    0.011
 5699.00    1.28849   1.34799    0.012
 5700.00    1.29783   1.34175    0.012
 5701.00    1.33271   1.33556    0.012
 5702.00    1.37380   1.32931    0.012
 5703.00    1.34308   1.32413    0.012
 5704.00    1.29821   1.31932    0.012
 5705.00    1.28394   1.31441    0.012
 5706.00    1.27437   1.31384    0.012
 5707.00    1.29931   1.31566    0.012
 5708.00    1.32817   1.31808    0.011
 5709.00    1.34023   1.32625    0.012
 5710.00    1.35103   1.33645    0.012
 5711.00    1.39923   1.34560    0.012
 5712.00    1.44895   1.35809    0.012
 5713.00    1.38794   1.37012    0.012
 5714.00    1.32804   1.37924    0.011
 5715.00    1.34934   1.38925    0.012
 5716.00    1.36996   1.39762    0.012
 5717.00    1.37884   1.40296    0.012
 5718.00    1.38747   1.40820    0.012
 5719.00    1.39334   1.41167    0.012
 5720.00    1.40005   1.41229    0.011
 5721.00    1.41301   1.41249    0.012
 5722.00    1.42292   1.41162    0.012
 5723.00    1.41543   1.40877    0.012
 5724.00    1.40814   1.40617    0.011
 5725.00    1.40177   1.40437    0.011
 5726.00    1.39399   1.40236    0.011
 5727.00    1.38095   1.40096    0.011
 5728.00    1.37085   1.40129    0.011
 5729.00    1.36991   1.40241    0.011
 5730.00    1.36289   1.40328    0.011
 5731.00    1.33982   1.40497    0.011
 5732.00    1.32182   1.40702    0.011
 5733.00    1.31532   1.40796    0.011
 5734.00    1.33444   1.40875    0.011
 5735.00    1.40388   1.40935    0.011
 5736.00    1.46522   1.40907    0.011
 5737.00    1.51268   1.40890    0.011
 5738.00    1.54074   1.40865    0.011
 5739.00    1.53970   1.40815    0.011
 5740.00    1.51871   1.40792    0.000
 5741.00    1.47143   1.40737    0.000
 5742.00    1.44206   1.40661    0.000
 5743.00    1.43350   1.40553    0.000
 5744.00    1.44480   1.40340    0.000
 5745.00    1.47642   1.40118    0.000
 5746.00    1.50613   1.39863    0.000
 5747.00    1.53410   1.39507    0.000
 5748.00    1.53780   1.39222    0.000
 5749.00    1.52218   1.39013    0.000
 5750.00    1.49109   1.38799    0.000
 5751.00    1.44918   1.38740    0.000
 5752.00    1.42603   1.38802    0.000
 5753.00    1.41440   1.38829    0.000
 5754.00    1.41951   1.38933    0.000
 5755.00    1.43361   1.39030    0.000
 5756.00    1.42422   1.38984    0.000
 5757.00    1.40390   1.38990    0.000
 5758.00    1.38546   1.39012    0.000
 5759.00    1.36777   1.38997    0.000
 5760.00    1.36115   1.39200    0.000
 5761.00    1.35832   1.39518    0.000
 5762.00    1.38605   1.39816    0.000
 5763.00    1.42260   1.40270    0.000
 5764.00    1.46869   1.40701    0.000
 5765.00    1.51705   1.40928    0.000
 5766.00    1.55124   1.41123    0.000
 5767.00    1.58271   1.41203    0.000
 5768.00    1.56372   1.41050    0.000
 5769.00    1.53721   1.40874    0.000
 5770.00    1.50184   1.40637    0.000
 5771.00    1.46550   1.40219    0.000
 5772.00    1.44584   1.39803    0.000
 5773.00    1.42738   1.39301    0.000
 5774.00    1.43782   1.38584    0.000
 5775.00    1.44932   1.37837    0.000
 5776.00    1.44568   1.37025    0.000
 5777.00    1.44252   1.36103    0.000
 5778.00    1.45870   1.35289    0.000
 5779.00    1.47309   1.34671    0.000
 5780.00    1.45889   1.34223    0.000
 5781.00    1.44227   1.34012    0.000
 5782.00    1.40108   1.34170    0.000
 5783.00    1.36742   1.34584    0.000
 5784.00    1.38823   1.35048    0.000
 5785.00    1.40649   1.35755    0.000
 5786.00    1.41056   1.36562    0.000
 5787.00    1.39717   1.37169    0.000
 5788.00    1.30635   1.37871    0.000
 5789.00    1.22573   1.38555    0.000
 5790.00    1.18231   1.39002    0.000
 5791.00    1.15052   1.39497   -2.000
 5792.00    1.15429   1.39976   -2.000
 5793.00    1.17867   1.40304   -2.000
 5794.00    1.25659   1.40641   -2.000
 5795.00    1.31598   1.41018   -2.000
 5796.00    1.33401   1.41310   -2.000
 5797.00    1.35753   1.41504   -2.000
 5798.00    1.39166   1.41726   -2.000
 5799.00    1.40400   1.41854   -2.000
 5800.00    1.37959   1.41794   -2.000
 5801.00    1.37142   1.41757   -2.000
 5802.00    1.38727   1.41696   -2.000
 5803.00    1.40265   1.41540   -2.000
 5804.00    1.41740   1.41478   -2.000
 5805.00    1.43264   1.41460   -2.000
 5806.00    1.44844   1.41429   -2.000
 5807.00    1.47058   1.41450   -2.000
 5808.00    1.49910   1.41450   -2.000
 5809.00    1.50266   1.41423   -2.000
 5810.00    1.48398   1.41401   -2.000
 5811.00    1.45648   1.41376    0.000
 5812.00    1.42204   1.41378    0.000
 5813.00    1.40615   1.41456    0.000
 5814.00    1.40306   1.41633    0.000
 5815.00    1.40144   1.41852    0.000
 5816.00    1.40071   1.42131    0.000
 5817.00    1.40217   1.42479    0.000
 5818.00    1.40478   1.42768    0.000
 5819.00    1.43486   1.43016    0.000
 5820.00    1.47751   1.43260    0.000
 5821.00    1.49809   1.43427    0.000
 5822.00    1.50994   1.43537    0.000
 5823.00    1.53214   1.43639    0.000
 5824.00    1.55781   1.43707    0.000
 5825.00    1.56000   1.43729    0.000
 5826.00    1.55556   1.43733    0.000
 5827.00    1.54672   1.43696    0.000
 5828.00    1.53687   1.43615    0.000
 5829.00    1.55401   1.43523    0.000
 5830.00    1.57621   1.43405    0.000
 5831.00    1.52752   1.43277    0.000
 5832.00    1.46860   1.43208    0.000
 5833.00    1.45527   1.43173    0.000
 5834.00    1.44672   1.43147    0.000
 5835.00    1.43049   1.43211    0.000
 5836.00    1.41374   1.43315    0.000
 5837.00    1.41544   1.43357    0.000
 5838.00    1.41775   1.43388    0.000
 5839.00    1.42297   1.43388    0.000
 5840.00    1.42876   1.43234    0.000
 5841.00    1.45289   1.42964    0.000
 5842.00    1.47359   1.42631    0.000
 5843.00    1.44234   1.42154    0.000
 5844.00    1.41402   1.41581    0.000
 5845.00    1.41411   1.40991    0.000
 5846.00    1.41187   1.40319    0.000
 5847.00    1.39325   1.39605    0.000
 5848.00    1.38087   1.38915    0.000
 5849.00    1.40218   1.38196    0.000
 5850.00    1.42100   1.37503    0.000
 5851.00    1.42902   1.36908    0.000
 5852.00    1.43193   1.36389    0.000
 5853.00    1.41659   1.35984    0.000
 5854.00    1.39689   1.35785    0.000
 5855.00    1.36411   1.35768    0.000
 5856.00    1.34758   1.35843    0.000
 5857.00    1.37250   1.36115    0.000
 5858.00    1.38696   1.36528    0.000
 5859.00    1.37845   1.36911    0.000
 5860.00    1.36228   1.37367    0.000
 5861.00    1.33152   1.37844    0.000
 5862.00    1.32315   1.38245    0.000
 5863.00    1.35200   1.38650    0.000
 5864.00    1.37451   1.39050    0.000
 5865.00    1.38779   1.39386    0.000
 5866.00    1.40112   1.39677    0.000
 5867.00    1.41454   1.39948    0.000
 5868.00    1.44233   1.40115    0.000
 5869.00    1.48636   1.40162    0.000
 5870.00    1.49986   1.40145    0.000
 5871.00    1.48297   1.40009    0.000
 5872.00    1.48145   1.39746    0.000
 5873.00    1.49342   1.39425    0.000
 5874.00    1.48826   1.39025    0.000
 5875.00    1.46986   1.38550    0.000
 5876.00    1.46170   1.38026    0.000
 5877.00    1.46051   1.37402    0.000
 5878.00    1.44562   1.36667    0.000
 5879.00    1.42258   1.35753    0.000
 5880.00    1.35334   1.34519    0.000
 5881.00    1.26010   1.33015    0.000
 5882.00    1.24725   1.31212    0.000
 5883.00    1.27063   1.28941    0.000
 5884.00    1.27907   1.26542    0.000
 5885.00    1.28173   1.24213    0.000
 5886.00    1.25970   1.21766    0.000
 5887.00    1.22955   1.19818    0.000
 5888.00    1.20322   1.18504    0.000
 5889.00    1.17796   1.17384    0.000
 5890.00    1.14824   1.17144    0.000
 5891.00    1.11752   1.17601    0.000
 5892.00    1.12098   1.18148    0.000
 5893.00    1.13065   1.19515    0.000
 5894.00    1.15074   1.21347    0.000
 5895.00    1.17227   1.23065    0.000
 5896.00    1.21461   1.25289    0.000
 5897.00    1.25903   1.27595    0.000
 5898.00    1.26671   1.29488    0.000
 5899.00    1.27206   1.31412    0.000
 5900.00    1.28229   1.33123    0.000
 5901.00    1.29270   1.34319    0.011
 5902.00    1.31493   1.35295    0.011
 5903.00    1.33633   1.36068    0.011
 5904.00    1.33470   1.36523    0.011
 5905.00    1.33441   1.36798    0.011
 5906.00    1.35310   1.36964    0.011
 5907.00    1.37318   1.36962    0.011
 5908.00    1.40631   1.36852    0.011
 5909.00    1.43394   1.36695    0.011
 5910.00    1.42417   1.36488    0.011
 5911.00    1.41479   1.36345    0.011
 5912.00    1.40743   1.36228    0.011
 5913.00    1.40306   1.36174    0.011
 5914.00    1.41137   1.36329    0.011
 5915.00    1.41043   1.36492    0.011
 5916.00    1.37712   1.36705    0.011
 5917.00    1.34578   1.37039    0.011
 5918.00    1.32024   1.37274    0.011
 5919.00    1.30025   1.37512    0.011
 5920.00    1.29416   1.37721    0.011
 5921.00    1.30639   1.37764    0.011
 5922.00    1.35816   1.37822    0.011
 5923.00    1.40189   1.37814    0.011
 5924.00    1.43053   1.37675    0.011
 5925.00    1.44097   1.37592    0.011
 5926.00    1.42161   1.37490    0.011
 5927.00    1.42754   1.37401    0.011
 5928.00    1.46980   1.37380    0.011
 5929.00    1.48610   1.37368    0.011
 5930.00    1.46961   1.37469    0.011
 5931.00    1.43517   1.37586    0.011
 5932.00    1.38075   1.37688    0.011
 5933.00    1.35631   1.37859    0.011
 5934.00    1.36129   1.37983    0.011
 5935.00    1.35403   1.38092    0.011
 5936.00    1.33617   1.38177    0.011
 5937.00    1.34673   1.38183    0.011
 5938.00    1.37897   1.38229    0.011
 5939.00    1.39140   1.38240    0.011
 5940.00    1.39056   1.38163    0.011
 5941.00    1.37652   1.38151    0.011
 5942.00    1.35474   1.38106    0.011
 5943.00    1.34286   1.37935    0.011
 5944.00    1.33605   1.37797    0.011
 5945.00    1.34682   1.37669    0.011
 5946.00    1.36539   1.37460    0.011
 5947.00    1.37283   1.37253    0.011
 5948.00    1.37603   1.37114    0.011
 5949.00    1.39832   1.37014    0.011
 5950.00    1.42677   1.36957    0.011
 5951.00    1.43303   1.36965    0.011
 5952.00    1.43328   1.37049    0.011
 5953.00    1.43342   1.37258    0.011
 5954.00    1.43354   1.37520    0.011
 5955.00    1.44213   1.37795    0.011
 5956.00    1.45222   1.38165    0.011
 5957.00    1.45292   1.38571    0.011
 5958.00    1.45234   1.38945    0.011
 5959.00    1.44414   1.39266    0.011
 5960.00    1.43521   1.39558    0.011
 5961.00    1.41734   1.39836    0.011
 5962.00    1.39893   1.40022    0.011
 5963.00    1.38091   1.40190    0.011
 5964.00    1.36307   1.40357    0.011
 5965.00    1.37195   1.40447    0.011
 5966.00    1.38079   1.40528    0.011
 5967.00    1.38837   1.40545    0.011
 5968.00    1.39599   1.40442    0.011
 5969.00    1.40423   1.40274    0.011
 5970.00    1.41143   1.40013    0.011
 5971.00    1.40938   1.39662    0.011
 5972.00    1.40799   1.39269    0.010
 5973.00    1.41088   1.38888    0.010
 5974.00    1.40978   1.38521    0.010
 5975.00    1.38823   1.38162    0.011
 5976.00    1.36900   1.37915    0.011
 5977.00    1.35938   1.37697    0.011
 5978.00    1.35987   1.37435    0.011
 5979.00    1.39498   1.37300    0.011
 5980.00    1.41921   1.37199    0.011
 5981.00    1.41205   1.37089    0.011
 5982.00    1.39155   1.37114    0.011
 5983.00    1.33818   1.37197    0.011
 5984.00    1.30217   1.37387    0.011
 5985.00    1.30304   1.37664    0.011
 5986.00    1.32273   1.37927    0.011
 5987.00    1.37718   1.38268    0.011
 5988.00    1.41315   1.38602    0.011
 5989.00    1.41930   1.38849    0.011
 5990.00    1.42720   1.39022    0.011
 5991.00    1.43757   1.39101    0.011
 5992.00    1.44644   1.39139    0.011
 5993.00    1.45344   1.39048    0.011
 5994.00    1.44896   1.38862    0.011
 5995.00    1.43188   1.38730    0.011
 5996.00    1.40837   1.38495    0.010
 5997.00    1.37864   1.38215    0.010
 5998.00    1.36372   1.38024    0.010
 5999.00    1.36144   1.37736    0.010
 6000.00    1.36484   1.37486    0.010
 6001.00    1.37250   1.37293    0.010
 6002.00    1.39384   1.36995    0.010
 6003.00    1.42423   1.36850    0.011
 6004.00    1.45044   1.36740    0.011
 6005.00    1.47425   1.36587    0.010
 6006.00    1.44760   1.36600    0.010
 6007.00    1.39553   1.36567    0.011
 6008.00    1.39835   1.36575    0.011
 6009.00    1.42510   1.36678    0.011
 6010.00    1.44277   1.36598    0.011
 6011.00    1.45704   1.36544    0.011
 6012.00    1.45020   1.36565    0.011
 6013.00    1.43667   1.36455    0.011
 6014.00    1.40498   1.36351    0.011
 6015.00    1.36848   1.36260    0.011
 6016.00    1.34821   1.36214    0.011
 6017.00    1.33146   1.36303    0.011
 6018.00    1.35497   1.36366    0.011
 6019.00    1.38541   1.36551    0.011
 6020.00    1.36234   1.36912    0.011
 6021.00    1.33229   1.37262    0.011
 6022.00    1.33157   1.37732    0.011
 6023.00    1.33355   1.38257    0.011
 6024.00    1.38111   1.38788    0.011
 6025.00    1.43121   1.39354    0.011
 6026.00    1.42397   1.39832    0.011
 6027.00    1.41556   1.40318    0.011
 6028.00    1.41594   1.40761    0.011
 6029.00    1.41655   1.41069    0.011
 6030.00    1.42236   1.41338    0.011
 6031.00    1.42857   1.41561    0.010
 6032.00    1.43990   1.41698    0.010
 6033.00    1.45006   1.41738    0.010
 6034.00    1.45004   1.41764    0.010
 6035.00    1.44755   1.41792    0.010
 6036.00    1.42929   1.41755    0.010
 6037.00    1.41097   1.41781    0.010
 6038.00    1.39230   1.41846    0.010
 6039.00    1.37607   1.41907    0.011
 6040.00    1.36965   1.42053    0.011
 6041.00    1.37533   1.42205    0.011
 6042.00    1.42162   1.42352    0.011
 6043.00    1.45667   1.42494    0.011
 6044.00    1.45987   1.42579    0.011
 6045.00    1.46343   1.42612    0.011
 6046.00    1.46790   1.42566    0.011
 6047.00    1.47056   1.42417    0.011
 6048.00    1.46943   1.42211    0.011
 6049.00    1.46465   1.41977    0.011
 6050.00    1.45323   1.41684    0.011
 6051.00    1.43809   1.41408    0.011
 6052.00    1.41704   1.41175    0.011
 6053.00    1.38987   1.40984    0.011
 6054.00    1.35415   1.40833    0.011
 6055.00    1.34028   1.40691    0.011
 6056.00    1.35320   1.40566    0.010
 6057.00    1.37057   1.40461    0.010
 6058.00    1.39278   1.40357    0.011
 6059.00    1.40063   1.40171    0.011
 6060.00    1.39478   1.40109    0.010
 6061.00    1.38659   1.40197    0.010
 6062.00    1.37641   1.40270    0.010
 6063.00    1.37910   1.40539    0.010
 6064.00    1.39134   1.40907    0.010
 6065.00    1.39907   1.41342    0.010
 6066.00    1.40387   1.41900    0.010
 6067.00    1.41724   1.42308    0.010
 6068.00    1.43548   1.42648    0.010
 6069.00    1.45491   1.42930    0.010
 6070.00    1.47492   1.42959    0.011
 6071.00    1.44807   1.42824    0.010
 6072.00    1.40112   1.42496    0.010
 6073.00    1.38731   1.42032    0.011
 6074.00    1.38568   1.41583    0.011
 6075.00    1.39776   1.41006    0.011
 6076.00    1.41411   1.40404    0.011
 6077.00    1.41973   1.39949    0.011
 6078.00    1.42256   1.39535    0.011
 6079.00    1.43383   1.39199    0.011
 6080.00    1.44689   1.38968    0.011
 6081.00    1.43059   1.38799    0.011
 6082.00    1.40939   1.38782    0.011
 6083.00    1.37312   1.38774    0.010
 6084.00    1.33495   1.38691    0.010
 6085.00    1.33603   1.38756    0.010
 6086.00    1.34054   1.38862    0.010
 6087.00    1.37321   1.38890    0.010
 6088.00    1.40735   1.39003    0.010
 6089.00    1.40944   1.39184    0.010
 6090.00    1.41070   1.39347    0.010
 6091.00    1.39420   1.39475    0.010
 6092.00    1.37828   1.39568    0.010
 6093.00    1.37477   1.39601    0.010
 6094.00    1.37118   1.39556    0.010
 6095.00    1.36677   1.39384    0.010
 6096.00    1.36001   1.38946    0.010
 6097.00    1.33385   1.38527    0.010
 6098.00    1.31047   1.38318    0.010
 6099.00    1.30431   1.37989    0.011
 6100.00    1.29660   1.37789    0.011
 6101.00    1.28141   1.37817    0.010
 6102.00    1.27793   1.37910    0.010
 6103.00    1.32080   1.38337    0.011
 6104.00    1.35867   1.38743    0.011
 6105.00    1.38007   1.39028    0.011
 6106.00    1.39312   1.39549    0.011
 6107.00    1.38293   1.39983    0.011
 6108.00    1.37850   1.40250    0.011
 6109.00    1.38776   1.40468    0.011
 6110.00    1.40463   1.40453    0.011
 6111.00    1.43716   1.40409    0.011
 6112.00    1.45575   1.40339    0.011
 6113.00    1.44942   1.39951    0.011
 6114.00    1.43735   1.39510    0.011
 6115.00    1.41630   1.39055    0.010
 6116.00    1.38888   1.38419    0.010
 6117.00    1.35273   1.37989    0.010
 6118.00    1.33558   1.37657    0.010
 6119.00    1.34140   1.37270    0.010
 6120.00    1.34663   1.37204    0.010
 6121.00    1.35123   1.37252    0.010
 6122.00    1.34720   1.37363    0.010
 6123.00    1.33506   1.37659    0.010
 6124.00    1.32834   1.37884    0.010
 6125.00    1.32613   1.38095    0.010
 6126.00    1.33767   1.38251    0.010
 6127.00    1.35926   1.38210    0.010
 6128.00    1.36654   1.37958    0.011
 6129.00    1.36467   1.37531    0.011
 6130.00    1.35439   1.36899    0.011
 6131.00    1.33939   1.36078    0.010
 6132.00    1.33134   1.35461    0.011
 6133.00    1.32669   1.34980    0.011
 6134.00    1.30065   1.34520    0.011
 6135.00    1.26559   1.34340    0.011
 6136.00    1.26296   1.34462    0.011
 6137.00    1.27204   1.34954    0.011
 6138.00    1.32076   1.35577    0.011
 6139.00    1.38158   1.36146    0.011
 6140.00    1.42899   1.36851    0.011
 6141.00    1.47300   1.37533    0.011
 6142.00    1.45484   1.38024    0.011
 6143.00    1.42383   1.38290    0.011
 6144.00    1.37308   1.38396    0.010
 6145.00    1.31911   1.38474    0.010
 6146.00    1.30366   1.38443    0.010
 6147.00    1.29289   1.38308    0.010
 6148.00    1.33002   1.38087    0.010
 6149.00    1.37115   1.37804    0.010
 6150.00    1.40190   1.37510    0.010
 6151.00    1.43216   1.37030    0.010
 6152.00    1.43498   1.36399    0.010
 6153.00    1.43701   1.35674    0.010
 6154.00    1.41596   1.34730    0.010
 6155.00    1.39466   1.33594    0.010
 6156.00    1.36849   1.32400    0.010
 6157.00    1.34247   1.31277    0.010
 6158.00    1.31826   1.30267    0.011
 6159.00    1.29791   1.29449    0.011
 6160.00    1.30853   1.28837    0.011
 6161.00    1.31834   1.28579    0.011
 6162.00    1.32335   1.28628    0.011
 6163.00    1.32717   1.28673    0.011
 6164.00    1.32536   1.28948    0.011
 6165.00    1.32386   1.29484    0.011
 6166.00    1.32358   1.29986    0.011
 6167.00    1.32664   1.30493    0.011
 6168.00    1.34052   1.31050    0.011
 6169.00    1.35902   1.31661    0.010
 6170.00    1.39013   1.32307    0.010
 6171.00    1.41393   1.32875    0.010
 6172.00    1.42064   1.33443    0.010
 6173.00    1.42380   1.34068    0.010
 6174.00    1.41977   1.34584    0.010
 6175.00    1.40934   1.35030    0.010
 6176.00    1.38765   1.35422    0.010
 6177.00    1.36560   1.35679    0.010
 6178.00    1.34299   1.35858    0.010
 6179.00    1.32901   1.35888    0.010
 6180.00    1.32673   1.35723    0.010
 6181.00    1.33287   1.35465    0.010
 6182.00    1.34906   1.35047    0.010
 6183.00    1.35508   1.34505    0.010
 6184.00    1.35040   1.33978    0.010
 6185.00    1.36312   1.33332    0.010
 6186.00    1.39198   1.32844    0.011
 6187.00    1.41290   1.32637    0.011
 6188.00    1.42734   1.32393    0.011
 6189.00    1.39910   1.32405    0.011
 6190.00    1.34016   1.32669    0.011
 6191.00    1.32060   1.33006    0.011
 6192.00    1.32591   1.33479    0.011
 6193.00    1.28897   1.33824    0.011
 6194.00    1.22869   1.34174    0.011
 6195.00    1.07131   1.34646    0.011
 6196.00    0.86729   1.34970   -2.000
 6197.00    0.69671   1.35226   -2.000
 6198.00    0.53999   1.35513   -2.000
 6199.00    0.58755   1.35796   -2.000
 6200.00    0.70752   1.36101   -2.000
 6201.00    0.86844   1.36322   -2.000
 6202.00    1.04160   1.36424   -2.000
 6203.00    1.14298   1.36488   -2.000
 6204.00    1.22653   1.36393   -2.000
 6205.00    1.28325   1.36101   -2.000
 6206.00    1.33456   1.35680   -2.000
 6207.00    1.38231   1.35032   -2.000
 6208.00    1.42949   1.34294    0.011
 6209.00    1.42792   1.33563    0.011
 6210.00    1.42064   1.32751    0.011
 6211.00    1.37694   1.32074    0.010
 6212.00    1.33034   1.31502    0.010
 6213.00    1.30556   1.30989    0.010
 6214.00    1.28174   1.30767    0.010
 6215.00    1.29259   1.30658    0.010
 6216.00    1.30403   1.30622    0.010
 6217.00    1.32562   1.30754    0.010
 6218.00    1.34633   1.30863    0.011
 6219.00    1.35112   1.31035    0.010
 6220.00    1.35759   1.31217    0.010
 6221.00    1.38255   1.31216    0.010
 6222.00    1.40818   1.31170    0.010
 6223.00    1.43899   1.31050    0.010
 6224.00    1.46236   1.30800    0.010
 6225.00    1.44218   1.30563    0.010
 6226.00    1.42003   1.30345    0.010
 6227.00    1.38874   1.30109    0.010
 6228.00    1.35708   1.30054    0.010
 6229.00    1.32398   1.30125    0.010
 6230.00    1.30019   1.30234    0.010
 6231.00    1.30589   1.30464    0.010
 6232.00    1.31221   1.30576    0.010
 6233.00    1.32018   1.30657    0.010
 6234.00    1.33266   1.30656    0.010
 6235.00    1.35549   1.30474    0.010
 6236.00    1.36524   1.30258    0.010
 6237.00    1.34889   1.29876    0.010
 6238.00    1.31991   1.29569    0.010
 6239.00    1.26901   1.29321    0.010
 6240.00    1.23577   1.29032    0.010
 6241.00    1.22938   1.28974    0.010
 6242.00    1.23750   1.28986    0.010
 6243.00    1.26499   1.29044    0.010
 6244.00    1.28417   1.29199    0.010
 6245.00    1.29358   1.29255    0.010
 6246.00    1.30134   1.29233    0.010
 6247.00    1.30741   1.29177    0.010
 6248.00    1.30614   1.28951    0.010
 6249.00    1.29817   1.28617    0.010
 6250.00    1.28172   1.28262    0.010
 6251.00    1.25844   1.27904    0.010
 6252.00    1.24197   1.27674    0.010
 6253.00    1.23033   1.27545    0.010
 6254.00    1.24720   1.27612    0.010
 6255.00    1.28182   1.27837    0.010
 6256.00    1.28389   1.28274    0.010
 6257.00    1.26825   1.28940    0.010
 6258.00    1.22703   1.29570    0.010
 6259.00    1.17372   1.30268    0.011
 6260.00    1.13440   1.30973    0.011
 6261.00    1.10079   1.31582    0.012
 6262.00    1.09735   1.32108    0.012
 6263.00    1.10441   1.32509    0.013
 6264.00    1.17334   1.32860    0.013
 6265.00    1.26041   1.33164    0.012
 6266.00    1.31025   1.33389    0.012
 6267.00    1.35105   1.33554    0.011
 6268.00    1.34034   1.33704    0.011
 6269.00    1.31952   1.33862    0.011
 6270.00    1.31312   1.33971    0.011
 6271.00    1.30893   1.33982    0.011
 6272.00    1.30512   1.33939    0.010
 6273.00    1.30135   1.33877    0.010
 6274.00    1.32786   1.33750    0.010
 6275.00    1.35665   1.33651    0.010
 6276.00    1.38183   1.33578    0.010
 6277.00    1.40687   1.33492    0.010
 6278.00    1.39438   1.33589    0.010
 6279.00    1.38104   1.33744    0.010
 6280.00    1.34398   1.33997    0.000
 6281.00    1.31003   1.34387    0.000
 6282.00    1.32913   1.34683    0.000
 6283.00    1.35081   1.35049    0.000
 6284.00    1.39974   1.35360    0.000
 6285.00    1.43905   1.35535    0.000
 6286.00    1.40650   1.35673    0.000
 6287.00    1.37512   1.35596    0.000
 6288.00    1.35033   1.35413    0.000
 6289.00    1.33355   1.35155    0.000
 6290.00    1.35296   1.34761    0.000
 6291.00    1.37108   1.34384    0.000
 6292.00    1.38436   1.33966    0.000
 6293.00    1.39005   1.33503    0.000
 6294.00    1.37217   1.33103    0.000
 6295.00    1.35621   1.32780    0.000
 6296.00    1.34530   1.32607    0.000
 6297.00    1.34598   1.32556    0.000
 6298.00    1.37291   1.32571    0.000
 6299.00    1.38882   1.32723    0.000
 6300.00    1.38309   1.33038    0.000
 6301.00    1.37457   1.33466    0.000
 6302.00    1.36126   1.33881    0.000
 6303.00    1.35640   1.34239    0.000
 6304.00    1.36418   1.34557    0.000
 6305.00    1.37245   1.34796    0.000
 6306.00    1.38136   1.34883    0.000
 6307.00    1.38497   1.34770    0.000
 6308.00    1.38244   1.34543    0.000
 6309.00    1.37231   1.34207    0.000
 6310.00    1.35442   1.33845    0.000
 6311.00    1.33974   1.33456    0.000
 6312.00    1.32797   1.33024    0.000
 6313.00    1.32501   1.32797    0.000
 6314.00    1.32905   1.32674    0.000
 6315.00    1.32790   1.32648    0.000
 6316.00    1.32313   1.32854    0.000
 6317.00    1.32115   1.33161    0.000
 6318.00    1.32089   1.33647    0.000
 6319.00    1.33694   1.34170    0.000
 6320.00    1.36171   1.34692    0.000
 6321.00    1.38266   1.35267    0.010
 6322.00    1.40183   1.35740    0.010
 6323.00    1.43719   1.36175    0.010
 6324.00    1.47903   1.36427    0.010
 6325.00    1.51862   1.36600    0.010
 6326.00    1.55743   1.36706    0.011
 6327.00    1.53619   1.36570    0.010
 6328.00    1.49768   1.36393    0.010
 6329.00    1.44266   1.36129    0.010
 6330.00    1.38372   1.35833    0.010
 6331.00    1.35871   1.35543    0.010
 6332.00    1.34019   1.35186    0.010
 6333.00    1.33620   1.34906    0.010
 6334.00    1.33435   1.34772    0.010
 6335.00    1.32369   1.34726    0.010
 6336.00    1.31208   1.34681    0.010
 6337.00    1.30266   1.34734    0.010
 6338.00    1.29340   1.34794    0.010
 6339.00    1.29112   1.34885    0.010
 6340.00    1.28909   1.35012    0.010
 6341.00    1.29369   1.35066    0.010
 6342.00    1.29898   1.35230    0.010
 6343.00    1.32816   1.35412    0.010
 6344.00    1.35709   1.35564    0.010
 6345.00    1.38193   1.35748    0.010
 6346.00    1.40394   1.35846    0.010
 6347.00    1.39751   1.35875    0.010
 6348.00    1.39323   1.35834    0.010
 6349.00    1.40452   1.35631    0.010
 6350.00    1.41240   1.35293    0.010
 6351.00    1.40147   1.34824    0.010
 6352.00    1.38103   1.34255    0.010
 6353.00    1.31851   1.33695    0.010
 6354.00    1.26727   1.33124    0.010
 6355.00    1.25704   1.32553    0.010
 6356.00    1.25149   1.32091    0.010
 6357.00    1.26018   1.31802    0.010
 6358.00    1.26775   1.31678    0.010
 6359.00    1.27240   1.31729    0.010
 6360.00    1.27569   1.31963    0.010
 6361.00    1.27596   1.32352    0.010
 6362.00    1.28671   1.32901    0.010
 6363.00    1.31770   1.33520    0.010
 6364.00    1.34744   1.34195    0.010
 6365.00    1.37507   1.34903    0.010
 6366.00    1.39521   1.35548    0.010
 6367.00    1.40426   1.36127    0.010
 6368.00    1.41556   1.36630    0.010
 6369.00    1.42974   1.37077    0.010
 6370.00    1.42620   1.37414    0.010
 6371.00    1.40238   1.37619    0.010
 6372.00    1.38947   1.37711    0.010
 6373.00    1.38752   1.37715    0.010
 6374.00    1.38481   1.37695    0.010
 6375.00    1.38140   1.37581    0.010
 6376.00    1.36287   1.37440    0.010
 6377.00    1.33250   1.37331    0.010
 6378.00    1.32412   1.37239    0.010
 6379.00    1.33089   1.37233    0.010
 6380.00    1.34255   1.37218    0.010
 6381.00    1.35717   1.37201    0.010
 6382.00    1.36740   1.37210    0.010
 6383.00    1.37532   1.37203    0.010
 6384.00    1.38327   1.37147    0.010
 6385.00    1.39123   1.36968    0.010
 6386.00    1.36281   1.36760    0.010
 6387.00    1.32007   1.36538    0.010
 6388.00    1.29066   1.36307    0.010
 6389.00    1.26572   1.36074    0.010
 6390.00    1.30038   1.35783    0.010
 6391.00    1.35183   1.35581    0.010
 6392.00    1.37742   1.35467    0.010
 6393.00    1.39701   1.35492    0.010
 6394.00    1.40104   1.35575    0.011
 6395.00    1.40218   1.35648    0.011
 6396.00    1.38984   1.35768    0.011
 6397.00    1.37557   1.35852    0.011
 6398.00    1.40306   1.36138    0.011
 6399.00    1.43489   1.36419    0.011
 6400.00    1.45187   1.36594    0.011
 6401.00    1.46786   1.36807    0.010
 6402.00    1.42891   1.36858    0.010
 6403.00    1.38816   1.36842    0.010
 6404.00    1.34173   1.36787    0.010
 6405.00    1.29651   1.36636    0.010
 6406.00    1.28922   1.36554    0.010
 6407.00    1.28320   1.36448    0.010
 6408.00    1.29620   1.36257    0.010
 6409.00    1.30932   1.36150    0.010
 6410.00    1.32356   1.36108    0.010
 6411.00    1.34127   1.36067    0.010
 6412.00    1.38319   1.36025    0.010
 6413.00    1.42215   1.35974    0.010
 6414.00    1.44520   1.35979    0.010
 6415.00    1.45498   1.36077    0.010
 6416.00    1.40740   1.36147    0.010
 6417.00    1.36543   1.36230    0.010
 6418.00    1.34342   1.36412    0.010
 6419.00    1.32881   1.36712    0.010
 6420.00    1.33628   1.37086    0.010
 6421.00    1.33845   1.37353    0.010
 6422.00    1.32710   1.37498    0.010
 6423.00    1.32460   1.37573    0.010
 6424.00    1.34147   1.37638    0.010
 6425.00    1.36530   1.37606    0.010
 6426.00    1.40237   1.37475    0.010
 6427.00    1.42069   1.37257    0.010
 6428.00    1.40792   1.37039    0.010
 6429.00    1.39097   1.36987    0.010
 6430.00    1.36793   1.36924    0.010
 6431.00    1.35877   1.36916    0.010
 6432.00    1.36735   1.37032    0.010
 6433.00    1.38807   1.37171    0.010
 6434.00    1.42246   1.37385    0.010
 6435.00    1.45251   1.37573    0.010
 6436.00    1.47825   1.37758    0.010
 6437.00    1.49371   1.38127    0.010
 6438.00    1.50015   1.38482    0.010
 6439.00    1.49554   1.38731    0.010
 6440.00    1.48241   1.38864    0.010
 6441.00    1.47360   1.38761    0.010
 6442.00    1.46772   1.38557    0.010
 6443.00    1.44390   1.38314    0.010
 6444.00    1.40942   1.37912    0.010
 6445.00    1.37131   1.37447    0.010
 6446.00    1.33131   1.36887    0.010
 6447.00    1.31822   1.36356    0.010
 6448.00    1.31725   1.36154    0.010
 6449.00    1.33798   1.36100    0.011
 6450.00    1.36710   1.36173    0.011
 6451.00    1.37158   1.36314    0.011
 6452.00    1.36795   1.36406    0.010
 6453.00    1.35057   1.36580    0.010
 6454.00    1.32940   1.36756    0.010
 6455.00    1.33506   1.36928    0.010
 6456.00    1.34681   1.37101    0.010
 6457.00    1.35457   1.37136    0.010
 6458.00    1.36161   1.37160    0.010
 6459.00    1.36209   1.37085    0.010
 6460.00    1.36166   1.37116    0.010
 6461.00    1.36301   1.37335    0.010
 6462.00    1.36454   1.37512    0.010
 6463.00    1.36066   1.37715    0.010
 6464.00    1.35643   1.37856    0.010
 6465.00    1.36098   1.38023    0.010
 6466.00    1.36581   1.38122    0.010
 6467.00    1.37972   1.38170    0.010
 6468.00    1.39382   1.38169    0.010
 6469.00    1.41303   1.38134    0.010
 6470.00    1.43113   1.38135    0.010
 6471.00    1.43352   1.38035    0.010
 6472.00    1.43604   1.37898    0.011
 6473.00    1.43981   1.37745    0.010
 6474.00    1.44286   1.37580    0.010
 6475.00    1.44110   1.37390    0.010
 6476.00    1.43492   1.37166    0.010
 6477.00    1.40561   1.36931    0.010
 6478.00    1.38288   1.36653    0.010
 6479.00    1.38792   1.36364    0.010
 6480.00    1.39281   1.36162    0.010
 6481.00    1.39715   1.35986    0.010
 6482.00    1.39380   1.35762    0.010
 6483.00    1.36789   1.35425    0.010
 6484.00    1.35901   1.34938    0.010
 6485.00    1.39273   1.34296    0.010
 6486.00    1.41017   1.33399    0.010
 6487.00    1.39254   1.32348    0.010
 6488.00    1.36894   1.31195    0.010
 6489.00    1.33419   1.30008    0.010
 6490.00    1.30005   1.28924    0.010
 6491.00    1.26689   1.27864    0.010
 6492.00    1.24326   1.27222    0.010
 6493.00    1.23327   1.27024    0.010
 6494.00    1.24038   1.27175    0.010
 6495.00    1.26905   1.27816    0.010
 6496.00    1.30607   1.28589    0.010
 6497.00    1.35235   1.29683    0.010
 6498.00    1.39811   1.30921    0.010
 6499.00    1.44337   1.32113    0.010
 6500.00    1.46427   1.33295    0.010
 6501.00    1.46413   1.34269    0.010
 6502.00    1.45593   1.35124    0.010
 6503.00    1.44160   1.35793    0.010
 6504.00    1.42974   1.36246    0.010
 6505.00    1.41953   1.36528    0.010
 6506.00    1.41979   1.36659    0.010
 6507.00    1.42619   1.36700    0.010
 6508.00    1.41502   1.36627    0.010
 6509.00    1.39487   1.36469    0.010
 6510.00    1.38532   1.36266    0.010
 6511.00    1.38045   1.36045    0.010
 6512.00    1.37675   1.35841    0.010
 6513.00    1.37350   1.35665    0.010
 6514.00    1.35903   1.35607    0.010
 6515.00    1.34094   1.35600    0.010
 6516.00    1.35613   1.35666    0.010
 6517.00    1.38031   1.35859    0.010
 6518.00    1.40097   1.36036    0.010
 6519.00    1.42085   1.36214    0.010
 6520.00    1.43231   1.36371    0.010
 6521.00    1.44228   1.36496    0.010
 6522.00    1.45439   1.36600    0.010
 6523.00    1.46678   1.36593    0.010
 6524.00    1.48615   1.36541    0.010
 6525.00    1.50618   1.36534    0.010
 6526.00    1.49969   1.36528    0.010
 6527.00    1.49163   1.36528    0.010
 6528.00    1.46214   1.36510    0.000
 6529.00    1.43219   1.36493    0.000
 6530.00    1.41440   1.36528    0.000
 6531.00    1.39719   1.36602    0.000
 6532.00    1.39424   1.36702    0.000
 6533.00    1.39291   1.36744    0.000
 6534.00    1.41314   1.36703    0.000
 6535.00    1.43511   1.36596    0.000
 6536.00    1.47263   1.36428    0.000
 6537.00    1.51104   1.36177    0.000
 6538.00    1.55529   1.35773    0.000
 6539.00    1.59087   1.35296    0.000
 6540.00    1.58210   1.34747    0.000
 6541.00    1.57420   1.34171    0.000
 6542.00    1.56991   1.33588    0.000
 6543.00    1.56747   1.32921    0.000
 6544.00    1.57134   1.32369    0.000
 6545.00    1.56765   1.31833    0.000
 6546.00    1.54213   1.31228    0.000
 6547.00    1.51512   1.30556    0.000
 6548.00    1.48445   1.29742    0.000
 6549.00    1.46542   1.28846    0.000
 6550.00    1.47106   1.27775    0.000
 6551.00    1.46663   1.26457    0.000
 6552.00    1.44368   1.24862    0.000
 6553.00    1.42969   1.23064    0.000
 6554.00    1.43013   1.21156    0.000
 6555.00    1.47472   1.19150    0.000
 6556.00    1.58166   1.17257    0.000
 6557.00    1.70232   1.15531    0.000
 6558.00    1.84001   1.14141    0.000
 6559.00    1.93148   1.13037    0.000
 6560.00    1.97232   1.12598    0.000
 6561.00    1.94503   1.13356    0.000
 6562.00    1.85191   1.14634    0.000
 6563.00    1.72949   1.16161    0.000
 6564.00    1.58212   1.17919    0.000
 6565.00    1.47471   1.19732    0.000
 6566.00    1.39729   1.21569    0.000
 6567.00    1.36562   1.23289    0.000
 6568.00    1.36410   1.24871    0.000
 6569.00    1.35305   1.26177    0.000
 6570.00    1.33650   1.27226    0.000
 6571.00    1.32659   1.28157    0.000
 6572.00    1.32002   1.28997    0.000
 6573.00    1.34041   1.29840    0.000
 6574.00    1.37252   1.30601    0.000
 6575.00    1.40668   1.31262    0.000
 6576.00    1.44161   1.31825    0.000
 6577.00    1.51753   1.32308    0.000
 6578.00    1.60643   1.32712    0.000
 6579.00    1.70451   1.33095    0.000
 6580.00    1.80502   1.33423    0.000
 6581.00    1.79050   1.33612    0.000
 6582.00    1.75110   1.33720    0.000
 6583.00    1.69537   1.33678    0.000
 6584.00    1.63684   1.33615    0.000
 6585.00    1.58604   1.33505    0.000
 6586.00    1.53625   1.33282    0.000
 6587.00    1.48184   1.33041    0.000
 6588.00    1.42701   1.32729    0.000
 6589.00    1.41022   1.32434    0.000
 6590.00    1.39553   1.32193    0.000
 6591.00    1.38185   1.32183    0.000
 6592.00    1.36835   1.32364    0.000
 6593.00    1.36900   1.32573    0.000
 6594.00    1.36994   1.32826    0.000
 6595.00    1.37736   1.33102    0.000
 6596.00    1.38539   1.33410    0.000
 6597.00    1.40112   1.33727    0.000
 6598.00    1.41417   1.33961    0.000
 6599.00    1.40428   1.34062    0.000
 6600.00    1.39407   1.34074    0.000
 6601.00    1.38177   1.34001    0.000
 6602.00    1.36809   1.33897    0.000
 6603.00    1.34747   1.33821    0.000
 6604.00    1.33192   1.33750    0.000
 6605.00    1.33678   1.33771    0.000
 6606.00    1.34143   1.33815    0.000
 6607.00    1.34540   1.34016    0.000
 6608.00    1.34677   1.34327    0.000
 6609.00    1.34081   1.34628    0.010
 6610.00    1.33444   1.34951    0.010
 6611.00    1.32712   1.35251    0.010
 6612.00    1.32036   1.35603    0.010
 6613.00    1.31478   1.35869    0.010
 6614.00    1.32121   1.36033    0.010
 6615.00    1.34942   1.36122    0.010
 6616.00    1.37298   1.36142    0.010
 6617.00    1.38915   1.36073    0.010
 6618.00    1.39171   1.35930    0.010
 6619.00    1.37534   1.35717    0.010
 6620.00    1.37291   1.35447    0.010
 6621.00    1.38756   1.35152    0.010
 6622.00    1.41168   1.34832    0.010
 6623.00    1.44604   1.34583    0.010
 6624.00    1.44504   1.34308    0.010
 6625.00    1.41036   1.34054    0.010
 6626.00    1.38018   1.33819    0.010
 6627.00    1.35379   1.33594    0.010
 6628.00    1.35011   1.33422    0.010
 6629.00    1.36323   1.33274    0.010
 6630.00    1.34517   1.33182    0.010
 6631.00    1.30687   1.33161    0.010
 6632.00    1.28992   1.33243    0.010
 6633.00    1.28511   1.33345    0.010
 6634.00    1.30383   1.33456    0.010
 6635.00    1.33421   1.33572    0.010
 6636.00    1.36378   1.33657    0.010
 6637.00    1.39301   1.33720    0.010
 6638.00    1.40361   1.33776    0.010
 6639.00    1.40737   1.33821    0.010
 6640.00    1.40963   1.33794    0.010
 6641.00    1.41141   1.33792    0.010
 6642.00    1.41391   1.33863    0.010
 6643.00    1.41659   1.33928    0.010
 6644.00    1.41302   1.33984    0.010
 6645.00    1.40813   1.34045    0.010
 6646.00    1.37924   1.34114    0.010
 6647.00    1.34635   1.34158    0.010
 6648.00    1.31512   1.34169    0.010
 6649.00    1.28410   1.34165    0.010
 6650.00    1.29120   1.34135    0.010
 6651.00    1.30161   1.34048    0.010
 6652.00    1.32582   1.33937    0.010
 6653.00    1.35074   1.33757    0.010
 6654.00    1.38089   1.33550    0.011
 6655.00    1.41061   1.33325    0.011
 6656.00    1.40319   1.33056    0.011
 6657.00    1.39530   1.32791    0.010
 6658.00    1.37748   1.32514    0.010
 6659.00    1.35991   1.32324    0.010
 6660.00    1.34543   1.32151    0.010
 6661.00    1.33199   1.32108    0.010
 6662.00    1.32704   1.32195    0.010
 6663.00    1.32048   1.32314    0.010
 6664.00    1.30397   1.32509    0.010
 6665.00    1.29200   1.32717    0.010
 6666.00    1.30210   1.32953    0.010
 6667.00    1.31274   1.33115    0.010
 6668.00    1.32556   1.33193    0.010
 6669.00    1.34495   1.33193    0.010
 6670.00    1.38591   1.33090    0.010
 6671.00    1.41654   1.32899    0.010
 6672.00    1.41851   1.32639    0.010
 6673.00    1.40076   1.32361    0.011
 6674.00    1.33614   1.32094    0.011
 6675.00    1.28293   1.31876    0.011
 6676.00    1.25315   1.31838    0.010
 6677.00    1.25386   1.31929    0.010
 6678.00    1.30907   1.32054    0.010
 6679.00    1.35497   1.32269    0.010
 6680.00    1.38635   1.32516    0.010
 6681.00    1.39255   1.32789    0.010
 6682.00    1.36419   1.33034    0.010
 6683.00    1.34645   1.33245    0.010
 6684.00    1.34153   1.33422    0.010
 6685.00    1.34999   1.33497    0.010
 6686.00    1.37271   1.33528    0.010
 6687.00    1.37348   1.33500    0.010
 6688.00    1.35366   1.33424    0.010
 6689.00    1.33582   1.33302    0.010
 6690.00    1.31961   1.33164    0.010
 6691.00    1.33003   1.33003    0.010
 6692.00    1.35983   1.32858    0.010
 6693.00    1.37978   1.32712    0.010
 6694.00    1.39343   1.32628    0.010
 6695.00    1.38555   1.32603    0.010
 6696.00    1.36563   1.32583    0.000
 6697.00    1.36026   1.32620    0.000
 6698.00    1.36197   1.32624    0.000
 6699.00    1.36879   1.32641    0.000
 6700.00    1.37775   1.32634    0.000
 6701.00    1.36455   1.32621    0.000
 6702.00    1.34337   1.32618    0.000
 6703.00    1.33811   1.32562    0.000
 6704.00    1.33770   1.32482    0.000
 6705.00    1.35598   1.32302    0.000
 6706.00    1.37901   1.32095    0.000
 6707.00    1.36750   1.31804    0.000
 6708.00    1.34888   1.31469    0.000
 6709.00    1.35978   1.31134    0.000
 6710.00    1.37545   1.30739    0.000
 6711.00    1.42617   1.30389    0.000
 6712.00    1.48114   1.30054    0.000
 6713.00    1.53191   1.29824    0.000
 6714.00    1.58234   1.29699    0.000
 6715.00    1.57564   1.29683    0.000
 6716.00    1.56622   1.29834    0.000
 6717.00    1.47713   1.30024    0.000
 6718.00    1.38821   1.30277    0.000
 6719.00    1.37190   1.30550    0.000
 6720.00    1.35530   1.30851    0.000
 6721.00    1.33303   1.31133    0.000
 6722.00    1.31187   1.31383    0.000
 6723.00    1.30350   1.31610    0.000
 6724.00    1.30316   1.31811    0.000
 6725.00    1.36679   1.31977    0.000
 6726.00    1.42682   1.32094    0.000
 6727.00    1.46527   1.32183    0.000
 6728.00    1.49540   1.32222    0.000
 6729.00    1.48616   1.32221    0.000
 6730.00    1.47668   1.32168    0.000
 6731.00    1.46630   1.32101    0.000
 6732.00    1.45590   1.31993    0.000
 6733.00    1.44539   1.31852    0.000
 6734.00    1.43047   1.31686    0.000
 6735.00    1.40351   1.31502    0.000
 6736.00    1.37594   1.31331    0.000
 6737.00    1.34697   1.31164    0.000
 6738.00    1.33178   1.31014    0.000
 6739.00    1.34443   1.30872    0.000
 6740.00    1.36013   1.30726    0.000
 6741.00    1.38121   1.30607    0.000
 6742.00    1.37926   1.30505    0.000
 6743.00    1.34186   1.30389    0.000
 6744.00    1.30380   1.30318    0.000
 6745.00    1.26483   1.30257    0.000
 6746.00    1.24657   1.30260    0.000
 6747.00    1.25297   1.30302    0.000
 6748.00    1.27358   1.30414    0.000
 6749.00    1.30910   1.30631    0.000
 6750.00    1.32528   1.30836    0.000
 6751.00    1.32355   1.31155    0.000
 6752.00    1.30804   1.31476    0.000
 6753.00    1.28129   1.31811    0.011
 6754.00    1.27242   1.32134    0.011
 6755.00    1.27639   1.32401    0.011
 6756.00    1.29382   1.32629    0.012
 6757.00    1.31973   1.32737    0.012
 6758.00    1.30715   1.32801    0.012
 6759.00    1.27334   1.32756    0.012
 6760.00    1.32074   1.32656    0.012
 6761.00    1.40705   1.32502    0.012
 6762.00    1.48172   1.32312    0.012
 6763.00    1.55156   1.32138    0.012
 6764.00    1.54857   1.31996    0.012
 6765.00    1.51982   1.31927    0.012
 6766.00    1.48953   1.31932    0.012
 6767.00    1.45878   1.32028    0.012
 6768.00    1.47087   1.32180    0.011
 6769.00    1.49357   1.32410    0.011
 6770.00    1.53143   1.32667    0.011
 6771.00    1.57233   1.32924    0.011
 6772.00    1.58328   1.33136    0.011
 6773.00    1.58952   1.33291    0.011
 6774.00    1.54165   1.33357    0.011
 6775.00    1.48748   1.33300    0.011
 6776.00    1.44333   1.33171    0.011
 6777.00    1.39997   1.32931    0.011
 6778.00    1.41912   1.32631    0.011
 6779.00    1.44099   1.32293    0.012
 6780.00    1.43432   1.31973    0.012
 6781.00    1.42663   1.31694    0.011
 6782.00    1.38510   1.31488    0.012
 6783.00    1.34419   1.31377    0.012
 6784.00    1.31459   1.31307    0.011
 6785.00    1.29018   1.31312    0.011
 6786.00    1.32259   1.31340    0.011
 6787.00    1.35358   1.31396    0.011
 6788.00    1.37370   1.31466    0.011
 6789.00    1.40174   1.31539    0.011
 6790.00    1.47598   1.31631    0.011
 6791.00    1.53291   1.31700    0.011
 6792.00    1.50975   1.31822    0.011
 6793.00    1.49186   1.31921    0.011
 6794.00    1.49385   1.32042    0.011
 6795.00    1.48930   1.32166    0.011
 6796.00    1.46408   1.32285    0.011
 6797.00    1.44370   1.32396    0.011
 6798.00    1.43628   1.32475    0.011
 6799.00    1.42708   1.32533    0.011
 6800.00    1.41377   1.32572    0.011
 6801.00    1.39578   1.32570    0.011
 6802.00    1.36851   1.32551    0.011
 6803.00    1.34583   1.32527    0.011
 6804.00    1.33110   1.32480    0.011
 6805.00    1.31655   1.32437    0.011
 6806.00    1.30230   1.32407    0.011
 6807.00    1.27976   1.32363    0.011
 6808.00    1.24620   1.32348    0.011
 6809.00    1.23991   1.32340    0.011
 6810.00    1.26562   1.32343    0.010
 6811.00    1.30660   1.32378    0.011
 6812.00    1.36338   1.32433    0.011
 6813.00    1.41061   1.32520    0.011
 6814.00    1.44910   1.32611    0.011
 6815.00    1.43493   1.32709    0.011
 6816.00    1.37840   1.32820    0.011
 6817.00    1.34392   1.32936    0.011
 6818.00    1.32504   1.33046    0.011
 6819.00    1.33201   1.33146    0.011
 6820.00    1.35504   1.33213    0.011
 6821.00    1.36098   1.33263    0.011
 6822.00    1.35764   1.33265    0.011
 6823.00    1.36662   1.33238    0.011
 6824.00    1.38141   1.33212    0.011
 6825.00    1.38466   1.33177    0.011
 6826.00    1.38323   1.33163    0.011
 6827.00    1.40843   1.33122    0.011
 6828.00    1.44286   1.33068    0.011
 6829.00    1.43645   1.32981    0.011
 6830.00    1.41808   1.32863    0.011
 6831.00    1.40040   1.32692    0.011
 6832.00    1.38289   1.32467    0.011
 6833.00    1.40495   1.32202    0.011
 6834.00    1.43474   1.31897    0.011
 6835.00    1.44286   1.31604    0.011
 6836.00    1.44767   1.31317    0.011
 6837.00    1.43033   1.31110    0.011
 6838.00    1.41049   1.30998    0.012
 6839.00    1.37604   1.30997    0.012
 6840.00    1.34050   1.31100    0.012
 6841.00    1.30882   1.31262    0.012
 6842.00    1.27730   1.31473    0.012
 6843.00    1.25992   1.31688    0.011
 6844.00    1.24560   1.31875    0.011
 6845.00    1.34915   1.32015    0.011
 6846.00    1.44449   1.32082    0.011
 6847.00    1.40113   1.32069    0.011
 6848.00    1.36253   1.31988    0.011
 6849.00    1.37366   1.31821    0.011
 6850.00    1.38124   1.31595    0.011
 6851.00    1.36247   1.31371    0.011
 6852.00    1.34331   1.31157    0.011
 6853.00    1.32196   1.30972    0.011
 6854.00    1.30712   1.30853    0.010
 6855.00    1.32169   1.30769    0.011
 6856.00    1.33691   1.30729    0.011
 6857.00    1.35453   1.30752    0.011
 6858.00    1.36551   1.30823    0.011
 6859.00    1.35591   1.30931    0.011
 6860.00    1.35330   1.31039    0.011
 6861.00    1.36909   1.31137    0.011
 6862.00    1.37284   1.31200    0.011
 6863.00    1.34941   1.31229    0.011
 6864.00    1.34648   1.31271    0.011
 6865.00    1.38365   1.31297    0.011
 6866.00    1.40594   1.31331    0.011
 6867.00    1.40287   1.31367    0.011
 6868.00    1.39236   1.31433    0.011
 6869.00    1.37074   1.31523    0.011
 6870.00    1.35033   1.31623    0.011
 6871.00    1.33152   1.31756    0.011
 6872.00    1.32704   1.31882    0.011
 6873.00    1.33915   1.32025    0.011
 6874.00    1.34615   1.32128    0.011
 6875.00    1.34796   1.32219    0.011
 6876.00    1.37945   1.32261    0.011
 6877.00    1.43765   1.32294    0.011
 6878.00    1.43268   1.32335    0.011
 6879.00    1.37761   1.32405    0.011
 6880.00    1.36614   1.32518    0.011
 6881.00    1.38512   1.32637    0.011
 6882.00    1.40891   1.32835    0.011
 6883.00    1.43564   1.33049    0.011
 6884.00    1.40973   1.33291    0.011
 6885.00    1.35567   1.33533    0.011
 6886.00    1.36285   1.33766    0.011
 6887.00    1.39843   1.33963    0.011
 6888.00    1.40912   1.34114    0.011
 6889.00    1.40987   1.34239    0.011
 6890.00    1.38845   1.34297    0.011
 6891.00    1.35948   1.34336    0.011
 6892.00    1.36448   1.34359    0.011
 6893.00    1.37922   1.34380    0.011
 6894.00    1.41053   1.34402    0.011
 6895.00    1.44576   1.34424    0.011
 6896.00    1.45504   1.34480    0.011
 6897.00    1.45937   1.34567    0.011
 6898.00    1.44284   1.34672    0.011
 6899.00    1.42322   1.34778    0.011
 6900.00    1.39540   1.34887    0.011
 6901.00    1.36670   1.34986    0.011
 6902.00    1.36399   1.35083    0.011
 6903.00    1.36312   1.35121    0.011
 6904.00    1.33546   1.35120    0.011
 6905.00    1.30684   1.35061    0.011
 6906.00    1.36301   1.34948    0.011
 6907.00    1.41781   1.34793    0.011
 6908.00    1.41565   1.34612    0.011
 6909.00    1.41275   1.34393    0.011
 6910.00    1.39834   1.34221    0.011
 6911.00    1.37452   1.34082    0.011
 6912.00    1.25646   1.33957    0.011
 6913.00    1.14747   1.33911    0.010
 6914.00    1.10367   1.33876    0.010
 6915.00    1.08925   1.33889    0.010
 6916.00    1.23691   1.33909    0.011
 6917.00    1.35803   1.33924    0.011
 6918.00    1.36215   1.33929    0.011
 6919.00    1.36119   1.33884    0.011
 6920.00    1.34183   1.33865    0.011
 6921.00    1.32929   1.33832    0.011
 6922.00    1.33745   1.33848    0.011
 6923.00    1.34598   1.33867    0.011
 6924.00    1.35550   1.33887    0.011
 6925.00    1.35873   1.33946    0.011
 6926.00    1.34799   1.33990    0.011
 6927.00    1.33938   1.34073    0.011
 6928.00    1.33484   1.34117    0.011
 6929.00    1.34717   1.34210    0.011
 6930.00    1.38785   1.34312    0.011
 6931.00    1.40837   1.34390    0.011
 6932.00    1.39920   1.34474    0.011
 6933.00    1.37002   1.34525    0.011
 6934.00    1.31491   1.34580    0.011
 6935.00    1.29667   1.34595    0.011
 6936.00    1.32048   1.34591    0.011
 6937.00    1.35084   1.34537    0.011
 6938.00    1.38781   1.34450    0.011
 6939.00    1.39218   1.34348    0.011
 6940.00    1.36763   1.34214    0.011
 6941.00    1.34727   1.34139    0.011
 6942.00    1.33019   1.34088    0.011
 6943.00    1.35544   1.34042    0.011
 6944.00    1.40981   1.34020    0.011
 6945.00    1.41186   1.34021    0.011
 6946.00    1.38238   1.34006    0.011
 6947.00    1.37538   1.34040    0.011
 6948.00    1.38022   1.34092    0.011
 6949.00    1.37537   1.34165    0.011
 6950.00    1.36610   1.34276    0.011
 6951.00    1.35776   1.34424    0.011
 6952.00    1.34977   1.34603    0.011
 6953.00    1.35295   1.34785    0.011
 6954.00    1.35986   1.35001    0.011
 6955.00    1.35623   1.35204    0.011
 6956.00    1.34963   1.35426    0.011
 6957.00    1.32364   1.35628    0.011
 6958.00    1.29316   1.35812    0.011
 6959.00    1.31521   1.35974    0.011
 6960.00    1.34701   1.36093    0.011
 6961.00    1.34821   1.36179    0.011
 6962.00    1.34503   1.36243    0.011
 6963.00    1.38508   1.36280    0.011
 6964.00    1.42959   1.36244    0.012
 6965.00    1.42607   1.36158    0.011
 6966.00    1.41934   1.35993    0.011
 6967.00    1.43060   1.35773    0.011
 6968.00    1.44243   1.35500    0.012
 6969.00    1.38241   1.35133    0.012
 6970.00    1.32317   1.34726    0.012
 6971.00    1.28792   1.34290    0.011
 6972.00    1.25518   1.33886    0.011
 6973.00    1.25961   1.33528    0.011
 6974.00    1.26744   1.33287    0.011
 6975.00    1.30795   1.33242    0.011
 6976.00    1.34411   1.33326    0.011
 6977.00    1.34999   1.33543    0.011
 6978.00    1.35369   1.33866    0.011
 6979.00    1.34569   1.34253    0.011
 6980.00    1.34511   1.34670    0.012
 6981.00    1.37650   1.35068    0.012
 6982.00    1.39277   1.35425    0.012
 6983.00    1.35539   1.35714    0.012
 6984.00    1.31487   1.35924    0.012
 6985.00    1.26498   1.36085    0.011
 6986.00    1.23210   1.36186    0.011
 6987.00    1.24242   1.36240    0.012
 6988.00    1.25651   1.36236    0.012
 6989.00    1.27883   1.36188    0.012
 6990.00    1.29757   1.36112    0.011
 6991.00    1.30953   1.36008    0.011
 6992.00    1.32422   1.35862    0.011
 6993.00    1.34344   1.35692    0.011
 6994.00    1.36901   1.35482    0.011
 6995.00    1.40379   1.35282    0.011
 6996.00    1.40371   1.35096    0.011
 6997.00    1.35913   1.34933    0.011
 6998.00    1.34900   1.34786    0.012
 6999.00    1.37763   1.34655    0.012
 7000.00    1.38854   1.34585    0.012
 7001.00    1.38187   1.34553    0.012
 7002.00    1.35656   1.34571    0.012
 7003.00    1.31493   1.34599    0.012
 7004.00    1.29426   1.34641    0.012
 7005.00    1.28974   1.34665    0.012
 7006.00    1.29178   1.34663    0.012
 7007.00    1.29828   1.34634    0.012
 7008.00    1.31666   1.34576    0.012
 7009.00    1.34210   1.34470    0.012
 7010.00    1.36442   1.34352    0.012
 7011.00    1.38512   1.34232    0.012
 7012.00    1.38724   1.34168    0.012
 7013.00    1.38101   1.34181    0.012
 7014.00    1.35798   1.34213    0.011
 7015.00    1.32845   1.34285    0.011
 7016.00    1.31073   1.34367    0.011
 7017.00    1.29690   1.34475    0.011
 7018.00    1.30340   1.34572    0.012
 7019.00    1.31550   1.34697    0.012
 7020.00    1.32987   1.34822    0.012
 7021.00    1.34476   1.34973    0.012
 7022.00    1.37368   1.35112    0.012
 7023.00    1.40514   1.35272    0.012
 7024.00    1.36927   1.35445    0.012
 7025.00    1.32408   1.35610    0.012
 7026.00    1.36736   1.35771    0.012
 7027.00    1.41943   1.35910    0.012
 7028.00    1.40672   1.36038    0.012
 7029.00    1.38996   1.36156    0.012
 7030.00    1.33574   1.36263    0.012
 7031.00    1.28070   1.36376    0.012
 7032.00    1.29171   1.36511    0.012
 7033.00    1.30308   1.36680    0.012
 7034.00    1.32417   1.36911    0.012
 7035.00    1.34377   1.37226    0.012
 7036.00    1.34260   1.37571    0.012
 7037.00    1.34081   1.37939    0.012
 7038.00    1.33334   1.38297    0.012
 7039.00    1.32698   1.38637    0.012
 7040.00    1.32813   1.38910    0.012
 7041.00    1.32223   1.39118    0.012
 7042.00    1.27943   1.39207    0.012
 7043.00    1.26408   1.39164    0.012
 7044.00    1.36428   1.38970    0.013
 7045.00    1.43517   1.38618    0.013
 7046.00    1.40414   1.38136    0.013
 7047.00    1.39534   1.37530    0.013
 7048.00    1.45160   1.36830    0.013
 7049.00    1.46029   1.36106    0.013
 7050.00    1.35024   1.35369   -2.000
 7051.00    1.27239   1.34671   -2.000
 7052.00    1.26380   1.34018   -2.000
 7053.00    1.28570   1.33432   -2.000
 7054.00    1.36455   1.32928   -2.000
 7055.00    1.42445   1.32504   -2.000
 7056.00    1.45344   1.32168   -2.000
 7057.00    1.46509   1.31906   -2.000
 7058.00    1.45194   1.31703   -2.000
 7059.00    1.41578   1.31531   -2.000
 7060.00    1.35066   1.31420   -2.000
 7061.00    1.36344   1.31320   -2.000
 7062.00    1.46262   1.31295   -2.000
 7063.00    1.52650   1.31319   -2.000
 7064.00    1.55586   1.31411   -2.000
 7065.00    1.54893   1.31564   -2.000
 7066.00    1.51069   1.31771   -2.000
 7067.00    1.47119   1.32024   -2.000
 7068.00    1.43073   1.32297   -2.000
 7069.00    1.40188   1.32584   -2.000
 7070.00    1.38079   1.32838   -2.000
 7071.00    1.42124   1.33063   -2.000
 7072.00    1.49767   1.33201   -2.000
 7073.00    1.49264   1.33263   -2.000
 7074.00    1.44608   1.33210   -2.000
 7075.00    1.45998   1.33033   -2.000
 7076.00    1.50059   1.32726   -2.000
 7077.00    1.50501   1.32283   -2.000
 7078.00    1.49570   1.31731   -2.000
 7079.00    1.45010   1.31113   -2.000
 7080.00    1.39283   1.30424   -2.000
 7081.00    1.43947   1.29724   -2.000
 7082.00    1.51412   1.29032   -2.000
 7083.00    1.49999   1.28380   -2.000
 7084.00    1.46627   1.27805   -2.000
 7085.00    1.47593   1.27334   -2.000
 7086.00    1.49322   1.26945   -2.000
 7087.00    1.40971   1.26693   -2.000
 7088.00    1.31270   1.26521   -2.000
 7089.00    1.35036   1.26465   -2.000
 7090.00    1.40082   1.26499   -2.000
 7091.00    1.41738   1.26597   -2.000
 7092.00    1.43195   1.26803   -2.000
 7093.00    1.41451   1.27000   -2.000
 7094.00    1.39600   1.27280   -2.000
 7095.00    1.33995   1.27509   -2.000
 7096.00    1.28581   1.27787   -2.000
 7097.00    1.27944   1.28010   -2.000
 7098.00    1.27392   1.28244   -2.000
 7099.00    1.27964   1.28409   -2.000
 7100.00    1.28312   1.28540   -2.000
 7101.00    1.26670   1.28628   -2.000
 7102.00    1.25329   1.28676   -2.000
 7103.00    1.25953   1.28688   -2.000
 7104.00    1.27122   1.28659   -2.000
 7105.00    1.31067   1.28638   -2.000
 7106.00    1.34393   1.28614   -2.000
 7107.00    1.35174   1.28618   -2.000
 7108.00    1.35776   1.28624   -2.000
 7109.00    1.35767   1.28676   -2.000
 7110.00    1.35900   1.28735   -2.000
 7111.00    1.36445   1.28814   -2.000
 7112.00    1.35572   1.28890   -2.000
 7113.00    1.31222   1.28945   -2.000
 7114.00    1.30856   1.28982   -2.000
 7115.00    1.38923   1.28947   -2.000
 7116.00    1.44500   1.28894   -2.000
 7117.00    1.45497   1.28775   -2.000
 7118.00    1.42980   1.28588   -2.000
 7119.00    1.34816   1.28342   -2.000
 7120.00    1.28572   1.28062   -2.000
 7121.00    1.25033   1.27766   -2.000
 7122.00    1.23540   1.27447   -2.000
 7123.00    1.24584   1.27134   -2.000
 7124.00    1.25965   1.26839   -2.000
 7125.00    1.27717   1.26638   -2.000
 7126.00    1.26021   1.26489   -2.000
 7127.00    1.20999   1.26440   -2.000
 7128.00    1.17979   1.26468   -2.000
 7129.00    1.16663   1.26569   -2.000
 7130.00    1.23780   1.26755   -2.000
 7131.00    1.37212   1.26964   -2.000
 7132.00    1.41692   1.27205   -2.000
 7133.00    1.40282   1.27437   -2.000
 7134.00    1.34229   1.27672   -2.000
 7135.00    1.25500   1.27850   -2.000
 7136.00    1.21926   1.27982   -2.000
 7137.00    1.20939   1.28065   -2.000
 7138.00    1.26718   1.28084   -2.000
 7139.00    1.35436   1.28067   -2.000
 7140.00    1.42142   1.28009   -2.000
 7141.00    1.48098   1.27917   -2.000
 7142.00    1.45519   1.27861   -2.000
 7143.00    1.40244   1.27836   -2.000
 7144.00    1.33920   1.27858   -2.000
 7145.00    1.27320   1.27943   -2.000
 7146.00    1.26869   1.28098   -2.000
 7147.00    1.27744   1.28307   -2.000
 7148.00    1.34659   1.28559   -2.000
 7149.00    1.42608   1.28833   -2.000
 7150.00    1.35466   1.29123   -2.000
 7151.00    1.26371   1.29353   -2.000
 7152.00    1.28799   1.29541   -2.000
 7153.00    1.32274   1.29645   -2.000
 7154.00    1.31434   1.29683   -2.000
 7155.00    1.30359   1.29640   -2.000
 7156.00    1.25223   1.29525   -2.000
 7157.00    1.19989   1.29365   -2.000
 7158.00    1.13497   1.29187   -2.000
 7159.00    1.07975   1.29058   -2.000
 7160.00    1.24480   1.28962   -2.000
 7161.00    1.39420   1.28946   -2.000
 7162.00    1.34640   1.28992   -2.000
 7163.00    1.30475   1.29130   -2.000
 7164.00    1.31559   1.29332   -2.000
 7165.00    1.30897   1.29587   -2.000
 7166.00    1.19173   1.29855   -2.000
 7167.00    1.11430   1.30101   -2.000
 7168.00    1.23453   1.30313   -2.000
 7169.00    1.32098   1.30457   -2.000
 7170.00    1.27147   1.30534   -2.000
 7171.00    1.24135   1.30533   -2.000
 7172.00    1.27606   1.30453   -2.000
 7173.00    1.28477   1.30311   -2.000
 7174.00    1.22013   1.30136   -2.000
 7175.00    1.19127   1.29941   -2.000
 7176.00    1.24867   1.29744   -2.000
 7177.00    1.30127   1.29543   -2.000
 7178.00    1.34389   1.29331   -2.000
 7179.00    1.36973   1.29143   -2.000
 7180.00    1.36518   1.28945   -2.000
 7181.00    1.33437   1.28778   -2.000
 7182.00    1.26197   1.28630   -2.000
 7183.00    1.18886   1.28501   -2.000
 7184.00    1.11476   1.28417   -2.000
 7185.00    1.07225   1.28357   -2.000
 7186.00    1.06839   1.28365   -2.000
 7187.00    1.12082   1.28405   -2.000
 7188.00    1.23391   1.28500   -2.000
 7189.00    1.29614   1.28630   -2.000
 7190.00    1.31001   1.28781   -2.000
 7191.00    1.30618   1.28954   -2.000
 7192.00    1.28749   1.29111   -2.000
 7193.00    1.26075   1.29254   -2.000
 7194.00    1.22807   1.29373   -2.000
 7195.00    1.23911   1.29459   -2.000
 7196.00    1.27849   1.29512   -2.000
 7197.00    1.21161   1.29521   -2.000
 7198.00    1.08445   1.29473   -2.000
 7199.00    1.08173   1.29410   -2.000
 7200.00    1.14045   1.29308   -2.000
 7201.00    1.21571   1.29221   -2.000
 7202.00    1.29803   1.29140   -2.000
 7203.00    1.29428   1.29085   -2.000
 7204.00    1.25903   1.29069   -2.000
 7205.00    1.17485   1.29095   -2.000
 7206.00    1.07552   1.29185   -2.000
 7207.00    1.07568   1.29316   -2.000
 7208.00    1.10152   1.29501   -2.000
 7209.00    1.15547   1.29716   -2.000
 7210.00    1.21534   1.29939   -2.000
 7211.00    1.24012   1.30175   -2.000
 7212.00    1.25907   1.30389   -2.000
 7213.00    1.25920   1.30609   -2.000
 7214.00    1.25698   1.30795   -2.000
 7215.00    1.23034   1.30985   -2.000
 7216.00    1.20159   1.31173   -2.000
 7217.00    1.20056   1.31360   -2.000
 7218.00    1.20095   1.31570   -2.000
