###################################################################
## OUTPUT of StarlightChains_v04.for    [Cid@UFSC - 01/Apr/2007] ##
###################################################################

## Some input info
KUG0210-078._10_16.txt                   [arq_obs]
Base.CB07.vall.4m                        [arq_base]
Masks.EmLines.NEW.gm                     [arq_masks]
StCv04.C11.config                        [arq_config]
   66                                    [N_base]
    0                                    [N_YAV_components = # of components with extra extinction!]
    0                                    [i_FitPowerLaw (1/0 = Yes/No)]
-9.99                                    [alpha_PowerLaw]
CCM                                      [red_law_option]
 1.458241                                [q_norm = A(l_norm)/A(V)]

## (Re)Sampling Parameters
 3741.00                                 [l_ini (A)]
 7218.00                                 [l_fin (A)]
    1.00                                 [dl    (A)]     (OBS: dl_cushion =    50.00 A)

## Normalization info
 4020.00                                 [l_norm (A) - for base]
 4010.00                                 [llow_norm (A) - window for f_obs]
 4060.00                                 [lupp_norm (A) - window for f_obs]
7.804653E-18                             [fobs_norm (in input units)]

## S/N
 3691.00                                 [llow_SN (A) - window for S/N]
 7268.00                                 [lupp_SN (A) - window for S/N]
   2.262                                 [S/N in S/N window]
   3.226                                 [S/N in norm. window]
   0.006                                 [S/N_err in S/N window]
   0.009                                 [S/N_err in norm. window]
  1.0000                                 [fscale_chi2]

## etc...
    -2007215                             [idum_orig]
  2405                                   [NOl_eff]
  2393                                   [Nl_eff]
    12    NSIGMA                         [Ntot_cliped & clip_method]
  5099430                                [Nglobal_steps]
   7                                     [N_chains]
   7                                     [NEX0s_base = N_base in EX0s-fits]
 0   0   1       12   2.0   1.121E+03    [Clip-Bug, RC-Crash & Burn-In warning-flags, n_censored_weights, wei_nsig_threshold & wei_limit]
   560    558.442    557.593      0.849  [idt_all, wdt_TotTime, wdt_UsrTime & wdt_SysTime (sec)]

## Synthesis Results - Best model ##

 1.31642E-05                             [chi2/Nl_eff]
    29.30026                             [adev (%)]

   119.31301                             [sum-of-x (%)]
 2.88629E-18                             [Flux_tot (units of input spectrum!)]
 8.48276E-14                             [Mini_tot (???)]
 4.25431E-14                             [Mcor_tot (???)]

  10.23                                  [v0_min  (km/s)]
 124.84                                  [vd_min  (km/s)]
-0.8721                                  [AV_min  (mag)]
 0.0000                                  [YAV_min (mag)]

# j     x_j(%)      Mini_j(%)     Mcor_j(%)     age_j(yr)     Z_j      (L/M)_j    YAV?  Mstars   component_j        a/Fe...       SSP_chi2r SSP_adev(%)   SSP_AV   SSP_x(%)
  1      0.0000     0.0000E+00    0.0000E+00    1.000000E+06  0.00400  1.094E-02    0   1.0000   age020_m42            0.0000     1.5497E-05    32.6449   1.8403   102.5729
  2      0.0000     0.0000E+00    0.0000E+00    3.160000E+06  0.00400  4.007E-02    0   0.9999   age045_m42            0.0000     1.3861E-05    30.4237   1.0670   110.2880
  3      0.0000     0.0000E+00    0.0000E+00    5.010000E+06  0.00400  2.539E-02    0   0.9488   age055_m42            0.0000     1.4551E-05    31.3030   1.4160   107.0650
  4      0.0000     0.0000E+00    0.0000E+00    6.610000E+06  0.00400  2.620E-02    0   0.9220   age061_m42            0.0000     1.3800E-05    30.1424   1.0016   110.2679
  5      0.0000     0.0000E+00    0.0000E+00    1.000000E+07  0.00400  1.322E-02    0   0.8862   age070_m42            0.0000     1.4094E-05    30.7976   0.8079   110.3318
  6      0.0000     0.0000E+00    0.0000E+00    1.445000E+07  0.00400  7.883E-03    0   0.8571   age078_m42            0.0000     1.4519E-05    31.2960   1.1346   107.6464
  7      0.0000     0.0000E+00    0.0000E+00    2.512000E+07  0.00400  5.251E-03    0   0.8174   age090_m42            0.0000     1.4041E-05    30.7973   0.6910   110.5699
  8      0.0000     0.0000E+00    0.0000E+00    4.000000E+07  0.00400  3.649E-03    0   0.7851   age104_m42            0.0000     1.3775E-05    30.3482   0.4457   111.9083
  9      0.0000     0.0000E+00    0.0000E+00    5.500000E+07  0.00400  3.098E-03    0   0.7629   age110_m42            0.0000     1.3410E-05    29.5308   0.5521   113.0228
 10      0.0000     0.0000E+00    0.0000E+00    1.015200E+08  0.00400  2.228E-03    0   0.7207   age116_m42            0.0000     1.3140E-05    28.9123   0.5384   114.0302
 11      0.0000     0.0000E+00    0.0000E+00    2.861200E+08  0.00400  1.093E-03    0   0.6648   age125_m42            0.0000     1.2882E-05    28.4333  -0.0144   116.8083
 12      0.0000     0.0000E+00    0.0000E+00    5.088000E+08  0.00400  6.597E-04    0   0.6365   age130_m42            0.0000     1.2571E-05    27.7039  -0.0820   119.2366
 13      0.0000     0.0000E+00    0.0000E+00    1.434000E+09  0.00400  2.132E-04    0   0.5798   age139_m42            0.0000     1.2399E-05    28.2999  -1.0000   121.6025
 14      0.0000     0.0000E+00    0.0000E+00    4.250000E+09  0.00400  5.895E-05    0   0.5377   age158_m42            0.0000     1.4310E-05    37.3744  -1.0000   110.5807
 15      0.0000     0.0000E+00    0.0000E+00    7.500000E+09  0.00400  3.510E-05    0   0.5212   age171_m42            0.0000     1.5590E-05    42.1655  -1.0000   106.4328
 16      0.0000     0.0000E+00    0.0000E+00    1.300000E+10  0.00400  2.005E-05    0   0.5034   age193_m42            0.0000     1.7054E-05    46.5326  -1.0000   102.5083
 17      0.0000     0.0000E+00    0.0000E+00    1.800000E+10  0.00400  1.525E-05    0   0.4967   age213_m42            0.0000     1.7210E-05    47.1970  -1.0000   101.5281
 18      0.0000     0.0000E+00    0.0000E+00    1.000000E+06  0.00800  1.238E-02    0   1.0000   age020_m52            0.0000     1.5496E-05    32.6182   1.8344   102.7950
 19      0.0000     0.0000E+00    0.0000E+00    3.160000E+06  0.00800  3.074E-02    0   0.9966   age045_m52            0.0000     1.5369E-05    32.4160   1.7548   103.7659
 20      0.0000     0.0000E+00    0.0000E+00    5.010000E+06  0.00800  2.668E-02    0   0.9443   age055_m52            0.0000     1.4804E-05    31.5884   1.5069   105.9724
 21      0.0000     0.0000E+00    0.0000E+00    6.610000E+06  0.00800  2.136E-02    0   0.9177   age061_m52            0.0000     1.4330E-05    31.2833   0.3016   111.9951
 22      0.0000     0.0000E+00    0.0000E+00    1.000000E+07  0.00800  1.215E-02    0   0.8827   age070_m52            0.0000     1.4439E-05    31.4451   1.0177   109.3996
 23      0.0000     0.0000E+00    0.0000E+00    1.445000E+07  0.00800  8.717E-03    0   0.8552   age078_m52            0.0000     1.4391E-05    31.1598   1.1016   109.0804
 24      0.0000     0.0000E+00    0.0000E+00    2.512000E+07  0.00800  5.592E-03    0   0.8162   age090_m52            0.0000     1.3988E-05    30.7133   0.7571   111.7811
 25      0.0000     0.0000E+00    0.0000E+00    4.000000E+07  0.00800  3.896E-03    0   0.7841   age104_m52            0.0000     1.3649E-05    30.0437   0.6445   113.2195
 26     85.0383     1.1290E+00    1.6267E+00    1.015200E+08  0.00800  2.148E-03    0   0.7226   age116_m52            0.0000     1.3259E-05    29.1267   0.5288   114.3700
 27      0.0000     0.0000E+00    0.0000E+00    2.861200E+08  0.00800  9.925E-04    0   0.6683   age125_m52            0.0000     1.2544E-05    27.6005  -0.0174   120.3744
 28      0.0000     0.0000E+00    0.0000E+00    9.047900E+08  0.00800  3.141E-04    0   0.6138   age135_m52            0.0000     1.2437E-05    27.3305  -0.9115   127.9192
 29      0.0000     0.0000E+00    0.0000E+00    1.434000E+09  0.00800  1.719E-04    0   0.5853   age139_m52            0.0000     1.3488E-05    34.4153  -1.0000   117.6828
 30      0.0000     0.0000E+00    0.0000E+00    2.500000E+09  0.00800  7.872E-05    0   0.5600   age150_m52            0.0000     1.5365E-05    41.4042  -1.0000   110.0521
 31      0.0000     0.0000E+00    0.0000E+00    4.250000E+09  0.00800  4.336E-05    0   0.5426   age158_m52            0.0000     1.5688E-05    41.9307  -1.0000   108.6965
 32      0.0000     0.0000E+00    0.0000E+00    6.250000E+09  0.00800  3.159E-05    0   0.5319   age166_m52            0.0000     1.7499E-05    47.1361  -1.0000   104.5293
 33      0.0000     0.0000E+00    0.0000E+00    1.300000E+10  0.00800  1.361E-05    0   0.5073   age193_m52            0.0000     2.2958E-05    58.7568  -1.0000    92.5240
 34     34.2747     9.8871E+01    9.8373E+01    1.800000E+10  0.00800  9.886E-06    0   0.4990   age213_m52            0.0000     2.4941E-05    61.0083  -1.0000    89.2387
 35      0.0000     0.0000E+00    0.0000E+00    1.000000E+06  0.02000  1.544E-02    0   1.0000   age020_m62            0.0000     1.5544E-05    32.6472   1.8307   103.0302
 36      0.0000     0.0000E+00    0.0000E+00    3.160000E+06  0.02000  3.762E-02    0   0.9858   age045_m62            0.0000     1.5541E-05    32.5689   1.7695   103.9349
 37      0.0000     0.0000E+00    0.0000E+00    5.010000E+06  0.02000  3.296E-02    0   0.9342   age055_m62            0.0000     1.4226E-05    30.7770   1.3547   108.8377
 38      0.0000     0.0000E+00    0.0000E+00    8.710000E+06  0.02000  1.154E-02    0   0.8861   age067_m62            0.0000     1.5719E-05    34.9543   0.6275   108.4948
 39      0.0000     0.0000E+00    0.0000E+00    1.445000E+07  0.02000  7.663E-03    0   0.8472   age078_m62            0.0000     1.4684E-05    32.2514   0.7116   110.6413
 40      0.0000     0.0000E+00    0.0000E+00    2.512000E+07  0.02000  4.532E-03    0   0.8099   age090_m62            0.0000     1.4574E-05    32.0809   0.7094   110.1073
 41      0.0000     0.0000E+00    0.0000E+00    5.500000E+07  0.02000  2.733E-03    0   0.7595   age110_m62            0.0000     1.3771E-05    30.1946   0.6312   112.3952
 42      0.0000     0.0000E+00    0.0000E+00    1.609000E+08  0.02000  1.369E-03    0   0.6985   age120_m62            0.0000     1.2917E-05    28.2972   0.3879   117.4185
 43      0.0000     0.0000E+00    0.0000E+00    2.861200E+08  0.02000  9.013E-04    0   0.6714   age125_m62            0.0000     1.2483E-05    27.2812   0.0858   122.0100
 44      0.0000     0.0000E+00    0.0000E+00    5.088000E+08  0.02000  5.028E-04    0   0.6449   age130_m62            0.0000     1.2266E-05    26.9251  -0.3830   127.6533
 45      0.0000     0.0000E+00    0.0000E+00    9.047900E+08  0.02000  2.428E-04    0   0.6179   age135_m62            0.0000     1.2575E-05    27.7381  -1.0000   128.2366
 46      0.0000     0.0000E+00    0.0000E+00    1.434000E+09  0.02000  1.263E-04    0   0.5908   age139_m62            0.0000     1.3659E-05    32.9901  -1.0000   119.6228
 47      0.0000     0.0000E+00    0.0000E+00    2.500000E+09  0.02000  5.985E-05    0   0.5673   age150_m62            0.0000     1.6000E-05    41.8857  -1.0000   111.2934
 48      0.0000     0.0000E+00    0.0000E+00    4.250000E+09  0.02000  3.271E-05    0   0.5468   age158_m62            0.0000     1.9053E-05    49.6867  -1.0000   103.7263
 49      0.0000     0.0000E+00    0.0000E+00    1.000000E+10  0.02000  1.360E-05    0   0.5167   age181_m62            0.0000     2.3930E-05    57.9089  -1.0000    94.4423
 50      0.0000     0.0000E+00    0.0000E+00    1.800000E+10  0.02000  7.124E-06    0   0.5013   age213_m62            0.0000     2.7674E-05    62.1773  -1.0000    87.9060
 51      0.0000     0.0000E+00    0.0000E+00    1.000000E+06  0.05000  2.592E-02    0   0.9998   age020_m72            0.0000     1.5701E-05    32.8434   1.8316   102.9087
 52      0.0000     0.0000E+00    0.0000E+00    3.160000E+06  0.05000  4.845E-02    0   0.9577   age045_m72            0.0000     1.5028E-05    31.8481   1.6365   105.5776
 53      0.0000     0.0000E+00    0.0000E+00    5.010000E+06  0.05000  3.072E-02    0   0.9147   age055_m72            0.0000     1.5021E-05    32.0499   1.2506   107.6467
 54      0.0000     0.0000E+00    0.0000E+00    6.610000E+06  0.05000  1.455E-02    0   0.8877   age061_m72            0.0000     1.6302E-05    36.5896   0.7266   107.7858
 55      0.0000     0.0000E+00    0.0000E+00    1.000000E+07  0.05000  9.074E-03    0   0.8524   age070_m72            0.0000     1.5028E-05    32.0565   1.4287   107.2562
 56      0.0000     0.0000E+00    0.0000E+00    2.512000E+07  0.05000  4.250E-03    0   0.7902   age090_m72            0.0000     1.4294E-05    30.9448   1.1187   109.4216
 57      0.0000     0.0000E+00    0.0000E+00    4.000000E+07  0.05000  3.087E-03    0   0.7618   age104_m72            0.0000     1.4001E-05    30.6453   0.8957   111.0648
 58      0.0000     0.0000E+00    0.0000E+00    1.015200E+08  0.05000  1.700E-03    0   0.7096   age116_m72            0.0000     1.3092E-05    28.6750   0.5612   116.0752
 59      0.0000     0.0000E+00    0.0000E+00    2.861200E+08  0.05000  7.384E-04    0   0.6633   age125_m72            0.0000     1.2342E-05    26.9687  -0.1002   125.1533
 60      0.0000     0.0000E+00    0.0000E+00    5.088000E+08  0.05000  3.819E-04    0   0.6372   age130_m72            0.0000     1.2386E-05    27.3520  -0.6707   129.5357
 61      0.0000     0.0000E+00    0.0000E+00    9.047900E+08  0.05000  1.676E-04    0   0.6110   age135_m72            0.0000     1.3656E-05    31.6679  -1.0000   122.6771
 62      0.0000     0.0000E+00    0.0000E+00    1.434000E+09  0.05000  8.837E-05    0   0.5874   age139_m72            0.0000     1.6164E-05    41.8374  -1.0000   113.0164
 63      0.0000     0.0000E+00    0.0000E+00    2.500000E+09  0.05000  4.233E-05    0   0.5598   age150_m72            0.0000     1.9355E-05    49.7373  -1.0000   104.6999
 64      0.0000     0.0000E+00    0.0000E+00    6.250000E+09  0.05000  1.435E-05    0   0.5249   age166_m72            0.0000     2.5486E-05    60.1194  -1.0000    91.4690
 65      0.0000     0.0000E+00    0.0000E+00    1.300000E+10  0.05000  6.513E-06    0   0.5036   age193_m72            0.0000     3.0697E-05    65.3163  -1.0000    84.2458
 66      0.0000     0.0000E+00    0.0000E+00    1.800000E+10  0.05000  4.527E-06    0   0.4945   age213_m72            0.0000     3.3958E-05    67.7862  -1.0000    79.2776


## Synthesis Results - Average & Chains ##

# j      x_j: min, <> & last-chain-values for 1 ...  7 chains
  1      0.0000      0.2629      0.0056      0.0000      0.0139      0.0000      0.0633      0.0000      0.0000
  2      0.0000      0.3784      0.0000      0.0088      0.0547      0.0000      0.0000      0.0000      0.0000
  3      0.0000      0.2756      0.0888      0.0000      0.0883      0.0000      0.0405      0.0000      0.0000
  4      0.0000      0.2911      0.0117      0.0086      0.0000      0.0000      0.0476      0.0000      0.0000
  5      0.0000      0.2763      0.0000      0.0000      0.0624      0.0000      0.0228      0.0000      0.0000
  6      0.0000      0.2765      0.0055      0.0113      0.0394      0.0000      0.0356      0.0000      0.0000
  7      0.0000      0.3605      0.0000      0.0139      0.0142      0.0000      0.0281      0.0000      0.0000
  8      0.0000      0.2577      0.0152      0.0278      0.0317      0.0000      0.0000      0.0000      0.0000
  9      0.0000      0.3727      0.0501      0.0339      0.0722      0.0000      0.0759      0.0000      0.0000
 10      0.0000      0.2785      0.0000      0.0370      0.0122      0.0000      0.0167      0.0000      0.0000
 11      0.0000      0.2111      0.0010      0.0235      0.0000      0.0000      0.0373      0.0000      0.0000
 12      0.0000      0.2756      0.0000      0.0000      0.0391      0.0000      0.0028      0.0000      0.0000
 13      0.0000      0.2982      0.0000      0.0194      0.0000      0.0000      0.0203      0.0000      0.0000
 14      0.0000      0.2544      0.0134      0.0000      0.0150      0.0000      0.0057      0.0000      0.0000
 15      0.0000      0.2151      0.0000      0.0286      0.0000      0.0000      0.0055      0.0000      0.0000
 16      0.0000      0.2429      0.0000      0.0069      0.0410      0.0000      0.0188      0.0000      0.0000
 17      0.0000      0.2133      0.0060      0.0276      0.0196      0.0000      0.0302      0.0000      0.0000
 18      0.0000      0.2666      0.0627      0.0102      0.0445      0.0000      0.0005      0.0004      0.0000
 19      0.0000      0.2404      0.0958      0.0000      0.0300      0.0000      0.0000      0.0000      0.0000
 20      0.0000      0.3319      0.0000      0.0064      0.0372      0.0000      0.0000      0.0003      0.0000
 21      0.0000      0.2256      0.0149      0.0000      0.0825      0.0000      0.0065      0.0000      0.0000
 22      0.0000      0.3696      0.0239      0.0368      0.0138      0.0000      0.0807      0.0003      0.0000
 23      0.0000      0.2843      0.0078      0.0137      0.0223      0.0000      0.0216      0.0000      0.0000
 24      0.0000      0.3185      0.0000      0.0000      0.0122      0.0000      0.0528      0.0000      0.0000
 25      0.0000      0.3276      0.0551      0.0817      0.0838      0.0000      0.0079      0.0000      0.0000
 26     85.0383      0.2429      0.0014      0.0436      0.0153      0.0000      0.0550      0.0000      0.0000
 27      0.0000      0.3243      0.0233      0.0253      0.0199      0.0000      0.0345      0.0000      0.0000
 28      0.0000      0.2160      0.0000      0.0310      0.0220      0.0000      0.0141      0.0000      0.0000
 29      0.0000      0.2576      0.0000      0.0000      0.0224      0.0000      0.0000      0.0000      0.0000
 30      0.0000      0.2635      0.1313      0.0000      0.0099      0.0000      0.0000      0.0000      0.0000
 31      0.0000      0.2312      0.0217      0.0313      0.0407      0.0000      0.0345      0.0000      0.0000
 32      0.0000      0.2676      0.0092      0.0174      0.0284      0.0000      0.0000      0.0000      0.0000
 33      0.0000      0.3062      0.0000      0.0492      0.0000      0.0000      0.0228      0.0000      0.0000
 34     34.2747      0.2875      0.0121      0.0166      0.0621      0.0000      0.0323      0.0000      0.0000
 35      0.0000      0.3120      0.0000      0.0522      0.0578      0.0004      0.0091      0.0000      0.0000
 36      0.0000      0.3215      0.0111      0.0000      0.0419      0.0001      0.0000      0.0000      0.0000
 37      0.0000      0.3416      0.0018      0.0000      0.0430      0.0000      0.0000      0.0000      0.0000
 38      0.0000      0.2799      0.0000      0.0000      0.0000      0.0000      0.0259      0.0000      0.0000
 39      0.0000      0.3390      0.0250      0.0000      0.0828      0.0000      0.0432      0.0000      0.0000
 40      0.0000      0.3176      0.0000      0.0509      0.0000      0.0000      0.0141      0.0000      0.0000
 41      0.0000      0.2517      0.0000      0.0456      0.0975      0.0000      0.0087      0.0000      0.0000
 42      0.0000      0.1863      0.0066      0.0083      0.0038      0.0000      0.0148      0.0000      0.0000
 43      0.0000      0.2848      0.0696      0.0411      0.0000      0.0000      0.0000      0.0000      0.0000
 44      0.0000      0.2471      0.0313      0.0574      0.0000      0.0000      0.0006      0.0000      0.0000
 45      0.0000      0.4069      0.0321      0.0000      0.0022      0.0000      0.0000      0.0000      0.0000
 46      0.0000      0.2921      0.0069      0.0246      0.0298      0.0000      0.0115      0.0000      0.0000
 47      0.0000      0.2493      0.0009      0.0009      0.0299      0.0000      0.0141      0.0000      0.0000
 48      0.0000      0.2976      0.0189      0.0138      0.0414      0.0000      0.0000      0.0000      0.0000
 49      0.0000      0.2275      0.0170      0.0000      0.0000      0.0000      0.0157      0.0000      0.0000
 50      0.0000      0.3452      0.0290      0.0024      0.0000      0.0000      0.0000      0.0000      0.0000
 51      0.0000     66.7012     83.7884     84.4459     82.8984     85.6222     83.7100     85.6719     84.9912
 52      0.0000      0.2720      0.0000      0.0101      0.0000      0.0000      0.0389      0.0000      0.0000
 53      0.0000      0.2729      0.0483      0.0768      0.1970      0.0000      0.0021      0.0000      0.0000
 54      0.0000      0.3465      0.0000      0.0452      0.0314      0.0000      0.0205      0.0000      0.0000
 55      0.0000      0.2928      0.0563      0.0483      0.0000      0.0000      0.0000      0.0000      0.0000
 56      0.0000      0.2525      0.1193      0.0173      0.0375      0.0000      0.0618      0.0000      0.0000
 57      0.0000      0.2444      0.0316      0.0000      0.1005      0.0000      0.0245      0.0001      0.0000
 58      0.0000      0.2805      0.0000      0.0037      0.0000      0.0000      0.0385      0.0000      0.0000
 59      0.0000      0.2807      0.0999      0.0211      0.0010      0.0000      0.0000      0.0000      0.0000
 60      0.0000      0.2957      0.0104      0.0000      0.0311      0.0000      0.0089      0.0000      0.0000
 61      0.0000      0.2886      0.0028      0.0107      0.0317      0.0000      0.0304      0.0000      0.0000
 62      0.0000      0.2765      0.0000      0.0175      0.1037      0.0000      0.0085      0.0000      0.0000
 63      0.0000      0.2779      0.0146      0.0162      0.0688      0.0000      0.0053      0.0000      0.0000
 64      0.0000      0.3620      0.0138      0.0000      0.0000      0.0000      0.0000      0.0000      0.0000
 65      0.0000      0.3518      0.0215      0.0062      0.0000      0.0000      0.0000      0.0000      0.0000
 66      0.0000      0.2618      0.0000      0.0000      0.0070      0.0000      0.0000      0.0000      0.0000

# j      m_j: min, <> & last-chain-values for 1 ...  7 chains
  1  0.0000E+00  1.3358E-02  4.4858E-03  0.0000E+00  9.6553E-03  0.0000E+00  6.4046E-02  0.0000E+00  0.0000E+00
  2  0.0000E+00  5.2483E-03  0.0000E+00  2.2258E-03  1.0354E-02  0.0000E+00  0.0000E+00  0.0000E+00  0.0000E+00
  3  0.0000E+00  5.7248E-03  2.9337E-02  0.0000E+00  2.5050E-02  0.0000E+00  1.6739E-02  0.0000E+00  0.0000E+00
  4  0.0000E+00  5.6946E-03  3.6228E-03  3.0704E-03  0.0000E+00  0.0000E+00  1.8546E-02  0.0000E+00  0.0000E+00
  5  0.0000E+00  1.0296E-02  0.0000E+00  0.0000E+00  3.1756E-02  0.0000E+00  1.6924E-02  0.0000E+00  0.0000E+00
  6  0.0000E+00  1.6712E-02  5.2861E-03  1.2418E-02  3.2545E-02  0.0000E+00  4.2870E-02  0.0000E+00  0.0000E+00
  7  0.0000E+00  3.1189E-02  0.0000E+00  2.1952E-02  1.6830E-02  0.0000E+00  4.8379E-02  0.0000E+00  0.0000E+00
  8  0.0000E+00  3.0821E-02  2.8943E-02  6.0611E-02  5.1695E-02  0.0000E+00  0.0000E+00  0.0000E+00  0.0000E+00
  9  0.0000E+00  5.1015E-02  1.0904E-01  8.4625E-02  1.3487E-01  0.0000E+00  2.0692E-01  0.0000E+00  0.0000E+00
 10  0.0000E+00  5.0076E-02  0.0000E+00  1.2140E-01  3.0004E-02  0.0000E+00  5.9806E-02  0.0000E+00  0.0000E+00
 11  0.0000E+00  7.1350E-02  5.1629E-03  1.4490E-01  0.0000E+00  0.0000E+00  2.5115E-01  0.0000E+00  0.0000E+00
 12  0.0000E+00  1.4777E-01  0.0000E+00  0.0000E+00  2.8660E-01  0.0000E+00  2.9578E-02  0.0000E+00  0.0000E+00
 13  0.0000E+00  4.5074E-01  0.0000E+00  5.3450E-01  0.0000E+00  0.0000E+00  6.1135E-01  0.0000E+00  0.0000E+00
 14  0.0000E+00  1.2900E+00  1.0772E+00  0.0000E+00  1.0392E+00  0.0000E+00  5.7422E-01  0.0000E+00  0.0000E+00
 15  0.0000E+00  1.7750E+00  0.0000E+00  4.3025E+00  0.0000E+00  0.0000E+00  9.0390E-01  0.0000E+00  0.0000E+00
 16  0.0000E+00  3.3902E+00  0.0000E+00  1.7479E+00  7.8111E+00  0.0000E+00  5.2321E+00  0.0000E+00  0.0000E+00
 17  0.0000E+00  3.8618E+00  1.7271E+00  9.1179E+00  4.8393E+00  0.0000E+00  1.0881E+01  0.0000E+00  0.0000E+00
 18  0.0000E+00  1.1967E-02  4.4755E-02  8.3557E-03  2.7256E-02  0.0000E+00  4.4689E-04  1.0075E-03  0.0000E+00
 19  0.0000E+00  4.3321E-03  2.7456E-02  0.0000E+00  7.3743E-03  0.0000E+00  0.0000E+00  0.0000E+00  0.0000E+00
 20  0.0000E+00  6.5289E-03  0.0000E+00  2.2859E-03  9.9959E-03  0.0000E+00  0.0000E+00  3.1177E-04  0.0000E+00
 21  0.0000E+00  5.3884E-03  5.6635E-03  0.0000E+00  2.6899E-02  0.0000E+00  3.0678E-03  0.0000E+00  0.0000E+00
 22  0.0000E+00  1.4923E-02  1.5356E-02  2.7099E-02  7.6282E-03  0.0000E+00  6.4907E-02  5.8146E-04  0.0000E+00
 23  0.0000E+00  1.5505E-02  6.7680E-03  1.3642E-02  1.6577E-02  0.0000E+00  2.3410E-02  0.0000E+00  0.0000E+00
 24  0.0000E+00  2.5838E-02  0.0000E+00  4.8667E-05  1.3464E-02  0.0000E+00  8.5236E-02  0.0000E+00  0.0000E+00
 25  0.0000E+00  3.6652E-02  9.7986E-02  1.6687E-01  1.2794E-01  0.0000E+00  1.7629E-02  0.0000E+00  0.0000E+00
 26  1.6267E+00  4.5413E-02  4.2975E-03  1.4897E-01  3.9143E-02  0.0000E+00  2.0484E-01  0.0000E+00  0.0000E+00
 27  0.0000E+00  1.2139E-01  1.3876E-01  1.7255E-01  1.0161E-01  0.0000E+00  2.5695E-01  0.0000E+00  0.0000E+00
 28  0.0000E+00  2.3464E-01  0.0000E+00  6.1390E-01  3.2633E-01  0.0000E+00  3.0557E-01  0.0000E+00  0.0000E+00
 29  0.0000E+00  4.8758E-01  0.0000E+00  0.0000E+00  5.7769E-01  0.0000E+00  0.0000E+00  0.0000E+00  0.0000E+00
 30  0.0000E+00  1.0420E+00  8.2532E+00  0.0000E+00  5.3209E-01  0.0000E+00  0.0000E+00  0.0000E+00  0.0000E+00
 31  0.0000E+00  1.6084E+00  2.4002E+00  3.9745E+00  3.8613E+00  0.0000E+00  4.7817E+00  0.0000E+00  0.0000E+00
 32  0.0000E+00  2.5040E+00  1.3661E+00  2.9684E+00  3.6308E+00  0.0000E+00  0.0000E+00  0.0000E+00  0.0000E+00
 33  0.0000E+00  6.3428E+00  0.0000E+00  1.8606E+01  0.0000E+00  0.0000E+00  9.4267E+00  0.0000E+00  0.0000E+00
 34  9.8373E+01  8.0673E+00  5.3929E+00  8.4856E+00  2.3793E+01  0.0000E+00  1.8030E+01  2.0611E-02  0.0000E+00
 35  0.0000E+00  1.1232E-02  0.0000E+00  3.4328E-02  2.8409E-02  8.5098E-04  6.5445E-03  0.0000E+00  0.0000E+00
 36  0.0000E+00  4.6831E-03  2.5630E-03  0.0000E+00  8.3249E-03  1.1447E-04  0.0000E+00  0.0000E+00  0.0000E+00
 37  0.0000E+00  5.3815E-03  4.5437E-04  0.0000E+00  9.2391E-03  0.0000E+00  0.0000E+00  0.0000E+00  0.0000E+00
 38  0.0000E+00  1.1947E-02  0.0000E+00  0.0000E+00  0.0000E+00  0.0000E+00  2.2041E-02  0.0000E+00  0.0000E+00
 39  0.0000E+00  2.0832E-02  2.4406E-02  0.0000E+00  6.9446E-02  0.0000E+00  5.2848E-02  0.0000E+00  0.0000E+00
 40  0.0000E+00  3.1549E-02  0.0000E+00  9.2314E-02  0.0000E+00  0.0000E+00  2.7919E-02  0.0000E+00  0.0000E+00
 41  0.0000E+00  3.8874E-02  0.0000E+00  1.2843E-01  2.0552E-01  0.0000E+00  2.6686E-02  0.0000E+00  0.0000E+00
 42  0.0000E+00  5.2821E-02  2.9791E-02  4.2767E-02  1.4709E-02  0.0000E+00  8.3327E-02  0.0000E+00  0.0000E+00
 43  0.0000E+00  1.1791E-01  4.5787E-01  3.1040E-01  0.0000E+00  0.0000E+00  0.0000E+00  0.0000E+00  0.0000E+00
 44  0.0000E+00  1.7619E-01  3.5426E-01  7.4669E-01  0.0000E+00  0.0000E+00  8.3456E-03  0.0000E+00  0.0000E+00
 45  0.0000E+00  5.7553E-01  7.2095E-01  0.0000E+00  4.3329E-02  0.0000E+00  0.0000E+00  0.0000E+00  0.0000E+00
 46  0.0000E+00  7.5957E-01  2.8555E-01  1.1661E+00  1.0586E+00  0.0000E+00  5.9696E-01  0.0000E+00  0.0000E+00
 47  0.0000E+00  1.3134E+00  7.2278E-02  8.7247E-02  2.1492E+00  0.0000E+00  1.4827E+00  0.0000E+00  0.0000E+00
 48  0.0000E+00  2.7651E+00  2.7860E+00  2.3365E+00  5.2516E+00  0.0000E+00  0.0000E+00  0.0000E+00  0.0000E+00
 49  0.0000E+00  4.8051E+00  5.7178E+00  0.0000E+00  0.0000E+00  0.0000E+00  6.6046E+00  0.0000E+00  0.0000E+00
 50  0.0000E+00  1.3502E+01  1.8053E+01  1.6894E+00  0.0000E+00  0.0000E+00  0.0000E+00  0.0000E+00  0.0000E+00
 51  0.0000E+00  1.4300E+00  2.8559E+01  3.3045E+01  2.4264E+01  9.9999E+01  3.5744E+01  9.9977E+01  1.0000E+02
 52  0.0000E+00  2.9884E-03  0.0000E+00  2.0306E-03  0.0000E+00  0.0000E+00  8.5174E-03  0.0000E+00  0.0000E+00
 53  0.0000E+00  4.5168E-03  1.2713E-02  2.3206E-02  4.4518E-02  0.0000E+00  6.8288E-04  0.0000E+00  0.0000E+00
 54  0.0000E+00  1.1750E-02  0.0000E+00  2.7979E-02  1.4519E-02  0.0000E+00  1.3866E-02  0.0000E+00  1.6733E-05
 55  0.0000E+00  1.5286E-02  4.6696E-02  4.6027E-02  0.0000E+00  0.0000E+00  0.0000E+00  0.0000E+00  0.0000E+00
 56  0.0000E+00  2.6094E-02  1.9602E-01  3.2545E-02  5.2854E-02  0.0000E+00  1.2722E-01  0.0000E+00  0.0000E+00
 57  0.0000E+00  3.3525E-02  6.8873E-02  0.0000E+00  1.8828E-01  5.3142E-05  6.6936E-02  9.8217E-04  0.0000E+00
 58  0.0000E+00  6.5072E-02  0.0000E+00  1.5602E-02  0.0000E+00  0.0000E+00  1.7777E-01  0.0000E+00  0.0000E+00
 59  0.0000E+00  1.4013E-01  7.9312E-01  1.9208E-01  6.5332E-03  0.0000E+00  0.0000E+00  0.0000E+00  0.0000E+00
 60  0.0000E+00  2.7419E-01  1.5384E-01  0.0000E+00  3.9337E-01  0.0000E+00  1.6398E-01  0.0000E+00  0.0000E+00
 61  0.0000E+00  5.8469E-01  8.8688E-02  3.9678E-01  8.7773E-01  0.0000E+00  1.2262E+00  0.0000E+00  0.0000E+00
 62  0.0000E+00  1.0214E+00  0.0000E+00  1.1768E+00  5.2313E+00  0.0000E+00  6.2401E-01  0.0000E+00  0.0000E+00
 63  0.0000E+00  2.0428E+00  1.7049E+00  2.1747E+00  6.8997E+00  0.0000E+00  7.7634E-01  0.0000E+00  0.0000E+00
 64  0.0000E+00  7.3588E+00  4.4644E+00  0.0000E+00  0.0000E+00  0.0000E+00  0.0000E+00  0.0000E+00  0.0000E+00
 65  0.0000E+00  1.5119E+01  1.4664E+01  4.8906E+00  0.0000E+00  0.0000E+00  0.0000E+00  0.0000E+00  0.0000E+00
 66  0.0000E+00  1.5896E+01  0.0000E+00  0.0000E+00  5.7708E+00  0.0000E+00  0.0000E+00  0.0000E+00  0.0000E+00

# AV, chi2 & Mass for <> & i_chain = 1 ...  7 solutions
AV      -0.8721      3.7917      3.7394      3.7397      3.7193      3.6044      3.7401      3.5801      3.7995
chi2 1.3164E-05  9.5778E-05  4.1321E-05  4.1590E-05  4.1438E-05  3.4665E-05  4.0785E-05  3.3888E-05  4.1737E-05
Mass 4.2543E-14  2.2861E-12  1.3404E-13  1.1681E-13  1.5193E-13  3.2633E-14  1.0709E-13  3.1612E-14  4.2094E-14
  10.23                                  [v0_min (km/s) before EX0s...]
 124.84                                  [vd_min (km/s) before EX0s...]


## Synthetic spectrum (Best Model) ##l_obs f_obs f_syn wei
 3478    [Nl_obs]
 3741.00    0.18232   0.88607    0.000
 3742.00    0.38922   0.88753    0.000
 3743.00    0.64753   0.86651    0.000
 3744.00    0.46470   0.83031    0.000
 3745.00    0.02483   0.78407    0.021
 3746.00   -0.35839   0.73066    0.000
 3747.00   -0.71285   0.67262    0.000
 3748.00   -0.59182   0.61739    0.000
 3749.00   -0.26171   0.58054    0.000
 3750.00   -0.01028   0.57766    0.000
 3751.00    0.21144   0.61358    0.020
 3752.00    0.04269   0.67853    0.020
 3753.00   -0.25119   0.75480    0.000
 3754.00   -0.17655   0.82518    0.000
 3755.00   -0.00314   0.87651    0.000
 3756.00    0.13487   0.90231    0.018
 3757.00    0.26511   0.90610    0.019
 3758.00    0.23700   0.90120    0.018
 3759.00    0.18125   0.90109    0.018
 3760.00    0.15853   0.90913    0.018
 3761.00    0.14020   0.91875    0.018
 3762.00    0.25270   0.92128    0.018
 3763.00    0.37748   0.91247    0.018
 3764.00    0.46665   0.89281    0.018
 3765.00    0.55376   0.86246    0.018
 3766.00    0.58326   0.82125    0.018
 3767.00    0.60850   0.77285    0.018
 3768.00    0.28259   0.72409    0.018
 3769.00   -0.02688   0.68365    0.000
 3770.00    0.06282   0.66206    0.018
 3771.00    0.14211   0.66786    0.018
 3772.00    0.08515   0.70119    0.017
 3773.00    0.10102   0.75274    0.017
 3774.00    0.75628   0.80959    0.018
 3775.00    1.27995   0.86323    0.018
 3776.00    0.95036   0.91159    0.018
 3777.00    0.67897   0.95529    0.018
 3778.00    0.70215   0.99492    0.018
 3779.00    0.68224   1.03014    0.019
 3780.00    0.48599   1.05919    0.018
 3781.00    0.34688   1.08018    0.018
 3782.00    0.40155   1.09254    0.018
 3783.00    0.29959   1.09618    0.019
 3784.00   -0.25038   1.08984    0.000
 3785.00   -0.47065   1.07186    0.000
 3786.00    0.11459   1.04442    0.019
 3787.00    0.52848   1.01351    0.019
 3788.00    0.58122   0.98479    0.018
 3789.00    0.34432   0.96077    0.018
 3790.00   -0.42312   0.93914    0.000
 3791.00   -0.82679   0.91390    0.000
 3792.00   -0.64815   0.87810    0.000
 3793.00   -0.33041   0.82853    0.000
 3794.00    0.18274   0.76777    0.017
 3795.00    0.38931   0.70294    0.017
 3796.00    0.21696   0.64319    0.017
 3797.00    0.12983   0.59973    0.017
 3798.00    0.13553   0.58562    0.017
 3799.00    0.27012   0.60887    0.017
 3800.00    0.52857   0.66547    0.017
 3801.00    0.74187   0.74081    0.018
 3802.00    0.91692   0.81789    0.018
 3803.00    0.92598   0.88421    0.018
 3804.00    0.81117   0.93365    0.018
 3805.00    0.87549   0.96631    0.018
 3806.00    1.05725   0.98793    0.018
 3807.00    0.87882   1.00755    0.018
 3808.00    0.49371   1.03122    0.018
 3809.00    0.58875   1.05717    0.018
 3810.00    0.92378   1.07769    0.018
 3811.00    1.10593   1.08512    0.018
 3812.00    1.22196   1.07702    0.019
 3813.00    0.70797   1.05805    0.019
 3814.00   -0.03966   1.03662    0.000
 3815.00   -0.25675   1.01958    0.000
 3816.00   -0.30706   1.00843    0.000
 3817.00   -0.30051   0.99805    0.000
 3818.00   -0.27906   0.98223    0.000
 3819.00   -0.32113   0.96236    0.000
 3820.00   -0.37682   0.94807    0.000
 3821.00   -0.12098   0.94661    0.000
 3822.00    0.18773   0.95308    0.017
 3823.00    0.48579   0.95442    0.018
 3824.00    0.78247   0.94203    0.018
 3825.00    0.45099   0.91877    0.018
 3826.00    0.06313   0.89261    0.017
 3827.00    0.39154   0.86808    0.017
 3828.00    0.75845   0.84347    0.018
 3829.00    0.55208   0.81377    0.018
 3830.00    0.33437   0.77417    0.018
 3831.00    0.12936   0.72245    0.018
 3832.00   -0.05426   0.66204    0.000
 3833.00    0.23725   0.60259    0.018
 3834.00    0.52639   0.55661    0.018
 3835.00    0.78609   0.53443    0.018
 3836.00    1.00268   0.53921    0.018
 3837.00    0.85495   0.56656    0.018
 3838.00    0.71136   0.60937    0.018
 3839.00    0.59388   0.66195    0.018
 3840.00    0.51851   0.72107    0.017
 3841.00    0.65098   0.78419    0.018
 3842.00    0.74363   0.84618    0.018
 3843.00    0.67695   0.90051    0.018
 3844.00    0.67965   0.94309    0.018
 3845.00    0.91306   0.97387    0.018
 3846.00    1.05400   0.99565    0.018
 3847.00    0.93527   1.01057    0.000
 3848.00    0.82138   1.01926    0.000
 3849.00    0.71910   1.02394    0.000
 3850.00    0.76225   1.02905    0.000
 3851.00    1.10703   1.03713    0.000
 3852.00    1.02765   1.04529    0.000
 3853.00    0.18323   1.04840    0.000
 3854.00   -0.16715   1.04455    0.000
 3855.00    0.26160   1.03647    0.000
 3856.00    0.54816   1.02882    0.000
 3857.00    0.63787   1.02356    0.000
 3858.00    0.71313   1.01972    0.000
 3859.00    0.77078   1.01818    0.000
 3860.00    0.74209   1.02215    0.000
 3861.00    0.62067   1.03341    0.000
 3862.00    0.45023   1.04896    0.000
 3863.00    0.23337   1.06260    0.000
 3864.00    0.08000   1.06961    0.000
 3865.00   -0.02034   1.06937    0.000
 3866.00   -0.03314   1.06439    0.000
 3867.00    0.01843   1.05737    0.000
 3868.00    0.13812   1.04889    0.000
 3869.00    0.30182   1.03737    0.000
 3870.00    0.47976   1.02207    0.000
 3871.00    0.66574   1.00650    0.000
 3872.00    0.71998   0.99753    0.000
 3873.00    0.70941   0.99946    0.000
 3874.00    0.68801   1.00842    0.000
 3875.00    0.66202   1.01379    0.000
 3876.00    0.70255   1.00655    0.000
 3877.00    0.76732   0.98623    0.000
 3878.00    0.65704   0.96044    0.000
 3879.00    0.49281   0.93677    0.000
 3880.00    0.61390   0.91594    0.000
 3881.00    0.80825   0.89400    0.017
 3882.00    1.12503   0.86797    0.017
 3883.00    1.46742   0.83622    0.017
 3884.00    1.07910   0.79575    0.017
 3885.00    0.57029   0.74382    0.017
 3886.00    0.41960   0.68431    0.017
 3887.00    0.31326   0.62880    0.017
 3888.00    0.73767   0.59194    0.018
 3889.00    1.20749   0.58515    0.018
 3890.00    1.00920   0.61151    0.018
 3891.00    0.77762   0.66310    0.018
 3892.00    0.77397   0.72512    0.018
 3893.00    0.77312   0.78367    0.018
 3894.00    0.71215   0.83268    0.018
 3895.00    0.66579   0.87342    0.018
 3896.00    0.91847   0.90894    0.018
 3897.00    1.13169   0.93948    0.018
 3898.00    0.87832   0.96379    0.017
 3899.00    0.66322   0.98302    0.017
 3900.00    0.75992   1.00005    0.017
 3901.00    0.79873   1.01611    0.017
 3902.00    0.48396   1.02876    0.016
 3903.00    0.26839   1.03560    0.016
 3904.00    0.53025   1.03744    0.015
 3905.00    0.76071   1.03871    0.015
 3906.00    0.86822   1.04562    0.016
 3907.00    0.92482   1.06130    0.016
 3908.00    0.81548   1.08323    0.016
 3909.00    0.80780   1.10534    0.016
 3910.00    1.08044   1.12235    0.017
 3911.00    1.09332   1.13236    0.017
 3912.00    0.49280   1.13543    0.017
 3913.00    0.28442   1.13264    0.017
 3914.00    0.87637   1.12612    0.018
 3915.00    1.22490   1.11784    0.018
 3916.00    1.14109   1.10841    0.018
 3917.00    1.16241   1.09710    0.018
 3918.00    1.34711   1.08296    0.018
 3919.00    1.31738   1.06710    0.018
 3920.00    0.99511   1.05298    0.017
 3921.00    0.59871   1.04449    0.017
 3922.00    0.11328   1.04236    0.017
 3923.00   -0.01653   1.04274    0.000
 3924.00    0.23029   1.03949    0.018
 3925.00    0.70491   1.02786    0.018
 3926.00    1.39235   1.00748    0.018
 3927.00    1.63999   0.98123    0.018
 3928.00    1.52544   0.95213    0.018
 3929.00    1.25630   0.92119    0.018
 3930.00    0.87509   0.88740    0.018
 3931.00    0.75802   0.85062    0.018
 3932.00    0.80903   0.81477    0.018
 3933.00    0.92553   0.78886    0.018
 3934.00    1.07847   0.78298    0.018
 3935.00    1.29001   0.80088    0.019
 3936.00    1.52992   0.83712    0.019
 3937.00    1.21165   0.88122    0.019
 3938.00    0.66001   0.92386    0.019
 3939.00    0.48782   0.95951    0.019
 3940.00    0.45136   0.98544    0.019
 3941.00    0.87307   1.00101    0.019
 3942.00    1.43326   1.00849    0.018
 3943.00    1.23048   1.01299    0.019
 3944.00    0.83607   1.02029    0.019
 3945.00    1.10253   1.03277    0.019
 3946.00    1.50377   1.04722    0.019
 3947.00    1.19445   1.05856    0.019
 3948.00    0.77135   1.06533    0.019
 3949.00    0.71442   1.06967    0.019
 3950.00    0.70121   1.07296    0.019
 3951.00    1.11939   1.07426    0.019
 3952.00    1.57270   1.07298    0.019
 3953.00    1.23329   1.07016    0.020
 3954.00    0.85744   1.06566    0.020
 3955.00    0.73020   1.05712    0.020
 3956.00    0.61259   1.04364    0.020
 3957.00    0.83257   1.02729    0.019
 3958.00    1.03182   1.00889    0.019
 3959.00    0.83814   0.98473    0.019
 3960.00    0.71078   0.94986    0.000
 3961.00    1.33072   0.90411    0.000
 3962.00    1.81766   0.85248    0.000
 3963.00    1.25908   0.79908    0.000
 3964.00    0.76686   0.74285    0.000
 3965.00    0.66833   0.68030    0.000
 3966.00    0.59648   0.61075    0.000
 3967.00    0.64986   0.53997    0.000
 3968.00    0.72733   0.47957    0.000
 3969.00    0.89717   0.44316    0.000
 3970.00    0.99380   0.44027    0.000
 3971.00    0.85645   0.47164    0.000
 3972.00    0.76970   0.52916    0.000
 3973.00    0.82000   0.60074    0.000
 3974.00    0.79709   0.67568    0.000
 3975.00    0.60415   0.74725    0.000
 3976.00    0.54515   0.81229    0.000
 3977.00    0.75515   0.87012    0.000
 3978.00    0.97372   0.92066    0.000
 3979.00    1.20727   0.96269    0.000
 3980.00    1.34786   0.99423    0.000
 3981.00    1.34615   1.01483    0.019
 3982.00    1.31568   1.02783    0.019
 3983.00    1.24653   1.03895    0.019
 3984.00    1.10349   1.05224    0.019
 3985.00    0.87294   1.06816    0.019
 3986.00    1.01251   1.08461    0.019
 3987.00    1.53855   1.09923    0.019
 3988.00    1.75675   1.11057    0.019
 3989.00    1.69141   1.11836    0.019
 3990.00    1.60918   1.12421    0.019
 3991.00    1.51323   1.13017    0.019
 3992.00    1.21467   1.13594    0.019
 3993.00    0.77135   1.13879    0.018
 3994.00    0.70095   1.13628    0.019
 3995.00    0.86438   1.12904    0.019
 3996.00    1.36722   1.12091    0.019
 3997.00    2.05607   1.11706    0.019
 3998.00    1.92868   1.12123    0.019
 3999.00    1.41247   1.13296    0.019
 4000.00    1.27876   1.14727    0.019
 4001.00    1.30226   1.15786    0.019
 4002.00    1.57313   1.16022    0.019
 4003.00    1.93088   1.15243    0.019
 4004.00    1.89979   1.13633    0.019
 4005.00    1.75350   1.11869    0.019
 4006.00    1.33866   1.10845    0.019
 4007.00    0.85786   1.10978    0.019
 4008.00    0.61738   1.11929    0.019
 4009.00    0.42468   1.13085    0.019
 4010.00    0.58303   1.14090    0.019
 4011.00    0.79592   1.14911    0.019
 4012.00    0.72738   1.15607    0.019
 4013.00    0.62647   1.16236    0.019
 4014.00    0.28109   1.16801    0.018
 4015.00   -0.08319   1.17231    0.000
 4016.00    0.41523   1.17466    0.019
 4017.00    0.94997   1.17553    0.019
 4018.00    1.41950   1.17652    0.019
 4019.00    1.87048   1.17782    0.019
 4020.00    1.53531   1.17694    0.019
 4021.00    1.25533   1.17096    0.019
 4022.00    1.94848   1.15878    0.019
 4023.00    2.53327   1.14178    0.019
 4024.00    1.95216   1.12418    0.019
 4025.00    1.40233   1.11265    0.018
 4026.00    1.09004   1.11232    0.019
 4027.00    0.79119   1.12141    0.019
 4028.00    0.56992   1.13079    0.018
 4029.00    0.40381   1.13093    0.018
 4030.00    0.49047   1.11964    0.018
 4031.00    0.58244   1.10346    0.018
 4032.00    0.69428   1.09207    0.018
 4033.00    0.83507   1.09169    0.018
 4034.00    1.06662   1.10389    0.018
 4035.00    1.27083   1.12633    0.018
 4036.00    1.40227   1.15343    0.018
 4037.00    1.41894   1.17766    0.018
 4038.00    1.17354   1.19221    0.018
 4039.00    1.04097   1.19487    0.018
 4040.00    1.13147   1.18853    0.018
 4041.00    1.15771   1.17727    0.018
 4042.00    1.07325   1.16158    0.018
 4043.00    1.00000   1.13878    0.019
 4044.00    0.94364   1.11028    0.018
 4045.00    0.91768   1.08608    0.018
 4046.00    0.93200   1.07880    0.018
 4047.00    1.07189   1.09268    0.018
 4048.00    1.35838   1.11921    0.019
 4049.00    1.48239   1.14506    0.019
 4050.00    1.43914   1.16157    0.019
 4051.00    1.21312   1.16668    0.019
 4052.00    0.82112   1.16224    0.018
 4053.00    0.69740   1.15206    0.019
 4054.00    0.78838   1.14017    0.019
 4055.00    0.68861   1.12935    0.019
 4056.00    0.45451   1.12116    0.019
 4057.00    0.97015   1.11661    0.019
 4058.00    1.94891   1.11688    0.019
 4059.00    1.45837   1.12129    0.019
 4060.00    0.17502   1.12446    0.019
 4061.00    0.26985   1.11909    0.019
 4062.00    1.01060   1.10350    0.019
 4063.00    1.19010   1.08514    0.030
 4064.00    1.14283   1.07474    0.145
 4065.00    0.71821   1.07732   -1.000
 4066.00    0.16347   1.08910   -1.000
 4067.00    0.22485   1.10348   -1.000
 4068.00    0.46515   1.11553   -1.000
 4069.00    0.52069   1.12094   -1.000
 4070.00    0.53185   1.11733   -1.000
 4071.00    0.54625   1.10796   -1.000
 4072.00    0.56128   1.10004   -1.000
 4073.00    1.08019   1.09698   -1.000
 4074.00    1.67503   1.09339   -1.000
 4075.00    1.66142   1.08212   -1.000
 4076.00    1.58051   1.06413   -1.000
 4077.00    1.67776   1.04914    0.039
 4078.00    1.78806   1.04792    0.019
 4079.00    1.53929   1.06293    0.018
 4080.00    1.27677   1.08611    0.018
 4081.00    1.51306   1.10524    0.018
 4082.00    1.74728   1.11222    0.018
 4083.00    1.79967   1.10740    0.018
 4084.00    1.81254   1.09814    0.018
 4085.00    1.17427   1.09282    0.018
 4086.00    0.59939   1.09528    0.018
 4087.00    0.67698   1.10326    0.018
 4088.00    0.77560   1.11019    0.018
 4089.00    1.02853   1.10960    0.018
 4090.00    1.21126   1.09906    0.018
 4091.00    1.00020   1.08080    0.018
 4092.00    0.90078   1.05807    0.000
 4093.00    1.30097   1.03159    0.000
 4094.00    1.59990   0.99969    0.000
 4095.00    1.52691   0.96058    0.000
 4096.00    1.34830   0.91540    0.000
 4097.00    0.84485   0.86680    0.000
 4098.00    0.44289   0.81526    0.000
 4099.00    0.30619   0.76064    0.000
 4100.00    0.36500   0.70796    0.000
 4101.00    0.86290   0.66939    0.000
 4102.00    1.17253   0.65877    0.000
 4103.00    1.11580   0.68163    0.000
 4104.00    1.01004   0.73022    0.000
 4105.00    0.82110   0.78948    0.000
 4106.00    0.85395   0.84584    0.000
 4107.00    1.21647   0.89132    0.000
 4108.00    1.44408   0.92425    0.000
 4109.00    1.49542   0.94757    0.000
 4110.00    1.51588   0.96622    0.000
 4111.00    1.50079   0.98499    0.000
 4112.00    1.35162   1.00613    0.000
 4113.00    1.06634   1.02887    0.018
 4114.00    0.88165   1.05020    0.018
 4115.00    0.78702   1.06624    0.018
 4116.00    0.67870   1.07412    0.018
 4117.00    0.55958   1.07336    0.017
 4118.00    0.61978   1.06685    0.017
 4119.00    0.80440   1.05979    0.017
 4120.00    1.10660   1.05694    0.018
 4121.00    1.48034   1.05949    0.018
 4122.00    1.54049   1.06607    0.018
 4123.00    1.43405   1.07461    0.018
 4124.00    1.48737   1.08235    0.018
 4125.00    1.61436   1.08573    0.018
 4126.00    1.66255   1.08205    0.018
 4127.00    1.67944   1.07206    0.018
 4128.00    1.64142   1.05934    0.018
 4129.00    1.58481   1.04743    0.018
 4130.00    1.48983   1.03729    0.018
 4131.00    1.38393   1.02924    0.018
 4132.00    1.15082   1.02544    0.018
 4133.00    0.88784   1.02937    0.018
 4134.00    0.95073   1.04227    0.018
 4135.00    1.07513   1.06135    0.018
 4136.00    0.97538   1.08175    0.018
 4137.00    0.84289   1.09841    0.018
 4138.00    1.23587   1.10834    0.018
 4139.00    1.68469   1.10947    0.018
 4140.00    1.38505   1.09855    0.019
 4141.00    1.03363   1.07457    0.019
 4142.00    0.95518   1.04315    0.019
 4143.00    0.88614   1.01639    0.018
 4144.00    1.48126   1.00667    0.018
 4145.00    2.05119   1.01728    0.019
 4146.00    1.74551   1.03939    0.018
 4147.00    1.44447   1.05991    0.018
 4148.00    1.21503   1.07117    0.018
 4149.00    1.00643   1.07305    0.018
 4150.00    1.00317   1.06986    0.018
 4151.00    0.98857   1.06584    0.018
 4152.00    0.89344   1.06206    0.018
 4153.00    0.82239   1.05840    0.018
 4154.00    0.88284   1.05529    0.018
 4155.00    0.96361   1.05437    0.018
 4156.00    1.13324   1.05742    0.018
 4157.00    1.23470   1.06469    0.018
 4158.00    1.09096   1.07494    0.017
 4159.00    0.97916   1.08533    0.017
 4160.00    0.96377   1.09360    0.017
 4161.00    0.95516   1.09900    0.017
 4162.00    0.96396   1.10194    0.018
 4163.00    1.20247   1.10263    0.018
 4164.00    1.94842   1.10002    0.018
 4165.00    2.17769   1.09396    0.018
 4166.00    1.41725   1.08614    0.017
 4167.00    1.00113   1.07876    0.017
 4168.00    1.16049   1.07325    0.017
 4169.00    1.23882   1.06817    0.018
 4170.00    1.19845   1.05908    0.019
 4171.00    0.93029   1.04396    0.020
 4172.00    0.36875   1.02645    0.020
 4173.00    0.35533   1.01372    0.020
 4174.00    0.96394   1.01052    0.020
 4175.00    1.28358   1.01472    0.019
 4176.00    1.31402   1.02088    0.019
 4177.00    1.27070   1.02575    0.018
 4178.00    1.16227   1.02988    0.018
 4179.00    1.21720   1.03496    0.017
 4180.00    1.39919   1.04068    0.017
 4181.00    1.55114   1.04553    0.017
 4182.00    1.68256   1.04927    0.017
 4183.00    1.57119   1.05333    0.017
 4184.00    1.31429   1.05697    0.017
 4185.00    1.04698   1.05734    0.017
 4186.00    0.77423   1.05338    0.017
 4187.00    0.85554   1.04737    0.017
 4188.00    1.09746   1.04425    0.017
 4189.00    1.12979   1.04678    0.017
 4190.00    1.08033   1.05333    0.017
 4191.00    1.03154   1.06117    0.017
 4192.00    0.98297   1.06801    0.017
 4193.00    0.98821   1.07118    0.017
 4194.00    1.00845   1.06721    0.017
 4195.00    0.82194   1.05476    0.017
 4196.00    0.58799   1.03700    0.017
 4197.00    0.34498   1.01979    0.017
 4198.00    0.10031   1.00765    0.017
 4199.00    0.32412   1.00180    0.017
 4200.00    0.61418   1.00133    0.017
 4201.00    1.02661   1.00413    0.017
 4202.00    1.45152   1.00891    0.017
 4203.00    1.47860   1.01650    0.017
 4204.00    1.47975   1.02706    0.017
 4205.00    1.10036   1.03934    0.016
 4206.00    0.71014   1.05199    0.016
 4207.00    0.87222   1.06262    0.017
 4208.00    1.03199   1.06916    0.017
 4209.00    1.12373   1.07159    0.017
 4210.00    1.14989   1.07127    0.017
 4211.00    0.22121   1.06974    0.017
 4212.00   -0.53829   1.06605    0.000
 4213.00    0.30205   1.05748    0.017
 4214.00    1.07974   1.04482    0.017
 4215.00    1.42668   1.03384    0.017
 4216.00    1.70631   1.03153    0.017
 4217.00    1.62810   1.04120    0.017
 4218.00    1.52179   1.05843    0.018
 4219.00    1.29543   1.07455    0.017
 4220.00    1.04951   1.08253    0.017
 4221.00    0.73466   1.07844    0.017
 4222.00    0.48238   1.06081    0.017
 4223.00    0.41540   1.03082    0.017
 4224.00    0.39180   0.99293    0.017
 4225.00    0.47768   0.95591    0.017
 4226.00    0.59176   0.93173    0.017
 4227.00    0.76713   0.92999    0.017
 4228.00    0.96176   0.95201    0.017
 4229.00    1.19272   0.98752    0.017
 4230.00    1.23721   1.01979    0.016
 4231.00    0.97472   1.03780    0.016
 4232.00    0.74905   1.04028    0.016
 4233.00    0.57654   1.03207    0.016
 4234.00    0.79439   1.02113    0.016
 4235.00    1.50785   1.01303    0.016
 4236.00    1.70371   1.00859    0.016
 4237.00    1.32048   1.00843    0.016
 4238.00    0.99511   1.01266    0.016
 4239.00    0.72685   1.02009    0.016
 4240.00    0.73776   1.02965    0.016
 4241.00    0.99164   1.04049    0.016
 4242.00    1.19108   1.05131    0.016
 4243.00    1.34877   1.06007    0.016
 4244.00    1.57717   1.06490    0.016
 4245.00    1.85321   1.06294    0.017
 4246.00    1.80486   1.05255    0.017
 4247.00    1.56500   1.03615    0.017
 4248.00    1.41614   1.01846    0.017
 4249.00    1.31414   1.00482    0.017
 4250.00    1.11750   0.99797    0.017
 4251.00    0.87864   0.99725    0.017
 4252.00    1.05570   1.00001    0.017
 4253.00    1.39225   1.00279    0.016
 4254.00    1.28002   1.00500    0.016
 4255.00    1.02154   1.00886    0.016
 4256.00    1.12783   1.01421    0.016
 4257.00    1.33370   1.01677    0.016
 4258.00    1.33151   1.01173    0.016
 4259.00    1.28270   1.00066    0.016
 4260.00    1.05933   0.99202    0.016
 4261.00    0.80475   0.99386    0.016
 4262.00    0.77745   1.00830    0.016
 4263.00    0.78125   1.02978    0.016
 4264.00    1.26090   1.04869    0.016
 4265.00    1.78704   1.05794    0.017
 4266.00    1.42202   1.05573    0.016
 4267.00    1.00250   1.04325    0.016
 4268.00    0.89066   1.02306    0.015
 4269.00    0.78716   0.99812    0.015
 4270.00    0.69171   0.97159    0.015
 4271.00    0.60775   0.94805    0.015
 4272.00    0.82721   0.93277    0.015
 4273.00    1.01952   0.92994    0.015
 4274.00    0.83865   0.93936    0.015
 4275.00    0.66080   0.95774    0.016
 4276.00    0.51033   0.98131    0.016
 4277.00    0.42683   1.00315    0.016
 4278.00    0.78942   1.01619    0.016
 4279.00    1.10806   1.01849    0.016
 4280.00    1.19913   1.01270    0.016
 4281.00    1.24257   1.00523    0.016
 4282.00    1.08716   1.00074   -2.000
 4283.00    0.95994   0.99809   -2.000
 4284.00    0.92999   0.99501   -2.000
 4285.00    0.91162   0.98929   -2.000
 4286.00    0.92691   0.97999   -2.000
 4287.00    1.00199   0.96761   -2.000
 4288.00    1.22539   0.95332   -2.000
 4289.00    1.37049   0.94039   -2.000
 4290.00    1.34818   0.93419   -2.000
 4291.00    1.38707   0.93822   -2.000
 4292.00    1.53957   0.94935   -2.000
 4293.00    1.69971   0.96054   -2.000
 4294.00    1.87224   0.96508   -2.000
 4295.00    1.68690   0.96044   -2.000
 4296.00    0.99245   0.94778   -2.000
 4297.00    0.67324   0.92768   -2.000
 4298.00    0.82366   0.90316    0.016
 4299.00    0.98030   0.87932    0.016
 4300.00    1.14377   0.86106    0.016
 4301.00    1.05371   0.85232    0.016
 4302.00    0.71698   0.85211    0.016
 4303.00    0.55196   0.85566    0.016
 4304.00    0.53428   0.85920    0.016
 4305.00    0.57669   0.85886    0.016
 4306.00    0.66452   0.85273    0.016
 4307.00    0.95865   0.84371    0.016
 4308.00    1.38976   0.83666    0.016
 4309.00    1.48740   0.83702    0.016
 4310.00    1.39112   0.84721    0.016
 4311.00    1.08034   0.86495    0.016
 4312.00    0.66085   0.88671    0.016
 4313.00    0.52877   0.91159    0.015
 4314.00    0.52280   0.94078    0.015
 4315.00    0.69445   0.97384    0.015
 4316.00    0.93300   1.00748    0.016
 4317.00    1.05071   1.03455    0.016
 4318.00    1.12978   1.04826    0.016
 4319.00    1.12691   1.04755    0.016
 4320.00    1.10215   1.03485    0.016
 4321.00    1.10413   1.01210    0.016
 4322.00    1.11196   0.98136    0.016
 4323.00    1.29057   0.94526    0.016
 4324.00    1.49889   0.91024    0.016
 4325.00    1.20040   0.88720    0.016
 4326.00    0.83487   0.88388    0.016
 4327.00    0.92338   0.89953    0.016
 4328.00    1.05432   0.92384    0.016
 4329.00    1.13357   0.94351    0.016
 4330.00    1.20986   0.95140    0.000
 4331.00    1.03966   0.94815    0.000
 4332.00    0.86483   0.93850    0.000
 4333.00    0.81595   0.92467    0.000
 4334.00    0.77638   0.90398    0.000
 4335.00    0.96005   0.87190    0.000
 4336.00    1.12251   0.82553    0.000
 4337.00    1.00891   0.76633    0.000
 4338.00    0.95228   0.70338    0.000
 4339.00    1.39323   0.65208    0.000
 4340.00    1.74243   0.62509    0.000
 4341.00    1.49902   0.62827    0.000
 4342.00    1.26366   0.65952    0.000
 4343.00    1.06893   0.70746    0.000
 4344.00    0.89472   0.75870    0.000
 4345.00    0.80430   0.80592    0.000
 4346.00    0.82864   0.84629    0.000
 4347.00    1.24121   0.87838    0.000
 4348.00    1.55728   0.90096    0.000
 4349.00    1.59800   0.91175    0.000
 4350.00    1.57779   0.91048    0.000
 4351.00    1.40905   0.90233    0.017
 4352.00    1.24814   0.89693    0.017
 4353.00    1.10368   0.90284    0.017
 4354.00    0.89085   0.92038    0.016
 4355.00    0.55302   0.94240    0.016
 4356.00    0.47720   0.96138    0.016
 4357.00    0.82001   0.97352    0.016
 4358.00    1.17442   0.97926    0.016
 4359.00    1.54510   0.98263    0.016
 4360.00    1.74955   0.98864    0.016
 4361.00    1.74889   0.99921    0.016
 4362.00    1.51038   1.01219    0.016
 4363.00    1.01320   1.02372    0.016
 4364.00    0.81086   1.03069    0.016
 4365.00    0.89135   1.03125    0.016
 4366.00    0.88221   1.02482    0.016
 4367.00    0.79728   1.01355    0.016
 4368.00    0.66207   1.00228    0.016
 4369.00    0.48943   0.99515    0.016
 4370.00    0.85606   0.99188    0.016
 4371.00    1.57556   0.98854    0.016
 4372.00    1.39406   0.98176    0.016
 4373.00    0.69651   0.97115    0.016
 4374.00    0.51752   0.96060    0.016
 4375.00    0.59718   0.95678    0.016
 4376.00    0.77482   0.96363    0.016
 4377.00    0.99475   0.97820    0.016
 4378.00    0.97876   0.99217    0.016
 4379.00    0.87548   0.99674    0.016
 4380.00    1.25819   0.98634    0.016
 4381.00    1.79331   0.96061    0.016
 4382.00    1.79930   0.92504    0.016
 4383.00    1.66686   0.89002    0.016
 4384.00    1.37228   0.86799    0.016
 4385.00    1.04307   0.86625    0.016
 4386.00    1.22953   0.88116    0.015
 4387.00    1.50320   0.90173    0.015
 4388.00    1.21145   0.91871    0.015
 4389.00    0.84746   0.93059    0.016
 4390.00    0.79286   0.93998    0.016
 4391.00    0.76588   0.94874    0.015
 4392.00    0.75561   0.95713    0.015
 4393.00    0.74624   0.96404    0.015
 4394.00    0.96329   0.96948    0.015
 4395.00    1.18185   0.97556    0.015
 4396.00    1.16305   0.98375    0.015
 4397.00    1.13012   0.99166    0.016
 4398.00    0.78646   0.99398    0.016
 4399.00    0.48322   0.98934    0.015
 4400.00    0.67936   0.98121    0.015
 4401.00    0.87208   0.97268    0.015
 4402.00    1.03607   0.96423    0.015
 4403.00    1.13962   0.95420    0.015
 4404.00    0.86437   0.94199    0.015
 4405.00    0.66772   0.93199    0.015
 4406.00    0.85769   0.93014    0.015
 4407.00    1.09369   0.93722    0.015
 4408.00    1.51339   0.95021    0.015
 4409.00    1.77598   0.96731    0.015
 4410.00    1.51753   0.98666    0.015
 4411.00    1.23353   1.00273    0.015
 4412.00    0.87799   1.00890    0.015
 4413.00    0.78371   1.00278    0.015
 4414.00    1.31562   0.98744    0.015
 4415.00    1.63246   0.97072    0.015
 4416.00    1.50417   0.96277    0.015
 4417.00    1.38149   0.96808    0.015
 4418.00    1.26895   0.98201    0.015
 4419.00    1.19797   0.99662    0.015
 4420.00    1.19240   1.00487    0.015
 4421.00    1.20371   1.00427    0.015
 4422.00    1.23835   0.99807    0.015
 4423.00    1.30938   0.99170    0.015
 4424.00    1.42467   0.98872    0.015
 4425.00    1.38490   0.98858    0.015
 4426.00    1.17886   0.98917    0.015
 4427.00    1.10913   0.98910    0.015
 4428.00    1.16834   0.98794    0.015
 4429.00    1.13793   0.98628    0.015
 4430.00    1.03278   0.98379    0.015
 4431.00    1.11999   0.98021    0.015
 4432.00    1.34841   0.97520    0.015
 4433.00    1.30452   0.96739    0.015
 4434.00    1.08507   0.95874    0.015
 4435.00    1.00703   0.95505    0.015
 4436.00    1.00876   0.96131    0.015
 4437.00    1.03746   0.97682    0.015
 4438.00    1.07939   0.99400    0.015
 4439.00    1.13090   1.00374    0.015
 4440.00    1.18647   1.00135    0.015
 4441.00    1.27834   0.98894    0.015
 4442.00    1.38339   0.97475    0.015
 4443.00    1.48279   0.96763    0.015
 4444.00    1.58044   0.97131    0.015
 4445.00    1.21567   0.98341    0.015
 4446.00    0.73252   0.99754    0.015
 4447.00    0.85856   1.00700    0.015
 4448.00    1.11158   1.01005    0.015
 4449.00    1.21336   1.00875    0.015
 4450.00    1.29029   1.00411    0.015
 4451.00    1.31252   0.99681    0.014
 4452.00    1.32800   0.98698    0.014
 4453.00    1.56422   0.97365    0.014
 4454.00    1.81921   0.95804    0.015
 4455.00    1.42419   0.94388    0.014
 4456.00    0.99709   0.93494    0.014
 4457.00    0.83271   0.93170    0.014
 4458.00    0.68095   0.93076    0.014
 4459.00    1.05892   0.92907    0.014
 4460.00    1.41392   0.92748    0.015
 4461.00    1.30369   0.92852    0.000
 4462.00    1.20303   0.93371    0.000
 4463.00    1.21489   0.94339    0.000
 4464.00    1.23477   0.95445    0.000
 4465.00    1.31969   0.96154    0.000
 4466.00    1.38118   0.96230    0.000
 4467.00    1.30015   0.95744    0.000
 4468.00    1.16107   0.94917    0.000
 4469.00    0.74347   0.94097    0.000
 4470.00    0.43068   0.93757    0.000
 4471.00    0.52718   0.94264    0.000
 4472.00    0.66614   0.95608    0.000
 4473.00    0.94313   0.97485    0.000
 4474.00    1.23668   0.99423    0.000
 4475.00    1.57582   1.00960    0.000
 4476.00    1.72048   1.01843    0.000
 4477.00    1.40689   1.01925    0.000
 4478.00    1.13533   1.01013    0.000
 4479.00    0.94940   0.99121    0.000
 4480.00    0.90466   0.96850    0.000
 4481.00    1.11018   0.95193    0.000
 4482.00    1.19377   0.94964    0.014
 4483.00    1.08825   0.96281    0.014
 4484.00    1.03797   0.98414    0.014
 4485.00    1.06292   1.00287    0.014
 4486.00    1.08649   1.01159    0.014
 4487.00    1.10841   1.00866    0.014
 4488.00    1.12233   0.99769    0.014
 4489.00    1.12781   0.98558    0.014
 4490.00    1.09797   0.97845    0.014
 4491.00    1.03519   0.97758    0.014
 4492.00    1.16031   0.97922    0.014
 4493.00    1.43991   0.97868    0.014
 4494.00    1.27754   0.97464    0.014
 4495.00    0.79536   0.97069    0.014
 4496.00    0.47432   0.97182    0.014
 4497.00    0.25565   0.97906    0.014
 4498.00    0.49571   0.98932    0.014
 4499.00    0.99059   0.99844    0.014
 4500.00    1.07340   1.00486    0.014
 4501.00    0.95714   1.01047    0.014
 4502.00    0.74918   1.01841    0.014
 4503.00    0.50296   1.02980    0.014
 4504.00    0.53948   1.04068    0.014
 4505.00    0.67690   1.04588    0.014
 4506.00    1.01363   1.04456    0.014
 4507.00    1.41045   1.03961    0.014
 4508.00    1.33022   1.03469    0.014
 4509.00    1.13050   1.03181    0.013
 4510.00    0.98652   1.03006    0.013
 4511.00    0.85387   1.02676    0.014
 4512.00    1.20716   1.02001    0.014
 4513.00    1.63797   1.01100    0.014
 4514.00    1.51604   1.00243    0.014
 4515.00    1.32842   0.99604    0.013
 4516.00    1.21555   0.99268    0.013
 4517.00    1.10873   0.99207    0.013
 4518.00    1.19265   0.99303    0.013
 4519.00    1.28523   0.99502    0.013
 4520.00    1.15200   0.99646    0.013
 4521.00    1.01547   0.99496    0.014
 4522.00    0.85240   0.98897    0.013
 4523.00    0.70931   0.97861    0.013
 4524.00    0.94125   0.96632    0.013
 4525.00    1.14351   0.95320    0.013
 4526.00    1.01315   0.93904    0.013
 4527.00    0.90014   0.92580    0.013
 4528.00    0.92294   0.91637    0.013
 4529.00    0.95115   0.91279    0.013
 4530.00    1.01139   0.91506    0.013
 4531.00    1.05455   0.91986    0.013
 4532.00    1.01775   0.92347    0.013
 4533.00    0.98805   0.92459    0.013
 4534.00    0.98545   0.92541    0.013
 4535.00    0.94272   0.93099    0.013
 4536.00    0.77203   0.94391    0.013
 4537.00    0.79178   0.96118    0.013
 4538.00    1.32610   0.97577    0.014
 4539.00    1.69337   0.98214    0.014
 4540.00    1.67355   0.98139    0.013
 4541.00    1.52710   0.97785    0.013
 4542.00    1.12678   0.97481    0.013
 4543.00    0.82006   0.97312    0.013
 4544.00    0.67678   0.97096    0.013
 4545.00    0.56836   0.96684    0.013
 4546.00    0.51322   0.96138    0.013
 4547.00    0.50144   0.95515    0.013
 4548.00    0.54788   0.94845    0.013
 4549.00    0.57737   0.94245    0.013
 4550.00    0.58683   0.93898    0.000
 4551.00    0.67985   0.93875    0.000
 4552.00    0.85999   0.93878    0.000
 4553.00    0.87750   0.93690    0.000
 4554.00    0.74550   0.93567    0.000
 4555.00    0.62990   0.93870    0.000
 4556.00    0.52758   0.94774    0.000
 4557.00    0.63243   0.96154    0.000
 4558.00    0.88504   0.97559    0.000
 4559.00    0.98996   0.98564    0.000
 4560.00    1.00244   0.98995    0.000
 4561.00    0.94344   0.98837    0.000
 4562.00    0.84535   0.98177    0.000
 4563.00    0.97349   0.97225    0.000
 4564.00    1.20918   0.96376    0.000
 4565.00    1.12003   0.96096    0.000
 4566.00    0.89766   0.96548    0.000
 4567.00    0.79363   0.97455    0.000
 4568.00    0.73105   0.98229    0.000
 4569.00    0.95603   0.98402    0.000
 4570.00    1.26601   0.98032    0.000
 4571.00    1.33175   0.97475    0.000
 4572.00    1.33766   0.97145    0.000
 4573.00    1.09448   0.97369    0.000
 4574.00    0.80195   0.97928    0.000
 4575.00    0.95058   0.98280    0.000
 4576.00    1.16749   0.98206    0.000
 4577.00    1.26439   0.97697    0.000
 4578.00    1.34755   0.96767    0.000
 4579.00    1.54778   0.95591    0.000
 4580.00    1.75699   0.94459    0.000
 4581.00    1.81114   0.93654    0.000
 4582.00    1.85883   0.93305    0.000
 4583.00    1.31322   0.93283    0.000
 4584.00    0.77485   0.93450    0.000
 4585.00    0.76841   0.93855    0.000
 4586.00    0.77960   0.94519    0.000
 4587.00    1.09874   0.95347    0.000
 4588.00    1.37308   0.96146    0.000
 4589.00    1.16806   0.96602    0.000
 4590.00    0.97662   0.96515    0.000
 4591.00    0.88783   0.95965    0.000
 4592.00    0.80236   0.95208    0.000
 4593.00    0.73598   0.94573    0.000
 4594.00    0.68380   0.94240    0.000
 4595.00    0.69646   0.94170    0.000
 4596.00    0.71789   0.94294    0.000
 4597.00    0.77214   0.94518    0.000
 4598.00    0.82343   0.94688    0.000
 4599.00    0.86548   0.94747    0.000
 4600.00    0.90615   0.94693    0.000
 4601.00    0.94315   0.94587    0.000
 4602.00    0.97404   0.94595    0.000
 4603.00    0.99103   0.94744    0.000
 4604.00    1.00403   0.94975    0.000
 4605.00    1.00917   0.95360    0.000
 4606.00    1.01165   0.96009    0.000
 4607.00    1.00955   0.96936    0.000
 4608.00    1.08536   0.97951    0.000
 4609.00    1.27851   0.98711    0.000
 4610.00    1.36919   0.98926    0.000
 4611.00    1.32431   0.98601    0.000
 4612.00    1.19958   0.98059    0.000
 4613.00    0.98180   0.97608    0.000
 4614.00    0.85922   0.97388    0.000
 4615.00    0.83448   0.97391    0.000
 4616.00    0.93245   0.97403    0.000
 4617.00    1.14164   0.97295    0.000
 4618.00    1.15463   0.97165    0.000
 4619.00    1.01086   0.97062    0.000
 4620.00    0.87086   0.97081    0.000
 4621.00    0.73350   0.97346    0.000
 4622.00    0.76063   0.97665    0.000
 4623.00    0.88917   0.97799    0.000
 4624.00    0.92765   0.97752    0.000
 4625.00    0.91763   0.97547    0.000
 4626.00    0.73163   0.97185    0.000
 4627.00    0.46333   0.96811    0.000
 4628.00    0.30063   0.96542    0.000
 4629.00    0.18050   0.96363    0.000
 4630.00    0.48302   0.96285    0.000
 4631.00    0.93092   0.96305    0.000
 4632.00    0.87501   0.96204    0.000
 4633.00    0.67316   0.95780    0.000
 4634.00    0.68367   0.95165    0.000
 4635.00    0.74504   0.94579    0.000
 4636.00    0.93464   0.94061    0.000
 4637.00    1.14901   0.93599    0.000
 4638.00    1.16225   0.93284    0.000
 4639.00    1.14531   0.93252    0.000
 4640.00    1.02978   0.93515    0.000
 4641.00    0.90340   0.93948    0.000
 4642.00    0.74286   0.94292    0.000
 4643.00    0.57982   0.94171    0.000
 4644.00    0.56005   0.93448    0.000
 4645.00    0.54569   0.92353    0.000
 4646.00    0.73016   0.91239    0.000
 4647.00    0.91291   0.90521    0.000
 4648.00    0.99475   0.90526    0.000
 4649.00    1.06872   0.91207    0.000
 4650.00    1.01402   0.92209    0.000
 4651.00    0.94780   0.93079    0.000
 4652.00    0.76379   0.93498    0.000
 4653.00    0.60471   0.93419    0.000
 4654.00    0.62784   0.93006    0.000
 4655.00    0.65372   0.92624    0.000
 4656.00    0.69494   0.92743    0.000
 4657.00    0.73990   0.93542    0.000
 4658.00    0.80154   0.94786    0.000
 4659.00    0.88851   0.95959    0.000
 4660.00    1.06829   0.96495    0.000
 4661.00    1.17558   0.96167    0.000
 4662.00    1.06043   0.95137    0.000
 4663.00    0.91755   0.93708    0.000
 4664.00    0.70235   0.92122    0.000
 4665.00    0.61523   0.90510    0.000
 4666.00    0.81516   0.88944    0.000
 4667.00    0.92665   0.87666    0.000
 4668.00    0.86638   0.87160    0.000
 4669.00    0.82793   0.87693    0.000
 4670.00    0.82645   0.88948    0.000
 4671.00    0.89668   0.90356    0.000
 4672.00    1.07332   0.91506    0.000
 4673.00    1.08177   0.92263    0.000
 4674.00    0.87085   0.92743    0.000
 4675.00    0.69781   0.93103    0.000
 4676.00    0.56827   0.93316    0.000
 4677.00    0.61269   0.93214    0.000
 4678.00    0.83336   0.92667    0.000
 4679.00    0.89255   0.91833    0.000
 4680.00    0.80740   0.91095    0.000
 4681.00    0.71113   0.90742    0.000
 4682.00    0.60609   0.90855    0.000
 4683.00    0.67166   0.91349    0.000
 4684.00    0.85540   0.91958    0.000
 4685.00    0.94984   0.92373    0.000
 4686.00    0.99002   0.92498    0.000
 4687.00    0.87628   0.92407    0.000
 4688.00    0.68093   0.92189    0.000
 4689.00    0.65274   0.91990    0.000
 4690.00    0.70147   0.91894    0.000
 4691.00    0.81024   0.91923    0.000
 4692.00    0.94279   0.92160    0.000
 4693.00    1.01878   0.92634    0.000
 4694.00    1.07567   0.93158    0.000
 4695.00    1.06124   0.93462    0.000
 4696.00    1.02657   0.93360    0.000
 4697.00    1.10529   0.92777    0.000
 4698.00    1.21055   0.91813    0.000
 4699.00    1.08971   0.90759    0.000
 4700.00    0.92634   0.89931    0.000
 4701.00    0.91151   0.89419    0.000
 4702.00    0.91829   0.89131    0.000
 4703.00    0.85661   0.89029    0.000
 4704.00    0.78771   0.89124    0.000
 4705.00    0.88706   0.89304    0.000
 4706.00    0.99798   0.89324    0.000
 4707.00    0.85729   0.89116    0.000
 4708.00    0.70805   0.88922    0.000
 4709.00    0.73143   0.88996    0.000
 4710.00    0.75911   0.89363    0.000
 4711.00    0.91791   0.89844    0.000
 4712.00    1.06811   0.90172    0.000
 4713.00    1.08652   0.90218    0.000
 4714.00    1.10001   0.90185    0.000
 4715.00    1.06532   0.90426    0.000
 4716.00    1.00385   0.91133    0.000
 4717.00    0.75295   0.92154    0.000
 4718.00    0.58134   0.93134    0.000
 4719.00    0.84106   0.93846    0.000
 4720.00    1.06481   0.94253    0.000
 4721.00    1.13177   0.94387    0.000
 4722.00    1.12452   0.94336    0.000
 4723.00    0.85101   0.94185    0.000
 4724.00    0.68845   0.93912    0.000
 4725.00    0.85987   0.93355    0.000
 4726.00    0.97993   0.92355    0.000
 4727.00    0.96842   0.90967    0.000
 4728.00    1.00910   0.89553    0.000
 4729.00    1.16485   0.88601    0.000
 4730.00    1.35461   0.88313    0.000
 4731.00    1.60940   0.88557    0.000
 4732.00    1.66801   0.89128    0.000
 4733.00    1.39937   0.89781    0.000
 4734.00    1.19306   0.90279    0.000
 4735.00    1.07788   0.90571    0.000
 4736.00    0.92701   0.90696    0.000
 4737.00    0.73024   0.90715    0.000
 4738.00    0.74866   0.90817    0.000
 4739.00    1.01086   0.91046    0.000
 4740.00    1.02754   0.91223    0.000
 4741.00    0.79896   0.91313    0.000
 4742.00    0.91355   0.91463    0.000
 4743.00    1.33053   0.91743    0.000
 4744.00    1.40264   0.92071    0.000
 4745.00    1.20699   0.92348    0.000
 4746.00    1.08338   0.92596    0.000
 4747.00    1.00893   0.92846    0.000
 4748.00    0.98975   0.93001    0.000
 4749.00    1.00362   0.92976    0.000
 4750.00    0.99012   0.92791    0.000
 4751.00    0.96233   0.92439    0.000
 4752.00    1.08510   0.91903    0.000
 4753.00    1.27602   0.91265    0.000
 4754.00    1.19005   0.90684    0.000
 4755.00    0.99627   0.90277    0.000
 4756.00    0.89187   0.90097    0.000
 4757.00    0.81708   0.90118    0.000
 4758.00    0.82154   0.90212    0.000
 4759.00    0.84802   0.90189    0.000
 4760.00    1.04127   0.89886    0.000
 4761.00    1.27266   0.89212    0.012
 4762.00    1.07065   0.88209    0.012
 4763.00    0.78926   0.87168    0.012
 4764.00    0.93728   0.86429    0.012
 4765.00    1.14576   0.86124    0.012
 4766.00    0.98425   0.86268    0.012
 4767.00    0.78521   0.86849    0.012
 4768.00    0.72918   0.87692    0.012
 4769.00    0.68240   0.88509    0.012
 4770.00    0.55275   0.89109    0.012
 4771.00    0.42122   0.89450    0.012
 4772.00    0.60307   0.89641    0.012
 4773.00    0.77979   0.89928    0.012
 4774.00    0.80807   0.90417    0.012
 4775.00    0.84794   0.90934    0.012
 4776.00    1.05542   0.91237    0.012
 4777.00    1.24180   0.91284    0.012
 4778.00    1.22963   0.91143    0.012
 4779.00    1.20933   0.90806    0.012
 4780.00    1.13343   0.90301    0.012
 4781.00    1.06661   0.89765    0.011
 4782.00    1.04786   0.89248    0.011
 4783.00    1.00218   0.88707    0.011
 4784.00    0.84183   0.88220    0.011
 4785.00    0.74483   0.87879    0.011
 4786.00    0.87039   0.87595    0.011
 4787.00    0.96772   0.87338    0.011
 4788.00    0.98164   0.87272    0.011
 4789.00    0.96083   0.87432    0.011
 4790.00    0.85259   0.87792    0.011
 4791.00    0.84501   0.88435    0.011
 4792.00    1.05574   0.89307    0.011
 4793.00    1.12672   0.90231    0.012
 4794.00    0.93466   0.91017    0.011
 4795.00    0.78802   0.91413    0.011
 4796.00    0.71600   0.91240    0.011
 4797.00    0.62644   0.90595    0.011
 4798.00    0.51160   0.89794    0.011
 4799.00    0.65814   0.89178    0.011
 4800.00    1.13593   0.88974    0.012
 4801.00    1.30667   0.89174    0.012
 4802.00    1.13448   0.89518    0.012
 4803.00    1.06349   0.89669    0.011
 4804.00    1.09217   0.89427    0.011
 4805.00    1.08940   0.88868    0.011
 4806.00    1.05930   0.88277    0.011
 4807.00    1.00838   0.87886    0.011
 4808.00    0.94153   0.87723    0.011
 4809.00    0.93243   0.87775    0.011
 4810.00    0.96217   0.88008    0.011
 4811.00    0.93873   0.88293    0.011
 4812.00    0.88393   0.88549    0.011
 4813.00    0.88753   0.88802    0.011
 4814.00    0.92113   0.89093    0.011
 4815.00    0.86086   0.89425    0.011
 4816.00    0.75878   0.89792    0.011
 4817.00    0.81465   0.90148    0.011
 4818.00    0.93095   0.90391    0.011
 4819.00    1.03778   0.90383    0.011
 4820.00    1.14155   0.90014    0.011
 4821.00    1.03779   0.89282    0.011
 4822.00    0.87753   0.88352    0.011
 4823.00    0.82967   0.87453    0.011
 4824.00    0.80693   0.86836    0.011
 4825.00    0.82314   0.86723    0.011
 4826.00    0.84630   0.86993    0.011
 4827.00    0.77309   0.87256    0.011
 4828.00    0.68675   0.87250    0.011
 4829.00    0.73038   0.87002    0.011
 4830.00    0.78664   0.86685    0.011
 4831.00    0.80689   0.86414    0.011
 4832.00    0.82496   0.86232    0.011
 4833.00    0.83083   0.86236    0.011
 4834.00    0.83698   0.86456    0.011
 4835.00    0.94889   0.86659    0.011
 4836.00    1.05000   0.86613    0.011
 4837.00    0.86911   0.86300    0.011
 4838.00    0.70184   0.85810    0.011
 4839.00    0.72045   0.85192    0.011
 4840.00    0.72051   0.84585    0.011
 4841.00    0.55294   0.84202    0.011
 4842.00    0.42148   0.84101    0.011
 4843.00    0.52964   0.84147    0.011
 4844.00    0.63568   0.84209    0.011
 4845.00    0.73082   0.84224    0.011
 4846.00    0.78996   0.84047    0.011
 4847.00    0.69921   0.83554    0.011
 4848.00    0.63357   0.82824    0.000
 4849.00    0.65433   0.82078    0.000
 4850.00    0.73162   0.81466    0.000
 4851.00    0.97279   0.80823    0.000
 4852.00    1.06104   0.79830    0.000
 4853.00    0.77083   0.78393    0.000
 4854.00    0.58492   0.76593    0.000
 4855.00    0.62153   0.74510    0.000
 4856.00    0.66009   0.72256    0.000
 4857.00    0.70225   0.69843    0.000
 4858.00    0.71277   0.67049    0.000
 4859.00    0.67209   0.63849    0.000
 4860.00    0.74761   0.60789    0.000
 4861.00    0.98814   0.58771    0.000
 4862.00    1.08418   0.58614    0.000
 4863.00    0.99970   0.60502    0.000
 4864.00    1.00388   0.63664    0.000
 4865.00    1.10569   0.67041    0.000
 4866.00    1.09945   0.70056    0.000
 4867.00    0.98826   0.72402    0.000
 4868.00    1.03003   0.73907    0.000
 4869.00    1.20281   0.74664    0.000
 4870.00    1.12817   0.74943    0.000
 4871.00    0.86690   0.75027    0.000
 4872.00    0.71008   0.75306    0.000
 4873.00    0.62250   0.76126    0.000
 4874.00    0.68398   0.77375    0.000
 4875.00    0.83198   0.78681    0.011
 4876.00    0.95454   0.79887    0.011
 4877.00    1.06424   0.81009    0.011
 4878.00    1.09304   0.81971    0.011
 4879.00    1.08642   0.82677    0.011
 4880.00    1.02465   0.83067    0.011
 4881.00    0.94215   0.83024    0.011
 4882.00    0.84345   0.82616    0.011
 4883.00    0.73958   0.82130    0.011
 4884.00    0.97155   0.81684    0.012
 4885.00    1.29305   0.81220    0.012
 4886.00    0.97399   0.80776    0.012
 4887.00    0.51517   0.80433    0.011
 4888.00    0.50125   0.80172    0.012
 4889.00    0.56444   0.79957    0.012
 4890.00    0.51424   0.79910    0.011
 4891.00    0.44910   0.80304    0.011
 4892.00    0.63402   0.81423    0.011
 4893.00    0.84217   0.83282    0.012
 4894.00    0.85835   0.85370    0.012
 4895.00    0.86364   0.87074    0.012
 4896.00    1.02135   0.88079    0.012
 4897.00    1.17926   0.88330    0.012
 4898.00    0.97833   0.87979    0.012
 4899.00    0.79337   0.87258    0.012
 4900.00    0.98738   0.86409    0.012
 4901.00    1.15718   0.85743    0.012
 4902.00    1.01382   0.85450    0.012
 4903.00    0.86273   0.85448    0.011
 4904.00    0.64441   0.85649    0.011
 4905.00    0.49083   0.86000    0.011
 4906.00    0.75389   0.86258    0.011
 4907.00    0.94917   0.86086    0.012
 4908.00    0.80361   0.85393    0.012
 4909.00    0.70372   0.84450    0.011
 4910.00    0.78966   0.83654    0.011
 4911.00    0.86882   0.83335    0.011
 4912.00    0.92505   0.83621    0.011
 4913.00    0.93717   0.84295    0.011
 4914.00    0.82370   0.84909    0.011
 4915.00    0.75215   0.85058    0.011
 4916.00    0.78255   0.84456    0.011
 4917.00    0.78434   0.82970    0.011
 4918.00    0.72605   0.80832    0.011
 4919.00    0.74689   0.78627    0.011
 4920.00    0.91210   0.77023    0.011
 4921.00    0.93715   0.76439    0.011
 4922.00    0.73866   0.76897    0.011
 4923.00    0.64309   0.78076    0.011
 4924.00    0.69155   0.79520    0.011
 4925.00    0.64604   0.81049    0.011
 4926.00    0.48479   0.82671    0.011
 4927.00    0.46077   0.84257    0.011
 4928.00    0.58572   0.85511    0.011
 4929.00    0.74069   0.86258    0.011
 4930.00    0.92440   0.86430    0.011
 4931.00    0.98451   0.86001    0.011
 4932.00    0.94024   0.85132    0.011
 4933.00    0.82941   0.84056    0.011
 4934.00    0.66909   0.83015    0.011
 4935.00    0.68109   0.82260    0.011
 4936.00    0.80563   0.81788    0.011
 4937.00    0.76751   0.81364    0.011
 4938.00    0.63642   0.81012    0.011
 4939.00    0.63015   0.81064    0.011
 4940.00    0.68604   0.81770    0.000
 4941.00    0.63677   0.82996    0.000
 4942.00    0.54222   0.84260    0.000
 4943.00    0.67757   0.85175    0.000
 4944.00    0.89780   0.85716    0.000
 4945.00    0.87374   0.85974    0.000
 4946.00    0.77327   0.86071    0.000
 4947.00    0.72352   0.86221    0.000
 4948.00    0.68701   0.86514    0.000
 4949.00    0.68159   0.86803    0.000
 4950.00    0.68280   0.86920    0.000
 4951.00    0.71161   0.86793    0.000
 4952.00    0.74507   0.86352    0.000
 4953.00    0.74561   0.85494    0.000
 4954.00    0.74196   0.84224    0.000
 4955.00    0.67437   0.82690    0.000
 4956.00    0.60110   0.81137    0.000
 4957.00    0.78208   0.79909    0.000
 4958.00    0.97647   0.79440    0.000
 4959.00    0.92773   0.80059    0.000
 4960.00    0.87435   0.81417    0.000
 4961.00    0.82065   0.82685    0.000
 4962.00    0.77187   0.83365    0.000
 4963.00    0.83026   0.83438    0.000
 4964.00    0.88336   0.83064    0.000
 4965.00    0.87148   0.82404    0.000
 4966.00    0.86429   0.81694    0.000
 4967.00    0.89631   0.81226    0.000
 4968.00    0.90647   0.81116    0.000
 4969.00    0.78008   0.81312    0.000
 4970.00    0.68281   0.81755    0.000
 4971.00    0.72830   0.82361    0.000
 4972.00    0.78187   0.83024    0.000
 4973.00    0.86753   0.83606    0.000
 4974.00    0.95496   0.83934    0.000
 4975.00    1.04822   0.83919    0.000
 4976.00    1.10633   0.83515    0.000
 4977.00    1.06615   0.82753    0.000
 4978.00    0.97545   0.81715    0.000
 4979.00    0.76390   0.80469    0.000
 4980.00    0.64720   0.79142    0.000
 4981.00    0.72639   0.77846    0.000
 4982.00    0.77381   0.76719    0.000
 4983.00    0.76415   0.76051    0.000
 4984.00    0.68678   0.76130    0.000
 4985.00    0.50301   0.76925    0.000
 4986.00    0.47285   0.78082    0.000
 4987.00    0.65458   0.79221    0.000
 4988.00    0.81066   0.80068    0.000
 4989.00    0.93560   0.80454    0.000
 4990.00    0.97439   0.80474    0.000
 4991.00    0.92097   0.80387    0.000
 4992.00    0.86371   0.80395    0.000
 4993.00    0.80283   0.80560    0.000
 4994.00    0.76555   0.80755    0.000
 4995.00    0.74793   0.80873    0.000
 4996.00    0.74077   0.80860    0.000
 4997.00    0.74127   0.80552    0.000
 4998.00    0.72959   0.79906    0.000
 4999.00    0.71005   0.79056    0.000
 5000.00    0.69523   0.78174    0.000
 5001.00    0.68307   0.77459    0.000
 5002.00    0.78051   0.76975    0.000
 5003.00    0.93165   0.76620    0.000
 5004.00    0.81048   0.76313    0.000
 5005.00    0.57400   0.76059    0.000
 5006.00    0.67756   0.75989    0.000
 5007.00    0.90442   0.76272    0.000
 5008.00    0.87345   0.76863    0.000
 5009.00    0.76339   0.77376    0.000
 5010.00    0.72047   0.77356    0.000
 5011.00    0.69469   0.76706    0.000
 5012.00    0.84749   0.75671    0.000
 5013.00    1.03739   0.74606    0.000
 5014.00    0.92678   0.73864    0.000
 5015.00    0.76699   0.73604    0.000
 5016.00    0.80109   0.73772    0.000
 5017.00    0.85898   0.74159    0.000
 5018.00    0.88171   0.74556    0.000
 5019.00    0.90148   0.74966    0.000
 5020.00    0.82635   0.75460    0.000
 5021.00    0.74659   0.75970    0.000
 5022.00    0.87783   0.76406    0.000
 5023.00    1.00989   0.76794    0.000
 5024.00    0.99250   0.77204    0.000
 5025.00    0.97886   0.77561    0.000
 5026.00    1.04053   0.77753    0.000
 5027.00    1.08798   0.77863    0.000
 5028.00    0.96915   0.78053    0.000
 5029.00    0.85949   0.78502    0.010
 5030.00    0.82389   0.79186    0.010
 5031.00    0.80244   0.79830    0.010
 5032.00    0.86684   0.80228    0.010
 5033.00    0.91973   0.80252    0.010
 5034.00    0.91765   0.79791    0.010
 5035.00    0.89236   0.78849    0.010
 5036.00    0.77670   0.77580    0.010
 5037.00    0.68035   0.76242    0.010
 5038.00    0.64665   0.74987    0.010
 5039.00    0.61035   0.73801    0.010
 5040.00    0.56691   0.72864    0.010
 5041.00    0.57353   0.72606    0.010
 5042.00    0.69788   0.73358    0.010
 5043.00    0.78373   0.75064    0.010
 5044.00    0.79135   0.77095    0.010
 5045.00    0.75658   0.78684    0.010
 5046.00    0.64680   0.79454    0.010
 5047.00    0.65085   0.79341    0.010
 5048.00    0.83111   0.78550    0.010
 5049.00    0.88475   0.77541    0.010
 5050.00    0.76624   0.76817    0.010
 5051.00    0.69983   0.76642    0.010
 5052.00    0.69577   0.76970    0.011
 5053.00    0.74216   0.77635    0.011
 5054.00    0.84179   0.78446    0.010
 5055.00    0.87611   0.79191    0.010
 5056.00    0.84964   0.79758    0.010
 5057.00    0.79991   0.80196    0.010
 5058.00    0.73111   0.80588    0.010
 5059.00    0.62537   0.80916    0.011
 5060.00    0.49295   0.81054    0.010
 5061.00    0.44477   0.80905    0.010
 5062.00    0.45000   0.80402    0.010
 5063.00    0.50798   0.79523    0.011
 5064.00    0.59519   0.78419    0.011
 5065.00    0.67313   0.77381    0.011
 5066.00    0.74660   0.76735    0.011
 5067.00    0.71534   0.76575    0.011
 5068.00    0.64048   0.76678    0.011
 5069.00    0.61624   0.76843    0.011
 5070.00    0.61002   0.77008    0.011
 5071.00    0.55869   0.77110    0.011
 5072.00    0.49379   0.77074    0.011
 5073.00    0.49923   0.76973    0.011
 5074.00    0.52224   0.76918    0.011
 5075.00    0.52754   0.76803    0.011
 5076.00    0.52926   0.76443    0.011
 5077.00    0.65588   0.75806    0.011
 5078.00    0.80236   0.74950    0.011
 5079.00    0.64030   0.73984    0.011
 5080.00    0.44174   0.73167    0.011
 5081.00    0.40748   0.72882    0.011
 5082.00    0.38642   0.73234    0.010
 5083.00    0.57329   0.73970    0.010
 5084.00    0.76951   0.74815    0.010
 5085.00    0.79812   0.75646    0.010
 5086.00    0.82423   0.76367    0.010
 5087.00    0.82477   0.76897    0.010
 5088.00    0.82056   0.77274    0.010
 5089.00    0.72796   0.77618    0.010
 5090.00    0.66105   0.77985    0.010
 5091.00    0.88033   0.78334    0.010
 5092.00    1.06007   0.78595    0.010
 5093.00    0.93179   0.78669    0.010
 5094.00    0.81315   0.78412    0.010
 5095.00    0.75130   0.77730    0.010
 5096.00    0.69857   0.76705    0.010
 5097.00    0.68836   0.75580    0.010
 5098.00    0.66919   0.74653    0.010
 5099.00    0.61589   0.74171    0.010
 5100.00    0.53128   0.74237    0.010
 5101.00    0.34710   0.74749    0.010
 5102.00    0.26571   0.75354    0.010
 5103.00    0.46146   0.75694    0.010
 5104.00    0.64140   0.75646    0.010
 5105.00    0.78478   0.75294    0.010
 5106.00    0.82859   0.74799    0.010
 5107.00    0.67319   0.74315    0.010
 5108.00    0.57488   0.73972    0.010
 5109.00    0.57606   0.73906    0.010
 5110.00    0.58348   0.74144    0.010
 5111.00    0.60042   0.74613    0.010
 5112.00    0.63826   0.75275    0.010
 5113.00    0.70412   0.76013    0.010
 5114.00    0.70186   0.76688    0.010
 5115.00    0.61923   0.77263    0.010
 5116.00    0.62394   0.77705    0.010
 5117.00    0.71954   0.77952    0.010
 5118.00    0.78279   0.77924    0.010
 5119.00    0.81635   0.77518    0.010
 5120.00    0.86637   0.76718    0.010
 5121.00    0.92970   0.75631    0.010
 5122.00    0.97208   0.74436    0.010
 5123.00    0.99954   0.73331    0.010
 5124.00    0.87226   0.72477    0.010
 5125.00    0.64831   0.71990    0.010
 5126.00    0.59355   0.71850    0.010
 5127.00    0.63115   0.71906    0.010
 5128.00    0.67134   0.72055    0.010
 5129.00    0.71275   0.72311    0.010
 5130.00    0.71539   0.72715    0.010
 5131.00    0.70216   0.73272    0.010
 5132.00    0.72219   0.73904    0.010
 5133.00    0.75386   0.74463    0.010
 5134.00    0.78002   0.74814    0.010
 5135.00    0.80457   0.74886    0.011
 5136.00    0.86487   0.74647    0.010
 5137.00    0.93390   0.74099    0.010
 5138.00    0.92873   0.73408    0.010
 5139.00    0.90891   0.72809    0.010
 5140.00    0.77756   0.72405    0.010
 5141.00    0.62901   0.72215    0.010
 5142.00    0.67411   0.72128    0.010
 5143.00    0.74127   0.72024    0.010
 5144.00    0.70123   0.71980    0.010
 5145.00    0.65302   0.72025    0.010
 5146.00    0.86569   0.72037    0.010
 5147.00    1.08910   0.71999    0.011
 5148.00    0.84310   0.71966    0.011
 5149.00    0.59985   0.71928    0.011
 5150.00    0.63482   0.71831    0.011
 5151.00    0.67017   0.71646    0.011
 5152.00    0.71192   0.71483    0.011
 5153.00    0.73770   0.71548    0.011
 5154.00    0.59350   0.71964    0.011
 5155.00    0.48374   0.72718    0.011
 5156.00    0.63317   0.73692    0.011
 5157.00    0.76506   0.74656    0.011
 5158.00    0.79648   0.75385    0.011
 5159.00    0.84385   0.75733    0.011
 5160.00    0.96385   0.75646    0.011
 5161.00    0.98800   0.75131    0.011
 5162.00    0.65451   0.74139    0.010
 5163.00    0.43012   0.72594    0.010
 5164.00    0.54614   0.70525    0.010
 5165.00    0.65523   0.68056    0.010
 5166.00    0.74600   0.65466    0.010
 5167.00    0.76146   0.63223    0.010
 5168.00    0.60568   0.61744    0.010
 5169.00    0.53926   0.61135    0.010
 5170.00    0.64878   0.61136    0.010
 5171.00    0.66388   0.61387    0.010
 5172.00    0.51695   0.61795    0.010
 5173.00    0.44229   0.62663    0.010
 5174.00    0.47622   0.64340    0.010
 5175.00    0.57843   0.66653    0.010
 5176.00    0.77081   0.68921    0.010
 5177.00    0.84271   0.70508    0.010
 5178.00    0.77446   0.71155    0.010
 5179.00    0.67538   0.70828    0.010
 5180.00    0.54467   0.69596    0.010
 5181.00    0.57185   0.67711    0.010
 5182.00    0.74190   0.65666    0.010
 5183.00    0.78448   0.64107    0.010
 5184.00    0.72541   0.63636    0.010
 5185.00    0.64489   0.64551    0.010
 5186.00    0.54933   0.66507    0.010
 5187.00    0.56581   0.68643    0.010
 5188.00    0.65124   0.70222    0.010
 5189.00    0.77354   0.70968    0.010
 5190.00    0.91566   0.70987    0.000
 5191.00    0.93992   0.70536    0.000
 5192.00    0.90916   0.69895    0.000
 5193.00    0.79499   0.69432    0.000
 5194.00    0.64726   0.69447    0.000
 5195.00    0.53481   0.69893    0.000
 5196.00    0.43446   0.70548    0.000
 5197.00    0.50943   0.71296    0.000
 5198.00    0.63506   0.72040    0.000
 5199.00    0.55943   0.72621    0.000
 5200.00    0.43573   0.72889    0.000
 5201.00    0.57619   0.72728    0.000
 5202.00    0.76749   0.72087    0.000
 5203.00    0.83414   0.71031    0.000
 5204.00    0.88215   0.69734    0.000
 5205.00    0.69229   0.68419    0.000
 5206.00    0.47636   0.67359    0.000
 5207.00    0.72436   0.66818    0.000
 5208.00    1.00586   0.66898    0.000
 5209.00    0.89539   0.67542    0.000
 5210.00    0.77028   0.68676    0.000
 5211.00    0.79155   0.70108    0.010
 5212.00    0.81393   0.71481    0.010
 5213.00    0.85240   0.72472    0.010
 5214.00    0.87953   0.72936    0.011
 5215.00    0.72274   0.72972    0.011
 5216.00    0.59817   0.72877    0.011
 5217.00    0.80153   0.72979    0.010
 5218.00    0.94193   0.73415    0.010
 5219.00    0.62414   0.74031    0.010
 5220.00    0.37491   0.74514    0.010
 5221.00    0.50764   0.74568    0.010
 5222.00    0.64598   0.74027    0.010
 5223.00    0.80923   0.72885    0.010
 5224.00    0.90965   0.71329    0.010
 5225.00    0.78053   0.69753    0.010
 5226.00    0.67316   0.68643    0.010
 5227.00    0.63240   0.68359    0.010
 5228.00    0.58843   0.68968    0.010
 5229.00    0.53614   0.70172    0.010
 5230.00    0.47022   0.71380    0.010
 5231.00    0.37382   0.72106    0.010
 5232.00    0.37209   0.72290    0.010
 5233.00    0.55384   0.72177    0.010
 5234.00    0.69593   0.72132    0.010
 5235.00    0.77099   0.72448    0.010
 5236.00    0.80610   0.73131    0.010
 5237.00    0.78204   0.73963    0.010
 5238.00    0.75165   0.74695    0.010
 5239.00    0.71299   0.75189    0.010
 5240.00    0.65820   0.75456    0.010
 5241.00    0.58491   0.75583    0.010
 5242.00    0.64489   0.75618    0.010
 5243.00    0.83966   0.75524    0.010
 5244.00    0.82640   0.75230    0.010
 5245.00    0.62754   0.74692    0.010
 5246.00    0.53970   0.73908    0.010
 5247.00    0.53913   0.72969    0.010
 5248.00    0.61543   0.72097    0.010
 5249.00    0.74486   0.71517    0.010
 5250.00    0.80023   0.71263    0.010
 5251.00    0.81072   0.71244    0.010
 5252.00    0.74855   0.71428    0.010
 5253.00    0.64793   0.71785    0.010
 5254.00    0.60909   0.72254    0.010
 5255.00    0.59862   0.72822    0.010
 5256.00    0.71173   0.73500    0.010
 5257.00    0.87369   0.74207    0.010
 5258.00    0.71484   0.74666    0.010
 5259.00    0.44792   0.74530    0.010
 5260.00    0.57831   0.73638    0.010
 5261.00    0.82118   0.72081    0.010
 5262.00    0.90659   0.70139    0.010
 5263.00    0.95525   0.68176    0.010
 5264.00    0.77484   0.66533    0.011
 5265.00    0.55147   0.65399    0.011
 5266.00    0.59374   0.64760    0.011
 5267.00    0.67449   0.64463    0.011
 5268.00    0.63216   0.64380    0.011
 5269.00    0.57687   0.64462    0.011
 5270.00    0.71056   0.64798    0.011
 5271.00    0.85712   0.65598    0.011
 5272.00    0.65090   0.66863    0.011
 5273.00    0.43284   0.68238    0.011
 5274.00    0.61872   0.69407    0.011
 5275.00    0.79602   0.70398    0.011
 5276.00    0.68410   0.71363    0.011
 5277.00    0.58285   0.72328    0.011
 5278.00    0.64397   0.73139    0.011
 5279.00    0.67549   0.73527    0.010
 5280.00    0.41827   0.73359    0.010
 5281.00    0.20311   0.72818    0.010
 5282.00    0.28410   0.72282    0.010
 5283.00    0.37417   0.72110    0.010
 5284.00    0.51346   0.72481    0.010
 5285.00    0.62249   0.73351    0.010
 5286.00    0.60000   0.74485    0.010
 5287.00    0.63521   0.75540    0.010
 5288.00    0.87689   0.76254    0.010
 5289.00    0.98637   0.76590    0.010
 5290.00    0.69881   0.76649    0.010
 5291.00    0.53686   0.76504    0.010
 5292.00    0.69608   0.76142    0.010
 5293.00    0.85723   0.75519    0.010
 5294.00    1.02260   0.74626    0.010
 5295.00    1.02994   0.73526    0.010
 5296.00    0.73573   0.72350    0.010
 5297.00    0.57435   0.71311    0.010
 5298.00    0.63411   0.70665    0.010
 5299.00    0.68363   0.70589    0.010
 5300.00    0.71823   0.71057    0.010
 5301.00    0.72334   0.71852    0.010
 5302.00    0.69063   0.72748    0.010
 5303.00    0.66455   0.73644    0.009
 5304.00    0.64596   0.74480    0.010
 5305.00    0.69195   0.75148    0.010
 5306.00    0.80234   0.75569    0.009
 5307.00    0.77780   0.75773    0.009
 5308.00    0.63458   0.75879    0.009
 5309.00    0.54276   0.75980    0.009
 5310.00    0.49076   0.76060    0.009
 5311.00    0.54449   0.76022    0.009
 5312.00    0.67026   0.75797    0.009
 5313.00    0.68143   0.75403    0.009
 5314.00    0.62419   0.74905    0.009
 5315.00    0.63544   0.74390    0.009
 5316.00    0.68236   0.73946    0.010
 5317.00    0.72501   0.73637    0.010
 5318.00    0.76573   0.73493    0.010
 5319.00    0.73634   0.73460    0.010
 5320.00    0.67970   0.73387    0.010
 5321.00    0.58647   0.73124    0.010
 5322.00    0.48113   0.72614    0.010
 5323.00    0.52130   0.71858    0.010
 5324.00    0.60180   0.70870    0.010
 5325.00    0.59933   0.69695    0.010
 5326.00    0.57792   0.68458    0.010
 5327.00    0.58006   0.67371    0.010
 5328.00    0.58649   0.66700    0.010
 5329.00    0.55795   0.66728    0.010
 5330.00    0.52451   0.67588    0.010
 5331.00    0.61981   0.69042    0.010
 5332.00    0.72810   0.70572    0.010
 5333.00    0.67196   0.71786    0.010
 5334.00    0.60526   0.72582    0.010
 5335.00    0.55265   0.72998    0.010
 5336.00    0.50073   0.73051    0.010
 5337.00    0.56066   0.72747    0.010
 5338.00    0.61533   0.72186    0.010
 5339.00    0.51997   0.71566    0.010
 5340.00    0.42945   0.71093    0.010
 5341.00    0.40857   0.70919    0.010
 5342.00    0.40668   0.71101    0.010
 5343.00    0.58257   0.71527    0.010
 5344.00    0.73699   0.71931    0.010
 5345.00    0.74503   0.72108    0.010
 5346.00    0.73276   0.72053    0.010
 5347.00    0.61326   0.71904    0.010
 5348.00    0.52738   0.71835    0.010
 5349.00    0.58430   0.71967    0.009
 5350.00    0.64083   0.72344    0.009
 5351.00    0.69599   0.72970    0.009
 5352.00    0.73329   0.73761    0.009
 5353.00    0.71792   0.74566    0.009
 5354.00    0.70046   0.75274    0.009
 5355.00    0.67771   0.75853    0.009
 5356.00    0.70793   0.76279    0.009
 5357.00    0.85276   0.76487    0.009
 5358.00    0.93040   0.76423    0.009
 5359.00    0.88182   0.76087    0.009
 5360.00    0.85490   0.75508    0.009
 5361.00    0.86350   0.74756    0.009
 5362.00    0.82003   0.73943    0.009
 5363.00    0.70167   0.73192    0.009
 5364.00    0.70943   0.72586    0.009
 5365.00    0.87674   0.72111    0.009
 5366.00    0.91708   0.71664    0.009
 5367.00    0.81586   0.71135    0.009
 5368.00    0.71212   0.70477   -2.000
 5369.00    0.60591   0.69755   -2.000
 5370.00    0.60116   0.69189   -2.000
 5371.00    0.68440   0.69063   -2.000
 5372.00    0.78805   0.69564   -2.000
 5373.00    0.90728   0.70643   -2.000
 5374.00    0.91141   0.71983   -2.000
 5375.00    0.83824   0.73156   -2.000
 5376.00    0.83400   0.73893   -2.000
 5377.00    0.87030   0.74174   -2.000
 5378.00    0.80690   0.74112   -2.000
 5379.00    0.69236   0.73847   -2.000
 5380.00    0.56565   0.73488   -2.000
 5381.00    0.43355   0.73117   -2.000
 5382.00    0.50596   0.72827   -2.000
 5383.00    0.65643   0.72695    0.010
 5384.00    0.71135   0.72716    0.010
 5385.00    0.73527   0.72808    0.010
 5386.00    0.68860   0.72856    0.009
 5387.00    0.62277   0.72739    0.009
 5388.00    0.61281   0.72404    0.009
 5389.00    0.61530   0.71906    0.009
 5390.00    0.62780   0.71337    0.009
 5391.00    0.64207   0.70780    0.009
 5392.00    0.68142   0.70277    0.009
 5393.00    0.72417   0.69810    0.009
 5394.00    0.61407   0.69339    0.009
 5395.00    0.48919   0.68879    0.009
 5396.00    0.46943   0.68526    0.009
 5397.00    0.45599   0.68400    0.009
 5398.00    0.54785   0.68562    0.009
 5399.00    0.64211   0.68963    0.009
 5400.00    0.67833   0.69398    0.009
 5401.00    0.71814   0.69553    0.009
 5402.00    0.85016   0.69253    0.009
 5403.00    0.95996   0.68569    0.009
 5404.00    0.76847   0.67711    0.009
 5405.00    0.58798   0.66944    0.009
 5406.00    0.50654   0.66516    0.009
 5407.00    0.44524   0.66537    0.009
 5408.00    0.51713   0.66931    0.009
 5409.00    0.58023   0.67535    0.009
 5410.00    0.59816   0.68226    0.009
 5411.00    0.59027   0.68977    0.009
 5412.00    0.47526   0.69793    0.009
 5413.00    0.39710   0.70597    0.009
 5414.00    0.44554   0.71262    0.009
 5415.00    0.49102   0.71735    0.009
 5416.00    0.52792   0.72047    0.009
 5417.00    0.58055   0.72224    0.009
 5418.00    0.67204   0.72257    0.009
 5419.00    0.73685   0.72130    0.009
 5420.00    0.74486   0.71881    0.009
 5421.00    0.69830   0.71593    0.009
 5422.00    0.55080   0.71335    0.009
 5423.00    0.50885   0.71154    0.009
 5424.00    0.63744   0.71061    0.009
 5425.00    0.70511   0.71009    0.009
 5426.00    0.68641   0.70929    0.009
 5427.00    0.67246   0.70716    0.009
 5428.00    0.66446   0.70271    0.009
 5429.00    0.67674   0.69622    0.009
 5430.00    0.71133   0.68939    0.009
 5431.00    0.67200   0.68399    0.009
 5432.00    0.56101   0.68103    0.009
 5433.00    0.51721   0.68000    0.009
 5434.00    0.53086   0.68043    0.009
 5435.00    0.53512   0.68346    0.009
 5436.00    0.53229   0.69020    0.009
 5437.00    0.62761   0.70026    0.009
 5438.00    0.78784   0.71182    0.009
 5439.00    0.78188   0.72247    0.009
 5440.00    0.67962   0.73012    0.009
 5441.00    0.72133   0.73330    0.009
 5442.00    0.83570   0.73141    0.009
 5443.00    0.83876   0.72464    0.009
 5444.00    0.79317   0.71417    0.009
 5445.00    0.63527   0.70233    0.009
 5446.00    0.43523   0.69227    0.009
 5447.00    0.54277   0.68691    0.009
 5448.00    0.74816   0.68734    0.009
 5449.00    0.83406   0.69223    0.009
 5450.00    0.88819   0.69808    0.009
 5451.00    0.88624   0.70104    0.009
 5452.00    0.87209   0.69941    0.009
 5453.00    0.85739   0.69412    0.009
 5454.00    0.84259   0.68774    0.009
 5455.00    0.75347   0.68329    0.009
 5456.00    0.65459   0.68284    0.009
 5457.00    0.64088   0.68656    0.009
 5458.00    0.63504   0.69262    0.009
 5459.00    0.66747   0.69781    0.009
 5460.00    0.70204   0.69956    0.009
 5461.00    0.66664   0.69780    0.009
 5462.00    0.62999   0.69449    0.009
 5463.00    0.62533   0.69188    0.009
 5464.00    0.61980   0.69129    0.009
 5465.00    0.59411   0.69282    0.009
 5466.00    0.57398   0.69562    0.009
 5467.00    0.62535   0.69816    0.009
 5468.00    0.68041   0.69923    0.009
 5469.00    0.76738   0.69864    0.009
 5470.00    0.84926   0.69641    0.009
 5471.00    0.89845   0.69255    0.009
 5472.00    0.92513   0.68740    0.009
 5473.00    0.83894   0.68143    0.009
 5474.00    0.73888   0.67506    0.009
 5475.00    0.58254   0.66917    0.009
 5476.00    0.47364   0.66518    0.009
 5477.00    0.52449   0.66403    0.009
 5478.00    0.60659   0.66553   -2.000
 5479.00    0.77748   0.66895   -2.000
 5480.00    0.91735   0.67308   -2.000
 5481.00    0.98195   0.67677   -2.000
 5482.00    0.96643   0.68014   -2.000
 5483.00    0.78306   0.68399   -2.000
 5484.00    0.63259   0.68834   -2.000
 5485.00    0.54202   0.69190   -2.000
 5486.00    0.54844   0.69355   -2.000
 5487.00    0.70922   0.69331   -2.000
 5488.00    0.60717   0.69219   -2.000
 5489.00    0.13794   0.69144   -2.000
 5490.00   -0.00924   0.69175   -2.000
 5491.00    0.23950   0.69274   -2.000
 5492.00    0.50620   0.69356   -2.000
 5493.00    0.79235   0.69384   -2.000
 5494.00    0.93728   0.69348   -2.000
 5495.00    0.94720   0.69261   -2.000
 5496.00    0.86488   0.69170   -2.000
 5497.00    0.70483   0.69108   -2.000
 5498.00    0.64637   0.69054   -2.000
 5499.00    0.66332   0.68979   -2.000
 5500.00    0.63677   0.68864   -2.000
 5501.00    0.58187   0.68680   -2.000
 5502.00    0.62164   0.68422    0.009
 5503.00    0.71543   0.68151    0.009
 5504.00    0.74077   0.67932    0.009
 5505.00    0.73209   0.67778    0.009
 5506.00    0.66653   0.67680    0.008
 5507.00    0.57653   0.67638    0.008
 5508.00    0.56150   0.67632    0.008
 5509.00    0.57409   0.67614    0.009
 5510.00    0.63255   0.67504    0.009
 5511.00    0.70534   0.67275    0.009
 5512.00    0.68488   0.67026    0.009
 5513.00    0.64016   0.66915    0.009
 5514.00    0.51605   0.67055    0.009
 5515.00    0.37509   0.67479    0.009
 5516.00    0.41707   0.68115    0.009
 5517.00    0.48976   0.68827    0.009
 5518.00    0.52498   0.69474    0.009
 5519.00    0.55545   0.69954    0.009
 5520.00    0.64446   0.70219    0.009
 5521.00    0.73863   0.70260    0.009
 5522.00    0.70982   0.70097    0.009
 5523.00    0.67458   0.69758    0.009
 5524.00    0.64028   0.69260    0.009
 5525.00    0.60679   0.68635    0.009
 5526.00    0.63373   0.67977    0.009
 5527.00    0.65567   0.67438    0.009
 5528.00    0.56991   0.67173    0.009
 5529.00    0.49245   0.67242    0.009
 5530.00    0.51625   0.67564    0.009
 5531.00    0.55592   0.67964    0.009
 5532.00    0.72793   0.68260    0.009
 5533.00    0.85136   0.68365    0.008
 5534.00    0.67259   0.68342    0.007
 5535.00    0.53786   0.68329    0.006
 5536.00    0.61834   0.68429    0.006
 5537.00    0.65996   0.68671    0.003
 5538.00    0.54728   0.69015    0.001
 5539.00    0.45905   0.69361    0.001
 5540.00    0.45153   0.69602    0.001
 5541.00    0.45559   0.69678    0.001
 5542.00    0.49195   0.69584    0.001
 5543.00    0.52414   0.69379    0.008
 5544.00    0.54634   0.69175    0.008
 5545.00    0.56808   0.69092    0.008
 5546.00    0.58885   0.69195    0.008
 5547.00    0.62262   0.69463    0.008
 5548.00    0.67969   0.69800    0.008
 5549.00    0.69753   0.70096    0.008
 5550.00    0.65384   0.70254    0.008
 5551.00    0.60690   0.70217    0.008
 5552.00    0.55548   0.70005    0.008
 5553.00    0.51825   0.69700    0.008
 5554.00    0.49821   0.69396    0.008
 5555.00    0.50466   0.69168    0.008
 5556.00    0.53942   0.69044    0.008
 5557.00    0.55746   0.69000    0.008
 5558.00    0.55976   0.68979    0.008
 5559.00    0.59585   0.68915    0.009
 5560.00    0.66003   0.68775    0.009
 5561.00    0.70432   0.68553    0.009
 5562.00    0.73408   0.68268    0.009
 5563.00    0.71250   0.67955    0.009
 5564.00    0.65796   0.67661    0.009
 5565.00    0.65253   0.67418    0.009
 5566.00    0.67471   0.67248    0.009
 5567.00    0.68828   0.67146    0.009
 5568.00    0.69764   0.67103    0.009
 5569.00    0.66595   0.67108    0.009
 5570.00    0.61692   0.67143    0.009
 5571.00    0.54408   0.67192    0.009
 5572.00    0.46262   0.67264    0.009
 5573.00    0.51227   0.67380    0.009
 5574.00    0.60203   0.67546    0.009
 5575.00    0.60607   0.67753    0.009
 5576.00    0.58828   0.67992    0.009
 5577.00    0.52044   0.68216    0.009
 5578.00    0.44224   0.68381    0.009
 5579.00    0.51592   0.68475    0.008
 5580.00    0.61437   0.68479    0.008
 5581.00    0.63758   0.68362    0.008
 5582.00    0.65160   0.68094    0.008
 5583.00    0.68276   0.67644    0.008
 5584.00    0.71536   0.66987    0.008
 5585.00    0.73260   0.66156    0.008
 5586.00    0.74909   0.65256    0.008
 5587.00    0.64889   0.64457    0.008
 5588.00    0.55013   0.63941    0.008
 5589.00    0.64153   0.63810    0.008
 5590.00    0.72765   0.64036    0.008
 5591.00    0.70905   0.64485    0.008
 5592.00    0.68497   0.64998    0.009
 5593.00    0.59728   0.65475    0.008
 5594.00    0.51316   0.65868    0.008
 5595.00    0.45781   0.66154    0.008
 5596.00    0.41578   0.66290    0.008
 5597.00    0.45417   0.66230    0.009
 5598.00    0.49341   0.65977    0.009
 5599.00    0.53672   0.65600    0.009
 5600.00    0.55127   0.65231    0.009
 5601.00    0.45413   0.65041    0.009
 5602.00    0.37912   0.65154    0.009
 5603.00    0.37572   0.65602    0.009
 5604.00    0.42132   0.66324    0.009
 5605.00    0.60109   0.67189    0.009
 5606.00    0.74052   0.68023    0.009
 5607.00    0.78531   0.68679    0.009
 5608.00    0.80069   0.69082    0.009
 5609.00    0.75641   0.69240    0.009
 5610.00    0.71004   0.69182    0.009
 5611.00    0.65998   0.68906    0.009
 5612.00    0.61533   0.68385    0.009
 5613.00    0.57903   0.67636    0.009
 5614.00    0.53440   0.66773    0.009
 5615.00    0.47848   0.65998    0.008
 5616.00    0.44070   0.65513    0.008
 5617.00    0.42459   0.65407    0.008
 5618.00    0.42654   0.65620    0.008
 5619.00    0.44750   0.65990    0.008
 5620.00    0.45364   0.66312    0.008
 5621.00    0.44602   0.66443    0.008
 5622.00    0.42533   0.66356    0.008
 5623.00    0.39393   0.66119    0.008
 5624.00    0.41604   0.65861    0.008
 5625.00    0.47674   0.65733    0.008
 5626.00    0.53108   0.65840    0.008
 5627.00    0.58141   0.66194    0.008
 5628.00    0.54727   0.66715    0.008
 5629.00    0.46639   0.67254    0.008
 5630.00    0.46495   0.67672    0.008
 5631.00    0.50174   0.67895    0.008
 5632.00    0.59575   0.67904    0.008
 5633.00    0.71354   0.67712    0.008
 5634.00    0.76591   0.67370    0.008
 5635.00    0.79506   0.66948    0.008
 5636.00    0.73772   0.66522    0.008
 5637.00    0.65444   0.66150    0.008
 5638.00    0.60541   0.65867    0.008
 5639.00    0.56491   0.65681    0.008
 5640.00    0.64081   0.65590    0.008
 5641.00    0.74022   0.65594    0.008
 5642.00    0.76406   0.65690    0.008
 5643.00    0.77594   0.65864    0.008
 5644.00    0.69840   0.66094    0.008
 5645.00    0.61034   0.66343    0.008
 5646.00    0.52939   0.66568    0.008
 5647.00    0.44900   0.66741    0.008
 5648.00    0.58070   0.66864    0.008
 5649.00    0.72185   0.66953    0.008
 5650.00    0.67119   0.67017    0.008
 5651.00    0.61820   0.67042    0.008
 5652.00    0.55766   0.66984    0.008
 5653.00    0.50008   0.66789    0.008
 5654.00    0.49719   0.66415    0.008
 5655.00    0.49268   0.65859    0.008
 5656.00    0.47028   0.65182    0.008
 5657.00    0.45679   0.64499    0.008
 5658.00    0.51252   0.63959    0.008
 5659.00    0.56745   0.63670    0.008
 5660.00    0.61767   0.63653    0.008
 5661.00    0.63929   0.63856    0.008
 5662.00    0.52787   0.64198    0.008
 5663.00    0.44246   0.64587    0.008
 5664.00    0.45595   0.64941    0.008
 5665.00    0.48295   0.65212    0.008
 5666.00    0.55280   0.65382    0.008
 5667.00    0.59193   0.65468    0.008
 5668.00    0.54846   0.65529    0.008
 5669.00    0.51107   0.65656    0.008
 5670.00    0.48772   0.65911    0.008
 5671.00    0.50655   0.66293    0.008
 5672.00    0.60962   0.66736    0.008
 5673.00    0.65557   0.67151    0.008
 5674.00    0.60220   0.67465    0.008
 5675.00    0.51901   0.67646    0.008
 5676.00    0.39042   0.67693    0.008
 5677.00    0.35396   0.67614    0.008
 5678.00    0.44073   0.67423    0.008
 5679.00    0.55395   0.67130    0.008
 5680.00    0.69834   0.66754    0.008
 5681.00    0.79505   0.66332    0.008
 5682.00    0.84223   0.65922    0.008
 5683.00    0.80365   0.65580    0.008
 5684.00    0.68651   0.65328    0.008
 5685.00    0.59247   0.65161    0.008
 5686.00    0.51710   0.65068    0.008
 5687.00    0.48741   0.65063    0.008
 5688.00    0.49019   0.65180    0.008
 5689.00    0.50648   0.65444    0.008
 5690.00    0.53120   0.65834    0.008
 5691.00    0.47992   0.66275    0.008
 5692.00    0.38722   0.66668    0.008
 5693.00    0.37936   0.66927    0.008
 5694.00    0.41166   0.67012    0.008
 5695.00    0.43986   0.66924    0.008
 5696.00    0.46637   0.66685    0.008
 5697.00    0.46519   0.66328    0.008
 5698.00    0.45434   0.65895    0.008
 5699.00    0.49092   0.65443    0.008
 5700.00    0.54144   0.65035    0.008
 5701.00    0.59622   0.64724    0.008
 5702.00    0.65204   0.64525    0.008
 5703.00    0.59468   0.64398    0.008
 5704.00    0.51503   0.64252    0.008
 5705.00    0.48461   0.63999    0.008
 5706.00    0.46177   0.63607    0.008
 5707.00    0.42119   0.63126    0.008
 5708.00    0.37861   0.62668    0.008
 5709.00    0.41831   0.62371    0.008
 5710.00    0.46424   0.62343    0.008
 5711.00    0.57399   0.62622    0.008
 5712.00    0.68634   0.63169    0.008
 5713.00    0.75634   0.63883    0.008
 5714.00    0.82122   0.64633    0.008
 5715.00    0.68855   0.65302    0.008
 5716.00    0.56297   0.65830    0.008
 5717.00    0.55908   0.66224    0.008
 5718.00    0.55536   0.66530    0.008
 5719.00    0.55331   0.66799    0.008
 5720.00    0.54894   0.67058    0.008
 5721.00    0.52718   0.67288    0.008
 5722.00    0.51134   0.67441    0.008
 5723.00    0.52937   0.67468    0.008
 5724.00    0.55281   0.67346    0.008
 5725.00    0.60081   0.67096    0.008
 5726.00    0.64348   0.66786    0.008
 5727.00    0.66630   0.66499    0.008
 5728.00    0.68266   0.66296    0.008
 5729.00    0.67889   0.66197    0.008
 5730.00    0.68456   0.66185    0.008
 5731.00    0.71517   0.66241    0.008
 5732.00    0.73081   0.66355    0.008
 5733.00    0.71247   0.66512    0.008
 5734.00    0.71645   0.66675    0.008
 5735.00    0.76429   0.66799    0.008
 5736.00    0.78087   0.66852    0.008
 5737.00    0.74388   0.66825    0.008
 5738.00    0.69080   0.66739    0.008
 5739.00    0.61357   0.66627    0.008
 5740.00    0.58396   0.66524    0.000
 5741.00    0.61710   0.66454    0.000
 5742.00    0.63964   0.66436    0.000
 5743.00    0.64986   0.66469    0.000
 5744.00    0.63286   0.66526    0.000
 5745.00    0.58797   0.66560    0.000
 5746.00    0.58473   0.66533    0.000
 5747.00    0.61911   0.66435    0.000
 5748.00    0.68565   0.66290    0.000
 5749.00    0.77777   0.66117    0.000
 5750.00    0.79562   0.65909    0.000
 5751.00    0.76145   0.65654    0.000
 5752.00    0.72482   0.65376    0.000
 5753.00    0.68667   0.65159    0.000
 5754.00    0.67778   0.65105    0.000
 5755.00    0.68459   0.65256    0.000
 5756.00    0.67322   0.65547    0.000
 5757.00    0.65339   0.65829    0.000
 5758.00    0.70314   0.65946    0.000
 5759.00    0.78082   0.65828    0.000
 5760.00    0.72884   0.65525    0.000
 5761.00    0.63246   0.65186    0.000
 5762.00    0.62193   0.64980    0.000
 5763.00    0.63614   0.65019    0.000
 5764.00    0.64318   0.65302    0.000
 5765.00    0.64851   0.65725    0.000
 5766.00    0.62870   0.66145    0.000
 5767.00    0.60407   0.66445    0.000
 5768.00    0.61105   0.66576    0.000
 5769.00    0.62274   0.66553    0.000
 5770.00    0.72137   0.66425    0.000
 5771.00    0.82947   0.66247    0.000
 5772.00    0.88374   0.66068    0.000
 5773.00    0.93414   0.65915    0.000
 5774.00    0.84181   0.65798    0.000
 5775.00    0.74422   0.65695    0.000
 5776.00    0.70255   0.65555    0.000
 5777.00    0.66251   0.65307    0.000
 5778.00    0.67275   0.64892    0.000
 5779.00    0.68246   0.64305    0.000
 5780.00    0.68370   0.63616    0.000
 5781.00    0.68389   0.62953    0.000
 5782.00    0.67353   0.62444    0.000
 5783.00    0.66203   0.62176    0.000
 5784.00    0.64226   0.62174    0.000
 5785.00    0.61274   0.62409    0.000
 5786.00    0.52914   0.62817    0.000
 5787.00    0.47568   0.63305    0.000
 5788.00    0.55595   0.63779    0.000
 5789.00    0.62773   0.64167    0.000
 5790.00    0.66859   0.64455    0.000
 5791.00    0.68456   0.64682   -2.000
 5792.00    0.62452   0.64894   -2.000
 5793.00    0.58560   0.65104   -2.000
 5794.00    0.60150   0.65284   -2.000
 5795.00    0.61563   0.65394   -2.000
 5796.00    0.62580   0.65435   -2.000
 5797.00    0.64283   0.65462   -2.000
 5798.00    0.67314   0.65553   -2.000
 5799.00    0.67716   0.65745   -2.000
 5800.00    0.63684   0.65995   -2.000
 5801.00    0.60992   0.66198   -2.000
 5802.00    0.60281   0.66254   -2.000
 5803.00    0.61633   0.66133   -2.000
 5804.00    0.65669   0.65892   -2.000
 5805.00    0.66091   0.65637   -2.000
 5806.00    0.62376   0.65466   -2.000
 5807.00    0.62518   0.65422   -2.000
 5808.00    0.66552   0.65488   -2.000
 5809.00    0.68959   0.65611   -2.000
 5810.00    0.69915   0.65727   -2.000
 5811.00    0.67891   0.65782    0.000
 5812.00    0.63527   0.65744    0.000
 5813.00    0.62343   0.65614    0.000
 5814.00    0.63354   0.65436    0.000
 5815.00    0.66133   0.65281    0.000
 5816.00    0.69980   0.65229    0.000
 5817.00    0.71039   0.65320    0.000
 5818.00    0.70624   0.65536    0.000
 5819.00    0.69700   0.65807    0.000
 5820.00    0.68542   0.66050    0.000
 5821.00    0.66451   0.66212    0.000
 5822.00    0.63991   0.66285    0.000
 5823.00    0.68974   0.66298    0.000
 5824.00    0.76457   0.66290    0.000
 5825.00    0.78922   0.66291    0.000
 5826.00    0.79970   0.66311    0.000
 5827.00    0.70154   0.66346    0.000
 5828.00    0.57809   0.66382    0.000
 5829.00    0.58321   0.66402    0.000
 5830.00    0.61236   0.66388    0.000
 5831.00    0.68897   0.66328    0.000
 5832.00    0.77243   0.66225    0.000
 5833.00    0.76624   0.66096    0.000
 5834.00    0.75066   0.65965    0.000
 5835.00    0.72361   0.65860    0.000
 5836.00    0.69578   0.65798    0.000
 5837.00    0.68283   0.65787    0.000
 5838.00    0.67037   0.65827    0.000
 5839.00    0.57473   0.65914    0.000
 5840.00    0.48326   0.66028    0.000
 5841.00    0.52519   0.66135    0.000
 5842.00    0.56697   0.66186    0.000
 5843.00    0.60651   0.66141    0.000
 5844.00    0.64200   0.65983    0.000
 5845.00    0.63826   0.65727    0.000
 5846.00    0.63586   0.65417    0.000
 5847.00    0.64292   0.65096    0.000
 5848.00    0.65210   0.64788    0.000
 5849.00    0.67273   0.64486    0.000
 5850.00    0.69252   0.64163    0.000
 5851.00    0.70863   0.63800    0.000
 5852.00    0.73257   0.63408    0.000
 5853.00    0.78449   0.63021    0.000
 5854.00    0.81202   0.62675    0.000
 5855.00    0.76651   0.62390    0.000
 5856.00    0.71304   0.62180    0.000
 5857.00    0.63927   0.62068    0.000
 5858.00    0.60562   0.62084    0.000
 5859.00    0.66003   0.62236    0.000
 5860.00    0.70541   0.62491    0.000
 5861.00    0.73357   0.62781    0.000
 5862.00    0.74294   0.63039    0.000
 5863.00    0.72111   0.63226    0.000
 5864.00    0.70988   0.63342    0.000
 5865.00    0.71409   0.63418    0.000
 5866.00    0.68615   0.63496    0.000
 5867.00    0.61702   0.63613    0.000
 5868.00    0.56176   0.63782    0.000
 5869.00    0.52215   0.63975    0.000
 5870.00    0.51917   0.64137    0.000
 5871.00    0.55264   0.64214    0.000
 5872.00    0.59990   0.64181    0.000
 5873.00    0.65925   0.64052    0.000
 5874.00    0.65317   0.63862    0.000
 5875.00    0.59645   0.63650    0.000
 5876.00    0.56342   0.63440    0.000
 5877.00    0.54649   0.63240    0.000
 5878.00    0.55605   0.63053    0.000
 5879.00    0.58139   0.62886    0.000
 5880.00    0.61399   0.62746    0.000
 5881.00    0.65036   0.62633    0.000
 5882.00    0.64370   0.62522    0.000
 5883.00    0.61765   0.62346    0.000
 5884.00    0.60893   0.62001    0.000
 5885.00    0.60693   0.61349    0.000
 5886.00    0.62966   0.60275    0.000
 5887.00    0.66054   0.58772    0.000
 5888.00    0.62221   0.57012    0.000
 5889.00    0.56474   0.55340    0.000
 5890.00    0.52772   0.54129    0.000
 5891.00    0.49534   0.53571    0.000
 5892.00    0.50527   0.53575    0.000
 5893.00    0.52289   0.53857    0.000
 5894.00    0.62117   0.54159    0.000
 5895.00    0.73071   0.54435    0.000
 5896.00    0.68551   0.54839    0.000
 5897.00    0.62478   0.55559    0.000
 5898.00    0.56240   0.56639    0.000
 5899.00    0.49991   0.57944    0.000
 5900.00    0.47207   0.59245    0.000
 5901.00    0.44538   0.60343    0.008
 5902.00    0.46605   0.61147    0.008
 5903.00    0.48774   0.61661    0.008
 5904.00    0.53839   0.61952    0.008
 5905.00    0.58810   0.62106    0.008
 5906.00    0.62436   0.62197    0.008
 5907.00    0.65971   0.62272    0.008
 5908.00    0.68653   0.62344    0.008
 5909.00    0.70897   0.62392    0.008
 5910.00    0.70171   0.62377    0.008
 5911.00    0.68487   0.62268    0.008
 5912.00    0.61767   0.62056    0.007
 5913.00    0.55698   0.61781    0.007
 5914.00    0.52381   0.61514    0.007
 5915.00    0.51497   0.61338    0.007
 5916.00    0.59119   0.61303    0.007
 5917.00    0.64063   0.61408    0.007
 5918.00    0.61134   0.61602    0.007
 5919.00    0.58460   0.61818    0.007
 5920.00    0.56427   0.62003    0.007
 5921.00    0.55829   0.62138    0.007
 5922.00    0.58334   0.62230    0.007
 5923.00    0.60900   0.62299    0.007
 5924.00    0.63580   0.62347    0.008
 5925.00    0.62914   0.62359    0.008
 5926.00    0.56774   0.62311    0.008
 5927.00    0.52637   0.62196    0.008
 5928.00    0.51378   0.62038    0.008
 5929.00    0.52575   0.61888    0.008
 5930.00    0.56875   0.61795    0.008
 5931.00    0.59492   0.61774    0.008
 5932.00    0.60234   0.61805    0.008
 5933.00    0.58902   0.61854    0.008
 5934.00    0.55531   0.61906    0.008
 5935.00    0.54175   0.61969    0.008
 5936.00    0.54563   0.62050    0.008
 5937.00    0.56687   0.62135    0.008
 5938.00    0.60134   0.62188    0.008
 5939.00    0.63513   0.62178    0.008
 5940.00    0.66846   0.62106    0.008
 5941.00    0.65152   0.62016    0.007
 5942.00    0.60507   0.61962    0.007
 5943.00    0.55320   0.61971    0.007
 5944.00    0.49857   0.62027    0.007
 5945.00    0.50785   0.62071    0.007
 5946.00    0.54547   0.62049    0.007
 5947.00    0.58401   0.61939    0.007
 5948.00    0.62290   0.61767    0.007
 5949.00    0.64050   0.61585    0.007
 5950.00    0.65122   0.61435    0.007
 5951.00    0.71376   0.61333    0.007
 5952.00    0.79032   0.61267    0.007
 5953.00    0.76889   0.61222    0.007
 5954.00    0.72569   0.61186    0.007
 5955.00    0.63149   0.61164    0.007
 5956.00    0.52827   0.61175    0.007
 5957.00    0.51894   0.61253    0.007
 5958.00    0.52229   0.61420    0.007
 5959.00    0.56288   0.61672    0.007
 5960.00    0.60706   0.61963    0.008
 5961.00    0.60281   0.62228    0.008
 5962.00    0.59568   0.62410    0.007
 5963.00    0.60779   0.62485    0.008
 5964.00    0.62058   0.62475    0.008
 5965.00    0.66334   0.62432    0.008
 5966.00    0.70566   0.62413    0.008
 5967.00    0.73685   0.62454    0.008
 5968.00    0.76161   0.62556    0.008
 5969.00    0.69983   0.62688    0.008
 5970.00    0.63467   0.62799    0.008
 5971.00    0.53917   0.62835    0.007
 5972.00    0.46661   0.62758    0.007
 5973.00    0.54506   0.62557    0.007
 5974.00    0.60955   0.62251    0.007
 5975.00    0.60247   0.61896    0.007
 5976.00    0.59157   0.61569    0.007
 5977.00    0.56487   0.61339    0.007
 5978.00    0.54138   0.61238    0.007
 5979.00    0.52885   0.61238    0.007
 5980.00    0.50759   0.61267    0.007
 5981.00    0.46113   0.61244    0.007
 5982.00    0.43604   0.61130    0.007
 5983.00    0.46363   0.60951    0.007
 5984.00    0.48576   0.60786    0.007
 5985.00    0.49632   0.60711    0.007
 5986.00    0.48611   0.60760    0.007
 5987.00    0.43755   0.60910    0.007
 5988.00    0.41188   0.61106    0.007
 5989.00    0.42312   0.61297    0.007
 5990.00    0.44766   0.61463    0.007
 5991.00    0.49104   0.61609    0.007
 5992.00    0.50388   0.61746    0.007
 5993.00    0.47873   0.61862    0.007
 5994.00    0.47249   0.61926    0.007
 5995.00    0.48700   0.61908    0.008
 5996.00    0.49586   0.61805    0.008
 5997.00    0.49926   0.61649    0.008
 5998.00    0.47889   0.61486    0.007
 5999.00    0.43822   0.61349    0.007
 6000.00    0.44207   0.61243    0.007
 6001.00    0.47938   0.61152    0.007
 6002.00    0.51209   0.61055    0.007
 6003.00    0.54177   0.60938    0.007
 6004.00    0.58364   0.60795    0.007
 6005.00    0.63256   0.60625    0.007
 6006.00    0.60887   0.60450    0.007
 6007.00    0.54859   0.60311    0.007
 6008.00    0.55191   0.60252    0.007
 6009.00    0.58297   0.60289    0.007
 6010.00    0.67064   0.60389    0.007
 6011.00    0.77950   0.60492    0.007
 6012.00    0.75497   0.60547    0.007
 6013.00    0.68810   0.60538    0.007
 6014.00    0.59972   0.60485    0.007
 6015.00    0.50563   0.60412    0.007
 6016.00    0.51269   0.60333    0.007
 6017.00    0.54168   0.60246    0.007
 6018.00    0.57788   0.60150    0.007
 6019.00    0.61533   0.60053    0.008
 6020.00    0.54018   0.59980    0.007
 6021.00    0.45033   0.59962    0.007
 6022.00    0.39631   0.60020    0.007
 6023.00    0.34559   0.60159    0.007
 6024.00    0.43312   0.60363    0.008
 6025.00    0.52836   0.60607    0.008
 6026.00    0.59151   0.60864    0.008
 6027.00    0.65292   0.61115    0.007
 6028.00    0.61122   0.61349    0.007
 6029.00    0.56860   0.61557    0.007
 6030.00    0.50434   0.61735    0.007
 6031.00    0.44372   0.61883    0.007
 6032.00    0.42933   0.62003    0.007
 6033.00    0.41688   0.62095    0.007
 6034.00    0.42108   0.62159    0.007
 6035.00    0.43516   0.62191    0.007
 6036.00    0.51233   0.62187    0.007
 6037.00    0.58128   0.62147    0.007
 6038.00    0.60913   0.62079    0.007
 6039.00    0.63110   0.62001    0.007
 6040.00    0.62924   0.61939    0.007
 6041.00    0.61355   0.61920    0.007
 6042.00    0.55146   0.61961    0.007
 6043.00    0.49709   0.62059    0.007
 6044.00    0.46459   0.62192    0.007
 6045.00    0.46508   0.62327    0.007
 6046.00    0.54547   0.62435    0.007
 6047.00    0.59399   0.62500    0.007
 6048.00    0.57590   0.62513    0.007
 6049.00    0.54300   0.62476    0.007
 6050.00    0.48322   0.62388    0.007
 6051.00    0.45533   0.62250    0.007
 6052.00    0.47812   0.62067    0.007
 6053.00    0.53945   0.61856    0.007
 6054.00    0.65451   0.61647    0.007
 6055.00    0.71819   0.61476    0.008
 6056.00    0.71880   0.61374    0.007
 6057.00    0.68235   0.61354    0.007
 6058.00    0.60579   0.61397    0.008
 6059.00    0.53409   0.61453    0.008
 6060.00    0.46704   0.61457    0.007
 6061.00    0.42139   0.61359    0.007
 6062.00    0.39377   0.61151    0.007
 6063.00    0.40914   0.60888    0.007
 6064.00    0.45635   0.60665    0.007
 6065.00    0.48620   0.60586    0.007
 6066.00    0.50475   0.60710    0.007
 6067.00    0.50441   0.61020    0.007
 6068.00    0.49333   0.61436    0.007
 6069.00    0.50974   0.61855    0.007
 6070.00    0.53979   0.62195    0.007
 6071.00    0.54566   0.62415    0.007
 6072.00    0.54116   0.62512    0.007
 6073.00    0.54810   0.62493    0.007
 6074.00    0.55925   0.62368    0.007
 6075.00    0.60650   0.62143    0.007
 6076.00    0.66499   0.61836    0.007
 6077.00    0.63965   0.61477    0.007
 6078.00    0.59257   0.61110    0.007
 6079.00    0.56338   0.60775    0.007
 6080.00    0.53797   0.60499    0.007
 6081.00    0.55332   0.60292    0.007
 6082.00    0.57549   0.60154    0.007
 6083.00    0.56700   0.60084    0.007
 6084.00    0.55465   0.60072    0.008
 6085.00    0.52315   0.60104    0.007
 6086.00    0.48997   0.60150    0.007
 6087.00    0.53131   0.60178    0.007
 6088.00    0.57651   0.60161    0.007
 6089.00    0.60418   0.60103    0.007
 6090.00    0.62983   0.60036    0.007
 6091.00    0.53021   0.60007    0.007
 6092.00    0.43399   0.60055    0.007
 6093.00    0.41019   0.60186    0.007
 6094.00    0.39377   0.60372    0.007
 6095.00    0.46671   0.60562    0.007
 6096.00    0.53446   0.60702    0.007
 6097.00    0.55911   0.60746    0.007
 6098.00    0.57559   0.60657    0.007
 6099.00    0.54144   0.60412    0.007
 6100.00    0.51706   0.60028    0.007
 6101.00    0.54029   0.59579    0.007
 6102.00    0.56356   0.59189    0.007
 6103.00    0.58699   0.58982    0.007
 6104.00    0.60292   0.59015    0.007
 6105.00    0.59417   0.59251    0.007
 6106.00    0.59017   0.59586    0.007
 6107.00    0.59942   0.59911    0.007
 6108.00    0.61831   0.60164    0.007
 6109.00    0.66018   0.60334    0.007
 6110.00    0.67362   0.60446    0.007
 6111.00    0.62858   0.60528    0.007
 6112.00    0.57062   0.60597    0.007
 6113.00    0.48954   0.60653    0.007
 6114.00    0.44011   0.60676    0.007
 6115.00    0.44020   0.60641    0.007
 6116.00    0.44562   0.60522    0.007
 6117.00    0.45839   0.60299    0.007
 6118.00    0.47575   0.59969    0.007
 6119.00    0.49867   0.59556    0.007
 6120.00    0.51582   0.59126    0.007
 6121.00    0.52682   0.58776    0.007
 6122.00    0.52104   0.58591    0.007
 6123.00    0.49948   0.58604    0.007
 6124.00    0.49251   0.58769    0.007
 6125.00    0.49763   0.58998    0.007
 6126.00    0.48757   0.59210    0.007
 6127.00    0.46642   0.59378    0.007
 6128.00    0.47072   0.59517    0.007
 6129.00    0.49134   0.59648    0.007
 6130.00    0.52689   0.59757    0.007
 6131.00    0.57081   0.59777    0.007
 6132.00    0.60029   0.59618    0.007
 6133.00    0.62272   0.59213    0.007
 6134.00    0.56883   0.58576    0.007
 6135.00    0.48275   0.57822    0.007
 6136.00    0.46119   0.57141    0.007
 6137.00    0.46292   0.56719    0.007
 6138.00    0.53518   0.56645    0.007
 6139.00    0.62895   0.56886    0.008
 6140.00    0.65811   0.57323    0.008
 6141.00    0.67085   0.57833    0.008
 6142.00    0.66646   0.58335    0.007
 6143.00    0.65853   0.58786    0.007
 6144.00    0.66663   0.59150    0.007
 6145.00    0.67734   0.59385    0.007
 6146.00    0.64312   0.59458    0.007
 6147.00    0.60343   0.59381    0.007
 6148.00    0.57764   0.59215    0.007
 6149.00    0.55301   0.59044    0.007
 6150.00    0.58607   0.58935    0.007
 6151.00    0.62189   0.58908    0.007
 6152.00    0.61798   0.58932    0.007
 6153.00    0.61308   0.58952    0.007
 6154.00    0.58460   0.58913    0.007
 6155.00    0.55622   0.58780    0.007
 6156.00    0.52981   0.58526    0.007
 6157.00    0.50435   0.58120    0.007
 6158.00    0.48973   0.57537    0.007
 6159.00    0.48013   0.56786    0.007
 6160.00    0.51063   0.55939    0.007
 6161.00    0.54335   0.55142    0.007
 6162.00    0.58946   0.54562    0.007
 6163.00    0.63065   0.54310    0.007
 6164.00    0.64841   0.54383    0.007
 6165.00    0.66588   0.54669    0.007
 6166.00    0.68221   0.55001    0.007
 6167.00    0.69377   0.55253    0.007
 6168.00    0.68998   0.55389    0.007
 6169.00    0.67697   0.55464    0.007
 6170.00    0.63875   0.55570    0.007
 6171.00    0.60161   0.55763    0.007
 6172.00    0.56697   0.56039    0.007
 6173.00    0.54778   0.56347    0.007
 6174.00    0.55985   0.56631    0.007
 6175.00    0.57602   0.56866    0.007
 6176.00    0.59941   0.57058    0.007
 6177.00    0.62759   0.57230    0.007
 6178.00    0.66318   0.57400    0.007
 6179.00    0.67140   0.57573    0.007
 6180.00    0.64253   0.57738    0.007
 6181.00    0.60673   0.57872    0.007
 6182.00    0.56264   0.57946    0.007
 6183.00    0.53129   0.57927    0.007
 6184.00    0.51334   0.57792    0.007
 6185.00    0.51320   0.57537    0.007
 6186.00    0.52958   0.57175    0.007
 6187.00    0.55778   0.56740    0.007
 6188.00    0.59565   0.56277    0.007
 6189.00    0.58985   0.55847    0.007
 6190.00    0.55263   0.55526    0.007
 6191.00    0.53065   0.55389    0.007
 6192.00    0.51830   0.55477    0.007
 6193.00    0.49644   0.55772    0.007
 6194.00    0.46933   0.56185    0.007
 6195.00    0.37514   0.56596    0.007
 6196.00    0.24874   0.56896   -2.000
 6197.00    0.32350   0.57036   -2.000
 6198.00    0.48166   0.57036   -2.000
 6199.00    0.59010   0.56971   -2.000
 6200.00    0.68092   0.56933   -2.000
 6201.00    0.75062   0.56983   -2.000
 6202.00    0.81399   0.57130   -2.000
 6203.00    0.60373   0.57340   -2.000
 6204.00    0.32550   0.57560   -2.000
 6205.00    0.29366   0.57744   -2.000
 6206.00    0.31143   0.57859   -2.000
 6207.00    0.43249   0.57886   -2.000
 6208.00    0.56983   0.57807    0.007
 6209.00    0.56334   0.57605    0.007
 6210.00    0.53999   0.57272    0.007
 6211.00    0.53401   0.56822    0.007
 6212.00    0.52941   0.56299    0.007
 6213.00    0.55612   0.55774    0.007
 6214.00    0.58421   0.55326    0.007
 6215.00    0.58879   0.55014    0.007
 6216.00    0.59306   0.54850    0.007
 6217.00    0.59451   0.54805    0.007
 6218.00    0.59671   0.54831    0.007
 6219.00    0.61260   0.54894    0.007
 6220.00    0.62843   0.54982    0.007
 6221.00    0.64348   0.55097    0.007
 6222.00    0.65086   0.55239    0.007
 6223.00    0.59902   0.55386    0.007
 6224.00    0.55369   0.55501    0.007
 6225.00    0.54639   0.55540    0.007
 6226.00    0.55343   0.55462    0.007
 6227.00    0.62700   0.55247    0.007
 6228.00    0.68660   0.54916    0.007
 6229.00    0.69322   0.54542    0.007
 6230.00    0.68168   0.54239    0.007
 6231.00    0.61259   0.54116    0.007
 6232.00    0.55344   0.54227    0.007
 6233.00    0.52096   0.54534    0.007
 6234.00    0.50349   0.54922    0.007
 6235.00    0.52061   0.55246    0.007
 6236.00    0.53218   0.55397    0.007
 6237.00    0.53269   0.55338    0.007
 6238.00    0.53668   0.55107    0.007
 6239.00    0.54668   0.54783    0.007
 6240.00    0.55482   0.54446    0.007
 6241.00    0.56014   0.54145    0.007
 6242.00    0.55146   0.53908    0.007
 6243.00    0.52408   0.53752    0.007
 6244.00    0.51729   0.53698    0.007
 6245.00    0.53470   0.53766    0.007
 6246.00    0.54324   0.53955    0.007
 6247.00    0.54257   0.54222    0.007
 6248.00    0.55548   0.54485    0.007
 6249.00    0.58080   0.54647    0.007
 6250.00    0.60197   0.54638    0.007
 6251.00    0.61980   0.54446    0.007
 6252.00    0.63930   0.54120    0.007
 6253.00    0.65999   0.53739    0.007
 6254.00    0.65350   0.53379    0.007
 6255.00    0.63010   0.53088    0.007
 6256.00    0.57546   0.52899    0.007
 6257.00    0.50383   0.52838    0.007
 6258.00    0.45759   0.52934    0.007
 6259.00    0.42336   0.53194    0.007
 6260.00    0.50911   0.53591    0.008
 6261.00    0.64375   0.54060    0.008
 6262.00    0.72581   0.54519    0.008
 6263.00    0.78958   0.54896    0.009
 6264.00    0.72934   0.55155    0.008
 6265.00    0.63272   0.55303    0.008
 6266.00    0.54184   0.55372    0.008
 6267.00    0.45235   0.55398    0.007
 6268.00    0.45497   0.55413    0.007
 6269.00    0.47568   0.55441    0.007
 6270.00    0.49178   0.55495    0.007
 6271.00    0.50719   0.55579    0.007
 6272.00    0.52194   0.55681    0.007
 6273.00    0.53661   0.55777    0.007
 6274.00    0.56870   0.55836    0.007
 6275.00    0.60210   0.55832    0.007
 6276.00    0.60848   0.55751    0.007
 6277.00    0.61378   0.55596    0.007
 6278.00    0.58871   0.55392    0.007
 6279.00    0.56381   0.55184    0.007
 6280.00    0.55476   0.55028    0.000
 6281.00    0.55123   0.54970    0.000
 6282.00    0.64179   0.55031    0.000
 6283.00    0.72606   0.55202    0.000
 6284.00    0.74414   0.55455    0.000
 6285.00    0.75299   0.55747    0.000
 6286.00    0.69292   0.56037    0.000
 6287.00    0.64380   0.56281    0.000
 6288.00    0.65693   0.56442    0.000
 6289.00    0.65976   0.56499    0.000
 6290.00    0.61595   0.56454    0.000
 6291.00    0.57169   0.56327    0.000
 6292.00    0.52576   0.56147    0.000
 6293.00    0.48903   0.55935    0.000
 6294.00    0.48089   0.55702    0.000
 6295.00    0.46912   0.55456    0.000
 6296.00    0.44775   0.55206    0.000
 6297.00    0.44099   0.54969    0.000
 6298.00    0.46729   0.54765    0.000
 6299.00    0.49647   0.54609    0.000
 6300.00    0.53130   0.54515    0.000
 6301.00    0.54381   0.54498    0.000
 6302.00    0.51816   0.54577    0.000
 6303.00    0.50714   0.54762    0.000
 6304.00    0.51805   0.55035    0.000
 6305.00    0.56220   0.55355    0.000
 6306.00    0.65008   0.55666    0.000
 6307.00    0.68296   0.55912    0.000
 6308.00    0.65208   0.56054    0.000
 6309.00    0.60509   0.56075    0.000
 6310.00    0.54164   0.55980    0.000
 6311.00    0.52003   0.55792    0.000
 6312.00    0.53616   0.55543    0.000
 6313.00    0.52536   0.55259    0.000
 6314.00    0.49316   0.54961    0.000
 6315.00    0.45978   0.54681    0.000
 6316.00    0.42557   0.54454    0.000
 6317.00    0.40900   0.54312    0.000
 6318.00    0.40326   0.54283    0.000
 6319.00    0.38505   0.54376    0.000
 6320.00    0.36017   0.54582    0.000
 6321.00    0.37511   0.54867    0.007
 6322.00    0.40856   0.55190    0.007
 6323.00    0.46917   0.55509    0.007
 6324.00    0.54066   0.55792    0.007
 6325.00    0.57363   0.56017    0.007
 6326.00    0.59344   0.56174    0.007
 6327.00    0.57166   0.56268    0.007
 6328.00    0.53792   0.56317    0.007
 6329.00    0.53652   0.56334    0.007
 6330.00    0.54281   0.56316    0.007
 6331.00    0.54938   0.56245    0.007
 6332.00    0.55600   0.56096    0.007
 6333.00    0.53283   0.55862    0.007
 6334.00    0.50525   0.55567    0.007
 6335.00    0.50876   0.55275    0.007
 6336.00    0.51565   0.55067    0.007
 6337.00    0.53780   0.55003    0.007
 6338.00    0.56105   0.55080    0.006
 6339.00    0.51665   0.55245    0.006
 6340.00    0.46980   0.55408    0.006
 6341.00    0.43460   0.55498    0.006
 6342.00    0.40178   0.55485    0.006
 6343.00    0.45127   0.55389    0.006
 6344.00    0.49944   0.55275    0.006
 6345.00    0.52649   0.55212    0.006
 6346.00    0.55123   0.55244    0.006
 6347.00    0.55283   0.55374    0.007
 6348.00    0.55433   0.55569    0.007
 6349.00    0.55522   0.55768    0.007
 6350.00    0.55687   0.55906    0.007
 6351.00    0.56275   0.55935    0.007
 6352.00    0.55833   0.55842    0.007
 6353.00    0.50842   0.55641    0.007
 6354.00    0.47840   0.55360    0.007
 6355.00    0.52067   0.55033    0.007
 6356.00    0.56242   0.54692    0.007
 6357.00    0.60262   0.54356    0.007
 6358.00    0.61895   0.54042    0.007
 6359.00    0.57344   0.53769    0.007
 6360.00    0.53517   0.53565    0.007
 6361.00    0.51305   0.53454    0.007
 6362.00    0.50213   0.53456    0.007
 6363.00    0.51285   0.53577    0.007
 6364.00    0.50824   0.53806    0.007
 6365.00    0.47784   0.54114    0.007
 6366.00    0.45071   0.54453    0.007
 6367.00    0.42844   0.54779    0.007
 6368.00    0.42088   0.55063    0.007
 6369.00    0.43240   0.55302    0.007
 6370.00    0.44246   0.55510    0.007
 6371.00    0.45082   0.55703    0.007
 6372.00    0.46229   0.55889    0.007
 6373.00    0.47688   0.56054    0.007
 6374.00    0.50370   0.56169    0.007
 6375.00    0.54140   0.56204    0.007
 6376.00    0.53868   0.56148    0.007
 6377.00    0.50431   0.56017    0.007
 6378.00    0.49871   0.55847    0.007
 6379.00    0.51294   0.55685    0.007
 6380.00    0.51079   0.55567    0.007
 6381.00    0.49875   0.55509    0.007
 6382.00    0.45347   0.55510    0.007
 6383.00    0.39066   0.55554    0.007
 6384.00    0.37389   0.55622    0.007
 6385.00    0.37817   0.55692    0.007
 6386.00    0.38963   0.55747    0.007
 6387.00    0.40392   0.55766    0.007
 6388.00    0.38749   0.55722    0.006
 6389.00    0.36076   0.55588    0.006
 6390.00    0.32840   0.55363    0.006
 6391.00    0.29445   0.55090    0.006
 6392.00    0.28920   0.54838    0.006
 6393.00    0.29060   0.54677    0.006
 6394.00    0.33917   0.54640    0.007
 6395.00    0.39653   0.54700    0.007
 6396.00    0.42492   0.54777    0.007
 6397.00    0.44913   0.54798    0.007
 6398.00    0.43999   0.54757    0.007
 6399.00    0.42736   0.54702    0.007
 6400.00    0.43937   0.54707    0.007
 6401.00    0.45302   0.54829    0.007
 6402.00    0.43700   0.55060    0.007
 6403.00    0.42002   0.55326    0.007
 6404.00    0.40264   0.55531    0.007
 6405.00    0.38604   0.55609    0.007
 6406.00    0.39320   0.55560    0.007
 6407.00    0.40477   0.55414    0.007
 6408.00    0.48262   0.55221    0.007
 6409.00    0.55419   0.55036    0.007
 6410.00    0.56517   0.54893    0.007
 6411.00    0.56681   0.54805    0.006
 6412.00    0.50322   0.54774    0.006
 6413.00    0.44833   0.54793    0.006
 6414.00    0.44033   0.54839    0.006
 6415.00    0.44077   0.54879    0.006
 6416.00    0.47761   0.54872    0.006
 6417.00    0.50153   0.54791    0.006
 6418.00    0.47940   0.54653    0.006
 6419.00    0.45409   0.54519    0.006
 6420.00    0.41924   0.54460    0.006
 6421.00    0.39441   0.54524    0.007
 6422.00    0.39511   0.54721    0.007
 6423.00    0.40368   0.55015    0.007
 6424.00    0.42951   0.55331    0.007
 6425.00    0.45781   0.55583    0.007
 6426.00    0.49080   0.55697    0.007
 6427.00    0.53080   0.55632    0.007
 6428.00    0.58240   0.55407    0.007
 6429.00    0.62093   0.55099    0.007
 6430.00    0.64044   0.54802    0.007
 6431.00    0.62245   0.54607    0.007
 6432.00    0.55651   0.54559    0.007
 6433.00    0.48880   0.54645    0.007
 6434.00    0.41911   0.54790    0.007
 6435.00    0.39958   0.54900    0.007
 6436.00    0.42990   0.54924    0.007
 6437.00    0.44096   0.54891    0.007
 6438.00    0.43515   0.54867    0.007
 6439.00    0.40852   0.54921    0.007
 6440.00    0.36581   0.55095    0.006
 6441.00    0.38087   0.55374    0.006
 6442.00    0.43514   0.55693    0.006
 6443.00    0.45774   0.55965    0.006
 6444.00    0.46150   0.56109    0.006
 6445.00    0.43904   0.56057    0.006
 6446.00    0.40298   0.55781    0.007
 6447.00    0.40889   0.55319    0.007
 6448.00    0.43367   0.54786    0.007
 6449.00    0.46701   0.54306    0.007
 6450.00    0.50365   0.53985    0.007
 6451.00    0.52827   0.53866    0.007
 6452.00    0.54893   0.53911    0.007
 6453.00    0.52663   0.54051    0.007
 6454.00    0.49248   0.54229    0.007
 6455.00    0.47657   0.54411    0.007
 6456.00    0.46479   0.54587    0.007
 6457.00    0.51994   0.54747    0.007
 6458.00    0.58721   0.54852    0.007
 6459.00    0.58392   0.54844    0.007
 6460.00    0.57081   0.54714    0.007
 6461.00    0.51660   0.54516    0.007
 6462.00    0.45829   0.54334    0.007
 6463.00    0.42337   0.54254    0.006
 6464.00    0.38992   0.54321    0.006
 6465.00    0.35304   0.54515    0.006
 6466.00    0.31612   0.54758    0.006
 6467.00    0.29621   0.54960    0.006
 6468.00    0.27857   0.55058    0.006
 6469.00    0.32428   0.55043    0.006
 6470.00    0.37135   0.54950    0.007
 6471.00    0.43764   0.54823    0.007
 6472.00    0.49969   0.54700    0.007
 6473.00    0.52243   0.54613    0.007
 6474.00    0.53939   0.54578    0.007
 6475.00    0.51728   0.54584    0.007
 6476.00    0.49812   0.54606    0.007
 6477.00    0.49439   0.54607    0.007
 6478.00    0.49006   0.54540    0.007
 6479.00    0.48317   0.54380    0.007
 6480.00    0.48092   0.54146    0.007
 6481.00    0.49480   0.53898    0.007
 6482.00    0.50362   0.53704    0.007
 6483.00    0.49758   0.53615    0.007
 6484.00    0.48612   0.53644    0.006
 6485.00    0.46111   0.53758    0.006
 6486.00    0.45008   0.53883    0.006
 6487.00    0.46921   0.53934    0.006
 6488.00    0.49653   0.53838    0.006
 6489.00    0.53920   0.53553    0.006
 6490.00    0.56941   0.53054    0.006
 6491.00    0.57928   0.52343    0.006
 6492.00    0.57560   0.51482    0.006
 6493.00    0.55253   0.50583    0.006
 6494.00    0.53613   0.49789    0.006
 6495.00    0.52812   0.49235    0.006
 6496.00    0.51901   0.49006    0.007
 6497.00    0.50867   0.49126    0.007
 6498.00    0.49849   0.49557    0.007
 6499.00    0.48847   0.50207    0.007
 6500.00    0.48888   0.50959    0.007
 6501.00    0.49830   0.51712    0.007
 6502.00    0.49142   0.52388    0.007
 6503.00    0.47213   0.52945    0.007
 6504.00    0.45392   0.53362    0.007
 6505.00    0.43644   0.53641    0.007
 6506.00    0.45012   0.53804    0.006
 6507.00    0.48206   0.53888    0.006
 6508.00    0.49397   0.53926    0.006
 6509.00    0.49565   0.53939    0.006
 6510.00    0.50692   0.53930    0.006
 6511.00    0.52243   0.53887    0.006
 6512.00    0.54950   0.53790    0.006
 6513.00    0.58097   0.53626    0.006
 6514.00    0.57887   0.53411    0.006
 6515.00    0.56593   0.53177    0.006
 6516.00    0.52687   0.52973    0.006
 6517.00    0.48074   0.52855    0.006
 6518.00    0.42227   0.52852    0.006
 6519.00    0.36106   0.52958    0.006
 6520.00    0.34561   0.53135    0.006
 6521.00    0.33823   0.53336    0.007
 6522.00    0.37625   0.53512    0.007
 6523.00    0.42037   0.53619    0.007
 6524.00    0.48231   0.53640    0.007
 6525.00    0.54594   0.53596    0.007
 6526.00    0.58553   0.53523    0.007
 6527.00    0.62370   0.53451    0.007
 6528.00    0.57883   0.53389    0.000
 6529.00    0.53191   0.53335    0.000
 6530.00    0.49015   0.53284    0.000
 6531.00    0.45145   0.53240    0.000
 6532.00    0.48987   0.53218    0.000
 6533.00    0.52649   0.53228    0.000
 6534.00    0.53898   0.53270    0.000
 6535.00    0.54711   0.53336    0.000
 6536.00    0.51648   0.53417    0.000
 6537.00    0.49310   0.53496    0.000
 6538.00    0.51724   0.53544    0.000
 6539.00    0.53586   0.53534    0.000
 6540.00    0.52626   0.53443    0.000
 6541.00    0.51327   0.53259    0.000
 6542.00    0.48629   0.52985    0.000
 6543.00    0.45649   0.52635    0.000
 6544.00    0.41699   0.52254    0.000
 6545.00    0.38428   0.51908    0.000
 6546.00    0.37109   0.51641    0.000
 6547.00    0.36923   0.51457    0.000
 6548.00    0.39522   0.51333    0.000
 6549.00    0.42340   0.51226    0.000
 6550.00    0.45622   0.51089    0.000
 6551.00    0.49183   0.50880    0.000
 6552.00    0.53256   0.50578    0.000
 6553.00    0.55208   0.50192    0.000
 6554.00    0.53743   0.49747    0.000
 6555.00    0.52355   0.49250    0.000
 6556.00    0.51075   0.48669    0.000
 6557.00    0.48884   0.47934    0.000
 6558.00    0.45561   0.46954    0.000
 6559.00    0.43521   0.45654    0.000
 6560.00    0.42887   0.44095    0.000
 6561.00    0.49638   0.42590    0.000
 6562.00    0.63524   0.41537    0.000
 6563.00    0.80270   0.41194    0.000
 6564.00    0.99452   0.41618    0.000
 6565.00    1.11445   0.42689    0.000
 6566.00    1.18044   0.44129    0.000
 6567.00    1.12403   0.45621    0.000
 6568.00    0.98692   0.46924    0.000
 6569.00    0.83295   0.47906    0.000
 6570.00    0.66926   0.48547    0.000
 6571.00    0.58266   0.48922    0.000
 6572.00    0.53484   0.49147    0.000
 6573.00    0.50646   0.49340    0.000
 6574.00    0.48654   0.49585    0.000
 6575.00    0.48659   0.49906    0.000
 6576.00    0.49410   0.50279    0.000
 6577.00    0.52351   0.50653    0.000
 6578.00    0.55987   0.50977    0.000
 6579.00    0.55500   0.51225    0.000
 6580.00    0.53924   0.51407    0.000
 6581.00    0.54932   0.51541    0.000
 6582.00    0.56500   0.51644    0.000
 6583.00    0.63632   0.51732    0.000
 6584.00    0.71719   0.51815    0.000
 6585.00    0.75003   0.51902    0.000
 6586.00    0.77663   0.51984    0.000
 6587.00    0.72930   0.52033    0.000
 6588.00    0.67523   0.52014    0.000
 6589.00    0.63197   0.51884    0.000
 6590.00    0.58931   0.51620    0.000
 6591.00    0.58059   0.51272    0.000
 6592.00    0.57241   0.50944    0.000
 6593.00    0.54746   0.50725    0.000
 6594.00    0.51953   0.50651    0.000
 6595.00    0.42339   0.50717    0.000
 6596.00    0.33351   0.50890    0.000
 6597.00    0.32294   0.51130    0.000
 6598.00    0.31917   0.51399    0.000
 6599.00    0.37379   0.51652    0.000
 6600.00    0.42258   0.51852    0.000
 6601.00    0.43436   0.51971    0.000
 6602.00    0.44546   0.51994    0.000
 6603.00    0.45323   0.51924    0.000
 6604.00    0.46528   0.51781    0.000
 6605.00    0.49460   0.51591    0.000
 6606.00    0.51915   0.51389    0.000
 6607.00    0.52772   0.51225    0.000
 6608.00    0.53101   0.51156    0.000
 6609.00    0.51932   0.51197    0.006
 6610.00    0.52244   0.51319    0.006
 6611.00    0.56133   0.51483    0.006
 6612.00    0.58566   0.51671    0.007
 6613.00    0.57960   0.51870    0.007
 6614.00    0.56129   0.52057    0.007
 6615.00    0.52076   0.52219    0.007
 6616.00    0.48470   0.52357    0.007
 6617.00    0.45571   0.52468    0.007
 6618.00    0.44678   0.52546    0.007
 6619.00    0.46577   0.52577    0.006
 6620.00    0.49437   0.52544    0.006
 6621.00    0.53473   0.52435    0.006
 6622.00    0.56691   0.52260    0.006
 6623.00    0.59027   0.52053    0.006
 6624.00    0.57634   0.51862    0.006
 6625.00    0.52690   0.51711    0.006
 6626.00    0.49140   0.51609    0.006
 6627.00    0.46763   0.51544    0.006
 6628.00    0.46004   0.51492    0.006
 6629.00    0.46441   0.51423    0.006
 6630.00    0.47598   0.51314    0.006
 6631.00    0.49221   0.51163    0.006
 6632.00    0.49876   0.51009    0.006
 6633.00    0.49983   0.50909    0.006
 6634.00    0.45530   0.50891    0.006
 6635.00    0.38823   0.50959    0.006
 6636.00    0.36109   0.51086    0.006
 6637.00    0.35105   0.51231    0.007
 6638.00    0.39224   0.51358    0.007
 6639.00    0.45222   0.51439    0.007
 6640.00    0.51647   0.51444    0.007
 6641.00    0.58205   0.51363    0.007
 6642.00    0.59396   0.51247    0.007
 6643.00    0.59198   0.51151    0.006
 6644.00    0.55576   0.51096    0.006
 6645.00    0.51232   0.51091    0.006
 6646.00    0.48452   0.51133    0.006
 6647.00    0.45932   0.51209    0.006
 6648.00    0.45510   0.51286    0.006
 6649.00    0.45352   0.51338    0.006
 6650.00    0.47039   0.51359    0.006
 6651.00    0.48886   0.51355    0.006
 6652.00    0.49960   0.51337    0.006
 6653.00    0.50994   0.51315    0.006
 6654.00    0.50896   0.51292    0.006
 6655.00    0.50757   0.51269    0.006
 6656.00    0.49118   0.51241    0.007
 6657.00    0.47478   0.51193    0.007
 6658.00    0.45838   0.51106    0.007
 6659.00    0.44181   0.50972    0.007
 6660.00    0.42321   0.50787    0.007
 6661.00    0.41202   0.50564    0.007
 6662.00    0.46192   0.50357    0.007
 6663.00    0.50347   0.50212    0.007
 6664.00    0.49340   0.50139    0.006
 6665.00    0.48249   0.50144    0.006
 6666.00    0.46749   0.50232    0.006
 6667.00    0.44910   0.50389    0.006
 6668.00    0.41728   0.50585    0.006
 6669.00    0.40189   0.50784    0.006
 6670.00    0.44044   0.50953    0.006
 6671.00    0.47509   0.51066    0.006
 6672.00    0.49889   0.51102    0.006
 6673.00    0.51023   0.51042    0.006
 6674.00    0.49194   0.50866    0.006
 6675.00    0.48585   0.50567    0.006
 6676.00    0.50479   0.50204    0.006
 6677.00    0.53107   0.49889    0.006
 6678.00    0.57044   0.49689    0.007
 6679.00    0.55514   0.49619    0.007
 6680.00    0.45439   0.49684    0.007
 6681.00    0.37593   0.49857    0.006
 6682.00    0.32804   0.50087    0.006
 6683.00    0.33032   0.50317    0.007
 6684.00    0.39319   0.50508    0.007
 6685.00    0.41935   0.50638    0.007
 6686.00    0.40642   0.50712    0.006
 6687.00    0.39260   0.50750    0.006
 6688.00    0.37796   0.50762    0.006
 6689.00    0.39279   0.50759    0.006
 6690.00    0.43203   0.50740    0.006
 6691.00    0.45893   0.50703    0.006
 6692.00    0.47686   0.50642    0.006
 6693.00    0.47925   0.50543    0.006
 6694.00    0.47171   0.50413    0.006
 6695.00    0.46556   0.50286    0.006
 6696.00    0.46019   0.50189    0.000
 6697.00    0.44006   0.50140    0.000
 6698.00    0.41273   0.50148    0.000
 6699.00    0.41829   0.50192    0.000
 6700.00    0.43769   0.50239    0.000
 6701.00    0.44502   0.50261    0.000
 6702.00    0.44802   0.50251    0.000
 6703.00    0.41823   0.50227    0.000
 6704.00    0.37844   0.50207    0.000
 6705.00    0.38066   0.50199    0.000
 6706.00    0.39352   0.50203    0.000
 6707.00    0.47391   0.50207    0.000
 6708.00    0.56821   0.50194    0.000
 6709.00    0.60560   0.50154    0.000
 6710.00    0.63377   0.50076    0.000
 6711.00    0.61211   0.49942    0.000
 6712.00    0.58441   0.49751    0.000
 6713.00    0.57909   0.49511    0.000
 6714.00    0.57562   0.49235    0.000
 6715.00    0.55892   0.48955    0.000
 6716.00    0.54158   0.48733    0.000
 6717.00    0.62649   0.48627    0.000
 6718.00    0.71129   0.48640    0.000
 6719.00    0.70902   0.48747    0.000
 6720.00    0.70089   0.48915    0.000
 6721.00    0.57879   0.49111    0.000
 6722.00    0.46561   0.49295    0.000
 6723.00    0.45488   0.49432    0.000
 6724.00    0.44872   0.49516    0.000
 6725.00    0.47906   0.49568    0.000
 6726.00    0.49895   0.49611    0.000
 6727.00    0.45613   0.49655    0.000
 6728.00    0.41608   0.49705    0.000
 6729.00    0.38911   0.49753    0.000
 6730.00    0.38272   0.49786    0.000
 6731.00    0.45582   0.49797    0.000
 6732.00    0.52599   0.49789    0.000
 6733.00    0.58676   0.49767    0.000
 6734.00    0.61353   0.49729    0.000
 6735.00    0.54763   0.49667    0.000
 6736.00    0.48381   0.49574    0.000
 6737.00    0.42485   0.49459    0.000
 6738.00    0.39543   0.49345    0.000
 6739.00    0.42570   0.49246    0.000
 6740.00    0.45896   0.49158    0.000
 6741.00    0.49749   0.49085    0.000
 6742.00    0.52372   0.49042    0.000
 6743.00    0.53102   0.49024    0.000
 6744.00    0.53811   0.49008    0.000
 6745.00    0.54494   0.48979    0.000
 6746.00    0.55124   0.48927    0.000
 6747.00    0.55689   0.48847    0.000
 6748.00    0.56701   0.48753    0.000
 6749.00    0.58180   0.48675    0.000
 6750.00    0.56863   0.48629    0.000
 6751.00    0.52954   0.48620    0.000
 6752.00    0.52262   0.48669    0.000
 6753.00    0.54194   0.48775    0.007
 6754.00    0.56659   0.48926    0.007
 6755.00    0.59507   0.49109    0.007
 6756.00    0.58084   0.49305    0.007
 6757.00    0.53970   0.49494    0.007
 6758.00    0.48647   0.49655    0.007
 6759.00    0.42658   0.49776    0.007
 6760.00    0.39395   0.49844    0.007
 6761.00    0.37437   0.49861    0.008
 6762.00    0.40966   0.49826    0.008
 6763.00    0.46763   0.49736    0.008
 6764.00    0.48073   0.49591    0.008
 6765.00    0.47797   0.49403    0.008
 6766.00    0.48561   0.49212    0.008
 6767.00    0.49635   0.49059    0.008
 6768.00    0.50687   0.48952    0.008
 6769.00    0.51735   0.48893    0.007
 6770.00    0.52554   0.48900    0.007
 6771.00    0.53328   0.48980    0.007
 6772.00    0.50566   0.49123    0.007
 6773.00    0.47247   0.49306    0.007
 6774.00    0.46918   0.49504    0.007
 6775.00    0.46937   0.49688    0.007
 6776.00    0.50440   0.49835    0.007
 6777.00    0.54218   0.49930    0.007
 6778.00    0.51247   0.49955    0.007
 6779.00    0.47983   0.49893    0.007
 6780.00    0.47432   0.49739    0.007
 6781.00    0.46945   0.49509    0.007
 6782.00    0.48076   0.49241    0.007
 6783.00    0.48966   0.48985    0.007
 6784.00    0.45474   0.48780    0.007
 6785.00    0.42104   0.48656    0.007
 6786.00    0.40061   0.48619    0.007
 6787.00    0.38771   0.48647    0.007
 6788.00    0.43279   0.48710    0.007
 6789.00    0.47263   0.48784    0.007
 6790.00    0.48195   0.48842    0.007
 6791.00    0.48129   0.48861    0.007
 6792.00    0.43447   0.48844    0.007
 6793.00    0.41170   0.48815    0.007
 6794.00    0.47988   0.48797    0.007
 6795.00    0.52642   0.48806    0.007
 6796.00    0.50465   0.48847    0.007
 6797.00    0.50138   0.48914    0.007
 6798.00    0.54767   0.49000    0.007
 6799.00    0.57041   0.49090    0.007
 6800.00    0.53906   0.49165    0.007
 6801.00    0.51649   0.49212    0.007
 6802.00    0.51139   0.49225    0.007
 6803.00    0.52186   0.49212    0.007
 6804.00    0.55932   0.49180    0.007
 6805.00    0.56792   0.49135    0.007
 6806.00    0.53274   0.49094    0.007
 6807.00    0.47589   0.49062    0.007
 6808.00    0.39017   0.49031    0.007
 6809.00    0.34906   0.49007    0.007
 6810.00    0.36034   0.48992    0.007
 6811.00    0.41074   0.48977    0.007
 6812.00    0.50164   0.48952    0.007
 6813.00    0.57504   0.48919    0.007
 6814.00    0.63246   0.48899    0.007
 6815.00    0.62558   0.48906    0.007
 6816.00    0.56695   0.48927    0.007
 6817.00    0.53095   0.48950    0.007
 6818.00    0.51096   0.48972    0.007
 6819.00    0.51429   0.49005    0.007
 6820.00    0.53210   0.49057    0.007
 6821.00    0.52725   0.49121    0.007
 6822.00    0.51009   0.49184    0.006
 6823.00    0.51234   0.49233    0.007
 6824.00    0.52374   0.49252    0.007
 6825.00    0.51685   0.49225    0.007
 6826.00    0.50254   0.49154    0.007
 6827.00    0.45150   0.49070    0.007
 6828.00    0.38770   0.49009    0.007
 6829.00    0.42892   0.48983    0.007
 6830.00    0.50087   0.48985    0.007
 6831.00    0.51655   0.49007    0.007
 6832.00    0.51860   0.49045    0.007
 6833.00    0.53983   0.49080    0.007
 6834.00    0.56481   0.49083    0.007
 6835.00    0.50580   0.49031    0.007
 6836.00    0.43399   0.48914    0.007
 6837.00    0.48305   0.48731    0.007
 6838.00    0.54568   0.48499    0.007
 6839.00    0.56637   0.48247    0.007
 6840.00    0.58391   0.48023    0.007
 6841.00    0.57695   0.47878    0.007
 6842.00    0.56900   0.47841    0.007
 6843.00    0.45654   0.47915    0.007
 6844.00    0.34685   0.48066    0.007
 6845.00    0.37599   0.48252    0.007
 6846.00    0.40173   0.48437    0.007
 6847.00    0.36991   0.48588    0.007
 6848.00    0.34829   0.48681    0.007
 6849.00    0.43337   0.48711    0.007
 6850.00    0.50871   0.48685    0.007
 6851.00    0.51162   0.48608    0.007
 6852.00    0.50894   0.48477    0.007
 6853.00    0.47454   0.48302    0.007
 6854.00    0.44927   0.48121    0.007
 6855.00    0.46526   0.47969    0.007
 6856.00    0.47837   0.47856    0.007
 6857.00    0.48082   0.47785    0.007
 6858.00    0.48817   0.47749    0.007
 6859.00    0.51069   0.47732    0.007
 6860.00    0.52075   0.47743    0.007
 6861.00    0.49800   0.47804    0.007
 6862.00    0.48661   0.47913    0.007
 6863.00    0.50090   0.48028    0.007
 6864.00    0.52987   0.48114    0.007
 6865.00    0.58758   0.48150    0.007
 6866.00    0.64031   0.48134    0.007
 6867.00    0.68453   0.48084    0.007
 6868.00    0.69329   0.48028    0.007
 6869.00    0.64905   0.47974    0.006
 6870.00    0.67204   0.47923    0.005
 6871.00    0.78335   0.47897    0.005
 6872.00    0.86238   0.47917    0.005
 6873.00    0.90405   0.47977    0.005
 6874.00    0.89287   0.48065    0.005
 6875.00    0.82777   0.48175    0.005
 6876.00    0.76625   0.48292    0.005
 6877.00    0.70796   0.48388    0.005
 6878.00    0.62438   0.48442    0.005
 6879.00    0.52076   0.48434    0.005
 6880.00    0.43447   0.48368    0.005
 6881.00    0.36028   0.48274    0.005
 6882.00    0.38351   0.48194    0.005
 6883.00    0.46634   0.48151    0.006
 6884.00    0.53245   0.48150    0.007
 6885.00    0.58962   0.48203    0.007
 6886.00    0.59496   0.48312    0.007
 6887.00    0.57625   0.48454    0.007
 6888.00    0.58021   0.48603    0.007
 6889.00    0.59324   0.48739    0.007
 6890.00    0.54259   0.48845    0.007
 6891.00    0.47024   0.48905    0.007
 6892.00    0.45350   0.48920    0.007
 6893.00    0.45271   0.48899    0.007
 6894.00    0.48639   0.48849    0.007
 6895.00    0.52824   0.48787    0.007
 6896.00    0.54753   0.48732    0.007
 6897.00    0.56253   0.48689    0.007
 6898.00    0.59471   0.48654    0.007
 6899.00    0.62944   0.48637    0.007
 6900.00    0.61381   0.48658    0.007
 6901.00    0.59276   0.48710    0.007
 6902.00    0.49539   0.48774    0.007
 6903.00    0.39263   0.48841    0.007
 6904.00    0.33780   0.48914    0.007
 6905.00    0.28469   0.48992    0.007
 6906.00    0.31534   0.49062    0.007
 6907.00    0.34505   0.49104    0.007
 6908.00    0.33276   0.49102    0.007
 6909.00    0.32111   0.49049    0.007
 6910.00    0.31965   0.48945    0.007
 6911.00    0.32438   0.48798    0.007
 6912.00    0.39096   0.48618    0.007
 6913.00    0.45959   0.48440    0.007
 6914.00    0.54290   0.48302    0.007
 6915.00    0.61219   0.48220    0.007
 6916.00    0.60422   0.48198    0.007
 6917.00    0.59030   0.48231    0.007
 6918.00    0.55017   0.48304    0.007
 6919.00    0.51409   0.48392    0.007
 6920.00    0.49266   0.48463    0.007
 6921.00    0.49088   0.48483    0.007
 6922.00    0.54883   0.48434    0.007
 6923.00    0.58447   0.48331    0.007
 6924.00    0.56248   0.48226    0.007
 6925.00    0.53758   0.48158    0.007
 6926.00    0.50621   0.48142    0.007
 6927.00    0.47633   0.48166    0.007
 6928.00    0.44928   0.48211    0.007
 6929.00    0.46657   0.48259    0.007
 6930.00    0.55835   0.48291    0.007
 6931.00    0.62414   0.48292    0.007
 6932.00    0.65163   0.48276    0.007
 6933.00    0.63544   0.48269    0.007
 6934.00    0.56268   0.48278    0.007
 6935.00    0.51744   0.48298    0.007
 6936.00    0.50360   0.48330    0.007
 6937.00    0.48952   0.48373    0.007
 6938.00    0.47520   0.48415    0.007
 6939.00    0.48681   0.48441    0.007
 6940.00    0.52144   0.48432    0.007
 6941.00    0.53067   0.48374    0.007
 6942.00    0.52005   0.48264    0.007
 6943.00    0.51308   0.48126    0.007
 6944.00    0.50860   0.48006    0.007
 6945.00    0.48267   0.47945    0.007
 6946.00    0.44380   0.47938    0.007
 6947.00    0.40945   0.47963    0.007
 6948.00    0.37747   0.47997    0.007
 6949.00    0.40975   0.48014    0.007
 6950.00    0.47135   0.48004    0.007
 6951.00    0.45456   0.47979    0.007
 6952.00    0.40699   0.47951    0.007
 6953.00    0.30245   0.47936    0.007
 6954.00    0.17884   0.47960    0.007
 6955.00    0.26443   0.48028    0.007
 6956.00    0.40879   0.48124    0.007
 6957.00    0.45199   0.48236    0.007
 6958.00    0.47178   0.48351    0.007
 6959.00    0.48748   0.48457    0.007
 6960.00    0.50242   0.48549    0.007
 6961.00    0.51520   0.48623    0.007
 6962.00    0.52767   0.48680    0.007
 6963.00    0.55865   0.48716    0.007
 6964.00    0.59155   0.48730    0.007
 6965.00    0.53435   0.48741    0.007
 6966.00    0.47114   0.48764    0.007
 6967.00    0.43017   0.48787    0.007
 6968.00    0.38993   0.48789    0.007
 6969.00    0.43481   0.48764    0.007
 6970.00    0.47762   0.48714    0.007
 6971.00    0.45698   0.48644    0.007
 6972.00    0.44218   0.48532    0.007
 6973.00    0.51452   0.48352    0.007
 6974.00    0.57755   0.48101    0.007
 6975.00    0.55129   0.47793    0.007
 6976.00    0.52384   0.47450    0.007
 6977.00    0.48805   0.47137    0.007
 6978.00    0.45385   0.46951    0.007
 6979.00    0.42811   0.46944    0.007
 6980.00    0.40629   0.47092    0.007
 6981.00    0.40131   0.47349    0.007
 6982.00    0.40157   0.47659    0.007
 6983.00    0.42041   0.47961    0.007
 6984.00    0.46289   0.48210    0.007
 6985.00    0.57587   0.48375    0.007
 6986.00    0.64257   0.48442    0.007
 6987.00    0.59168   0.48426    0.007
 6988.00    0.54548   0.48373    0.007
 6989.00    0.50951   0.48328    0.007
 6990.00    0.49256   0.48309    0.007
 6991.00    0.51169   0.48309    0.007
 6992.00    0.53607   0.48311    0.007
 6993.00    0.56916   0.48309    0.007
 6994.00    0.60174   0.48297    0.007
 6995.00    0.63360   0.48264    0.007
 6996.00    0.64799   0.48191    0.007
 6997.00    0.64006   0.48071    0.007
 6998.00    0.59894   0.47923    0.007
 6999.00    0.52049   0.47792    0.007
 7000.00    0.45439   0.47705    0.007
 7001.00    0.40055   0.47646    0.007
 7002.00    0.38329   0.47591    0.007
 7003.00    0.39802   0.47542    0.007
 7004.00    0.42542   0.47521    0.007
 7005.00    0.46258   0.47540    0.007
 7006.00    0.49865   0.47592    0.007
 7007.00    0.53397   0.47665    0.007
 7008.00    0.51908   0.47738    0.007
 7009.00    0.47437   0.47790    0.007
 7010.00    0.45476   0.47810    0.007
 7011.00    0.44814   0.47795    0.007
 7012.00    0.46642   0.47729    0.008
 7013.00    0.49587   0.47590    0.008
 7014.00    0.48564   0.47387    0.008
 7015.00    0.46009   0.47196    0.008
 7016.00    0.49675   0.47114    0.008
 7017.00    0.55384   0.47160    0.008
 7018.00    0.54786   0.47277    0.008
 7019.00    0.52453   0.47416    0.007
 7020.00    0.49109   0.47536    0.007
 7021.00    0.45537   0.47597    0.007
 7022.00    0.52747   0.47593    0.007
 7023.00    0.61906   0.47558    0.007
 7024.00    0.50018   0.47530    0.007
 7025.00    0.35215   0.47527    0.007
 7026.00    0.32258   0.47553    0.007
 7027.00    0.30477   0.47616    0.007
 7028.00    0.35445   0.47708    0.007
 7029.00    0.40836   0.47811    0.008
 7030.00    0.45007   0.47895    0.008
 7031.00    0.49154   0.47940    0.008
 7032.00    0.55710   0.47943    0.008
 7033.00    0.61667   0.47917    0.008
 7034.00    0.51138   0.47881    0.008
 7035.00    0.42094   0.47835    0.008
 7036.00    0.53885   0.47769    0.008
 7037.00    0.62988   0.47724    0.008
 7038.00    0.47307   0.47777    0.008
 7039.00    0.34974   0.47942    0.007
 7040.00    0.45207   0.48170    0.007
 7041.00    0.54604   0.48412    0.007
 7042.00    0.59636   0.48634    0.007
 7043.00    0.61972   0.48809    0.007
 7044.00    0.52954   0.48944    0.007
 7045.00    0.47256   0.49044    0.007
 7046.00    0.53102   0.49097    0.008
 7047.00    0.56422   0.49091    0.008
 7048.00    0.52345   0.49012    0.008
 7049.00    0.51518   0.48847    0.008
 7050.00    0.58804   0.48584   -2.000
 7051.00    0.65633   0.48226   -2.000
 7052.00    0.71479   0.47812   -2.000
 7053.00    0.71107   0.47402   -2.000
 7054.00    0.59126   0.47048   -2.000
 7055.00    0.50469   0.46785   -2.000
 7056.00    0.47235   0.46604   -2.000
 7057.00    0.45485   0.46468   -2.000
 7058.00    0.45860   0.46352   -2.000
 7059.00    0.47398   0.46254   -2.000
 7060.00    0.50401   0.46182   -2.000
 7061.00    0.54550   0.46126   -2.000
 7062.00    0.59971   0.46075   -2.000
 7063.00    0.58942   0.46020   -2.000
 7064.00    0.51606   0.45951   -2.000
 7065.00    0.49849   0.45870   -2.000
 7066.00    0.52904   0.45801   -2.000
 7067.00    0.56939   0.45765   -2.000
 7068.00    0.61719   0.45797   -2.000
 7069.00    0.55376   0.45909   -2.000
 7070.00    0.41607   0.46071   -2.000
 7071.00    0.51089   0.46257   -2.000
 7072.00    0.74171   0.46451   -2.000
 7073.00    0.75509   0.46628   -2.000
 7074.00    0.65762   0.46768   -2.000
 7075.00    0.55914   0.46865   -2.000
 7076.00    0.46022   0.46919   -2.000
 7077.00    0.49843   0.46936   -2.000
 7078.00    0.58864   0.46918   -2.000
 7079.00    0.51807   0.46858   -2.000
 7080.00    0.39573   0.46733   -2.000
 7081.00    0.36012   0.46518   -2.000
 7082.00    0.34788   0.46210   -2.000
 7083.00    0.39914   0.45838   -2.000
 7084.00    0.46443   0.45459   -2.000
 7085.00    0.39706   0.45107   -2.000
 7086.00    0.30636   0.44773   -2.000
 7087.00    0.38086   0.44473   -2.000
 7088.00    0.47749   0.44236   -2.000
 7089.00    0.52089   0.44071   -2.000
 7090.00    0.55922   0.43977   -2.000
 7091.00    0.47622   0.43933   -2.000
 7092.00    0.38609   0.43913   -2.000
 7093.00    0.55419   0.43921   -2.000
 7094.00    0.72640   0.43957   -2.000
 7095.00    0.59206   0.44022   -2.000
 7096.00    0.45857   0.44115   -2.000
 7097.00    0.34647   0.44238   -2.000
 7098.00    0.25148   0.44380   -2.000
 7099.00    0.38376   0.44512   -2.000
 7100.00    0.50565   0.44619   -2.000
 7101.00    0.53533   0.44699   -2.000
 7102.00    0.56451   0.44766   -2.000
 7103.00    0.59037   0.44832   -2.000
 7104.00    0.59459   0.44885   -2.000
 7105.00    0.48859   0.44902   -2.000
 7106.00    0.41045   0.44891   -2.000
 7107.00    0.44704   0.44869   -2.000
 7108.00    0.47055   0.44828   -2.000
 7109.00    0.44953   0.44756   -2.000
 7110.00    0.44664   0.44673   -2.000
 7111.00    0.49583   0.44624   -2.000
 7112.00    0.53962   0.44630   -2.000
 7113.00    0.57015   0.44679   -2.000
 7114.00    0.54504   0.44755   -2.000
 7115.00    0.40220   0.44849   -2.000
 7116.00    0.33580   0.44944   -2.000
 7117.00    0.40995   0.45022   -2.000
 7118.00    0.44365   0.45066   -2.000
 7119.00    0.41237   0.45060   -2.000
 7120.00    0.39002   0.45006   -2.000
 7121.00    0.38027   0.44922   -2.000
 7122.00    0.45193   0.44833   -2.000
 7123.00    0.62458   0.44721   -2.000
 7124.00    0.63786   0.44557   -2.000
 7125.00    0.47691   0.44364   -2.000
 7126.00    0.42432   0.44184   -2.000
 7127.00    0.47624   0.44019   -2.000
 7128.00    0.48400   0.43858   -2.000
 7129.00    0.45420   0.43702   -2.000
 7130.00    0.34967   0.43595   -2.000
 7131.00    0.18918   0.43584   -2.000
 7132.00    0.23244   0.43661   -2.000
 7133.00    0.40976   0.43790   -2.000
 7134.00    0.44723   0.43938   -2.000
 7135.00    0.40416   0.44088   -2.000
 7136.00    0.47118   0.44231   -2.000
 7137.00    0.59344   0.44339   -2.000
 7138.00    0.62070   0.44407   -2.000
 7139.00    0.60671   0.44458   -2.000
 7140.00    0.62891   0.44498   -2.000
 7141.00    0.66461   0.44513   -2.000
 7142.00    0.60802   0.44504   -2.000
 7143.00    0.52230   0.44470   -2.000
 7144.00    0.51869   0.44406   -2.000
 7145.00    0.53673   0.44316   -2.000
 7146.00    0.50419   0.44190   -2.000
 7147.00    0.46075   0.44065   -2.000
 7148.00    0.47493   0.44020   -2.000
 7149.00    0.49895   0.44062   -2.000
 7150.00    0.49894   0.44163   -2.000
 7151.00    0.49582   0.44321   -2.000
 7152.00    0.48214   0.44507   -2.000
 7153.00    0.46750   0.44679   -2.000
 7154.00    0.49170   0.44827   -2.000
 7155.00    0.51802   0.44954   -2.000
 7156.00    0.44665   0.45038   -2.000
 7157.00    0.37446   0.45051   -2.000
 7158.00    0.41478   0.44996   -2.000
 7159.00    0.46289   0.44903   -2.000
 7160.00    0.68775   0.44798   -2.000
 7161.00    0.89143   0.44677   -2.000
 7162.00    0.82847   0.44511   -2.000
 7163.00    0.74434   0.44316   -2.000
 7164.00    0.47956   0.44176   -2.000
 7165.00    0.23482   0.44155   -2.000
 7166.00    0.11719   0.44229   -2.000
 7167.00    0.07494   0.44349   -2.000
 7168.00    0.40699   0.44492   -2.000
 7169.00    0.67171   0.44656   -2.000
 7170.00    0.66542   0.44837   -2.000
 7171.00    0.65678   0.44999   -2.000
 7172.00    0.64026   0.45098   -2.000
 7173.00    0.58140   0.45121   -2.000
 7174.00    0.40309   0.45079   -2.000
 7175.00    0.30792   0.44998   -2.000
 7176.00    0.41332   0.44907   -2.000
 7177.00    0.46549   0.44810   -2.000
 7178.00    0.40683   0.44686   -2.000
 7179.00    0.48500   0.44539   -2.000
 7180.00    0.81089   0.44420   -2.000
 7181.00    0.93244   0.44380   -2.000
 7182.00    0.73054   0.44407   -2.000
 7183.00    0.58227   0.44430   -2.000
 7184.00    0.50851   0.44399   -2.000
 7185.00    0.51852   0.44306   -2.000
 7186.00    0.63099   0.44172   -2.000
 7187.00    0.67006   0.44051   -2.000
 7188.00    0.62999   0.43972   -2.000
 7189.00    0.63703   0.43939   -2.000
 7190.00    0.68885   0.43955   -2.000
 7191.00    0.65573   0.44003   -2.000
 7192.00    0.55138   0.44085   -2.000
 7193.00    0.52551   0.44206   -2.000
 7194.00    0.55756   0.44328   -2.000
 7195.00    0.55727   0.44402   -2.000
 7196.00    0.53600   0.44428   -2.000
 7197.00    0.59028   0.44454   -2.000
 7198.00    0.68742   0.44497   -2.000
 7199.00    0.84496   0.44526   -2.000
 7200.00    1.03232   0.44517   -2.000
 7201.00    1.00550   0.44490   -2.000
 7202.00    0.88723   0.44490   -2.000
 7203.00    0.70911   0.44494   -2.000
 7204.00    0.50910   0.44439   -2.000
 7205.00    0.36463   0.44304   -2.000
 7206.00    0.23737   0.44133   -2.000
 7207.00    0.23440   0.44023   -2.000
 7208.00    0.26350   0.44001   -2.000
 7209.00    0.23428   0.44042   -2.000
 7210.00    0.19278   0.44128   -2.000
 7211.00    0.28038   0.44221   -2.000
 7212.00    0.38943   0.44307   -2.000
 7213.00    0.48725   0.44395   -2.000
 7214.00    0.58367   0.44471   -2.000
 7215.00    0.52634   0.44536   -2.000
 7216.00    0.45570   0.44598   -2.000
 7217.00    0.35098   0.44658   -2.000
 7218.00    0.24453   0.44701   -2.000
