###################################################################
## OUTPUT of StarlightChains_v04.for    [Cid@UFSC - 01/Apr/2007] ##
###################################################################

## Some input info
KUG0210-078._45_38.txt                   [arq_obs]
Base.CB07.vall.4m                        [arq_base]
Masks.EmLines.NEW.gm                     [arq_masks]
StCv04.C11.config                        [arq_config]
   66                                    [N_base]
    0                                    [N_YAV_components = # of components with extra extinction!]
    0                                    [i_FitPowerLaw (1/0 = Yes/No)]
-9.99                                    [alpha_PowerLaw]
CCM                                      [red_law_option]
 1.458241                                [q_norm = A(l_norm)/A(V)]

## (Re)Sampling Parameters
 3741.00                                 [l_ini (A)]
 7218.00                                 [l_fin (A)]
    1.00                                 [dl    (A)]     (OBS: dl_cushion =    50.00 A)

## Normalization info
 4020.00                                 [l_norm (A) - for base]
 4010.00                                 [llow_norm (A) - window for f_obs]
 4060.00                                 [lupp_norm (A) - window for f_obs]
1.458755E-17                             [fobs_norm (in input units)]

## S/N
 3691.00                                 [llow_SN (A) - window for S/N]
 7268.00                                 [lupp_SN (A) - window for S/N]
   3.967                                 [S/N in S/N window]
   5.120                                 [S/N in norm. window]
   0.015                                 [S/N_err in S/N window]
   0.019                                 [S/N_err in norm. window]
  1.0000                                 [fscale_chi2]

## etc...
    -2007866                             [idum_orig]
  2426                                   [NOl_eff]
  2407                                   [Nl_eff]
    19    NSIGMA                         [Ntot_cliped & clip_method]
  1214990                                [Nglobal_steps]
   7                                     [N_chains]
  38                                     [NEX0s_base = N_base in EX0s-fits]
 0   0   1       19   2.0   2.644E+03    [Clip-Bug, RC-Crash & Burn-In warning-flags, n_censored_weights, wei_nsig_threshold & wei_limit]
    26     25.774     25.236      0.538  [idt_all, wdt_TotTime, wdt_UsrTime & wdt_SysTime (sec)]

## Synthesis Results - Best model ##

 1.64519E-05                             [chi2/Nl_eff]
    21.01943                             [adev (%)]

   103.10207                             [sum-of-x (%)]
 7.96499E-18                             [Flux_tot (units of input spectrum!)]
 1.03046E-13                             [Mini_tot (???)]
 5.65307E-14                             [Mcor_tot (???)]

-101.63                                  [v0_min  (km/s)]
   0.00                                  [vd_min  (km/s)]
-0.4733                                  [AV_min  (mag)]
 0.0000                                  [YAV_min (mag)]

# j     x_j(%)      Mini_j(%)     Mcor_j(%)     age_j(yr)     Z_j      (L/M)_j    YAV?  Mstars   component_j        a/Fe...       SSP_chi2r SSP_adev(%)   SSP_AV   SSP_x(%)
  1      0.0000     0.0000E+00    0.0000E+00    1.000000E+06  0.00400  1.094E-02    0   1.0000   age020_m42            0.0000     2.1961E-05    26.8044   2.7310    83.1324
  2      0.0000     0.0000E+00    0.0000E+00    3.160000E+06  0.00400  4.007E-02    0   0.9999   age045_m42            0.0000     1.9260E-05    24.8313   1.9637    90.1195
  3      0.0000     0.0000E+00    0.0000E+00    5.010000E+06  0.00400  2.539E-02    0   0.9488   age055_m42            0.0000     2.0452E-05    25.8607   2.3044    87.3112
  4      0.0000     0.0000E+00    0.0000E+00    6.610000E+06  0.00400  2.620E-02    0   0.9220   age061_m42            0.0000     1.9436E-05    24.8744   1.8951    90.1650
  5      0.0261     1.4812E-04    2.3927E-04    1.000000E+07  0.00400  1.322E-02    0   0.8862   age070_m42            0.0000     2.0688E-05    26.7674   1.6681    90.5376
  6      0.0000     0.0000E+00    0.0000E+00    1.445000E+07  0.00400  7.883E-03    0   0.8571   age078_m42            0.0000     2.1201E-05    27.0799   1.9970    88.1687
  7      0.0000     0.0000E+00    0.0000E+00    2.512000E+07  0.00400  5.251E-03    0   0.8174   age090_m42            0.0000     2.0753E-05    26.9751   1.5439    90.9019
  8      0.0000     0.0000E+00    0.0000E+00    4.000000E+07  0.00400  3.649E-03    0   0.7851   age104_m42            0.0000     2.0182E-05    26.4040   1.3054    92.0071
  9      1.7235     4.1707E-02    5.8000E-02    5.500000E+07  0.00400  3.098E-03    0   0.7629   age110_m42            0.0000     1.9393E-05    25.1348   1.4242    93.0187
 10      0.0000     0.0000E+00    0.0000E+00    1.015200E+08  0.00400  2.228E-03    0   0.7207   age116_m42            0.0000     1.9007E-05    24.2729   1.4251    93.7618
 11      0.6332     4.3429E-02    5.2628E-02    2.861200E+08  0.00400  1.093E-03    0   0.6648   age125_m42            0.0000     1.9052E-05    24.5856   0.8646    96.1930
 12      2.6353     2.9948E-01    3.4747E-01    5.088000E+08  0.00400  6.597E-04    0   0.6365   age130_m42            0.0000     1.8318E-05    23.2526   0.8181    98.1399
 13      0.0000     0.0000E+00    0.0000E+00    1.434000E+09  0.00400  2.132E-04    0   0.5798   age139_m42            0.0000     1.7036E-05    22.0568  -0.1719   100.5583
 14      0.0000     0.0000E+00    0.0000E+00    4.250000E+09  0.00400  5.895E-05    0   0.5377   age158_m42            0.0000     1.6799E-05    21.8732  -0.6254    96.8588
 15      0.0000     0.0000E+00    0.0000E+00    7.500000E+09  0.00400  3.510E-05    0   0.5212   age171_m42            0.0000     1.6942E-05    21.5467  -0.8282    96.5458
 16      3.0540     1.1419E+01    1.0479E+01    1.300000E+10  0.00400  2.005E-05    0   0.5034   age193_m42            0.0000     1.7255E-05    21.4284  -1.0000    96.1671
 17      0.0000     0.0000E+00    0.0000E+00    1.800000E+10  0.00400  1.525E-05    0   0.4967   age213_m42            0.0000     1.7253E-05    21.7159  -1.0000    95.2580
 18      0.0000     0.0000E+00    0.0000E+00    1.000000E+06  0.00800  1.238E-02    0   1.0000   age020_m52            0.0000     2.1962E-05    26.8010   2.7274    83.3001
 19      0.1756     4.2829E-04    7.7805E-04    3.160000E+06  0.00800  3.074E-02    0   0.9966   age045_m52            0.0000     2.1680E-05    26.5640   2.6461    84.1903
 20      0.0000     0.0000E+00    0.0000E+00    5.010000E+06  0.00800  2.668E-02    0   0.9443   age055_m52            0.0000     2.0881E-05    26.0839   2.3962    86.2738
 21      0.0000     0.0000E+00    0.0000E+00    6.610000E+06  0.00800  2.136E-02    0   0.9177   age061_m52            0.0000     2.0427E-05    26.7387   1.1693    91.4757
 22      0.0005     3.2690E-06    5.2598E-06    1.000000E+07  0.00800  1.215E-02    0   0.8827   age070_m52            0.0000     2.1446E-05    27.6049   1.8640    89.8317
 23      0.0000     0.0000E+00    0.0000E+00    1.445000E+07  0.00800  8.717E-03    0   0.8552   age078_m52            0.0000     2.1010E-05    26.9724   1.9623    89.4281
 24      0.0000     0.0000E+00    0.0000E+00    2.512000E+07  0.00800  5.592E-03    0   0.8162   age090_m52            0.0000     2.0739E-05    26.9641   1.6069    91.9999
 25      0.3587     6.9033E-03    9.8668E-03    4.000000E+07  0.00800  3.896E-03    0   0.7841   age104_m52            0.0000     2.0012E-05    26.1450   1.4996    93.2813
 26      0.0000     0.0000E+00    0.0000E+00    1.015200E+08  0.00800  2.148E-03    0   0.7226   age116_m52            0.0000     1.9202E-05    24.7626   1.4087    93.9581
 27      0.1369     1.0343E-02    1.2599E-02    2.861200E+08  0.00800  9.925E-04    0   0.6683   age125_m52            0.0000     1.8426E-05    22.9684   0.8861    98.9161
 28      1.5375     3.6698E-01    4.1060E-01    9.047900E+08  0.00800  3.141E-04    0   0.6138   age135_m52            0.0000     1.6746E-05    21.2075   0.0301   104.7652
 29      0.0000     0.0000E+00    0.0000E+00    1.434000E+09  0.00800  1.719E-04    0   0.5853   age139_m52            0.0000     1.6716E-05    21.8664  -0.5360   101.9491
 30      0.0000     0.0000E+00    0.0000E+00    2.500000E+09  0.00800  7.872E-05    0   0.5600   age150_m52            0.0000     1.6663E-05    20.9708  -0.8362   100.0771
 31      0.0000     0.0000E+00    0.0000E+00    4.250000E+09  0.00800  4.336E-05    0   0.5426   age158_m52            0.0000     1.6785E-05    21.0607  -0.8494    99.0681
 32      0.0000     0.0000E+00    0.0000E+00    6.250000E+09  0.00800  3.159E-05    0   0.5319   age166_m52            0.0000     1.7108E-05    20.9882  -1.0000    98.1178
 33      0.0000     0.0000E+00    0.0000E+00    1.300000E+10  0.00800  1.361E-05    0   0.5073   age193_m52            0.0000     2.2417E-05    26.7283  -1.0000    86.6676
 34      4.1907     3.1780E+01    2.8907E+01    1.800000E+10  0.00800  9.886E-06    0   0.4990   age213_m52            0.0000     2.5250E-05    27.9173  -1.0000    83.5681
 35      0.0084     4.0691E-05    7.4173E-05    1.000000E+06  0.02000  1.544E-02    0   1.0000   age020_m62            0.0000     2.2055E-05    26.8427   2.7251    83.4504
 36      0.0000     0.0000E+00    0.0000E+00    3.160000E+06  0.02000  3.762E-02    0   0.9858   age045_m62            0.0000     2.1988E-05    26.7454   2.6593    84.3395
 37      0.0000     0.0000E+00    0.0000E+00    5.010000E+06  0.02000  3.296E-02    0   0.9342   age055_m62            0.0000     2.0014E-05    25.1193   2.2505    88.7883
 38      0.0000     0.0000E+00    0.0000E+00    8.710000E+06  0.02000  1.154E-02    0   0.8861   age067_m62            0.0000     2.5870E-05    32.3068   1.4146    89.3562
 39      0.0000     0.0000E+00    0.0000E+00    1.445000E+07  0.02000  7.663E-03    0   0.8472   age078_m62            0.0000     2.2294E-05    28.8744   1.5366    91.0623
 40      0.0000     0.0000E+00    0.0000E+00    2.512000E+07  0.02000  4.532E-03    0   0.8099   age090_m62            0.0000     2.2438E-05    28.9433   1.5320    90.6996
 41      0.0000     0.0000E+00    0.0000E+00    5.500000E+07  0.02000  2.733E-03    0   0.7595   age110_m62            0.0000     2.0331E-05    26.2957   1.4894    92.3523
 42      0.0000     0.0000E+00    0.0000E+00    1.609000E+08  0.02000  1.369E-03    0   0.6985   age120_m62            0.0000     1.9177E-05    23.9471   1.2757    96.4798
 43      0.0000     0.0000E+00    0.0000E+00    2.861200E+08  0.02000  9.013E-04    0   0.6714   age125_m62            0.0000     1.8626E-05    22.5176   0.9917   100.3538
 44      0.0000     0.0000E+00    0.0000E+00    5.088000E+08  0.02000  5.028E-04    0   0.6449   age130_m62            0.0000     1.7230E-05    20.6662   0.5535   104.9532
 45     16.5302     5.1040E+00    5.7488E+00    9.047900E+08  0.02000  2.428E-04    0   0.6179   age135_m62            0.0000     1.6301E-05    20.6603  -0.0451   104.5057
 46     51.6844     3.0679E+01    3.3039E+01    1.434000E+09  0.02000  1.263E-04    0   0.5908   age139_m62            0.0000     1.6423E-05    20.9299  -0.4884   102.7509
 47      9.6930     1.2142E+01    1.2556E+01    2.500000E+09  0.02000  5.985E-05    0   0.5673   age150_m62            0.0000     1.6839E-05    20.3983  -0.8816   101.9956
 48      1.2988     2.9768E+00    2.9670E+00    4.250000E+09  0.02000  3.271E-05    0   0.5468   age158_m62            0.0000     1.8345E-05    21.4095  -1.0000    97.1156
 49      0.0690     3.8024E-01    3.5813E-01    1.000000E+10  0.02000  1.360E-05    0   0.5167   age181_m62            0.0000     2.3999E-05    25.5766  -1.0000    88.2976
 50      0.0000     0.0000E+00    0.0000E+00    1.800000E+10  0.02000  7.124E-06    0   0.5013   age213_m62            0.0000     2.9654E-05    28.2101  -1.0000    82.1858
 51      0.0000     0.0000E+00    0.0000E+00    1.000000E+06  0.05000  2.592E-02    0   0.9998   age020_m72            0.0000     2.2357E-05    27.0536   2.7237    83.2763
 52      0.0000     0.0000E+00    0.0000E+00    3.160000E+06  0.05000  4.845E-02    0   0.9577   age045_m72            0.0000     2.1159E-05    26.0151   2.5278    85.8756
 53      0.0000     0.0000E+00    0.0000E+00    5.010000E+06  0.05000  3.072E-02    0   0.9147   age055_m72            0.0000     2.2232E-05    28.1738   2.0998    88.1390
 54      0.0000     0.0000E+00    0.0000E+00    6.610000E+06  0.05000  1.455E-02    0   0.8877   age061_m72            0.0000     2.8576E-05    34.4846   1.4812    89.1158
 55      0.0231     1.9076E-04    2.9640E-04    1.000000E+07  0.05000  9.074E-03    0   0.8524   age070_m72            0.0000     2.2534E-05    28.3544   2.2697    88.0224
 56      0.0000     0.0000E+00    0.0000E+00    2.512000E+07  0.05000  4.250E-03    0   0.7902   age090_m72            0.0000     2.1441E-05    27.4600   1.9645    90.0269
 57      0.0000     0.0000E+00    0.0000E+00    4.000000E+07  0.05000  3.087E-03    0   0.7618   age104_m72            0.0000     2.1346E-05    27.3386   1.7376    91.5169
 58      0.0000     0.0000E+00    0.0000E+00    1.015200E+08  0.05000  1.700E-03    0   0.7096   age116_m72            0.0000     1.9676E-05    24.7286   1.4361    95.5196
 59      0.0000     0.0000E+00    0.0000E+00    2.861200E+08  0.05000  7.384E-04    0   0.6633   age125_m72            0.0000     1.7973E-05    21.5101   0.8280   102.7317
 60      7.4696     1.4663E+00    1.7032E+00    5.088000E+08  0.05000  3.819E-04    0   0.6372   age130_m72            0.0000     1.6551E-05    20.4078   0.2915   105.7234
 61      0.0000     0.0000E+00    0.0000E+00    9.047900E+08  0.05000  1.676E-04    0   0.6110   age135_m72            0.0000     1.6423E-05    20.0619  -0.4392   104.5853
 62      0.0000     0.0000E+00    0.0000E+00    1.434000E+09  0.05000  8.837E-05    0   0.5874   age139_m72            0.0000     1.7037E-05    20.2349  -0.8990   103.9378
 63      1.8537     3.2830E+00    3.3500E+00    2.500000E+09  0.05000  4.233E-05    0   0.5598   age150_m72            0.0000     1.8680E-05    21.3228  -1.0000    98.0296
 64      0.0000     0.0000E+00    0.0000E+00    6.250000E+09  0.05000  1.435E-05    0   0.5249   age166_m72            0.0000     2.6201E-05    26.9948  -1.0000    85.4808
 65      0.0000     0.0000E+00    0.0000E+00    1.300000E+10  0.05000  6.513E-06    0   0.5036   age193_m72            0.0000     3.4783E-05    30.5000  -1.0000    78.7849
 66      0.0000     0.0000E+00    0.0000E+00    1.800000E+10  0.05000  4.527E-06    0   0.4945   age213_m72            0.0000     4.0553E-05    32.5400  -1.0000    74.2601


## Synthesis Results - Average & Chains ##

# j      x_j: min, <> & last-chain-values for 1 ...  7 chains
  1      0.0000      1.2538      0.6480      0.3773      0.0000      1.3158      0.3223      0.4822      0.0000
  2      0.0000      1.2767      0.0000      3.0638      0.9251      0.0585      0.1879      0.0000      0.0000
  3      0.0000      1.0473      0.9536      3.6502      0.1603      0.0000      0.3151      0.9885      1.0190
  4      0.0000      1.6292      0.0000      3.0599      0.3162      1.4985      0.0000      1.0351      0.0000
  5      0.0261      1.3281      3.2451      0.7312      0.2058      0.0000      2.3398      0.9385      1.9130
  6      0.0000      1.2672      1.7210      0.4731      0.0000      0.4536      0.0000      0.0000      0.1839
  7      0.0000      1.2874      3.3826      0.4298      0.0000      0.7330      1.1146      1.2149      0.0000
  8      0.0000      1.2330      0.0000      0.0000      0.0000      0.0000      1.2220      1.4970      0.3385
  9      1.7235      1.7002      0.6680      2.0773      0.0000      0.5628      1.7831      3.7295      1.3826
 10      0.0000      1.1139      1.9507      1.5957      1.0541      0.7421      0.4535      0.0000      1.5769
 11      0.6332      1.2925      3.0925      0.1059      2.4745      0.0000      1.3035      0.0000      0.2588
 12      2.6353      1.0565      0.3957      0.0000      0.0000      1.7515      2.3010      0.0000      0.0000
 13      0.0000      1.6675      4.4000      1.6511      0.6568      0.0741      0.0000      0.0000      0.5888
 14      0.0000      1.0609      0.2713      0.4268      0.0000      0.0384      1.9994      1.0363      1.3218
 15      0.0000      1.1983      0.0000      3.1193      0.4703      0.0139      2.5674      1.1457      4.0411
 16      3.0540      1.9699      2.7376      8.9062      5.2080      1.8875      1.6813      1.9111      4.2537
 17      0.0000      1.1941      0.0599      0.0000      1.6248      0.5494      0.3528      0.0000      5.9646
 18      0.0000      1.5859      0.8510      0.9819      2.2292      1.6732      0.7596      2.0994      0.1160
 19      0.1756      1.3832      1.1644      0.0000      0.0000      0.5469      0.6385      0.0000      0.0000
 20      0.0000      1.0553      0.0000      1.9772      0.7295      0.1795      0.6857      0.0000      0.4051
 21      0.0000      1.4379      1.7908      0.0000      0.0000      0.3384      1.2122      2.1521      1.2802
 22      0.0005      1.1360      0.4198      0.2779      0.2579      0.0000      0.0000      0.2802      3.4521
 23      0.0000      1.2483      0.0000      2.2213      0.8637      0.4336      0.0000      1.3052      0.0000
 24      0.0000      1.5621      0.0000      0.1354      0.0000      0.5392      0.0000      0.7867      0.0000
 25      0.3587      1.3178      0.8105      0.0000      0.8855      1.5392      0.9935      0.0000      0.0000
 26      0.0000      1.5318      0.0000      6.0134      2.5906      0.1620      1.2949      0.0000      4.2178
 27      0.1369      1.4031      2.0549      0.0219      2.9298      0.7043      0.9791      1.7152      3.1021
 28      1.5375      1.2932      0.5201      0.0000      4.0351      0.0000      0.0000      0.3596      2.1945
 29      0.0000      1.7652      0.0000      5.9453      0.4102      1.8865      0.5525      1.3448      2.0895
 30      0.0000      1.3119      2.5911      0.0000      3.4212      0.6748      1.1624      0.0000      4.4738
 31      0.0000      1.4408      0.2985      0.0000      2.8352      1.1671      2.5653      1.7038      0.0000
 32      0.0000      1.4945      0.0000      0.2757      0.4866      0.4165      2.8361      0.0000     11.7262
 33      0.0000      1.7519      0.0000      6.1998      4.2368      0.8531      2.0270      2.7257      1.9248
 34      4.1907      1.6913      7.1642      1.2357      1.4150      0.4810      1.4836      3.9547      2.5408
 35      0.0084      2.0082      2.0914      0.7273      1.5784      0.0000      1.0152      1.1628      1.6879
 36      0.0000      1.2180      1.6081      0.2101      0.9384      0.1395      0.0000      0.0000      1.3122
 37      0.0000      1.2258      0.3938      0.0000      0.0000      0.0076      0.0000      2.4149      3.7367
 38      0.0000      2.5591      0.0002      0.0000      0.7660      5.2392      4.2242      4.0815      0.0000
 39      0.0000      1.2396      0.0000      1.1237      0.0000      0.9191      4.1767      0.2491      0.0000
 40      0.0000      1.2983      0.0000      0.0251      3.2281      0.0000      0.9926      1.7953      0.0000
 41      0.0000      1.7527      0.0000      0.0000      2.1217      0.3949      3.0907      3.5257      0.0000
 42      0.0000      1.3168      0.3372      0.0000      1.8233      0.3150      0.0441      0.0000      0.6637
 43      0.0000      1.2278      0.0000      3.3544      0.5129      1.6292      0.0000      0.6481      3.3142
 44      0.0000      1.1494      0.0000      0.5195      0.0000      0.3553      0.1906      0.4386      0.0000
 45     16.5302      1.4793      1.2037      3.3200      1.1372      0.1792      0.5906      0.0000      3.3559
 46     51.6844      1.3656      0.4151      3.1868      0.9326      2.5586      0.0000      1.9958      1.8450
 47      9.6930      1.3784      2.5118      0.0000      3.4181      0.5932      1.9045      2.4900      1.1633
 48      1.2988      1.2453      4.0563      4.6682      0.0000      0.8783      1.6682      1.8336      2.7729
 49      0.0690      1.4388      0.7773      0.0000      0.6137      0.0000      1.8472      0.8738      5.8869
 50      0.0000      4.1200      4.3947      1.7110      2.4211     12.6042      7.2640      9.5172      4.3610
 51      0.0000      1.5953      0.0000      0.0000      6.2394      0.2814      0.0000      0.0000      0.6244
 52      0.0000      1.7225      0.0000      1.3967      0.0000      0.0000      0.0000      0.0000      1.4317
 53      0.0000      1.4857      0.0000      1.0601      1.6936      0.0000      0.1068      0.0000      1.5326
 54      0.0000      7.1770      0.5433      0.0000      1.5158     29.6078     13.8169     15.3512      0.0000
 55      0.0231      2.9068      3.8468      2.4979      0.9811      4.4859      4.4206      3.9826      0.2866
 56      0.0000      1.9181      0.1889      0.0000      1.8241      0.2061      4.2178      0.1261      0.0000
 57      0.0000      1.1133      2.2624      2.1481      5.1197      0.0000      1.2079      1.7407      0.5528
 58      0.0000      1.7044      6.2962      2.0504      2.1532      2.3108      0.2829      3.5879      0.0000
 59      0.0000      1.2006      0.7086      0.4650      0.6892      0.9372      1.9839      2.1096      0.0000
 60      7.4696      1.0333      6.2440      0.9555      2.3655      0.1174      0.0488      1.7031      0.0000
 61      0.0000      1.5369      0.2509      0.0843      2.3233      0.8638      0.0000      0.0196      2.9109
 62      0.0000      1.5543      5.2345      3.1359      3.4262      0.3802      1.7569      0.0000      3.0058
 63      1.8537      2.1988     15.5935      7.7742      0.0000      0.6398      1.5681      2.6579      0.0000
 64      0.0000      1.0458      0.0000      1.2004      8.6713      0.4825      3.8093      0.0000      1.9418
 65      0.0000      2.1249      0.5738      5.5013      7.4258      4.7010      2.4199      3.3448      0.0000
 66      0.0000      5.4856      1.5433      5.8973      4.8739     16.7690     10.0314     10.2474      5.3545

# j      m_j: min, <> & last-chain-values for 1 ...  7 chains
  1  0.0000E+00  7.2408E-03  4.2887E-03  1.6687E-03  0.0000E+00  3.6316E-03  1.2044E-03  1.6979E-03  0.0000E+00
  2  0.0000E+00  2.0128E-03  0.0000E+00  3.6988E-03  1.0480E-03  4.4098E-05  1.9164E-04  0.0000E+00  0.0000E+00
  3  0.0000E+00  2.4727E-03  2.5802E-03  6.5992E-03  2.7194E-04  0.0000E+00  4.8137E-04  1.4229E-03  1.8002E-03
  4  0.0000E+00  3.6223E-03  0.0000E+00  5.2095E-03  5.0521E-04  1.5923E-03  0.0000E+00  1.4031E-03  0.0000E+00
  5  2.3927E-04  5.6251E-03  1.5751E-02  2.3714E-03  6.2633E-04  0.0000E+00  6.4122E-03  2.4233E-03  6.0621E-03
  6  0.0000E+00  8.7053E-03  1.3548E-02  2.4885E-03  0.0000E+00  1.4893E-03  0.0000E+00  0.0000E+00  9.4535E-04
  7  0.0000E+00  1.2662E-02  3.8126E-02  3.2369E-03  0.0000E+00  3.4451E-03  7.0930E-03  7.2849E-03  0.0000E+00
  8  0.0000E+00  1.6761E-02  0.0000E+00  0.0000E+00  0.0000E+00  0.0000E+00  1.0748E-02  1.2407E-02  3.4425E-03
  9  5.8000E-02  2.6453E-02  1.1911E-02  2.4749E-02  0.0000E+00  4.1843E-03  1.7951E-02  3.5377E-02  1.6095E-02
 10  0.0000E+00  2.2766E-02  4.5689E-02  2.4972E-02  1.5479E-02  7.2480E-03  5.9977E-03  0.0000E+00  2.4113E-02
 11  5.2628E-02  4.9669E-02  1.3619E-01  3.1170E-03  6.8323E-02  0.0000E+00  3.2412E-02  0.0000E+00  7.4424E-03
 12  3.4747E-01  6.4403E-02  2.7644E-02  0.0000E+00  0.0000E+00  5.1025E-02  9.0759E-02  0.0000E+00  0.0000E+00
 13  0.0000E+00  2.8652E-01  8.6641E-01  2.1724E-01  8.1084E-02  6.0808E-03  0.0000E+00  0.0000E+00  7.5694E-02
 14  0.0000E+00  6.1139E-01  1.7920E-01  1.8836E-01  0.0000E+00  1.0567E-02  7.4556E-01  3.6409E-01  5.6996E-01
 15  0.0000E+00  1.1243E+00  0.0000E+00  2.2408E+00  3.1702E-01  6.2363E-03  1.5586E+00  6.5532E-01  2.8366E+00
 16  1.0479E+01  3.1249E+00  4.9767E+00  1.0818E+01  5.9359E+00  1.4309E+00  1.7258E+00  1.8482E+00  5.0485E+00
 17  0.0000E+00  2.4573E+00  1.4124E-01  0.0000E+00  2.4024E+00  5.4028E-01  4.6978E-01  0.0000E+00  9.1835E+00
 18  0.0000E+00  8.0937E-03  4.9773E-03  3.8373E-03  8.1740E-03  4.0809E-03  2.5083E-03  6.5323E-03  4.4293E-04
 19  7.7805E-04  2.8332E-03  2.7335E-03  0.0000E+00  0.0000E+00  5.3536E-04  8.4622E-04  0.0000E+00  0.0000E+00
 20  0.0000E+00  2.3599E-03  0.0000E+00  3.3856E-03  1.1720E-03  1.9180E-04  9.9221E-04  0.0000E+00  6.7771E-04
 21  0.0000E+00  3.9031E-03  5.5710E-03  0.0000E+00  0.0000E+00  4.3894E-04  2.1292E-03  3.5616E-03  2.6001E-03
 22  5.2598E-06  5.2146E-03  2.2083E-03  9.7666E-04  8.5049E-04  0.0000E+00  0.0000E+00  7.8399E-04  1.1855E-02
 23  0.0000E+00  7.7374E-03  0.0000E+00  1.0543E-02  3.8468E-03  1.2844E-03  0.0000E+00  4.9325E-03  0.0000E+00
 24  0.0000E+00  1.4405E-02  0.0000E+00  9.5588E-04  0.0000E+00  2.3761E-03  0.0000E+00  4.4233E-03  0.0000E+00
 25  9.8668E-03  1.6757E-02  1.1811E-02  0.0000E+00  8.0902E-03  9.3533E-03  8.1744E-03  0.0000E+00  0.0000E+00
 26  0.0000E+00  3.2558E-02  0.0000E+00  9.7870E-02  3.9561E-02  1.6457E-03  1.7809E-02  0.0000E+00  6.7074E-02
 27  1.2599E-02  5.9693E-02  1.0019E-01  7.1315E-04  8.9556E-02  1.4320E-02  2.6951E-02  4.4487E-02  9.8743E-02
 28  4.1060E-01  1.5966E-01  7.3596E-02  0.0000E+00  3.5795E-01  0.0000E+00  0.0000E+00  2.7072E-02  2.0272E-01
 29  0.0000E+00  3.7975E-01  0.0000E+00  9.7935E-01  6.3403E-02  1.9395E-01  7.6909E-02  1.7638E-01  3.3632E-01
 30  0.0000E+00  5.8967E-01  1.3347E+00  0.0000E+00  1.1048E+00  1.4495E-01  3.3805E-01  0.0000E+00  1.5045E+00
 31  0.0000E+00  1.1392E+00  2.7044E-01  0.0000E+00  1.6106E+00  4.4098E-01  1.3124E+00  8.2126E-01  0.0000E+00
 32  0.0000E+00  1.5899E+00  0.0000E+00  2.2459E-01  3.7196E-01  2.1176E-01  1.9522E+00  0.0000E+00  9.3334E+00
 33  0.0000E+00  4.1258E+00  0.0000E+00  1.1180E+01  7.1690E+00  9.6009E-01  3.0888E+00  3.9135E+00  3.3916E+00
 34  2.8907E+01  5.3937E+00  2.6184E+01  3.0175E+00  3.2423E+00  7.3314E-01  3.0615E+00  7.6891E+00  6.0626E+00
 35  7.4173E-05  8.2178E-03  9.8078E-03  2.2790E-03  4.6406E-03  0.0000E+00  2.6879E-03  2.9011E-03  5.1678E-03
 36  0.0000E+00  2.0166E-03  3.0512E-03  2.6636E-04  1.1163E-03  1.1035E-04  0.0000E+00  0.0000E+00  1.6255E-03
 37  0.0000E+00  2.1951E-03  8.0811E-04  0.0000E+00  0.0000E+00  6.4963E-06  0.0000E+00  2.6365E-03  5.0067E-03
 38  0.0000E+00  1.2415E-02  8.4130E-07  0.0000E+00  2.6701E-03  1.2147E-02  1.3260E-02  1.2072E-02  0.0000E+00
 39  0.0000E+00  8.6589E-03  0.0000E+00  6.0104E-03  0.0000E+00  3.0680E-03  1.8878E-02  1.0607E-03  0.0000E+00
 40  0.0000E+00  1.4659E-02  0.0000E+00  2.1659E-04  2.6188E-02  0.0000E+00  7.2516E-03  1.2358E-02  0.0000E+00
 41  0.0000E+00  3.0774E-02  0.0000E+00  0.0000E+00  2.6766E-02  3.3134E-03  3.5113E-02  3.7741E-02  0.0000E+00
 42  0.0000E+00  4.2449E-02  1.2457E-02  0.0000E+00  4.2231E-02  4.8529E-03  9.1935E-04  0.0000E+00  1.6008E-02
 43  0.0000E+00  5.7788E-02  0.0000E+00  1.2089E-01  1.7344E-02  3.6643E-02  0.0000E+00  1.8597E-02  1.1671E-01
 44  0.0000E+00  9.3147E-02  0.0000E+00  3.2235E-02  0.0000E+00  1.3762E-02  9.9936E-03  2.1667E-02  0.0000E+00
 45  5.7488E+00  2.3786E-01  2.2180E-01  4.0877E-01  1.3138E-01  1.3773E-02  6.1441E-02  0.0000E+00  4.0372E-01
 46  3.3039E+01  4.0360E-01  1.4059E-01  7.2120E-01  1.9805E-01  3.6137E-01  0.0000E+00  3.5962E-01  4.0797E-01
 47  1.2556E+01  8.2548E-01  1.7239E+00  0.0000E+00  1.4708E+00  1.6979E-01  7.3799E-01  9.0913E-01  5.2126E-01
 48  2.9670E+00  1.3153E+00  4.9098E+00  3.7754E+00  0.0000E+00  4.4329E-01  1.1401E+00  1.1807E+00  2.1912E+00
 49  3.5813E-01  3.4537E+00  2.1384E+00  0.0000E+00  1.0584E+00  0.0000E+00  2.8691E+00  1.2788E+00  1.0573E+01
 50  0.0000E+00  1.8317E+01  2.2392E+01  5.8250E+00  7.7338E+00  2.6780E+01  2.0897E+01  2.5797E+01  1.4507E+01
 51  0.0000E+00  3.8878E-03  0.0000E+00  0.0000E+00  1.0925E-02  3.2778E-04  0.0000E+00  0.0000E+00  1.1385E-03
 52  0.0000E+00  2.1512E-03  0.0000E+00  1.3357E-03  0.0000E+00  0.0000E+00  0.0000E+00  0.0000E+00  1.3378E-03
 53  0.0000E+00  2.7951E-03  0.0000E+00  1.5271E-03  2.2892E-03  0.0000E+00  1.3004E-04  0.0000E+00  2.1572E-03
 54  0.0000E+00  2.7665E-02  2.4000E-03  0.0000E+00  4.1982E-03  5.4542E-02  3.4462E-02  3.6077E-02  0.0000E+00
 55  2.9640E-04  1.7253E-02  2.6165E-02  1.1352E-02  4.1836E-03  1.2724E-02  1.6977E-02  1.4411E-02  1.2726E-03
 56  0.0000E+00  2.2533E-02  2.5431E-03  0.0000E+00  1.5396E-02  1.1571E-03  3.2060E-02  9.0305E-04  0.0000E+00
 57  0.0000E+00  1.7358E-02  4.0426E-02  2.5646E-02  5.7354E-02  0.0000E+00  1.2187E-02  1.6547E-02  6.4491E-03
 58  0.0000E+00  4.4949E-02  1.9029E-01  4.1407E-02  4.0800E-02  2.9124E-02  4.8268E-03  5.7688E-02  0.0000E+00
 59  0.0000E+00  6.8139E-02  4.6088E-02  2.0208E-02  2.8104E-02  2.5421E-02  7.2857E-02  7.2997E-02  0.0000E+00
 60  1.7032E+00  1.0893E-01  7.5435E-01  7.7133E-02  1.7917E-01  5.9126E-03  3.3291E-03  1.0946E-01  0.0000E+00
 61  0.0000E+00  3.5399E-01  6.6234E-02  1.4874E-02  3.8448E-01  9.5078E-02  0.0000E+00  2.7497E-03  5.0164E-01
 62  0.0000E+00  6.5277E-01  2.5193E+00  1.0085E+00  1.0338E+00  7.6314E-02  4.7741E-01  0.0000E+00  9.4448E-01
 63  3.3500E+00  1.8372E+00  1.4932E+01  4.9740E+00  0.0000E+00  2.5546E-01  8.4778E-01  1.3540E+00  0.0000E+00
 64  0.0000E+00  2.4169E+00  0.0000E+00  2.1243E+00  1.4399E+01  5.3290E-01  5.6964E+00  0.0000E+00  3.3577E+00
 65  0.0000E+00  1.0381E+01  3.2125E+00  2.0580E+01  2.6065E+01  1.0975E+01  7.6495E+00  9.9622E+00  0.0000E+00
 66  0.0000E+00  3.7859E+01  1.2207E+01  3.1165E+01  2.4168E+01  5.5308E+01  4.4796E+01  4.3117E+01  2.7649E+01

# AV, chi2 & Mass for <> & i_chain = 1 ...  7 solutions
AV      -0.4733     -0.7140     -0.3879     -0.6533     -0.6501     -0.6849     -0.6160     -0.5607     -0.9000
chi2 1.6452E-05  2.8411E-05  1.7982E-05  1.9163E-05  2.0052E-05  2.2000E-05  2.1037E-05  2.1248E-05  1.9131E-05
Mass 5.6531E-14  8.8497E-14  1.1965E-13  1.2539E-13  1.3421E-13  1.9255E-13  1.5600E-13  1.7833E-13  9.2132E-14
-101.63                                  [v0_min (km/s) before EX0s...]
   0.00                                  [vd_min (km/s) before EX0s...]


## Synthetic spectrum (Best Model) ##l_obs f_obs f_syn wei
 3478    [Nl_obs]
 3741.00    0.64845   0.60225    0.000
 3742.00    0.76277   0.56310    0.000
 3743.00    0.90847   0.53558    0.000
 3744.00    0.80447   0.50409    0.000
 3745.00    0.55500   0.47074    0.045
 3746.00    0.50162   0.43367    0.043
 3747.00    0.54780   0.37155    0.042
 3748.00    0.29800   0.33441    0.042
 3749.00   -0.08197   0.37585    0.000
 3750.00    0.02067   0.46570    0.041
 3751.00    0.30551   0.54523    0.038
 3752.00    0.41881   0.60738    0.037
 3753.00    0.47712   0.66820    0.037
 3754.00    0.62699   0.69923    0.037
 3755.00    0.80140   0.66345    0.038
 3756.00    0.92214   0.57953    0.037
 3757.00    1.03110   0.52421    0.037
 3758.00    0.67685   0.53674    0.036
 3759.00    0.24175   0.57585    0.035
 3760.00    0.05334   0.60453    0.041
 3761.00   -0.10231   0.61919    0.000
 3762.00    0.01111   0.61927    0.042
 3763.00    0.14981   0.61715    0.034
 3764.00    0.11784   0.60666    0.033
 3765.00    0.07603   0.56554    0.033
 3766.00    0.06506   0.52545    0.033
 3767.00    0.05605   0.50806    0.033
 3768.00    0.19598   0.48455    0.034
 3769.00    0.32717   0.46484    0.034
 3770.00    0.24608   0.49783    0.034
 3771.00    0.17581   0.56723    0.033
 3772.00    0.24723   0.61304    0.034
 3773.00    0.34162   0.62534    0.034
 3774.00    0.63771   0.63749    0.035
 3775.00    0.87287   0.66407    0.037
 3776.00    0.71299   0.69244    0.038
 3777.00    0.59532   0.71658    0.038
 3778.00    0.69125   0.74953    0.037
 3779.00    0.73620   0.77831    0.036
 3780.00    0.57239   0.78168    0.036
 3781.00    0.42292   0.77814    0.035
 3782.00    0.32205   0.78976    0.036
 3783.00    0.24501   0.78903    0.036
 3784.00    0.23617   0.73483    0.036
 3785.00    0.23309   0.66425    0.036
 3786.00    0.24404   0.63431    0.036
 3787.00    0.30696   0.62606    0.037
 3788.00    0.47939   0.61889    0.040
 3789.00    0.66691   0.62558    0.042
 3790.00    0.88206   0.63797    0.039
 3791.00    0.93354   0.62166    0.037
 3792.00    0.72301   0.57416    0.035
 3793.00    0.59110   0.52600    0.034
 3794.00    0.56961   0.48946    0.034
 3795.00    0.57119   0.44737    0.034
 3796.00    0.60131   0.40021    0.033
 3797.00    0.47709   0.39374    0.033
 3798.00    0.18472   0.45206    0.032
 3799.00    0.08595   0.53629    0.032
 3800.00    0.17323   0.60419    0.032
 3801.00    0.34591   0.65913    0.034
 3802.00    0.59094   0.70424    0.037
 3803.00    0.80947   0.71915    0.039
 3804.00    1.00824   0.70479    0.041
 3805.00    1.04576   0.68192    0.040
 3806.00    0.97759   0.68591    0.037
 3807.00    0.76166   0.73077    0.035
 3808.00    0.46094   0.78130    0.034
 3809.00    0.36909   0.80373    0.033
 3810.00    0.38164   0.78705    0.033
 3811.00    0.25642   0.73224    0.033
 3812.00    0.07162   0.66949    0.034
 3813.00    0.24696   0.63662    0.034
 3814.00    0.55585   0.63808    0.034
 3815.00    0.80142   0.67142    0.035
 3816.00    1.02708   0.71616    0.036
 3817.00    0.66767   0.71806    0.035
 3818.00    0.15477   0.66644    0.034
 3819.00    0.29883   0.62443    0.034
 3820.00    0.58364   0.64508    0.034
 3821.00    0.98376   0.68121    0.038
 3822.00    1.40345   0.66013    0.045
 3823.00    0.78232   0.59918    0.041
 3824.00    0.02762   0.56256    0.037
 3825.00    0.00036   0.55605    0.000
 3826.00    0.03840   0.55302    0.037
 3827.00    0.29076   0.54679    0.041
 3828.00    0.55463   0.54339    0.046
 3829.00    0.71936   0.53322    0.044
 3830.00    0.87902   0.49159    0.042
 3831.00    0.77873   0.42854    0.038
 3832.00    0.68844   0.38013    0.036
 3833.00    0.82004   0.35632    0.036
 3834.00    0.95354   0.36238    0.036
 3835.00    1.11056   0.39650    0.037
 3836.00    1.22111   0.42646    0.039
 3837.00    0.93875   0.44391    0.043
 3838.00    0.66073   0.46887    0.045
 3839.00    0.41008   0.50800    0.037
 3840.00    0.24262   0.56570    0.032
 3841.00    0.48566   0.62772    0.032
 3842.00    0.68436   0.66611    0.033
 3843.00    0.70553   0.68230    0.034
 3844.00    0.64746   0.69085    0.035
 3845.00    0.32593   0.70940    0.033
 3846.00    0.05723   0.73833    0.032
 3847.00   -0.06310   0.74254    0.000
 3848.00   -0.12427   0.71864    0.000
 3849.00   -0.04332   0.71945    0.000
 3850.00    0.00946   0.75795    0.000
 3851.00    0.00383   0.78376    0.000
 3852.00    0.04376   0.77694    0.000
 3853.00    0.16586   0.75433    0.000
 3854.00    0.33078   0.73150    0.000
 3855.00    0.56320   0.72590    0.000
 3856.00    0.67784   0.72657    0.000
 3857.00    0.62942   0.69975    0.000
 3858.00    0.56923   0.67488    0.000
 3859.00    0.49470   0.70088    0.000
 3860.00    0.45036   0.75743    0.000
 3861.00    0.43846   0.79816    0.000
 3862.00    0.46106   0.81005    0.000
 3863.00    0.51635   0.80230    0.000
 3864.00    0.60280   0.78617    0.000
 3865.00    0.71527   0.78031    0.000
 3866.00    0.74446   0.79022    0.000
 3867.00    0.71238   0.80010    0.000
 3868.00    0.73269   0.79031    0.000
 3869.00    0.78686   0.75206    0.000
 3870.00    0.68961   0.69762    0.000
 3871.00    0.50680   0.66123    0.000
 3872.00    0.59477   0.68102    0.000
 3873.00    0.81594   0.73816    0.000
 3874.00    0.76848   0.77123    0.000
 3875.00    0.60680   0.74829    0.000
 3876.00    0.51484   0.68559    0.000
 3877.00    0.44827   0.64514    0.000
 3878.00    0.49859   0.67133    0.000
 3879.00    0.58493   0.70098    0.000
 3880.00    0.60720   0.67532    0.000
 3881.00    0.61302   0.63751    0.033
 3882.00    0.70241   0.62817    0.032
 3883.00    0.80928   0.61121    0.031
 3884.00    0.64061   0.55063    0.031
 3885.00    0.42650   0.48082    0.031
 3886.00    0.42648   0.43621    0.030
 3887.00    0.45298   0.41168    0.029
 3888.00    0.65101   0.42542    0.030
 3889.00    0.86373   0.49237    0.031
 3890.00    0.79967   0.57220    0.032
 3891.00    0.72181   0.62471    0.033
 3892.00    0.61370   0.64498    0.032
 3893.00    0.50922   0.64884    0.032
 3894.00    0.67090   0.65680    0.032
 3895.00    0.81667   0.68230    0.033
 3896.00    0.63703   0.70529    0.032
 3897.00    0.48376   0.70234    0.031
 3898.00    0.64240   0.70028    0.031
 3899.00    0.77099   0.73071    0.030
 3900.00    0.65492   0.76756    0.030
 3901.00    0.55816   0.76331    0.030
 3902.00    0.57938   0.73893    0.029
 3903.00    0.60751   0.72394    0.028
 3904.00    0.66894   0.70587    0.027
 3905.00    0.71737   0.71100    0.026
 3906.00    0.71485   0.76169    0.027
 3907.00    0.71115   0.81712    0.027
 3908.00    0.70360   0.84730    0.028
 3909.00    0.67414   0.86126    0.028
 3910.00    0.58426   0.86841    0.029
 3911.00    0.47995   0.85764    0.029
 3912.00    0.34160   0.83385    0.029
 3913.00    0.26326   0.82339    0.029
 3914.00    0.30737   0.81985    0.029
 3915.00    0.41496   0.80384    0.030
 3916.00    0.63530   0.78804    0.032
 3917.00    0.73853   0.77380    0.032
 3918.00    0.65978   0.75389    0.032
 3919.00    0.58582   0.73781    0.031
 3920.00    0.51841   0.73938    0.030
 3921.00    0.55621   0.75629    0.030
 3922.00    0.72041   0.77051    0.031
 3923.00    0.68817   0.76523    0.032
 3924.00    0.44789   0.73126    0.032
 3925.00    0.34325   0.68285    0.032
 3926.00    0.36532   0.62561    0.032
 3927.00    0.49454   0.55591    0.032
 3928.00    0.71200   0.48331    0.033
 3929.00    0.68916   0.41196    0.032
 3930.00    0.49211   0.34009    0.031
 3931.00    0.24906   0.27325    0.031
 3932.00   -0.02325   0.23405    0.000
 3933.00   -0.08877   0.24820    0.000
 3934.00   -0.03920   0.31396    0.000
 3935.00    0.17587   0.40338    0.031
 3936.00    0.47106   0.48965    0.031
 3937.00    0.75961   0.56799    0.032
 3938.00    1.04538   0.63506    0.032
 3939.00    0.98921   0.67438    0.032
 3940.00    0.81073   0.68522    0.032
 3941.00    0.71718   0.68196    0.032
 3942.00    0.64931   0.67325    0.032
 3943.00    0.70088   0.68805    0.031
 3944.00    0.78244   0.74121    0.031
 3945.00    0.89821   0.78019    0.031
 3946.00    1.02096   0.76770    0.032
 3947.00    0.89159   0.74866    0.032
 3948.00    0.72185   0.76373    0.032
 3949.00    0.62152   0.79096    0.032
 3950.00    0.52947   0.79194    0.032
 3951.00    0.38589   0.77680    0.032
 3952.00    0.23812   0.78882    0.031
 3953.00    0.46813   0.81066    0.032
 3954.00    0.71552   0.78581    0.032
 3955.00    0.90816   0.73969    0.032
 3956.00    1.09718   0.73610    0.033
 3957.00    1.13317   0.76411    0.033
 3958.00    1.15987   0.76488    0.033
 3959.00    1.01035   0.70816    0.033
 3960.00    0.86834   0.62500    0.000
 3961.00    0.81094   0.57015    0.000
 3962.00    0.74166   0.54172    0.000
 3963.00    0.57908   0.49986    0.000
 3964.00    0.46054   0.42859    0.000
 3965.00    0.60334   0.33817    0.000
 3966.00    0.71968   0.25555    0.000
 3967.00    0.71179   0.21015    0.000
 3968.00    0.69488   0.21832    0.000
 3969.00    0.64339   0.27362    0.000
 3970.00    0.58042   0.35196    0.000
 3971.00    0.48070   0.42749    0.000
 3972.00    0.45874   0.49147    0.000
 3973.00    0.64739   0.55356    0.000
 3974.00    0.79974   0.61147    0.000
 3975.00    0.86781   0.65477    0.000
 3976.00    0.89009   0.69705    0.000
 3977.00    0.82042   0.75005    0.000
 3978.00    0.76268   0.79684    0.000
 3979.00    0.72582   0.81428    0.000
 3980.00    0.74407   0.80088    0.000
 3981.00    0.84670   0.78724    0.031
 3982.00    0.91680   0.79575    0.032
 3983.00    0.94315   0.81718    0.032
 3984.00    0.91605   0.83551    0.032
 3985.00    0.82566   0.84626    0.032
 3986.00    0.84972   0.86568    0.032
 3987.00    0.99330   0.88701    0.031
 3988.00    0.90648   0.88372    0.031
 3989.00    0.60747   0.88028    0.031
 3990.00    0.54607   0.90312    0.031
 3991.00    0.67760   0.92989    0.030
 3992.00    0.70948   0.93592    0.030
 3993.00    0.67015   0.91788    0.030
 3994.00    0.76579   0.88776    0.030
 3995.00    0.94605   0.85566    0.031
 3996.00    1.02339   0.84035    0.031
 3997.00    1.04433   0.86928    0.031
 3998.00    1.08191   0.92729    0.031
 3999.00    1.12741   0.96192    0.031
 4000.00    0.91656   0.96624    0.030
 4001.00    0.60034   0.96965    0.030
 4002.00    0.61838   0.95543    0.030
 4003.00    0.75383   0.89172    0.031
 4004.00    0.97999   0.82971    0.031
 4005.00    1.23302   0.84525    0.032
 4006.00    1.01894   0.91141    0.032
 4007.00    0.69011   0.95738    0.031
 4008.00    0.60170   0.96917    0.031
 4009.00    0.56109   0.97064    0.030
 4010.00    0.89844   0.96972    0.031
 4011.00    1.29452   0.96671    0.031
 4012.00    1.25607   0.96872    0.031
 4013.00    1.16765   0.97679    0.031
 4014.00    0.99638   0.98839    0.031
 4015.00    0.81870   0.98338    0.031
 4016.00    0.85887   0.97065    0.031
 4017.00    0.90821   0.98903    0.031
 4018.00    0.95878   1.02179    0.031
 4019.00    1.00697   1.02211    0.031
 4020.00    0.95028   0.99867    0.031
 4021.00    0.90327   0.98028    0.030
 4022.00    1.02698   0.96277    0.030
 4023.00    1.14199   0.94713    0.030
 4024.00    1.16337   0.96536    0.030
 4025.00    1.15809   1.00967    0.030
 4026.00    0.95043   1.03422    0.030
 4027.00    0.77763   1.01973    0.030
 4028.00    0.80585   0.96173    0.030
 4029.00    0.82402   0.88239    0.030
 4030.00    0.79615   0.83780    0.030
 4031.00    0.82443   0.83691    0.030
 4032.00    1.06335   0.85501    0.030
 4033.00    1.26857   0.88841    0.030
 4034.00    1.36813   0.93767    0.030
 4035.00    1.36739   0.99774    0.030
 4036.00    1.09982   1.04502    0.030
 4037.00    0.92660   1.05397    0.029
 4038.00    0.96882   1.02777    0.030
 4039.00    1.00688   0.99502    0.030
 4040.00    1.03668   0.99177    0.030
 4041.00    1.00000   1.00340    0.030
 4042.00    0.84878   0.96610    0.030
 4043.00    0.81888   0.86871    0.030
 4044.00    0.97200   0.79709    0.030
 4045.00    1.08809   0.83182    0.030
 4046.00    1.15508   0.92926    0.031
 4047.00    1.18279   0.98740    0.031
 4048.00    1.16465   1.00300    0.031
 4049.00    1.20400   1.01196    0.031
 4050.00    1.30253   1.00327    0.031
 4051.00    1.29525   0.97209    0.031
 4052.00    1.19187   0.93962    0.031
 4053.00    1.07057   0.91915    0.031
 4054.00    0.93491   0.91580    0.031
 4055.00    0.87886   0.91328    0.030
 4056.00    0.87888   0.89594    0.031
 4057.00    0.83966   0.89867    0.031
 4058.00    0.77621   0.94267    0.031
 4059.00    0.87733   0.98074    0.031
 4060.00    1.06724   0.95987    0.030
 4061.00    1.11728   0.88370    0.030
 4062.00    1.10176   0.82505    0.031
 4063.00    1.04403   0.84711    0.031
 4064.00    0.96926   0.90060    0.030
 4065.00    0.70747   0.91139    0.030
 4066.00    0.38120   0.91432    0.030
 4067.00    0.39431   0.95602    0.030
 4068.00    0.50596   0.98507    0.030
 4069.00    0.75470   0.94305    0.030
 4070.00    1.03637   0.88003    0.031
 4071.00    1.04143   0.88298    0.031
 4072.00    0.99289   0.93288    0.030
 4073.00    1.20416   0.94397    0.031
 4074.00    1.45458   0.89032    0.031
 4075.00    1.34065   0.80853    0.031
 4076.00    1.18641   0.76506    0.030
 4077.00    1.16588   0.79950    0.030
 4078.00    1.15514   0.87854    0.029
 4079.00    0.96428   0.95035    0.029
 4080.00    0.76652   0.98179    0.030
 4081.00    0.82960   0.96085    0.030
 4082.00    0.89401   0.91725    0.030
 4083.00    0.95346   0.88996    0.030
 4084.00    1.00747   0.89133    0.030
 4085.00    0.97185   0.92035    0.029
 4086.00    0.94888   0.96175    0.029
 4087.00    1.05608   0.98690    0.029
 4088.00    1.11694   0.98068    0.029
 4089.00    0.83773   0.95585    0.029
 4090.00    0.59980   0.92921    0.029
 4091.00    0.59335   0.91211    0.028
 4092.00    0.62580   0.90713    0.000
 4093.00    0.83236   0.88495    0.000
 4094.00    0.95810   0.83107    0.000
 4095.00    0.78706   0.78128    0.000
 4096.00    0.66830   0.75278    0.000
 4097.00    0.71035   0.72467    0.000
 4098.00    0.78832   0.67072    0.000
 4099.00    0.96015   0.58521    0.000
 4100.00    1.08368   0.52020    0.000
 4101.00    1.09874   0.54120    0.000
 4102.00    1.10908   0.62659    0.000
 4103.00    1.11026   0.71051    0.000
 4104.00    1.11514   0.77246    0.000
 4105.00    1.12632   0.81292    0.000
 4106.00    1.07013   0.83013    0.000
 4107.00    0.91378   0.83259    0.000
 4108.00    0.87078   0.82942    0.000
 4109.00    0.97586   0.83194    0.000
 4110.00    1.05033   0.84795    0.000
 4111.00    1.08956   0.87515    0.000
 4112.00    1.05229   0.90631    0.000
 4113.00    0.93736   0.93252    0.029
 4114.00    0.82801   0.95283    0.029
 4115.00    0.72365   0.95967    0.029
 4116.00    0.72498   0.93379    0.029
 4117.00    0.80969   0.89222    0.029
 4118.00    0.80791   0.88214    0.042
 4119.00    0.74612   0.90203    0.153
 4120.00    0.81431   0.90935   -1.000
 4121.00    0.96159   0.90252   -1.000
 4122.00    0.94343   0.91319   -1.000
 4123.00    0.83738   0.94166   -1.000
 4124.00    0.98333   0.95363   -1.000
 4125.00    1.24548   0.93338   -1.000
 4126.00    1.23567   0.90254    0.081
 4127.00    1.11787   0.88927    0.034
 4128.00    0.99653   0.89622    0.029
 4129.00    0.87399   0.89281    0.029
 4130.00    0.88783   0.86330    0.029
 4131.00    0.94047   0.83686    0.028
 4132.00    1.02661   0.84659    0.029
 4133.00    1.12062   0.88771    0.029
 4134.00    0.91506   0.93907    0.028
 4135.00    0.65296   0.97117    0.028
 4136.00    0.60382   0.98181    0.028
 4137.00    0.58578   0.99952    0.028
 4138.00    0.83542   1.01706    0.029
 4139.00    1.11350   1.00925    0.029
 4140.00    1.07245   0.96161    0.029
 4141.00    1.00933   0.88071    0.029
 4142.00    1.06089   0.82652    0.029
 4143.00    1.11641   0.85263    0.029
 4144.00    0.98247   0.91893    0.029
 4145.00    0.85051   0.95740    0.029
 4146.00    0.79645   0.96100    0.029
 4147.00    0.74572   0.94631    0.029
 4148.00    0.74647   0.92720    0.028
 4149.00    0.75127   0.92217    0.028
 4150.00    0.79608   0.92772    0.028
 4151.00    0.83144   0.92346    0.028
 4152.00    0.79975   0.90376    0.028
 4153.00    0.78151   0.88410    0.029
 4154.00    0.83675   0.88010    0.029
 4155.00    0.94063   0.88651    0.029
 4156.00    1.25714   0.90590    0.028
 4157.00    1.42510   0.93829    0.028
 4158.00    1.05879   0.95880    0.028
 4159.00    0.82974   0.95887    0.027
 4160.00    1.01487   0.96388    0.027
 4161.00    1.14966   0.98679    0.028
 4162.00    1.15520   1.00028    0.028
 4163.00    1.15744   0.99394    0.028
 4164.00    1.15241   0.97878    0.028
 4165.00    1.14111   0.95189    0.028
 4166.00    1.11783   0.93241    0.028
 4167.00    1.09030   0.94708    0.028
 4168.00    1.05567   0.96606    0.028
 4169.00    0.97769   0.93950    0.027
 4170.00    0.83621   0.87039    0.027
 4171.00    0.80374   0.81050    0.027
 4172.00    0.91167   0.80719    0.027
 4173.00    0.91585   0.84808    0.028
 4174.00    0.80229   0.88293    0.028
 4175.00    0.77823   0.88253    0.028
 4176.00    0.84374   0.86336    0.028
 4177.00    0.98702   0.86723    0.028
 4178.00    1.19894   0.90379    0.028
 4179.00    1.17470   0.92892    0.028
 4180.00    0.96681   0.91460    0.027
 4181.00    0.87651   0.89568    0.027
 4182.00    0.86664   0.90568    0.027
 4183.00    0.91810   0.93503    0.028
 4184.00    1.00633   0.94981    0.028
 4185.00    1.07455   0.91856    0.028
 4186.00    1.13232   0.88032    0.028
 4187.00    1.11216   0.89789    0.028
 4188.00    1.05663   0.94151    0.028
 4189.00    1.06441   0.95219    0.028
 4190.00    1.09688   0.94994    0.028
 4191.00    0.98307   0.97859    0.028
 4192.00    0.82067   1.00690    0.027
 4193.00    0.91332   0.98291    0.027
 4194.00    1.07707   0.92831    0.028
 4195.00    1.19541   0.88872    0.028
 4196.00    1.30335   0.86040    0.028
 4197.00    1.06430   0.84149    0.028
 4198.00    0.76149   0.85841    0.028
 4199.00    0.83642   0.88170    0.028
 4200.00    0.96477   0.87298    0.028
 4201.00    1.01040   0.86697    0.028
 4202.00    1.04759   0.88589    0.027
 4203.00    0.78533   0.90543    0.027
 4204.00    0.50356   0.92471    0.027
 4205.00    0.53257   0.95189    0.027
 4206.00    0.57132   0.97252    0.027
 4207.00    0.73819   0.97438    0.027
 4208.00    0.90407   0.96185    0.028
 4209.00    1.04092   0.95989    0.028
 4210.00    1.16853   0.97984    0.028
 4211.00    1.16146   0.99566    0.028
 4212.00    1.15760   0.97620    0.028
 4213.00    1.18418   0.91888    0.027
 4214.00    1.19319   0.86923    0.027
 4215.00    1.08149   0.88791    0.027
 4216.00    0.99442   0.95334    0.027
 4217.00    1.03827   0.99535    0.027
 4218.00    1.03418   1.00630    0.028
 4219.00    0.82538   1.01366    0.027
 4220.00    0.66763   1.00892    0.026
 4221.00    0.68977   0.97348    0.027
 4222.00    0.70333   0.91626    0.027
 4223.00    0.69148   0.84113    0.027
 4224.00    0.72051   0.74939    0.027
 4225.00    0.85267   0.68983    0.027
 4226.00    0.91173   0.73349    0.027
 4227.00    0.81194   0.85626    0.026
 4228.00    0.78060   0.95569    0.026
 4229.00    0.87835   0.99690    0.026
 4230.00    0.89305   0.99068    0.026
 4231.00    0.77106   0.94363    0.026
 4232.00    0.72689   0.90453    0.025
 4233.00    0.79506   0.90148    0.025
 4234.00    0.87655   0.89848    0.025
 4235.00    0.97495   0.89341    0.025
 4236.00    1.04548   0.90294    0.025
 4237.00    1.08482   0.90667    0.025
 4238.00    1.05391   0.91122    0.025
 4239.00    0.95368   0.94011    0.025
 4240.00    0.91713   0.97142    0.025
 4241.00    0.93599   0.98268    0.025
 4242.00    1.01743   0.99715    0.026
 4243.00    1.14685   1.01447    0.026
 4244.00    1.21378   0.99562    0.026
 4245.00    1.23861   0.94743    0.026
 4246.00    1.25667   0.91819    0.026
 4247.00    1.27075   0.91370    0.027
 4248.00    1.22376   0.89696    0.027
 4249.00    1.14532   0.88051    0.027
 4250.00    1.13196   0.90706    0.027
 4251.00    1.14764   0.94275    0.027
 4252.00    1.16426   0.93239    0.027
 4253.00    1.18124   0.90619    0.027
 4254.00    1.09214   0.92133    0.026
 4255.00    0.96847   0.96489    0.026
 4256.00    0.80048   0.97581    0.026
 4257.00    0.62040   0.93399    0.026
 4258.00    0.75322   0.87593    0.026
 4259.00    0.95616   0.84801    0.026
 4260.00    0.90166   0.88135    0.026
 4261.00    0.80112   0.95407    0.026
 4262.00    0.73527   1.00989    0.026
 4263.00    0.67416   1.03298    0.026
 4264.00    0.77005   1.03956    0.026
 4265.00    0.88127   1.02670    0.026
 4266.00    0.90850   0.99141    0.026
 4267.00    0.93058   0.95517    0.026
 4268.00    0.92549   0.91725    0.026
 4269.00    0.91878   0.85373    0.026
 4270.00    0.74106   0.79514    0.026
 4271.00    0.56922   0.79761    0.026
 4272.00    0.55318   0.83031    0.026
 4273.00    0.54269   0.84514    0.025
 4274.00    0.60852   0.87529    0.025
 4275.00    0.69197   0.93610    0.026
 4276.00    0.93547   0.98470    0.026
 4277.00    1.13790   0.99403    0.028
 4278.00    1.06676   0.96872    0.062
 4279.00    0.99890   0.93696   -1.000
 4280.00    0.94802   0.92175   -1.000
 4281.00    0.99439   0.91953   -1.000
 4282.00    1.44671   0.92685   -2.000
 4283.00    1.75710   0.92825   -2.000
 4284.00    1.57753   0.91395   -2.000
 4285.00    1.32954   0.90202   -2.000
 4286.00    0.88269   0.88515   -2.000
 4287.00    0.55802   0.83496   -2.000
 4288.00    0.53638   0.77466   -2.000
 4289.00    0.62233   0.77371   -2.000
 4290.00    0.93831   0.84094   -2.000
 4291.00    1.06018   0.90523   -2.000
 4292.00    0.82165   0.91301   -2.000
 4293.00    0.66375   0.89040   -2.000
 4294.00    0.63663   0.88189   -2.000
 4295.00    0.70877   0.87537   -2.000
 4296.00    0.92213   0.84232   -2.000
 4297.00    0.96122   0.77652   -2.000
 4298.00    0.78222   0.71291    0.027
 4299.00    0.78268   0.70126    0.027
 4300.00    0.98111   0.72243    0.027
 4301.00    1.07339   0.73808    0.027
 4302.00    1.06237   0.76117    0.027
 4303.00    0.99917   0.78513    0.028
 4304.00    0.89119   0.78183    0.027
 4305.00    0.69676   0.75444    0.027
 4306.00    0.43699   0.71588    0.027
 4307.00    0.43613   0.69731    0.027
 4308.00    0.60720   0.72820    0.027
 4309.00    0.76489   0.78543    0.027
 4310.00    0.91480   0.82625    0.027
 4311.00    0.84544   0.83601    0.027
 4312.00    0.66496   0.83120    0.026
 4313.00    0.61502   0.84875    0.026
 4314.00    0.62236   0.91705    0.026
 4315.00    0.68895   0.99802    0.026
 4316.00    0.77786   1.03031    0.027
 4317.00    0.91079   1.01776    0.027
 4318.00    1.05780   0.99091    0.027
 4319.00    1.14944   0.96262    0.027
 4320.00    1.22627   0.94748    0.027
 4321.00    1.00069   0.93111    0.027
 4322.00    0.70894   0.87234    0.027
 4323.00    0.87398   0.78125    0.027
 4324.00    1.11848   0.72432    0.027
 4325.00    1.03284   0.76028    0.027
 4326.00    0.90352   0.86169    0.027
 4327.00    0.92624   0.93764    0.026
 4328.00    0.96316   0.94302    0.026
 4329.00    1.06192   0.91511    0.027
 4330.00    1.16422   0.90602    0.000
 4331.00    1.16730   0.91301    0.000
 4332.00    1.16838   0.91467    0.000
 4333.00    1.20484   0.91252    0.000
 4334.00    1.23605   0.88953    0.000
 4335.00    1.14135   0.81259    0.000
 4336.00    1.05574   0.70435    0.000
 4337.00    1.08845   0.61511    0.000
 4338.00    1.10602   0.54871    0.000
 4339.00    0.99132   0.52687    0.000
 4340.00    0.88103   0.59003    0.000
 4341.00    0.79921   0.68756    0.000
 4342.00    0.75242   0.74796    0.000
 4343.00    0.88239   0.78981    0.000
 4344.00    0.99868   0.83662    0.000
 4345.00    1.05916   0.86768    0.000
 4346.00    1.06779   0.89169    0.000
 4347.00    0.90104   0.92776    0.000
 4348.00    0.79629   0.93659    0.000
 4349.00    0.86848   0.87531    0.000
 4350.00    0.98647   0.79575    0.000
 4351.00    1.21614   0.78920    0.027
 4352.00    1.28870   0.84775    0.033
 4353.00    1.03078   0.90056    0.084
 4354.00    0.87171   0.93521   -1.000
 4355.00    0.89336   0.96406   -1.000
 4356.00    0.95767   0.96473   -1.000
 4357.00    1.09014   0.93457   -1.000
 4358.00    1.16365   0.92263   -1.000
 4359.00    1.15450   0.95520   -1.000
 4360.00    1.12261   0.99564    0.118
 4361.00    1.06267   1.01206    0.037
 4362.00    0.95991   1.02215    0.027
 4363.00    0.81057   1.04304    0.026
 4364.00    0.69578   1.04589    0.026
 4365.00    0.61413   1.00467    0.026
 4366.00    0.68983   0.95262    0.026
 4367.00    0.89865   0.93519    0.026
 4368.00    0.98918   0.94605    0.026
 4369.00    0.99163   0.96242    0.026
 4370.00    0.94533   0.97698    0.026
 4371.00    0.86713   0.96849    0.026
 4372.00    0.92348   0.91708    0.026
 4373.00    1.05688   0.86090    0.026
 4374.00    0.98343   0.86487    0.026
 4375.00    0.80678   0.92990    0.026
 4376.00    0.87388   0.99486    0.025
 4377.00    1.04616   1.01507    0.025
 4378.00    1.05163   1.00166    0.026
 4379.00    0.99537   0.98286    0.026
 4380.00    0.88259   0.93985    0.026
 4381.00    0.75207   0.83832    0.025
 4382.00    0.82115   0.73160    0.025
 4383.00    0.94245   0.71793    0.026
 4384.00    1.00967   0.80026    0.026
 4385.00    1.06535   0.88791    0.025
 4386.00    0.96880   0.92306    0.025
 4387.00    0.84651   0.92424    0.025
 4388.00    0.85861   0.91649    0.025
 4389.00    0.88787   0.91235    0.025
 4390.00    0.99424   0.92894    0.025
 4391.00    1.10749   0.95150    0.025
 4392.00    1.09990   0.94046    0.025
 4393.00    1.08588   0.90865    0.026
 4394.00    1.00454   0.91856    0.026
 4395.00    0.92261   0.97693    0.025
 4396.00    0.89941   1.01424    0.025
 4397.00    0.88291   0.99194    0.025
 4398.00    1.01335   0.93613    0.025
 4399.00    1.12378   0.90268    0.025
 4400.00    0.98679   0.92966    0.025
 4401.00    0.86203   0.96253    0.025
 4402.00    0.84014   0.92331    0.025
 4403.00    0.85791   0.85852    0.025
 4404.00    1.12427   0.86086    0.025
 4405.00    1.33094   0.90106    0.026
 4406.00    1.24395   0.90653    0.026
 4407.00    1.14244   0.90427    0.026
 4408.00    0.98298   0.94263    0.026
 4409.00    0.84341   0.99557    0.026
 4410.00    0.76984   1.02943    0.025
 4411.00    0.76331   1.03853    0.025
 4412.00    0.94459   1.00000    0.025
 4413.00    1.10385   0.91937    0.025
 4414.00    1.21032   0.87009    0.025
 4415.00    1.20010   0.88501    0.025
 4416.00    0.94836   0.92841    0.025
 4417.00    0.78286   0.98282    0.025
 4418.00    0.77259   1.03017    0.025
 4419.00    0.83862   1.03280    0.025
 4420.00    1.02474   0.99092    0.025
 4421.00    1.12068   0.95317    0.026
 4422.00    1.09200   0.95607    0.025
 4423.00    1.06239   0.97630    0.025
 4424.00    1.03167   0.97952    0.026
 4425.00    0.98935   0.97302    0.026
 4426.00    0.93461   0.97873    0.025
 4427.00    0.92528   0.98794    0.025
 4428.00    0.95891   0.97208    0.025
 4429.00    0.95941   0.95222    0.025
 4430.00    0.93228   0.96387    0.026
 4431.00    0.99937   0.97198    0.026
 4432.00    1.13562   0.93762    0.027
 4433.00    1.09114   0.88817    0.026
 4434.00    0.93012   0.87971    0.026
 4435.00    0.85080   0.93185    0.026
 4436.00    0.81756   1.00388    0.026
 4437.00    0.84781   1.04925    0.026
 4438.00    0.90921   1.05064    0.026
 4439.00    0.97322   1.00745    0.026
 4440.00    1.03833   0.93991    0.026
 4441.00    1.08715   0.88667    0.026
 4442.00    1.13006   0.88617    0.026
 4443.00    1.08815   0.94510    0.026
 4444.00    1.02015   1.00998    0.026
 4445.00    1.01246   1.02660    0.026
 4446.00    1.02020   1.01808    0.026
 4447.00    0.98666   1.01760    0.026
 4448.00    0.94452   1.00633    0.026
 4449.00    0.98056   0.99023    0.026
 4450.00    1.02945   0.99559    0.025
 4451.00    1.02072   0.99577    0.026
 4452.00    1.00489   0.95334    0.026
 4453.00    0.97859   0.88867    0.026
 4454.00    0.95140   0.86180    0.025
 4455.00    0.80683   0.88419    0.025
 4456.00    0.65646   0.90463    0.025
 4457.00    0.62465   0.90157    0.025
 4458.00    0.59666   0.89615    0.025
 4459.00    0.69034   0.88605    0.025
 4460.00    0.77920   0.87449    0.025
 4461.00    0.77046   0.89909    0.000
 4462.00    0.78199   0.94714    0.000
 4463.00    1.03185   0.96814    0.000
 4464.00    1.24126   0.96398    0.000
 4465.00    1.12269   0.95714    0.000
 4466.00    1.01551   0.94434    0.000
 4467.00    0.97764   0.92324    0.000
 4468.00    0.93421   0.91620    0.000
 4469.00    0.86404   0.93826    0.000
 4470.00    0.81790   0.97423    0.000
 4471.00    0.86558   1.00983    0.000
 4472.00    0.95443   1.03709    0.000
 4473.00    1.17715   1.04252    0.000
 4474.00    1.32522   1.03612    0.000
 4475.00    1.26790   1.04761    0.000
 4476.00    1.19406   1.06564    0.000
 4477.00    1.08131   1.04665    0.000
 4478.00    0.93536   0.98041    0.000
 4479.00    0.72177   0.90421    0.000
 4480.00    0.67757   0.87314    0.000
 4481.00    0.93361   0.90976    0.000
 4482.00    1.09117   0.97913    0.025
 4483.00    1.09597   1.03336    0.025
 4484.00    1.05524   1.05975    0.025
 4485.00    0.95248   1.05817    0.025
 4486.00    0.91885   1.02121    0.025
 4487.00    0.96810   0.96503    0.026
 4488.00    1.05056   0.93172    0.026
 4489.00    1.16813   0.94484    0.025
 4490.00    1.19777   0.98607    0.025
 4491.00    1.14542   1.01066    0.025
 4492.00    1.06870   0.98953    0.025
 4493.00    0.97193   0.95288    0.025
 4494.00    0.97998   0.94466    0.026
 4495.00    1.06389   0.96736    0.026
 4496.00    1.03658   1.00514    0.026
 4497.00    0.93864   1.03613    0.026
 4498.00    0.83912   1.03677    0.025
 4499.00    0.73873   1.00800    0.025
 4500.00    0.81871   0.99595    0.025
 4501.00    0.98584   1.03687    0.026
 4502.00    1.12825   1.09195    0.026
 4503.00    1.26035   1.11224    0.026
 4504.00    1.13942   1.10020    0.026
 4505.00    0.92819   1.07329    0.025
 4506.00    0.89695   1.04775    0.025
 4507.00    0.91998   1.04394    0.025
 4508.00    0.98420   1.06357    0.025
 4509.00    1.05875   1.08036    0.025
 4510.00    1.07491   1.07127    0.025
 4511.00    1.07920   1.04414    0.025
 4512.00    1.17546   1.01622    0.025
 4513.00    1.28639   0.99932    0.025
 4514.00    1.25448   1.00313    0.026
 4515.00    1.20560   1.01180    0.026
 4516.00    0.93732   1.00643    0.025
 4517.00    0.65128   1.00510    0.024
 4518.00    0.81145   1.02113    0.025
 4519.00    0.99190   1.03815    0.025
 4520.00    1.04353   1.02966    0.025
 4521.00    1.09341   0.99918    0.026
 4522.00    1.13447   0.98332    0.026
 4523.00    1.16674   0.97678    0.026
 4524.00    1.03375   0.95331    0.025
 4525.00    0.90541   0.92068    0.025
 4526.00    0.82923   0.89188    0.025
 4527.00    0.78103   0.87615    0.025
 4528.00    0.95184   0.88412    0.025
 4529.00    1.08557   0.90845    0.025
 4530.00    1.00004   0.93385    0.025
 4531.00    0.92228   0.93586    0.025
 4532.00    0.88085   0.90346    0.025
 4533.00    0.86558   0.87695    0.025
 4534.00    0.95029   0.90106    0.025
 4535.00    1.02972   0.97415    0.026
 4536.00    1.09233   1.03928    0.026
 4537.00    1.15314   1.04692    0.026
 4538.00    1.20910   1.01384    0.026
 4539.00    1.18023   0.98316    0.026
 4540.00    0.95480   0.98382    0.026
 4541.00    0.89189   1.00699    0.026
 4542.00    1.15477   1.01034    0.026
 4543.00    1.21815   0.98723    0.026
 4544.00    0.93323   0.97625    0.025
 4545.00    0.75269   0.98368    0.025
 4546.00    0.73167   0.97496    0.025
 4547.00    0.82100   0.93485    0.025
 4548.00    1.05849   0.90891    0.026
 4549.00    1.14448   0.93689    0.026
 4550.00    1.05137   0.97185    0.000
 4551.00    1.12392   0.96639    0.000
 4552.00    1.36914   0.93605    0.000
 4553.00    1.37575   0.91246    0.000
 4554.00    1.16297   0.92244    0.000
 4555.00    1.06634   0.96796    0.000
 4556.00    1.06384   1.01056    0.000
 4557.00    1.01246   1.02735    0.000
 4558.00    0.92620   1.03397    0.000
 4559.00    0.92832   1.04230    0.000
 4560.00    0.98574   1.04420    0.000
 4561.00    1.03834   1.01984    0.000
 4562.00    1.08831   0.97449    0.000
 4563.00    1.13279   0.94647    0.000
 4564.00    1.17467   0.95958    0.000
 4565.00    1.05009   1.00337    0.000
 4566.00    0.85724   1.04326    0.000
 4567.00    0.90704   1.05620    0.000
 4568.00    1.04187   1.04290    0.000
 4569.00    1.14136   1.00082    0.000
 4570.00    1.23040   0.96332    0.000
 4571.00    1.13577   0.98373    0.000
 4572.00    0.99614   1.02954    0.000
 4573.00    0.98811   1.04103    0.000
 4574.00    1.00615   1.03172    0.000
 4575.00    1.09152   1.02959    0.000
 4576.00    1.18732   1.02474    0.000
 4577.00    1.02123   0.99934    0.000
 4578.00    0.82515   0.96065    0.000
 4579.00    0.93502   0.93683    0.000
 4580.00    1.06838   0.93835    0.000
 4581.00    0.99248   0.94361    0.000
 4582.00    0.90788   0.94172    0.000
 4583.00    0.89256   0.94492    0.000
 4584.00    0.87421   0.95360    0.000
 4585.00    0.70028   0.96805    0.000
 4586.00    0.54558   0.99198    0.000
 4587.00    0.72716   1.01459    0.000
 4588.00    0.89501   1.01970    0.000
 4589.00    0.91590   1.00047    0.000
 4590.00    0.94638   0.97173    0.000
 4591.00    1.04945   0.96075    0.000
 4592.00    1.12184   0.96803    0.000
 4593.00    1.01791   0.97043    0.000
 4594.00    0.95683   0.96723    0.000
 4595.00    1.09160   0.97044    0.000
 4596.00    1.20301   0.97904    0.000
 4597.00    1.22708   0.98749    0.000
 4598.00    1.16886   0.98164    0.000
 4599.00    0.85332   0.96754    0.000
 4600.00    0.68379   0.97049    0.000
 4601.00    0.90185   0.98281    0.000
 4602.00    1.04301   0.98624    0.000
 4603.00    1.00891   0.98002    0.000
 4604.00    0.97770   0.97888    0.000
 4605.00    0.95219   0.99691    0.000
 4606.00    0.94582   1.03056    0.000
 4607.00    0.97238   1.06229    0.000
 4608.00    1.04004   1.06828    0.000
 4609.00    1.16958   1.04744    0.000
 4610.00    1.18008   1.02435    0.000
 4611.00    1.03304   1.01094    0.000
 4612.00    0.93976   1.01099    0.000
 4613.00    0.90912   1.02312    0.000
 4614.00    0.91543   1.02589    0.000
 4615.00    0.95972   1.02222    0.000
 4616.00    1.01411   1.01987    0.000
 4617.00    1.07767   1.00474    0.000
 4618.00    1.12978   0.99638    0.000
 4619.00    1.17274   1.01668    0.000
 4620.00    1.05366   1.03705    0.000
 4621.00    0.82068   1.03975    0.000
 4622.00    0.82005   1.03794    0.000
 4623.00    0.96267   1.02984    0.000
 4624.00    0.95472   1.01784    0.000
 4625.00    0.86567   1.01818    0.000
 4626.00    0.84931   1.02032    0.000
 4627.00    0.86694   1.00600    0.000
 4628.00    0.93732   0.99883    0.000
 4629.00    1.02895   1.02077    0.000
 4630.00    1.08218   1.03822    0.000
 4631.00    1.12219   1.01936    0.000
 4632.00    1.10365   0.99049    0.000
 4633.00    1.06814   0.98418    0.000
 4634.00    1.00408   0.99071    0.000
 4635.00    0.93318   0.98588    0.000
 4636.00    0.85582   0.97142    0.000
 4637.00    0.77722   0.96389    0.000
 4638.00    0.80050   0.96497    0.000
 4639.00    0.83907   0.97938    0.000
 4640.00    0.97672   1.00253    0.000
 4641.00    1.12526   1.00783    0.000
 4642.00    1.21172   0.99398    0.000
 4643.00    1.29367   0.97330    0.000
 4644.00    1.17291   0.93860    0.000
 4645.00    1.04449   0.90332    0.000
 4646.00    0.98744   0.89724    0.000
 4647.00    0.93190   0.92235    0.000
 4648.00    0.91917   0.95920    0.000
 4649.00    0.91828   0.98727    0.000
 4650.00    1.11096   1.00121    0.000
 4651.00    1.27714   1.00587    0.000
 4652.00    1.17202   0.99048    0.000
 4653.00    1.06627   0.95990    0.000
 4654.00    0.95588   0.94165    0.000
 4655.00    0.86957   0.94878    0.000
 4656.00    0.91791   0.98561    0.000
 4657.00    0.96484   1.03560    0.000
 4658.00    1.00542   1.06397    0.000
 4659.00    1.03791   1.05568    0.000
 4660.00    1.04073   1.02399    0.000
 4661.00    1.01035   0.99094    0.000
 4662.00    0.87811   0.97427    0.000
 4663.00    0.81280   0.96823    0.000
 4664.00    0.92206   0.93631    0.000
 4665.00    1.00771   0.87518    0.000
 4666.00    1.04047   0.84140    0.000
 4667.00    1.05111   0.86534    0.000
 4668.00    1.01880   0.91515    0.000
 4669.00    1.02192   0.95914    0.000
 4670.00    1.08505   0.98165    0.000
 4671.00    1.11904   0.97961    0.000
 4672.00    1.10981   0.97303    0.000
 4673.00    1.04760   0.98172    0.000
 4674.00    0.91627   1.00517    0.000
 4675.00    0.89175   1.01813    0.000
 4676.00    0.98995   0.99994    0.000
 4677.00    1.05584   0.96837    0.000
 4678.00    1.08899   0.94925    0.000
 4679.00    1.16528   0.94242    0.000
 4680.00    1.28013   0.94511    0.000
 4681.00    1.27271   0.96364    0.000
 4682.00    1.16899   0.98597    0.000
 4683.00    1.01779   0.99383    0.000
 4684.00    0.83371   0.99185    0.000
 4685.00    0.85776   0.98597    0.000
 4686.00    1.00821   0.97789    0.000
 4687.00    1.06721   0.97591    0.000
 4688.00    1.07772   0.97567    0.000
 4689.00    1.01513   0.96651    0.000
 4690.00    0.91891   0.96096    0.000
 4691.00    0.90526   0.96915    0.000
 4692.00    0.92432   0.98254    0.000
 4693.00    0.94903   0.99914    0.000
 4694.00    0.97564   1.01481    0.000
 4695.00    1.01275   1.01030    0.000
 4696.00    1.05285   0.97621    0.000
 4697.00    1.03973   0.93999    0.000
 4698.00    1.01416   0.93287    0.000
 4699.00    1.06228   0.93899    0.000
 4700.00    1.12426   0.92802    0.000
 4701.00    1.16340   0.90788    0.000
 4702.00    1.19922   0.91288    0.000
 4703.00    1.12651   0.94286    0.000
 4704.00    1.04232   0.95946    0.000
 4705.00    1.10672   0.94466    0.000
 4706.00    1.18132   0.91994    0.000
 4707.00    0.97582   0.90997    0.000
 4708.00    0.76080   0.92473    0.000
 4709.00    0.78556   0.95963    0.000
 4710.00    0.81527   0.98602    0.000
 4711.00    0.99428   0.98112    0.000
 4712.00    1.15855   0.95351    0.000
 4713.00    1.09657   0.93719    0.000
 4714.00    1.04339   0.95654    0.000
 4715.00    1.07645   0.99016    0.000
 4716.00    1.11520   1.00847    0.000
 4717.00    1.19421   1.01844    0.000
 4718.00    1.25525   1.02976    0.000
 4719.00    1.21850   1.03123    0.000
 4720.00    1.17270   1.01907    0.000
 4721.00    1.08751   1.01054    0.000
 4722.00    1.01687   1.02013    0.000
 4723.00    0.99842   1.03619    0.000
 4724.00    1.01186   1.03114    0.000
 4725.00    1.12131   0.98981    0.000
 4726.00    1.19652   0.93835    0.000
 4727.00    1.18400   0.91524    0.000
 4728.00    1.16740   0.91706    0.000
 4729.00    1.14180   0.92320    0.000
 4730.00    1.18282   0.93765    0.000
 4731.00    1.35120   0.95984    0.000
 4732.00    1.36198   0.97617    0.000
 4733.00    1.10988   0.98436    0.000
 4734.00    0.92358   0.97331    0.000
 4735.00    0.83351   0.95341    0.000
 4736.00    0.86727   0.96420    0.000
 4737.00    1.06023   0.99245    0.000
 4738.00    1.14847   0.99531    0.000
 4739.00    1.11808   0.98048    0.000
 4740.00    1.08673   0.97866    0.000
 4741.00    1.05441   0.99253    0.000
 4742.00    1.05623   0.99940    0.000
 4743.00    1.08813   0.99272    0.000
 4744.00    1.05001   0.99394    0.000
 4745.00    0.95754   1.00567    0.000
 4746.00    0.92947   1.00844    0.000
 4747.00    0.94538   1.00542    0.000
 4748.00    0.96389   1.00907    0.000
 4749.00    0.98396   1.01012    0.000
 4750.00    0.97413   0.99706    0.000
 4751.00    0.94871   0.97913    0.000
 4752.00    0.96381   0.96477    0.000
 4753.00    0.99724   0.95624    0.000
 4754.00    0.95973   0.95375    0.000
 4755.00    0.89459   0.95837    0.000
 4756.00    0.94030   0.96941    0.000
 4757.00    1.02273   0.98316    0.000
 4758.00    0.97811   0.99247    0.000
 4759.00    0.89816   0.98072    0.000
 4760.00    0.86737   0.94649    0.000
 4761.00    0.84783   0.91842    0.024
 4762.00    0.94332   0.90860    0.024
 4763.00    1.05988   0.90093    0.024
 4764.00    1.10894   0.89478    0.024
 4765.00    1.14849   0.90559    0.024
 4766.00    1.05632   0.93188    0.024
 4767.00    0.95078   0.96120    0.024
 4768.00    0.88508   0.97944    0.024
 4769.00    0.82195   0.97067    0.024
 4770.00    0.87004   0.95035    0.024
 4771.00    0.92153   0.95249    0.024
 4772.00    0.98713   0.97899    0.024
 4773.00    1.04716   0.99950    0.024
 4774.00    0.94563   0.99934    0.024
 4775.00    0.85589   0.99895    0.023
 4776.00    0.93652   1.00381    0.024
 4777.00    1.00973   0.99596    0.024
 4778.00    1.01315   0.98226    0.024
 4779.00    1.01638   0.98018    0.023
 4780.00    1.01824   0.97596    0.023
 4781.00    1.00765   0.95610    0.023
 4782.00    0.93113   0.94596    0.023
 4783.00    0.85982   0.95338    0.023
 4784.00    0.81075   0.94675    0.023
 4785.00    0.79409   0.93415    0.023
 4786.00    0.89135   0.93929    0.023
 4787.00    0.98122   0.94184    0.024
 4788.00    1.04925   0.93984    0.023
 4789.00    1.08639   0.94940    0.023
 4790.00    1.04573   0.96338    0.024
 4791.00    1.02321   0.98233    0.024
 4792.00    1.03999   1.00967    0.024
 4793.00    1.04186   1.02905    0.024
 4794.00    1.01567   1.02696    0.024
 4795.00    1.00151   1.00843    0.024
 4796.00    1.00712   0.98193    0.024
 4797.00    1.03718   0.95547    0.024
 4798.00    1.10244   0.94375    0.024
 4799.00    1.09849   0.95731    0.024
 4800.00    1.00681   0.98596    0.024
 4801.00    0.95885   1.00367    0.024
 4802.00    0.95973   0.99330    0.025
 4803.00    0.97708   0.96622    0.024
 4804.00    1.01065   0.95300    0.024
 4805.00    1.08408   0.95242    0.024
 4806.00    1.19215   0.94811    0.024
 4807.00    1.18320   0.94971    0.024
 4808.00    1.08471   0.96080    0.024
 4809.00    1.06109   0.96806    0.024
 4810.00    1.08783   0.96843    0.024
 4811.00    0.99668   0.96868    0.024
 4812.00    0.83606   0.97311    0.023
 4813.00    0.81623   0.98017    0.023
 4814.00    0.86872   0.98816    0.023
 4815.00    0.96145   0.99658    0.024
 4816.00    1.07208   1.00348    0.024
 4817.00    1.06126   1.00987    0.024
 4818.00    1.00396   1.01159    0.025
 4819.00    0.97070   1.00549    0.024
 4820.00    0.94527   0.98598    0.024
 4821.00    1.04303   0.94290    0.024
 4822.00    1.17434   0.90711    0.024
 4823.00    1.17834   0.91940    0.024
 4824.00    1.15388   0.95638    0.024
 4825.00    1.11158   0.97420    0.024
 4826.00    1.06609   0.96593    0.024
 4827.00    1.09330   0.95270    0.024
 4828.00    1.13042   0.95152    0.024
 4829.00    1.01537   0.94810    0.024
 4830.00    0.88554   0.93346    0.024
 4831.00    0.90109   0.93225    0.024
 4832.00    0.92546   0.95005    0.024
 4833.00    0.97333   0.96184    0.024
 4834.00    1.02105   0.95875    0.023
 4835.00    0.93094   0.95642    0.024
 4836.00    0.84832   0.95233    0.024
 4837.00    0.96133   0.93268    0.023
 4838.00    1.06481   0.91252    0.023
 4839.00    1.03839   0.91314    0.023
 4840.00    1.01200   0.92221    0.023
 4841.00    0.98589   0.91801    0.024
 4842.00    0.96445   0.91659    0.024
 4843.00    0.97392   0.93374    0.023
 4844.00    0.98417   0.94845    0.023
 4845.00    0.99849   0.93790    0.023
 4846.00    0.99561   0.90601    0.023
 4847.00    0.92111   0.88457    0.023
 4848.00    0.87541   0.89465    0.000
 4849.00    0.92888   0.90990    0.000
 4850.00    0.96326   0.90735    0.000
 4851.00    0.94227   0.89587    0.000
 4852.00    0.93935   0.86662    0.000
 4853.00    0.98113   0.81580    0.000
 4854.00    1.00385   0.78354    0.000
 4855.00    0.98591   0.78976    0.000
 4856.00    1.05655   0.79173    0.000
 4857.00    1.29135   0.74847    0.000
 4858.00    1.43229   0.65796    0.000
 4859.00    1.42131   0.56418    0.000
 4860.00    1.35916   0.54916    0.000
 4861.00    1.22431   0.62323    0.000
 4862.00    1.13602   0.70297    0.000
 4863.00    1.10589   0.75256    0.000
 4864.00    1.02453   0.79144    0.000
 4865.00    0.88676   0.82216    0.000
 4866.00    0.86900   0.84024    0.000
 4867.00    0.96778   0.85157    0.000
 4868.00    1.05529   0.84237    0.000
 4869.00    1.13316   0.80032    0.000
 4870.00    1.11434   0.77200    0.000
 4871.00    1.02261   0.79689    0.000
 4872.00    0.95696   0.84029    0.000
 4873.00    0.90860   0.86230    0.000
 4874.00    0.94459   0.86916    0.000
 4875.00    1.02954   0.87753    0.023
 4876.00    1.05702   0.88938    0.022
 4877.00    1.05544   0.91513    0.022
 4878.00    1.08348   0.93857    0.022
 4879.00    1.12451   0.92752    0.022
 4880.00    1.08519   0.90439    0.023
 4881.00    1.01567   0.90069    0.022
 4882.00    1.01635   0.89912    0.023
 4883.00    1.03941   0.88055    0.023
 4884.00    1.00946   0.86141    0.023
 4885.00    0.96539   0.86203    0.023
 4886.00    0.97425   0.87688    0.023
 4887.00    0.99465   0.88185    0.023
 4888.00    1.02595   0.85918    0.023
 4889.00    1.05914   0.82272    0.023
 4890.00    0.98523   0.83051    0.023
 4891.00    0.89721   0.89069    0.023
 4892.00    0.81325   0.95087    0.023
 4893.00    0.72967   0.98720    0.023
 4894.00    0.83465   1.00096    0.023
 4895.00    0.95032   1.00016    0.023
 4896.00    0.99443   0.99294    0.023
 4897.00    1.03617   0.97058    0.024
 4898.00    0.99692   0.94193    0.023
 4899.00    0.95793   0.93850    0.023
 4900.00    0.92535   0.94759    0.023
 4901.00    0.89616   0.93722    0.022
 4902.00    0.91078   0.92685    0.023
 4903.00    0.92673   0.94695    0.023
 4904.00    0.95420   0.97974    0.023
 4905.00    0.98690   0.98874    0.023
 4906.00    1.05321   0.96837    0.023
 4907.00    1.11373   0.93274    0.023
 4908.00    1.14521   0.89453    0.023
 4909.00    1.12732   0.87955    0.024
 4910.00    0.90845   0.89995    0.024
 4911.00    0.76344   0.93088    0.024
 4912.00    0.86766   0.95278    0.024
 4913.00    0.92776   0.97207    0.024
 4914.00    0.86221   0.98271    0.023
 4915.00    0.80675   0.96301    0.023
 4916.00    0.77584   0.90671    0.023
 4917.00    0.74018   0.83725    0.023
 4918.00    0.69458   0.79097    0.023
 4919.00    0.68915   0.79370    0.023
 4920.00    0.75705   0.83707    0.024
 4921.00    0.84531   0.87003    0.024
 4922.00    0.96606   0.86863    0.024
 4923.00    1.01444   0.87289    0.024
 4924.00    0.96155   0.90918    0.023
 4925.00    0.92699   0.94551    0.023
 4926.00    0.91501   0.96414    0.023
 4927.00    0.89500   0.97982    0.023
 4928.00    0.86627   0.98891    0.023
 4929.00    0.83325   0.98602    0.023
 4930.00    0.79613   0.96917    0.024
 4931.00    0.80502   0.92514    0.024
 4932.00    0.85274   0.88614    0.024
 4933.00    0.83237   0.89819    0.023
 4934.00    0.76136   0.92685    0.023
 4935.00    0.79197   0.91586    0.023
 4936.00    0.88896   0.87085    0.024
 4937.00    0.93321   0.84126    0.023
 4938.00    0.94732   0.86526    0.023
 4939.00    0.96009   0.92059    0.023
 4940.00    0.97221   0.95625    0.000
 4941.00    1.03384   0.97101    0.000
 4942.00    1.11680   0.97994    0.000
 4943.00    1.09143   0.97184    0.000
 4944.00    1.02606   0.95322    0.000
 4945.00    1.07091   0.95293    0.000
 4946.00    1.15025   0.96913    0.000
 4947.00    1.06838   0.97924    0.000
 4948.00    0.94446   0.98224    0.000
 4949.00    0.93870   0.98625    0.000
 4950.00    0.95810   0.98201    0.000
 4951.00    0.88152   0.96642    0.000
 4952.00    0.78877   0.95561    0.000
 4953.00    0.78201   0.95077    0.000
 4954.00    0.78620   0.92043    0.000
 4955.00    0.78757   0.84558    0.000
 4956.00    0.78869   0.80180    0.000
 4957.00    0.92426   0.85150    0.000
 4958.00    1.06692   0.92798    0.000
 4959.00    0.97451   0.96000    0.000
 4960.00    0.87844   0.95851    0.000
 4961.00    0.84905   0.95830    0.000
 4962.00    0.82577   0.95545    0.000
 4963.00    0.93527   0.93044    0.000
 4964.00    1.02877   0.90189    0.000
 4965.00    0.92568   0.89375    0.000
 4966.00    0.84089   0.89697    0.000
 4967.00    0.90937   0.90199    0.000
 4968.00    0.95388   0.90712    0.000
 4969.00    0.84865   0.91657    0.000
 4970.00    0.75419   0.93311    0.000
 4971.00    0.71251   0.94670    0.000
 4972.00    0.70207   0.95749    0.000
 4973.00    0.81605   0.96338    0.000
 4974.00    0.90845   0.95916    0.000
 4975.00    0.92948   0.94743    0.000
 4976.00    0.95267   0.92579    0.000
 4977.00    0.98189   0.90483    0.000
 4978.00    0.96964   0.89559    0.000
 4979.00    0.85817   0.87643    0.000
 4980.00    0.79248   0.83069    0.000
 4981.00    0.82137   0.78972    0.000
 4982.00    0.84627   0.78809    0.000
 4983.00    0.86398   0.81555    0.000
 4984.00    0.86269   0.85361    0.000
 4985.00    0.83152   0.89734    0.000
 4986.00    0.86189   0.92499    0.000
 4987.00    0.97713   0.92357    0.000
 4988.00    1.03908   0.90643    0.000
 4989.00    1.03634   0.89088    0.000
 4990.00    1.03353   0.89386    0.000
 4991.00    1.03065   0.90090    0.000
 4992.00    1.05225   0.89811    0.000
 4993.00    1.09697   0.90708    0.000
 4994.00    1.05157   0.92292    0.000
 4995.00    0.93114   0.92727    0.000
 4996.00    0.88123   0.91952    0.000
 4997.00    0.88298   0.89507    0.000
 4998.00    0.94870   0.86371    0.000
 4999.00    1.05559   0.84547    0.000
 5000.00    1.02724   0.84462    0.000
 5001.00    0.92277   0.85659    0.000
 5002.00    0.97644   0.86232    0.000
 5003.00    1.10759   0.83868    0.000
 5004.00    1.25967   0.80260    0.000
 5005.00    1.42061   0.80466    0.000
 5006.00    1.40319   0.85104    0.000
 5007.00    1.32111   0.89207    0.000
 5008.00    1.21675   0.89867    0.000
 5009.00    1.10555   0.88013    0.000
 5010.00    0.98291   0.84483    0.000
 5011.00    0.85735   0.80899    0.000
 5012.00    0.82830   0.79058    0.000
 5013.00    0.81930   0.80136    0.000
 5014.00    0.82884   0.82825    0.000
 5015.00    0.84142   0.83038    0.000
 5016.00    0.82524   0.80737    0.000
 5017.00    0.80554   0.80595    0.000
 5018.00    0.85628   0.83359    0.000
 5019.00    0.91298   0.85062    0.000
 5020.00    0.89215   0.84327    0.000
 5021.00    0.86753   0.84450    0.000
 5022.00    0.87000   0.86710    0.000
 5023.00    0.87247   0.88602    0.000
 5024.00    0.84985   0.88594    0.000
 5025.00    0.83070   0.86417    0.000
 5026.00    0.88116   0.84937    0.000
 5027.00    0.92260   0.86703    0.000
 5028.00    0.85855   0.88840    0.000
 5029.00    0.81814   0.89786    0.023
 5030.00    0.96855   0.91422    0.023
 5031.00    1.07611   0.93705    0.023
 5032.00    0.92378   0.93902    0.023
 5033.00    0.80990   0.90211    0.024
 5034.00    0.87995   0.85843    0.023
 5035.00    0.93949   0.85408    0.023
 5036.00    0.95808   0.86369    0.023
 5037.00    0.95331   0.84407    0.023
 5038.00    0.87273   0.79520    0.023
 5039.00    0.82798   0.74750    0.023
 5040.00    0.88160   0.75734    0.022
 5041.00    0.89152   0.82513    0.022
 5042.00    0.79865   0.88693    0.023
 5043.00    0.77673   0.92334    0.023
 5044.00    0.89904   0.94495    0.023
 5045.00    0.94506   0.93900    0.023
 5046.00    0.85610   0.89946    0.022
 5047.00    0.80829   0.85721    0.022
 5048.00    0.82418   0.84065    0.022
 5049.00    0.83757   0.83923    0.022
 5050.00    0.84756   0.84251    0.022
 5051.00    0.81120   0.86270    0.022
 5052.00    0.71936   0.89380    0.022
 5053.00    0.72826   0.91361    0.022
 5054.00    0.84345   0.91631    0.022
 5055.00    0.89747   0.91542    0.022
 5056.00    0.89456   0.92160    0.022
 5057.00    0.93608   0.92795    0.021
 5058.00    1.01404   0.93302    0.021
 5059.00    1.03022   0.94311    0.022
 5060.00    1.00175   0.95025    0.022
 5061.00    0.89800   0.93724    0.021
 5062.00    0.74652   0.89340    0.021
 5063.00    0.67247   0.84966    0.021
 5064.00    0.64136   0.84801    0.021
 5065.00    0.67427   0.86486    0.021
 5066.00    0.73805   0.86366    0.021
 5067.00    0.78068   0.86324    0.021
 5068.00    0.81449   0.88216    0.022
 5069.00    0.80593   0.88794    0.021
 5070.00    0.78227   0.86589    0.021
 5071.00    0.73490   0.85781    0.021
 5072.00    0.68038   0.87177    0.021
 5073.00    0.75070   0.87506    0.021
 5074.00    0.85219   0.87225    0.021
 5075.00    0.85013   0.88078    0.021
 5076.00    0.82709   0.87459    0.021
 5077.00    0.74961   0.82535    0.021
 5078.00    0.66347   0.77866    0.021
 5079.00    0.71848   0.78459    0.021
 5080.00    0.79019   0.81648    0.021
 5081.00    0.90249   0.83068    0.021
 5082.00    1.01806   0.83850    0.021
 5083.00    0.94989   0.86113    0.021
 5084.00    0.87345   0.88072    0.021
 5085.00    0.82377   0.88186    0.021
 5086.00    0.77701   0.87913    0.021
 5087.00    0.85998   0.88670    0.021
 5088.00    0.94083   0.89256    0.021
 5089.00    0.98219   0.89280    0.021
 5090.00    1.00921   0.90177    0.021
 5091.00    0.87670   0.91788    0.021
 5092.00    0.76900   0.92430    0.022
 5093.00    0.85469   0.91414    0.022
 5094.00    0.93311   0.89072    0.022
 5095.00    0.96872   0.85905    0.022
 5096.00    0.97248   0.82326    0.022
 5097.00    0.82760   0.79644    0.022
 5098.00    0.74036   0.80714    0.022
 5099.00    0.87286   0.84924    0.022
 5100.00    0.95561   0.88210    0.022
 5101.00    0.88016   0.88701    0.022
 5102.00    0.82283   0.87800    0.022
 5103.00    0.81435   0.87181    0.022
 5104.00    0.80430   0.86455    0.022
 5105.00    0.79058   0.84497    0.022
 5106.00    0.79774   0.83057    0.022
 5107.00    0.84667   0.83081    0.022
 5108.00    0.82722   0.82881    0.022
 5109.00    0.68858   0.83860    0.022
 5110.00    0.65476   0.86382    0.022
 5111.00    0.78081   0.87994    0.022
 5112.00    0.87454   0.88662    0.022
 5113.00    0.92496   0.88977    0.022
 5114.00    0.95282   0.89468    0.023
 5115.00    0.95406   0.90846    0.022
 5116.00    0.99453   0.91873    0.022
 5117.00    1.07582   0.91420    0.023
 5118.00    1.08744   0.89896    0.023
 5119.00    1.03511   0.87883    0.022
 5120.00    0.96620   0.85788    0.022
 5121.00    0.88389   0.82950    0.023
 5122.00    0.80844   0.80521    0.022
 5123.00    0.73788   0.80424    0.022
 5124.00    0.69336   0.81612    0.022
 5125.00    0.66511   0.82206    0.022
 5126.00    0.71728   0.82019    0.022
 5127.00    0.81335   0.81570    0.022
 5128.00    0.84978   0.81962    0.021
 5129.00    0.85791   0.83703    0.021
 5130.00    0.82671   0.85053    0.021
 5131.00    0.77942   0.85166    0.021
 5132.00    0.78357   0.85620    0.021
 5133.00    0.80571   0.87524    0.021
 5134.00    0.84158   0.87845    0.021
 5135.00    0.88148   0.85342    0.021
 5136.00    0.86469   0.82660    0.021
 5137.00    0.83404   0.80540    0.021
 5138.00    0.89429   0.81211    0.021
 5139.00    0.97250   0.83508    0.021
 5140.00    0.92234   0.82286    0.021
 5141.00    0.85239   0.80618    0.021
 5142.00    0.88120   0.82620    0.021
 5143.00    0.92126   0.84262    0.020
 5144.00    0.90611   0.83028    0.021
 5145.00    0.88675   0.81380    0.021
 5146.00    0.83696   0.81342    0.021
 5147.00    0.78592   0.83061    0.020
 5148.00    0.84960   0.83999    0.021
 5149.00    0.91461   0.82829    0.021
 5150.00    0.99573   0.81606    0.021
 5151.00    1.07198   0.81008    0.021
 5152.00    1.06390   0.80532    0.021
 5153.00    1.04882   0.81579    0.021
 5154.00    0.95920   0.84196    0.021
 5155.00    0.88346   0.87032    0.021
 5156.00    0.91210   0.88620    0.022
 5157.00    0.93901   0.88646    0.022
 5158.00    0.95603   0.88593    0.021
 5159.00    0.97122   0.88191    0.021
 5160.00    0.97812   0.86253    0.021
 5161.00    0.98586   0.84876    0.022
 5162.00    0.99673   0.84233    0.022
 5163.00    0.97532   0.80965    0.022
 5164.00    0.85319   0.74057    0.021
 5165.00    0.78968   0.66071    0.021
 5166.00    0.88141   0.62152    0.022
 5167.00    0.91818   0.65240    0.022
 5168.00    0.82994   0.71518    0.022
 5169.00    0.75345   0.72406    0.022
 5170.00    0.70009   0.65973    0.022
 5171.00    0.77597   0.62511    0.022
 5172.00    1.07363   0.68854    0.022
 5173.00    1.18991   0.78040    0.023
 5174.00    1.03357   0.82620    0.022
 5175.00    0.95617   0.83864    0.022
 5176.00    0.98302   0.84662    0.022
 5177.00    0.95737   0.84850    0.022
 5178.00    0.87062   0.83860    0.022
 5179.00    0.81158   0.81602    0.022
 5180.00    0.78095   0.75964    0.022
 5181.00    0.75527   0.66602    0.022
 5182.00    0.73405   0.61629    0.022
 5183.00    0.73045   0.67319    0.021
 5184.00    0.74091   0.76739    0.021
 5185.00    0.80272   0.81953    0.021
 5186.00    0.90056   0.82430    0.021
 5187.00    0.86223   0.82635    0.021
 5188.00    0.74010   0.84388    0.021
 5189.00    0.70137   0.82350    0.021
 5190.00    0.70748   0.76993    0.000
 5191.00    0.81330   0.75943    0.000
 5192.00    0.96567   0.78819    0.000
 5193.00    0.98444   0.79722    0.000
 5194.00    0.94946   0.79549    0.000
 5195.00    0.84525   0.80803    0.000
 5196.00    0.71728   0.82564    0.000
 5197.00    0.69530   0.84493    0.000
 5198.00    0.70393   0.85932    0.000
 5199.00    0.67901   0.85983    0.000
 5200.00    0.64607   0.84975    0.000
 5201.00    0.62280   0.83845    0.000
 5202.00    0.60138   0.81035    0.000
 5203.00    0.73903   0.76315    0.000
 5204.00    0.90047   0.73852    0.000
 5205.00    0.86564   0.74412    0.000
 5206.00    0.80932   0.73996    0.000
 5207.00    0.89804   0.73747    0.000
 5208.00    0.99723   0.76413    0.000
 5209.00    0.98788   0.80214    0.000
 5210.00    0.97448   0.84048    0.000
 5211.00    0.95368   0.87030    0.020
 5212.00    0.93517   0.87268    0.020
 5213.00    1.00098   0.84238    0.021
 5214.00    1.05592   0.81088    0.021
 5215.00    0.93458   0.80877    0.021
 5216.00    0.82179   0.83434    0.021
 5217.00    0.79596   0.86568    0.021
 5218.00    0.77564   0.88416    0.021
 5219.00    0.79552   0.89150    0.021
 5220.00    0.81298   0.89045    0.021
 5221.00    0.81696   0.87497    0.021
 5222.00    0.80473   0.84380    0.021
 5223.00    0.72040   0.79849    0.020
 5224.00    0.65996   0.74042    0.020
 5225.00    0.68677   0.70439    0.021
 5226.00    0.71751   0.74054    0.021
 5227.00    0.76032   0.81039    0.021
 5228.00    0.80804   0.85103    0.021
 5229.00    0.86859   0.86624    0.021
 5230.00    0.90656   0.85204    0.021
 5231.00    0.89406   0.81462    0.021
 5232.00    0.86959   0.79580    0.022
 5233.00    0.82192   0.80694    0.022
 5234.00    0.80808   0.83746    0.022
 5235.00    0.85142   0.86867    0.021
 5236.00    0.86521   0.88329    0.021
 5237.00    0.83524   0.88395    0.022
 5238.00    0.83704   0.88184    0.022
 5239.00    0.88019   0.88420    0.022
 5240.00    0.88084   0.88125    0.022
 5241.00    0.83274   0.87508    0.022
 5242.00    0.81469   0.88520    0.022
 5243.00    0.82704   0.89950    0.022
 5244.00    0.89955   0.88062    0.022
 5245.00    1.02572   0.84129    0.022
 5246.00    1.10280   0.82926    0.022
 5247.00    1.14128   0.83477    0.022
 5248.00    1.06448   0.82268    0.022
 5249.00    0.90797   0.81552    0.022
 5250.00    0.86665   0.83388    0.021
 5251.00    0.89516   0.85211    0.021
 5252.00    0.86267   0.84491    0.021
 5253.00    0.79790   0.82680    0.021
 5254.00    0.74586   0.83884    0.021
 5255.00    0.69966   0.87778    0.021
 5256.00    0.69737   0.90612    0.021
 5257.00    0.71243   0.91159    0.021
 5258.00    0.73842   0.89566    0.021
 5259.00    0.76809   0.85989    0.021
 5260.00    0.81459   0.81097    0.021
 5261.00    0.86586   0.76579    0.022
 5262.00    0.89696   0.73199    0.022
 5263.00    0.92335   0.70663    0.022
 5264.00    0.88925   0.70215    0.021
 5265.00    0.84381   0.73778    0.021
 5266.00    0.81546   0.76261    0.021
 5267.00    0.78957   0.71603    0.021
 5268.00    0.79448   0.66949    0.021
 5269.00    0.80262   0.70865    0.021
 5270.00    0.80820   0.77954    0.021
 5271.00    0.81360   0.80966    0.021
 5272.00    0.77082   0.80578    0.021
 5273.00    0.72643   0.78921    0.021
 5274.00    0.75224   0.79057    0.021
 5275.00    0.77958   0.83569    0.022
 5276.00    0.85367   0.88297    0.021
 5277.00    0.92522   0.89183    0.021
 5278.00    0.95809   0.87080    0.021
 5279.00    0.98261   0.84511    0.021
 5280.00    0.92564   0.82500    0.021
 5281.00    0.87326   0.80488    0.021
 5282.00    0.85319   0.79690    0.021
 5283.00    0.83476   0.83124    0.021
 5284.00    0.82518   0.88608    0.021
 5285.00    0.83442   0.91306    0.021
 5286.00    0.92541   0.90873    0.021
 5287.00    0.97383   0.90335    0.021
 5288.00    0.86989   0.91127    0.021
 5289.00    0.82542   0.91849    0.022
 5290.00    0.95958   0.91206    0.021
 5291.00    1.05358   0.89840    0.021
 5292.00    1.04491   0.89324    0.021
 5293.00    1.03514   0.88830    0.021
 5294.00    1.02294   0.86064    0.021
 5295.00    0.99921   0.81067    0.021
 5296.00    0.95348   0.77859    0.021
 5297.00    0.93365   0.79810    0.021
 5298.00    0.95693   0.83575    0.021
 5299.00    1.01385   0.84557    0.021
 5300.00    1.11985   0.84193    0.022
 5301.00    1.10663   0.85690    0.022
 5302.00    0.94041   0.88789    0.022
 5303.00    0.89222   0.90902    0.022
 5304.00    0.97747   0.90535    0.022
 5305.00    1.04048   0.88786    0.022
 5306.00    1.08131   0.88269    0.022
 5307.00    1.01118   0.89695    0.022
 5308.00    0.84345   0.91058    0.021
 5309.00    0.75612   0.91161    0.021
 5310.00    0.73108   0.90431    0.021
 5311.00    0.81555   0.89416    0.021
 5312.00    0.97465   0.88818    0.021
 5313.00    0.96238   0.88141    0.021
 5314.00    0.84777   0.85956    0.021
 5315.00    0.80217   0.84421    0.021
 5316.00    0.79250   0.85698    0.021
 5317.00    0.76067   0.87437    0.020
 5318.00    0.71883   0.87949    0.020
 5319.00    0.74133   0.87879    0.020
 5320.00    0.78882   0.87405    0.020
 5321.00    0.82292   0.85426    0.020
 5322.00    0.85259   0.82372    0.020
 5323.00    0.86842   0.81570    0.020
 5324.00    0.88041   0.82166    0.020
 5325.00    0.89047   0.78583    0.020
 5326.00    0.90009   0.71176    0.020
 5327.00    0.93193   0.69794    0.020
 5328.00    0.96782   0.76550    0.020
 5329.00    0.96063   0.83264    0.020
 5330.00    0.94741   0.85252    0.020
 5331.00    0.94884   0.84979    0.019
 5332.00    0.95176   0.86122    0.019
 5333.00    1.04017   0.87852    0.019
 5334.00    1.13405   0.87775    0.020
 5335.00    1.07309   0.86638    0.020
 5336.00    1.00740   0.86040    0.019
 5337.00    0.89339   0.84393    0.019
 5338.00    0.78300   0.80617    0.020
 5339.00    0.77622   0.79148    0.020
 5340.00    0.77414   0.82219    0.020
 5341.00    0.83942   0.85739    0.020
 5342.00    0.89720   0.87029    0.020
 5343.00    0.88486   0.86095    0.020
 5344.00    0.86832   0.84708    0.020
 5345.00    0.82310   0.84753    0.020
 5346.00    0.77852   0.84214    0.020
 5347.00    0.73728   0.82611    0.020
 5348.00    0.73171   0.83029    0.021
 5349.00    0.87763   0.86058    0.021
 5350.00    0.98800   0.88352    0.021
 5351.00    0.97378   0.88669    0.021
 5352.00    0.94177   0.89328    0.021
 5353.00    0.85732   0.91026    0.021
 5354.00    0.80616   0.92004    0.021
 5355.00    0.83861   0.92113    0.021
 5356.00    0.85644   0.92070    0.021
 5357.00    0.84264   0.92033    0.021
 5358.00    0.87048   0.91489    0.021
 5359.00    0.97657   0.89742    0.020
 5360.00    0.99690   0.87347    0.020
 5361.00    0.87657   0.86037    0.020
 5362.00    0.79356   0.85334    0.020
 5363.00    0.76424   0.84290    0.020
 5364.00    0.74270   0.84142    0.020
 5365.00    0.73099   0.84515    0.020
 5366.00    0.75849   0.84418    0.020
 5367.00    0.82969   0.82793    0.020
 5368.00    0.84963   0.78922   -2.000
 5369.00    0.81917   0.75600   -2.000
 5370.00    0.79512   0.77080   -2.000
 5371.00    0.77662   0.82532   -2.000
 5372.00    0.83521   0.87050   -2.000
 5373.00    0.95269   0.89196   -2.000
 5374.00    1.02482   0.89295   -2.000
 5375.00    1.06651   0.88387   -2.000
 5376.00    1.05575   0.88319   -2.000
 5377.00    1.01416   0.88426   -2.000
 5378.00    0.96342   0.87264   -2.000
 5379.00    0.90799   0.85979   -2.000
 5380.00    0.87655   0.85371   -2.000
 5381.00    0.85578   0.84658   -2.000
 5382.00    0.85246   0.85118   -2.000
 5383.00    0.85581   0.86987    0.019
 5384.00    0.81431   0.88047    0.019
 5385.00    0.75827   0.87865    0.019
 5386.00    0.77286   0.87214    0.019
 5387.00    0.80664   0.85668    0.019
 5388.00    0.85001   0.83926    0.019
 5389.00    0.89553   0.83074    0.019
 5390.00    0.90303   0.82773    0.019
 5391.00    0.90379   0.82580    0.019
 5392.00    0.82288   0.82754    0.019
 5393.00    0.73089   0.82940    0.019
 5394.00    0.79201   0.80745    0.019
 5395.00    0.86791   0.77371    0.019
 5396.00    0.87708   0.78083    0.019
 5397.00    0.88224   0.81683    0.019
 5398.00    0.93212   0.83293    0.020
 5399.00    0.98227   0.83650    0.020
 5400.00    0.88333   0.84546    0.020
 5401.00    0.78749   0.83353    0.020
 5402.00    0.77136   0.78891    0.020
 5403.00    0.75531   0.74597    0.020
 5404.00    0.74038   0.73893    0.020
 5405.00    0.72693   0.77068    0.020
 5406.00    0.72675   0.80228    0.020
 5407.00    0.72254   0.79809    0.020
 5408.00    0.69168   0.77956    0.020
 5409.00    0.67693   0.79278    0.020
 5410.00    0.74499   0.83035    0.020
 5411.00    0.78087   0.85264    0.020
 5412.00    0.68320   0.84771    0.019
 5413.00    0.65142   0.83968    0.019
 5414.00    0.84591   0.85296    0.019
 5415.00    0.97189   0.87316    0.019
 5416.00    0.89967   0.87585    0.019
 5417.00    0.84809   0.86414    0.020
 5418.00    0.84749   0.85061    0.019
 5419.00    0.86515   0.84690    0.019
 5420.00    0.92171   0.85580    0.019
 5421.00    0.92113   0.84774    0.019
 5422.00    0.81487   0.82008    0.019
 5423.00    0.74300   0.81839    0.019
 5424.00    0.72673   0.85069    0.019
 5425.00    0.73808   0.87994    0.018
 5426.00    0.78859   0.86632    0.019
 5427.00    0.80316   0.81073    0.019
 5428.00    0.77291   0.78141    0.019
 5429.00    0.77056   0.80899    0.019
 5430.00    0.79888   0.82852    0.019
 5431.00    0.82120   0.81277    0.018
 5432.00    0.83771   0.79044    0.018
 5433.00    0.85935   0.78399    0.018
 5434.00    0.88539   0.79836    0.018
 5435.00    0.90049   0.82561    0.018
 5436.00    0.90736   0.85780    0.018
 5437.00    0.85450   0.88251    0.018
 5438.00    0.76211   0.89307    0.018
 5439.00    0.72234   0.89418    0.018
 5440.00    0.71304   0.89403    0.018
 5441.00    0.76399   0.89266    0.018
 5442.00    0.84535   0.87659    0.018
 5443.00    0.85477   0.83824    0.018
 5444.00    0.83275   0.78659    0.018
 5445.00    0.78290   0.76179    0.018
 5446.00    0.72260   0.79193    0.019
 5447.00    0.76744   0.83838    0.019
 5448.00    0.84573   0.86221    0.019
 5449.00    0.85037   0.86624    0.019
 5450.00    0.83543   0.86171    0.019
 5451.00    0.80185   0.85159    0.019
 5452.00    0.76421   0.82309    0.019
 5453.00    0.84126   0.77887    0.019
 5454.00    0.93811   0.76656    0.019
 5455.00    0.86954   0.80634    0.019
 5456.00    0.77927   0.85152    0.019
 5457.00    0.80264   0.86873    0.019
 5458.00    0.83650   0.86245    0.019
 5459.00    0.85709   0.84648    0.019
 5460.00    0.87693   0.82184    0.019
 5461.00    0.92082   0.79770    0.019
 5462.00    0.96518   0.80451    0.019
 5463.00    1.00203   0.83020    0.019
 5464.00    1.03512   0.83897    0.019
 5465.00    0.97980   0.83961    0.019
 5466.00    0.92479   0.84821    0.019
 5467.00    0.87385   0.85005    0.019
 5468.00    0.83341   0.83980    0.019
 5469.00    0.88375   0.83480    0.019
 5470.00    0.92684   0.83349    0.019
 5471.00    0.92337   0.82068    0.018
 5472.00    0.90831   0.81187    0.018
 5473.00    0.83511   0.80482    0.018
 5474.00    0.77013   0.77022    0.018
 5475.00    0.73846   0.74402    0.018
 5476.00    0.70547   0.77345    0.018
 5477.00    0.66803   0.81735    0.018
 5478.00    0.66219   0.82317   -2.000
 5479.00    0.74609   0.79938   -2.000
 5480.00    0.82312   0.79222   -2.000
 5481.00    0.88345   0.81073   -2.000
 5482.00    0.95257   0.83626   -2.000
 5483.00    1.04006   0.85607   -2.000
 5484.00    1.03691   0.85317   -2.000
 5485.00    0.86869   0.82707   -2.000
 5486.00    0.76468   0.81155   -2.000
 5487.00    0.76285   0.81982   -2.000
 5488.00    0.78868   0.82919   -2.000
 5489.00    0.85314   0.83654   -2.000
 5490.00    0.91001   0.84242   -2.000
 5491.00    0.95756   0.83426   -2.000
 5492.00    0.92714   0.82806   -2.000
 5493.00    0.81221   0.83646   -2.000
 5494.00    0.78597   0.83634   -2.000
 5495.00    0.84452   0.81780   -2.000
 5496.00    0.86818   0.81676   -2.000
 5497.00    0.86243   0.84073   -2.000
 5498.00    0.83591   0.84748   -2.000
 5499.00    0.79398   0.82378   -2.000
 5500.00    0.86293   0.80334   -2.000
 5501.00    1.00416   0.80622   -2.000
 5502.00    1.03130   0.81915    0.019
 5503.00    0.99334   0.81898    0.019
 5504.00    0.94337   0.79952    0.019
 5505.00    0.88743   0.79435    0.019
 5506.00    0.83713   0.81374    0.019
 5507.00    0.78925   0.82595    0.019
 5508.00    0.76069   0.82326    0.018
 5509.00    0.73926   0.81261    0.018
 5510.00    0.77251   0.79360    0.018
 5511.00    0.82283   0.78326    0.018
 5512.00    0.84621   0.79066    0.018
 5513.00    0.86258   0.80474    0.018
 5514.00    0.91884   0.81674    0.018
 5515.00    0.98356   0.82778    0.018
 5516.00    0.94326   0.84416    0.018
 5517.00    0.88534   0.85616    0.018
 5518.00    0.82362   0.85443    0.018
 5519.00    0.76141   0.84902    0.018
 5520.00    0.76201   0.84654    0.018
 5521.00    0.76815   0.84747    0.017
 5522.00    0.88752   0.84649    0.017
 5523.00    1.01281   0.83610    0.017
 5524.00    0.95264   0.81731    0.017
 5525.00    0.88937   0.79172    0.017
 5526.00    0.85428   0.76927    0.017
 5527.00    0.82331   0.77792    0.018
 5528.00    0.88103   0.81245    0.018
 5529.00    0.93302   0.83521    0.017
 5530.00    0.91521   0.83699    0.017
 5531.00    0.89351   0.83030    0.017
 5532.00    0.83928   0.81786    0.017
 5533.00    0.78722   0.80503    0.017
 5534.00    0.74855   0.81178    0.018
 5535.00    0.72840   0.82626    0.018
 5536.00    0.79880   0.83045    0.017
 5537.00    0.85287   0.83603    0.017
 5538.00    0.84214   0.84824    0.018
 5539.00    0.83701   0.85588    0.018
 5540.00    0.85036   0.84828    0.018
 5541.00    0.87754   0.83036    0.021
 5542.00    0.94330   0.82276    0.050
 5543.00    0.99460   0.82525   -1.000
 5544.00    1.01140   0.82523   -1.000
 5545.00    1.02637   0.83150   -1.000
 5546.00    1.03760   0.84768   -1.000
 5547.00    1.01135   0.85872    0.102
 5548.00    0.91792   0.86085    0.027
 5549.00    0.83627   0.85933    0.018
 5550.00    0.77308   0.85339    0.018
 5551.00    0.74824   0.84050    0.018
 5552.00    0.77619   0.82748    0.018
 5553.00    0.81026   0.82642    0.018
 5554.00    0.85175   0.83377    0.018
 5555.00    0.87139   0.83558    0.018
 5556.00    0.86768   0.83302    0.018
 5557.00    0.82945   0.83508    0.018
 5558.00    0.75870   0.83601    0.017
 5559.00    0.73585   0.83148    0.017
 5560.00    0.75281   0.82078    0.017
 5561.00    0.78512   0.81101    0.017
 5562.00    0.82866   0.81193    0.017
 5563.00    0.83397   0.81045    0.017
 5564.00    0.81471   0.80286    0.017
 5565.00    0.82435   0.80324    0.017
 5566.00    0.85022   0.80712    0.017
 5567.00    0.79513   0.80244    0.017
 5568.00    0.70044   0.80358    0.016
 5569.00    0.66327   0.81573    0.016
 5570.00    0.65039   0.80595    0.017
 5571.00    0.67454   0.79073    0.017
 5572.00    0.71208   0.80534    0.016
 5573.00    0.70179   0.82168    0.017
 5574.00    0.67686   0.81857    0.017
 5575.00    0.71084   0.82203    0.017
 5576.00    0.75982   0.82803    0.017
 5577.00    0.78259   0.83065    0.017
 5578.00    0.79993   0.83382    0.017
 5579.00    0.79335   0.82892    0.017
 5580.00    0.78288   0.81965    0.017
 5581.00    0.76371   0.82085    0.017
 5582.00    0.74348   0.82303    0.018
 5583.00    0.78638   0.81087    0.018
 5584.00    0.83458   0.78108    0.018
 5585.00    0.80433   0.74716    0.018
 5586.00    0.77029   0.73051    0.018
 5587.00    0.81583   0.73416    0.018
 5588.00    0.86126   0.75420    0.018
 5589.00    0.82901   0.77861    0.018
 5590.00    0.79642   0.78990    0.018
 5591.00    0.75695   0.78663    0.018
 5592.00    0.72594   0.77750    0.018
 5593.00    0.79319   0.78764    0.018
 5594.00    0.84964   0.81712    0.019
 5595.00    0.81928   0.82160    0.019
 5596.00    0.79862   0.79396    0.019
 5597.00    0.83666   0.77815    0.018
 5598.00    0.88112   0.77878    0.018
 5599.00    0.95622   0.76950    0.018
 5600.00    0.99744   0.75481    0.018
 5601.00    0.90710   0.75778    0.018
 5602.00    0.82636   0.78845    0.018
 5603.00    0.77668   0.82440    0.018
 5604.00    0.74160   0.84356    0.018
 5605.00    0.74648   0.84835    0.017
 5606.00    0.76779   0.84666    0.017
 5607.00    0.82767   0.84407    0.017
 5608.00    0.86275   0.84210    0.017
 5609.00    0.84754   0.84504    0.017
 5610.00    0.83587   0.85117    0.017
 5611.00    0.83046   0.84732    0.016
 5612.00    0.82457   0.81270    0.016
 5613.00    0.81793   0.75806    0.016
 5614.00    0.78701   0.74318    0.016
 5615.00    0.72314   0.77518    0.016
 5616.00    0.70299   0.79999    0.016
 5617.00    0.73505   0.80126    0.017
 5618.00    0.75031   0.80103    0.017
 5619.00    0.74786   0.81223    0.016
 5620.00    0.75845   0.82350    0.016
 5621.00    0.78118   0.81275    0.017
 5622.00    0.78903   0.77831    0.017
 5623.00    0.78469   0.76025    0.017
 5624.00    0.80169   0.77628    0.017
 5625.00    0.83407   0.79740    0.017
 5626.00    0.82814   0.80881    0.017
 5627.00    0.79796   0.82226    0.017
 5628.00    0.80709   0.83513    0.017
 5629.00    0.83796   0.83905    0.018
 5630.00    0.84460   0.83508    0.018
 5631.00    0.83959   0.82641    0.018
 5632.00    0.87020   0.81775    0.017
 5633.00    0.91561   0.81112    0.017
 5634.00    0.92903   0.80096    0.017
 5635.00    0.93108   0.78861    0.017
 5636.00    0.87952   0.78716    0.017
 5637.00    0.81187   0.79752    0.018
 5638.00    0.81719   0.79906    0.018
 5639.00    0.84069   0.78741    0.018
 5640.00    0.85436   0.78554    0.017
 5641.00    0.86605   0.79601    0.017
 5642.00    0.83373   0.80220    0.017
 5643.00    0.79444   0.80583    0.017
 5644.00    0.78482   0.81029    0.017
 5645.00    0.77870   0.81522    0.017
 5646.00    0.76730   0.81569    0.016
 5647.00    0.75548   0.80928    0.016
 5648.00    0.74937   0.80472    0.016
 5649.00    0.74351   0.81049    0.016
 5650.00    0.75170   0.82111    0.016
 5651.00    0.75981   0.82204    0.016
 5652.00    0.75601   0.80544    0.016
 5653.00    0.75473   0.79082    0.016
 5654.00    0.80004   0.79541    0.016
 5655.00    0.84079   0.78404    0.016
 5656.00    0.83111   0.74332    0.016
 5657.00    0.81465   0.73229    0.016
 5658.00    0.74559   0.76559    0.016
 5659.00    0.69204   0.78397    0.016
 5660.00    0.72951   0.77132    0.017
 5661.00    0.75571   0.76704    0.017
 5662.00    0.72940   0.78661    0.017
 5663.00    0.71388   0.80661    0.016
 5664.00    0.73943   0.80764    0.017
 5665.00    0.76068   0.79417    0.017
 5666.00    0.76828   0.78499    0.017
 5667.00    0.77626   0.78672    0.017
 5668.00    0.78528   0.79264    0.017
 5669.00    0.78594   0.80147    0.017
 5670.00    0.76736   0.81480    0.018
 5671.00    0.77085   0.82954    0.018
 5672.00    0.81841   0.83152    0.017
 5673.00    0.85609   0.82258    0.017
 5674.00    0.87656   0.82143    0.017
 5675.00    0.87783   0.82903    0.017
 5676.00    0.84987   0.82631    0.018
 5677.00    0.83140   0.81705    0.018
 5678.00    0.82563   0.81476    0.017
 5679.00    0.83075   0.81066    0.017
 5680.00    0.84871   0.79124    0.017
 5681.00    0.84584   0.77815    0.017
 5682.00    0.82133   0.78434    0.017
 5683.00    0.79786   0.79451    0.017
 5684.00    0.77535   0.79180    0.016
 5685.00    0.74833   0.77899    0.016
 5686.00    0.71767   0.77177    0.016
 5687.00    0.72196   0.78052    0.016
 5688.00    0.75106   0.79746    0.016
 5689.00    0.81925   0.80990    0.016
 5690.00    0.91180   0.81985    0.016
 5691.00    0.94089   0.82405    0.016
 5692.00    0.93541   0.81866    0.016
 5693.00    0.90621   0.81546    0.016
 5694.00    0.86579   0.81819    0.016
 5695.00    0.81348   0.81577    0.016
 5696.00    0.75632   0.80185    0.017
 5697.00    0.73682   0.79311    0.017
 5698.00    0.73047   0.78893    0.017
 5699.00    0.75196   0.77690    0.017
 5700.00    0.78165   0.77053    0.017
 5701.00    0.77812   0.78122    0.017
 5702.00    0.76650   0.79513    0.017
 5703.00    0.82116   0.79323    0.017
 5704.00    0.88887   0.77515    0.017
 5705.00    0.87208   0.76101    0.017
 5706.00    0.84231   0.74792    0.016
 5707.00    0.84732   0.73542    0.017
 5708.00    0.85626   0.73809    0.017
 5709.00    0.82714   0.74408    0.017
 5710.00    0.79514   0.74994    0.017
 5711.00    0.76526   0.77316    0.017
 5712.00    0.73546   0.79488    0.017
 5713.00    0.75225   0.80206    0.017
 5714.00    0.76960   0.80797    0.017
 5715.00    0.79499   0.81042    0.017
 5716.00    0.82153   0.80909    0.017
 5717.00    0.86787   0.81409    0.017
 5718.00    0.90940   0.82053    0.017
 5719.00    0.90003   0.82520    0.017
 5720.00    0.88572   0.83158    0.016
 5721.00    0.83430   0.83508    0.016
 5722.00    0.78997   0.83429    0.016
 5723.00    0.78611   0.83035    0.016
 5724.00    0.78932   0.81870    0.016
 5725.00    0.82462   0.80415    0.016
 5726.00    0.84883   0.80501    0.016
 5727.00    0.83174   0.81773    0.016
 5728.00    0.80793   0.81874    0.016
 5729.00    0.76316   0.80371    0.016
 5730.00    0.74167   0.79626    0.016
 5731.00    0.78167   0.80903    0.016
 5732.00    0.84155   0.82327    0.016
 5733.00    0.94656   0.82761    0.016
 5734.00    1.01474   0.82418    0.016
 5735.00    1.01055   0.81915    0.016
 5736.00    0.97844   0.81710    0.016
 5737.00    0.89853   0.81593    0.016
 5738.00    0.84918   0.81567    0.017
 5739.00    0.84566   0.81523    0.017
 5740.00    0.84030   0.81094    0.000
 5741.00    0.83250   0.80780    0.000
 5742.00    0.81395   0.81447    0.000
 5743.00    0.78294   0.82596    0.000
 5744.00    0.76973   0.82852    0.000
 5745.00    0.77477   0.81285    0.000
 5746.00    0.79953   0.79575    0.000
 5747.00    0.84212   0.80108    0.000
 5748.00    0.89981   0.81906    0.000
 5749.00    0.96954   0.82224    0.000
 5750.00    0.95880   0.80299    0.000
 5751.00    0.89171   0.77589    0.000
 5752.00    0.85813   0.76440    0.000
 5753.00    0.84512   0.78121    0.000
 5754.00    0.81044   0.80818    0.000
 5755.00    0.76412   0.82413    0.000
 5756.00    0.75552   0.82739    0.000
 5757.00    0.76448   0.81918    0.000
 5758.00    0.78881   0.80387    0.000
 5759.00    0.81930   0.78686    0.000
 5760.00    0.85611   0.77052    0.000
 5761.00    0.89508   0.76858    0.000
 5762.00    0.88229   0.79228    0.000
 5763.00    0.85457   0.81660    0.000
 5764.00    0.84148   0.82479    0.000
 5765.00    0.83187   0.82665    0.000
 5766.00    0.84635   0.82585    0.000
 5767.00    0.86544   0.82177    0.000
 5768.00    0.85623   0.81840    0.000
 5769.00    0.84281   0.81350    0.000
 5770.00    0.84563   0.80638    0.000
 5771.00    0.85021   0.80421    0.000
 5772.00    0.82368   0.80127    0.000
 5773.00    0.79491   0.79942    0.000
 5774.00    0.78406   0.80630    0.000
 5775.00    0.77386   0.81415    0.000
 5776.00    0.87711   0.81523    0.000
 5777.00    0.97716   0.80553    0.000
 5778.00    0.94606   0.78032    0.000
 5779.00    0.91451   0.75281    0.000
 5780.00    0.87579   0.74633    0.000
 5781.00    0.84116   0.75607    0.000
 5782.00    0.84789   0.75621    0.000
 5783.00    0.86584   0.74646    0.000
 5784.00    0.96507   0.75326    0.000
 5785.00    1.03702   0.77657    0.000
 5786.00    0.95746   0.79278    0.000
 5787.00    0.88065   0.79996    0.000
 5788.00    0.81597   0.79399    0.000
 5789.00    0.76225   0.78165    0.000
 5790.00    0.74851   0.78534    0.000
 5791.00    0.73534   0.79728   -2.000
 5792.00    0.72388   0.80791   -2.000
 5793.00    0.73018   0.81725   -2.000
 5794.00    0.78262   0.81457   -2.000
 5795.00    0.82519   0.79720   -2.000
 5796.00    0.84574   0.78606   -2.000
 5797.00    0.84854   0.79993   -2.000
 5798.00    0.81702   0.82063   -2.000
 5799.00    0.81303   0.82998   -2.000
 5800.00    0.85548   0.83235   -2.000
 5801.00    0.88314   0.82432   -2.000
 5802.00    0.88893   0.80463   -2.000
 5803.00    0.89149   0.79233   -2.000
 5804.00    0.88983   0.79312   -2.000
 5805.00    0.87761   0.79999   -2.000
 5806.00    0.85330   0.80508   -2.000
 5807.00    0.82712   0.80665   -2.000
 5808.00    0.79905   0.81058   -2.000
 5809.00    0.79858   0.81514   -2.000
 5810.00    0.82269   0.81579   -2.000
 5811.00    0.82639   0.81409    0.000
 5812.00    0.81409   0.80834    0.000
 5813.00    0.84175   0.79540    0.000
 5814.00    0.89700   0.78239    0.000
 5815.00    0.90731   0.78810    0.000
 5816.00    0.89042   0.80859    0.000
 5817.00    0.89214   0.82172    0.000
 5818.00    0.90368   0.82457    0.000
 5819.00    0.87733   0.82342    0.000
 5820.00    0.83361   0.81950    0.000
 5821.00    0.81217   0.81520    0.000
 5822.00    0.79952   0.81499    0.000
 5823.00    0.83516   0.81935    0.000
 5824.00    0.88703   0.81960    0.000
 5825.00    0.89750   0.81720    0.000
 5826.00    0.89627   0.81731    0.000
 5827.00    0.85019   0.82100    0.000
 5828.00    0.79367   0.82204    0.000
 5829.00    0.79016   0.81873    0.000
 5830.00    0.79654   0.81695    0.000
 5831.00    0.79838   0.81562    0.000
 5832.00    0.79957   0.80930    0.000
 5833.00    0.77930   0.80473    0.000
 5834.00    0.75679   0.81056    0.000
 5835.00    0.76644   0.81405    0.000
 5836.00    0.77826   0.80746    0.000
 5837.00    0.83071   0.80616    0.000
 5838.00    0.88450   0.81474    0.000
 5839.00    0.92096   0.82257    0.000
 5840.00    0.95655   0.82556    0.000
 5841.00    0.96474   0.82490    0.000
 5842.00    0.97006   0.82134    0.000
 5843.00    0.93203   0.81421    0.000
 5844.00    0.89155   0.80531    0.000
 5845.00    0.82732   0.79670    0.000
 5846.00    0.77149   0.79387    0.000
 5847.00    0.77466   0.79794    0.000
 5848.00    0.77925   0.80165    0.000
 5849.00    0.79157   0.79804    0.000
 5850.00    0.79532   0.78358    0.000
 5851.00    0.76194   0.76604    0.000
 5852.00    0.73674   0.76514    0.000
 5853.00    0.74076   0.77673    0.000
 5854.00    0.74090   0.77225    0.000
 5855.00    0.72937   0.74904    0.000
 5856.00    0.72413   0.73770    0.000
 5857.00    0.73488   0.75193    0.000
 5858.00    0.74879   0.77203    0.000
 5859.00    0.76962   0.78307    0.000
 5860.00    0.79040   0.77977    0.000
 5861.00    0.81108   0.77761    0.000
 5862.00    0.82303   0.78703    0.000
 5863.00    0.82046   0.79228    0.000
 5864.00    0.80955   0.78474    0.000
 5865.00    0.78648   0.77742    0.000
 5866.00    0.75273   0.78412    0.000
 5867.00    0.70528   0.79600    0.000
 5868.00    0.68531   0.80370    0.000
 5869.00    0.69634   0.80454    0.000
 5870.00    0.73781   0.79887    0.000
 5871.00    0.80958   0.79328    0.000
 5872.00    0.85898   0.79571    0.000
 5873.00    0.88875   0.79914    0.000
 5874.00    0.87955   0.79553    0.000
 5875.00    0.84021   0.79048    0.000
 5876.00    0.78752   0.78694    0.000
 5877.00    0.72573   0.77967    0.000
 5878.00    0.68871   0.77018    0.000
 5879.00    0.66646   0.77067    0.000
 5880.00    0.70028   0.77771    0.000
 5881.00    0.76326   0.77553    0.000
 5882.00    0.77569   0.76828    0.000
 5883.00    0.76532   0.76964    0.000
 5884.00    0.77438   0.77418    0.000
 5885.00    0.79098   0.76408    0.000
 5886.00    0.77900   0.71918    0.000
 5887.00    0.75760   0.62885    0.000
 5888.00    0.72605   0.56235    0.000
 5889.00    0.69169   0.59425    0.000
 5890.00    0.72603   0.66519    0.000
 5891.00    0.77598   0.70230    0.000
 5892.00    0.80149   0.70024    0.000
 5893.00    0.82255   0.64819    0.000
 5894.00    0.81512   0.59967    0.000
 5895.00    0.80373   0.63396    0.000
 5896.00    0.78728   0.69855    0.000
 5897.00    0.77032   0.72859    0.000
 5898.00    0.76353   0.74382    0.000
 5899.00    0.75738   0.76039    0.000
 5900.00    0.78675   0.76822    0.000
 5901.00    0.81694   0.77187    0.015
 5902.00    0.77590   0.77388    0.015
 5903.00    0.73632   0.76892    0.015
 5904.00    0.73781   0.76493    0.015
 5905.00    0.73955   0.77075    0.015
 5906.00    0.74496   0.77858    0.015
 5907.00    0.75377   0.77984    0.016
 5908.00    0.79437   0.77895    0.015
 5909.00    0.82768   0.78357    0.015
 5910.00    0.81156   0.78484    0.015
 5911.00    0.79480   0.77061    0.015
 5912.00    0.77469   0.75043    0.016
 5913.00    0.75614   0.74554    0.016
 5914.00    0.74423   0.75186    0.016
 5915.00    0.72566   0.76228    0.016
 5916.00    0.68382   0.77089    0.016
 5917.00    0.64957   0.77561    0.016
 5918.00    0.63763   0.78090    0.016
 5919.00    0.64006   0.77995    0.016
 5920.00    0.67851   0.77312    0.016
 5921.00    0.70614   0.77233    0.016
 5922.00    0.71042   0.77718    0.016
 5923.00    0.72195   0.78242    0.015
 5924.00    0.74707   0.78640    0.016
 5925.00    0.74946   0.78452    0.016
 5926.00    0.71463   0.77451    0.016
 5927.00    0.69823   0.76104    0.015
 5928.00    0.70829   0.75250    0.015
 5929.00    0.72163   0.76254    0.015
 5930.00    0.73908   0.77947    0.015
 5931.00    0.73751   0.78042    0.015
 5932.00    0.71474   0.76664    0.015
 5933.00    0.70425   0.76088    0.015
 5934.00    0.70581   0.77159    0.015
 5935.00    0.72496   0.78133    0.015
 5936.00    0.75936   0.78496    0.015
 5937.00    0.77363   0.78660    0.015
 5938.00    0.77254   0.77901    0.015
 5939.00    0.75117   0.76358    0.015
 5940.00    0.71621   0.75999    0.015
 5941.00    0.68565   0.76696    0.015
 5942.00    0.65768   0.77426    0.015
 5943.00    0.65636   0.78115    0.015
 5944.00    0.66868   0.78493    0.016
 5945.00    0.68533   0.77865    0.016
 5946.00    0.70390   0.76183    0.016
 5947.00    0.69473   0.75124    0.016
 5948.00    0.67498   0.76129    0.016
 5949.00    0.68503   0.77355    0.015
 5950.00    0.70471   0.76565    0.015
 5951.00    0.72401   0.75432    0.016
 5952.00    0.74320   0.76282    0.016
 5953.00    0.75961   0.77332    0.016
 5954.00    0.77539   0.76741    0.016
 5955.00    0.77029   0.75672    0.016
 5956.00    0.76150   0.75716    0.015
 5957.00    0.77781   0.76533    0.016
 5958.00    0.79751   0.77611    0.016
 5959.00    0.78692   0.78444    0.016
 5960.00    0.77342   0.78772    0.015
 5961.00    0.74802   0.78648    0.015
 5962.00    0.72191   0.78367    0.015
 5963.00    0.66598   0.77673    0.015
 5964.00    0.60960   0.77114    0.015
 5965.00    0.59884   0.77560    0.015
 5966.00    0.59031   0.78192    0.015
 5967.00    0.63842   0.78559    0.014
 5968.00    0.68700   0.78891    0.014
 5969.00    0.74200   0.79237    0.014
 5970.00    0.78987   0.79199    0.015
 5971.00    0.77390   0.78982    0.015
 5972.00    0.75935   0.78462    0.015
 5973.00    0.75413   0.77267    0.015
 5974.00    0.75291   0.75845    0.015
 5975.00    0.77218   0.75193    0.016
 5976.00    0.78746   0.75414    0.016
 5977.00    0.78623   0.76302    0.016
 5978.00    0.78551   0.77574    0.016
 5979.00    0.78653   0.78182    0.016
 5980.00    0.77760   0.77603    0.016
 5981.00    0.73996   0.75760    0.016
 5982.00    0.71460   0.73707    0.016
 5983.00    0.71951   0.73777    0.016
 5984.00    0.71780   0.75309    0.016
 5985.00    0.70203   0.76107    0.016
 5986.00    0.68354   0.76437    0.016
 5987.00    0.66003   0.77125    0.015
 5988.00    0.66543   0.77357    0.015
 5989.00    0.71746   0.76544    0.015
 5990.00    0.75695   0.76277    0.015
 5991.00    0.77869   0.77517    0.015
 5992.00    0.79043   0.78601    0.015
 5993.00    0.78972   0.78482    0.015
 5994.00    0.79369   0.77442    0.015
 5995.00    0.80279   0.76033    0.015
 5996.00    0.81380   0.75386    0.014
 5997.00    0.82665   0.75918    0.015
 5998.00    0.83620   0.76805    0.015
 5999.00    0.84294   0.77147    0.015
 6000.00    0.81860   0.76277    0.015
 6001.00    0.77092   0.75489    0.014
 6002.00    0.75778   0.76025    0.014
 6003.00    0.76745   0.76600    0.015
 6004.00    0.78198   0.76018    0.015
 6005.00    0.79933   0.74432    0.015
 6006.00    0.77398   0.72926    0.015
 6007.00    0.72713   0.73904    0.015
 6008.00    0.69278   0.76385    0.015
 6009.00    0.66388   0.77364    0.015
 6010.00    0.66001   0.76228    0.015
 6011.00    0.66552   0.74743    0.015
 6012.00    0.67090   0.74750    0.015
 6013.00    0.67624   0.75593    0.016
 6014.00    0.71443   0.75289    0.016
 6015.00    0.76134   0.74909    0.016
 6016.00    0.76666   0.75463    0.016
 6017.00    0.76296   0.75147    0.015
 6018.00    0.77311   0.73866    0.015
 6019.00    0.78564   0.73502    0.016
 6020.00    0.77748   0.74181    0.015
 6021.00    0.76663   0.74673    0.015
 6022.00    0.77620   0.74780    0.015
 6023.00    0.78764   0.75581    0.015
 6024.00    0.78043   0.76193    0.015
 6025.00    0.77217   0.75942    0.015
 6026.00    0.75470   0.76416    0.014
 6027.00    0.73768   0.77230    0.014
 6028.00    0.78530   0.77349    0.014
 6029.00    0.82977   0.77202    0.014
 6030.00    0.80104   0.77529    0.014
 6031.00    0.76900   0.78018    0.014
 6032.00    0.69475   0.78012    0.015
 6033.00    0.62642   0.77804    0.015
 6034.00    0.60901   0.77779    0.014
 6035.00    0.59932   0.77989    0.014
 6036.00    0.63898   0.78020    0.014
 6037.00    0.68254   0.77573    0.015
 6038.00    0.74558   0.77076    0.015
 6039.00    0.78911   0.76777    0.015
 6040.00    0.75360   0.76606    0.015
 6041.00    0.72131   0.77189    0.015
 6042.00    0.69981   0.77964    0.015
 6043.00    0.70015   0.78099    0.015
 6044.00    0.76241   0.78104    0.015
 6045.00    0.80762   0.78226    0.015
 6046.00    0.81153   0.78198    0.015
 6047.00    0.79803   0.78071    0.015
 6048.00    0.74812   0.78305    0.015
 6049.00    0.71653   0.78386    0.015
 6050.00    0.71823   0.77795    0.015
 6051.00    0.72837   0.76889    0.015
 6052.00    0.75194   0.76467    0.015
 6053.00    0.77135   0.76184    0.015
 6054.00    0.78494   0.75619    0.015
 6055.00    0.80119   0.75711    0.015
 6056.00    0.82068   0.76448    0.015
 6057.00    0.82963   0.77363    0.015
 6058.00    0.82717   0.77842    0.014
 6059.00    0.82271   0.77690    0.014
 6060.00    0.81635   0.77090    0.015
 6061.00    0.80608   0.76260    0.015
 6062.00    0.79251   0.74951    0.015
 6063.00    0.79619   0.73283    0.015
 6064.00    0.81264   0.73730    0.015
 6065.00    0.81102   0.76237    0.015
 6066.00    0.79764   0.77950    0.015
 6067.00    0.77757   0.78393    0.015
 6068.00    0.75370   0.78431    0.015
 6069.00    0.75605   0.78430    0.015
 6070.00    0.77140   0.78505    0.015
 6071.00    0.76994   0.78549    0.015
 6072.00    0.76128   0.78530    0.015
 6073.00    0.73113   0.78388    0.015
 6074.00    0.69310   0.77890    0.015
 6075.00    0.68675   0.76928    0.015
 6076.00    0.69027   0.75364    0.015
 6077.00    0.72490   0.74750    0.015
 6078.00    0.76761   0.75514    0.015
 6079.00    0.76833   0.75555    0.015
 6080.00    0.76016   0.74834    0.015
 6081.00    0.74932   0.74822    0.015
 6082.00    0.73804   0.75215    0.015
 6083.00    0.73008   0.75032    0.015
 6084.00    0.72255   0.75016    0.015
 6085.00    0.71137   0.75631    0.014
 6086.00    0.69987   0.76193    0.014
 6087.00    0.74470   0.75666    0.014
 6088.00    0.79244   0.74536    0.015
 6089.00    0.81728   0.74276    0.015
 6090.00    0.84103   0.74543    0.015
 6091.00    0.81565   0.74736    0.015
 6092.00    0.79094   0.75472    0.015
 6093.00    0.78029   0.76650    0.015
 6094.00    0.76940   0.76778    0.014
 6095.00    0.75545   0.76174    0.015
 6096.00    0.73924   0.76188    0.015
 6097.00    0.70433   0.76868    0.015
 6098.00    0.67564   0.77164    0.015
 6099.00    0.68552   0.75378    0.015
 6100.00    0.69907   0.71175    0.015
 6101.00    0.73055   0.69107    0.015
 6102.00    0.75539   0.71916    0.015
 6103.00    0.75393   0.75274    0.015
 6104.00    0.75587   0.76210    0.015
 6105.00    0.76899   0.75686    0.016
 6106.00    0.77798   0.75371    0.015
 6107.00    0.77547   0.76120    0.015
 6108.00    0.77711   0.76566    0.015
 6109.00    0.78864   0.75840    0.015
 6110.00    0.79697   0.75467    0.015
 6111.00    0.79871   0.76196    0.015
 6112.00    0.78548   0.76960    0.014
 6113.00    0.74547   0.76763    0.014
 6114.00    0.72449   0.75742    0.014
 6115.00    0.73331   0.75635    0.014
 6116.00    0.73468   0.76287    0.014
 6117.00    0.72583   0.75797    0.014
 6118.00    0.70650   0.74295    0.014
 6119.00    0.67450   0.72098    0.014
 6120.00    0.67048   0.70128    0.014
 6121.00    0.69631   0.71294    0.014
 6122.00    0.71982   0.74188    0.015
 6123.00    0.74115   0.75182    0.015
 6124.00    0.75053   0.74830    0.015
 6125.00    0.75000   0.74383    0.015
 6126.00    0.72003   0.73955    0.015
 6127.00    0.66855   0.74208    0.015
 6128.00    0.62985   0.75241    0.015
 6129.00    0.59934   0.76032    0.015
 6130.00    0.60198   0.76225    0.015
 6131.00    0.62320   0.76339    0.015
 6132.00    0.63279   0.75613    0.015
 6133.00    0.63669   0.73093    0.015
 6134.00    0.66830   0.68852    0.015
 6135.00    0.71160   0.65659    0.015
 6136.00    0.76722   0.67581    0.015
 6137.00    0.82730   0.72475    0.015
 6138.00    0.82441   0.74627    0.015
 6139.00    0.80229   0.72912    0.015
 6140.00    0.77847   0.71642    0.015
 6141.00    0.75420   0.73517    0.015
 6142.00    0.73111   0.75822    0.015
 6143.00    0.70826   0.76381    0.015
 6144.00    0.68689   0.76025    0.014
 6145.00    0.66577   0.75171    0.014
 6146.00    0.66992   0.73821    0.014
 6147.00    0.67715   0.72914    0.014
 6148.00    0.68616   0.72945    0.014
 6149.00    0.69532   0.73788    0.014
 6150.00    0.69867   0.74795    0.014
 6151.00    0.70175   0.75186    0.014
 6152.00    0.73144   0.74256    0.015
 6153.00    0.76074   0.73238    0.015
 6154.00    0.74537   0.73359    0.015
 6155.00    0.73139   0.73592    0.015
 6156.00    0.74483   0.73508    0.015
 6157.00    0.75754   0.73276    0.015
 6158.00    0.76190   0.71362    0.016
 6159.00    0.76260   0.67050    0.016
 6160.00    0.73400   0.63756    0.015
 6161.00    0.70873   0.64349    0.015
 6162.00    0.70349   0.67365    0.015
 6163.00    0.69693   0.69819    0.015
 6164.00    0.68412   0.70913    0.015
 6165.00    0.67498   0.71713    0.015
 6166.00    0.68009   0.70984    0.014
 6167.00    0.68532   0.67963    0.014
 6168.00    0.69097   0.66714    0.014
 6169.00    0.69715   0.69278    0.014
 6170.00    0.70478   0.71859    0.014
 6171.00    0.70915   0.72160    0.014
 6172.00    0.70592   0.72085    0.014
 6173.00    0.70284   0.72170    0.014
 6174.00    0.70010   0.71860    0.014
 6175.00    0.69723   0.71903    0.014
 6176.00    0.69414   0.72789    0.014
 6177.00    0.68497   0.73237    0.014
 6178.00    0.66643   0.72873    0.014
 6179.00    0.65791   0.73238    0.014
 6180.00    0.66294   0.73998    0.014
 6181.00    0.68366   0.74104    0.014
 6182.00    0.72309   0.73919    0.014
 6183.00    0.74289   0.73629    0.015
 6184.00    0.74207   0.72578    0.015
 6185.00    0.73433   0.71584    0.015
 6186.00    0.72019   0.71376    0.015
 6187.00    0.70845   0.71444    0.015
 6188.00    0.69867   0.70258    0.015
 6189.00    0.68609   0.67742    0.015
 6190.00    0.67150   0.67628    0.015
 6191.00    0.67267   0.70534    0.015
 6192.00    0.68380   0.72564    0.014
 6193.00    0.70079   0.73042    0.014
 6194.00    0.72101   0.73535    0.014
 6195.00    0.73312   0.74041    0.015
 6196.00    0.74135   0.73429   -2.000
 6197.00    0.78265   0.71494   -2.000
 6198.00    0.83767   0.70397   -2.000
 6199.00    0.94607   0.71439   -2.000
 6200.00    1.07339   0.73148   -2.000
 6201.00    1.06722   0.73957   -2.000
 6202.00    1.02111   0.73877   -2.000
 6203.00    0.94069   0.73737   -2.000
 6204.00    0.85175   0.73976   -2.000
 6205.00    0.78416   0.74104   -2.000
 6206.00    0.72087   0.74023   -2.000
 6207.00    0.73550   0.73842   -2.000
 6208.00    0.76241   0.73398    0.015
 6209.00    0.78007   0.72914    0.015
 6210.00    0.79665   0.72130    0.015
 6211.00    0.76021   0.70255    0.015
 6212.00    0.71957   0.68522    0.015
 6213.00    0.72221   0.68059    0.015
 6214.00    0.72675   0.68780    0.015
 6215.00    0.75404   0.70282    0.015
 6216.00    0.78058   0.70809    0.015
 6217.00    0.75957   0.69680    0.015
 6218.00    0.73801   0.68814    0.014
 6219.00    0.70638   0.69421    0.014
 6220.00    0.67627   0.70624    0.014
 6221.00    0.66306   0.71184    0.014
 6222.00    0.65008   0.70977    0.014
 6223.00    0.63886   0.71069    0.014
 6224.00    0.63144   0.71473    0.014
 6225.00    0.64628   0.71629    0.014
 6226.00    0.66370   0.71360    0.014
 6227.00    0.69305   0.69728    0.014
 6228.00    0.71487   0.67034    0.014
 6229.00    0.70815   0.65847    0.014
 6230.00    0.69841   0.67090    0.014
 6231.00    0.67912   0.68929    0.014
 6232.00    0.65482   0.71024    0.014
 6233.00    0.61712   0.72593    0.014
 6234.00    0.59540   0.72511    0.014
 6235.00    0.61047   0.71228    0.014
 6236.00    0.63753   0.69810    0.014
 6237.00    0.68848   0.68807    0.014
 6238.00    0.71576   0.68403    0.015
 6239.00    0.70196   0.69042    0.015
 6240.00    0.69344   0.69154    0.015
 6241.00    0.69295   0.67841    0.015
 6242.00    0.70456   0.67288    0.014
 6243.00    0.73232   0.67397    0.014
 6244.00    0.75319   0.67267    0.014
 6245.00    0.76595   0.68115    0.015
 6246.00    0.75053   0.69924    0.015
 6247.00    0.70588   0.71150    0.014
 6248.00    0.68617   0.71279    0.014
 6249.00    0.68928   0.70134    0.014
 6250.00    0.69269   0.67931    0.014
 6251.00    0.69636   0.66556    0.014
 6252.00    0.68267   0.66685    0.014
 6253.00    0.65668   0.67219    0.014
 6254.00    0.65431   0.67042    0.014
 6255.00    0.66665   0.66224    0.014
 6256.00    0.67495   0.65643    0.014
 6257.00    0.68106   0.66432    0.014
 6258.00    0.70402   0.68265    0.014
 6259.00    0.73496   0.69364    0.015
 6260.00    0.77509   0.70381    0.016
 6261.00    0.81898   0.71498    0.017
 6262.00    0.82742   0.71095    0.018
 6263.00    0.82354   0.69796    0.019
 6264.00    0.76991   0.69837    0.018
 6265.00    0.70168   0.70889    0.018
 6266.00    0.63793   0.71027    0.017
 6267.00    0.57526   0.70415    0.016
 6268.00    0.58529   0.70123    0.015
 6269.00    0.60959   0.70418    0.015
 6270.00    0.63184   0.71042    0.015
 6271.00    0.65378   0.71428    0.014
 6272.00    0.65297   0.71305    0.014
 6273.00    0.64959   0.71261    0.014
 6274.00    0.63852   0.71359    0.014
 6275.00    0.62687   0.71189    0.014
 6276.00    0.58657   0.70787    0.014
 6277.00    0.54511   0.69897    0.014
 6278.00    0.55039   0.68792    0.014
 6279.00    0.55660   0.68803    0.013
 6280.00    0.58668   0.69767    0.000
 6281.00    0.61540   0.70785    0.000
 6282.00    0.62092   0.71488    0.000
 6283.00    0.62800   0.71503    0.000
 6284.00    0.65147   0.71653    0.000
 6285.00    0.67173   0.72339    0.000
 6286.00    0.66807   0.72884    0.000
 6287.00    0.66213   0.72821    0.000
 6288.00    0.64321   0.71922    0.000
 6289.00    0.62816   0.70994    0.000
 6290.00    0.63065   0.70624    0.000
 6291.00    0.63133   0.70702    0.000
 6292.00    0.62528   0.71186    0.000
 6293.00    0.62087   0.71144    0.000
 6294.00    0.62154   0.69962    0.000
 6295.00    0.63339   0.68796    0.000
 6296.00    0.67472   0.68821    0.000
 6297.00    0.71636   0.69596    0.000
 6298.00    0.75868   0.69561    0.000
 6299.00    0.77303   0.68256    0.000
 6300.00    0.73251   0.67565    0.000
 6301.00    0.69125   0.68684    0.000
 6302.00    0.64873   0.70109    0.000
 6303.00    0.62226   0.70446    0.000
 6304.00    0.61983   0.70744    0.000
 6305.00    0.60858   0.71759    0.000
 6306.00    0.58574   0.72450    0.000
 6307.00    0.57890   0.72085    0.000
 6308.00    0.59060   0.71155    0.000
 6309.00    0.61619   0.70455    0.000
 6310.00    0.65598   0.70499    0.000
 6311.00    0.69561   0.70684    0.000
 6312.00    0.73510   0.69738    0.000
 6313.00    0.75530   0.68479    0.000
 6314.00    0.76017   0.68571    0.000
 6315.00    0.75053   0.68455    0.000
 6316.00    0.73075   0.67226    0.000
 6317.00    0.69616   0.67384    0.000
 6318.00    0.65247   0.69068    0.000
 6319.00    0.65641   0.70059    0.000
 6320.00    0.68584   0.70040    0.000
 6321.00    0.70688   0.70404    0.014
 6322.00    0.72403   0.71391    0.014
 6323.00    0.69978   0.71969    0.014
 6324.00    0.65895   0.71918    0.014
 6325.00    0.64217   0.71564    0.014
 6326.00    0.63359   0.71655    0.013
 6327.00    0.65436   0.71858    0.013
 6328.00    0.68356   0.71336    0.014
 6329.00    0.69787   0.71156    0.013
 6330.00    0.70864   0.71833    0.013
 6331.00    0.67685   0.72318    0.013
 6332.00    0.63692   0.71216    0.013
 6333.00    0.63156   0.68755    0.013
 6334.00    0.63133   0.67336    0.014
 6335.00    0.65390   0.68055    0.014
 6336.00    0.67894   0.69284    0.014
 6337.00    0.68755   0.69974    0.014
 6338.00    0.69500   0.70950    0.014
 6339.00    0.69921   0.71652    0.014
 6340.00    0.70332   0.71037    0.014
 6341.00    0.68782   0.69619    0.014
 6342.00    0.67259   0.68700    0.014
 6343.00    0.66914   0.69046    0.014
 6344.00    0.66651   0.69593    0.014
 6345.00    0.67688   0.69773    0.014
 6346.00    0.68655   0.70577    0.014
 6347.00    0.68912   0.71532    0.014
 6348.00    0.68961   0.71815    0.014
 6349.00    0.67501   0.71873    0.014
 6350.00    0.66065   0.71830    0.014
 6351.00    0.64763   0.71249    0.014
 6352.00    0.63322   0.70042    0.014
 6353.00    0.61266   0.69290    0.013
 6354.00    0.59806   0.69704    0.013
 6355.00    0.60511   0.69724    0.013
 6356.00    0.61965   0.68427    0.013
 6357.00    0.65695   0.67367    0.013
 6358.00    0.69021   0.67239    0.013
 6359.00    0.71297   0.66925    0.014
 6360.00    0.71699   0.66334    0.014
 6361.00    0.67924   0.66537    0.014
 6362.00    0.65505   0.67548    0.014
 6363.00    0.65700   0.68627    0.014
 6364.00    0.66470   0.69451    0.014
 6365.00    0.68207   0.70283    0.015
 6366.00    0.69259   0.70988    0.015
 6367.00    0.69302   0.70865    0.015
 6368.00    0.68461   0.70144    0.015
 6369.00    0.66475   0.69991    0.015
 6370.00    0.63710   0.70889    0.014
 6371.00    0.60054   0.71868    0.014
 6372.00    0.59720   0.72038    0.014
 6373.00    0.62736   0.71833    0.014
 6374.00    0.65785   0.71793    0.014
 6375.00    0.68865   0.71556    0.014
 6376.00    0.69910   0.70763    0.014
 6377.00    0.69361   0.70153    0.014
 6378.00    0.67773   0.70096    0.014
 6379.00    0.65471   0.70228    0.013
 6380.00    0.64736   0.70620    0.013
 6381.00    0.64949   0.70854    0.013
 6382.00    0.64353   0.70494    0.013
 6383.00    0.63332   0.70425    0.013
 6384.00    0.60643   0.71000    0.013
 6385.00    0.57193   0.71500    0.013
 6386.00    0.55786   0.71554    0.014
 6387.00    0.55184   0.71494    0.014
 6388.00    0.57348   0.71451    0.014
 6389.00    0.60440   0.70920    0.014
 6390.00    0.64523   0.69176    0.014
 6391.00    0.68885   0.67116    0.014
 6392.00    0.70201   0.67188    0.015
 6393.00    0.70810   0.69323    0.015
 6394.00    0.68950   0.71107    0.015
 6395.00    0.66629   0.71695    0.015
 6396.00    0.63479   0.70879    0.015
 6397.00    0.60209   0.68207    0.014
 6398.00    0.58909   0.66151    0.014
 6399.00    0.57814   0.67726    0.014
 6400.00    0.58933   0.70599    0.014
 6401.00    0.60200   0.71894    0.014
 6402.00    0.61761   0.72141    0.014
 6403.00    0.63331   0.71738    0.013
 6404.00    0.64806   0.70702    0.013
 6405.00    0.66193   0.69203    0.013
 6406.00    0.64868   0.68539    0.013
 6407.00    0.63581   0.69608    0.013
 6408.00    0.62876   0.70182    0.013
 6409.00    0.62299   0.69006    0.013
 6410.00    0.62948   0.68510    0.014
 6411.00    0.63292   0.69311    0.014
 6412.00    0.61507   0.69800    0.014
 6413.00    0.59729   0.69922    0.014
 6414.00    0.57991   0.70223    0.014
 6415.00    0.56876   0.70304    0.014
 6416.00    0.58450   0.70013    0.014
 6417.00    0.59624   0.68951    0.014
 6418.00    0.59370   0.67376    0.014
 6419.00    0.59596   0.67041    0.014
 6420.00    0.61257   0.68799    0.014
 6421.00    0.63194   0.71027    0.014
 6422.00    0.65836   0.71704    0.014
 6423.00    0.68373   0.71446    0.014
 6424.00    0.70678   0.71621    0.014
 6425.00    0.72143   0.72095    0.014
 6426.00    0.72013   0.72009    0.013
 6427.00    0.71890   0.70705    0.013
 6428.00    0.71778   0.68453    0.014
 6429.00    0.71572   0.67137    0.014
 6430.00    0.71231   0.67952    0.014
 6431.00    0.70013   0.69529    0.014
 6432.00    0.67675   0.70738    0.014
 6433.00    0.65956   0.71511    0.014
 6434.00    0.64935   0.71671    0.014
 6435.00    0.64407   0.70685    0.014
 6436.00    0.64369   0.68379    0.014
 6437.00    0.63450   0.67017    0.014
 6438.00    0.61760   0.68614    0.014
 6439.00    0.60900   0.71124    0.014
 6440.00    0.60681   0.72129    0.014
 6441.00    0.58949   0.72216    0.014
 6442.00    0.56191   0.72230    0.014
 6443.00    0.55319   0.72404    0.014
 6444.00    0.55569   0.72575    0.014
 6445.00    0.57563   0.72111    0.014
 6446.00    0.60463   0.70064    0.014
 6447.00    0.63501   0.66580    0.014
 6448.00    0.66602   0.64883    0.014
 6449.00    0.65000   0.66760    0.014
 6450.00    0.61579   0.69479    0.014
 6451.00    0.58256   0.70923    0.013
 6452.00    0.54965   0.70634    0.013
 6453.00    0.56726   0.68896    0.013
 6454.00    0.59880   0.67651    0.013
 6455.00    0.60533   0.68672    0.013
 6456.00    0.60619   0.70789    0.013
 6457.00    0.62103   0.72130    0.013
 6458.00    0.63840   0.72042    0.014
 6459.00    0.65060   0.70006    0.014
 6460.00    0.66207   0.66763    0.014
 6461.00    0.64816   0.65860    0.014
 6462.00    0.63171   0.68051    0.014
 6463.00    0.61426   0.70111    0.014
 6464.00    0.59674   0.71023    0.014
 6465.00    0.59745   0.71404    0.014
 6466.00    0.59871   0.71230    0.014
 6467.00    0.60606   0.70528    0.014
 6468.00    0.61378   0.69805    0.014
 6469.00    0.63170   0.69129    0.014
 6470.00    0.65042   0.69172    0.013
 6471.00    0.68050   0.70009    0.013
 6472.00    0.70908   0.70064    0.013
 6473.00    0.72370   0.69500    0.014
 6474.00    0.73009   0.69698    0.014
 6475.00    0.68082   0.70431    0.013
 6476.00    0.63363   0.70629    0.013
 6477.00    0.59733   0.70490    0.013
 6478.00    0.57251   0.69955    0.013
 6479.00    0.59614   0.68422    0.013
 6480.00    0.61451   0.66880    0.014
 6481.00    0.61450   0.66962    0.014
 6482.00    0.61771   0.68262    0.014
 6483.00    0.63034   0.69321    0.014
 6484.00    0.64788   0.69807    0.014
 6485.00    0.67769   0.70041    0.014
 6486.00    0.68508   0.70035    0.014
 6487.00    0.64414   0.69576    0.014
 6488.00    0.60731   0.68689    0.014
 6489.00    0.57820   0.67869    0.014
 6490.00    0.56313   0.66835    0.014
 6491.00    0.57102   0.64337    0.014
 6492.00    0.58305   0.60825    0.014
 6493.00    0.60099   0.58988    0.014
 6494.00    0.61716   0.59545    0.013
 6495.00    0.63109   0.61348    0.014
 6496.00    0.62798   0.63333    0.013
 6497.00    0.60595   0.64529    0.013
 6498.00    0.59333   0.65778    0.013
 6499.00    0.58994   0.67207    0.013
 6500.00    0.59395   0.68153    0.013
 6501.00    0.60434   0.68682    0.013
 6502.00    0.61748   0.69046    0.013
 6503.00    0.63271   0.69414    0.013
 6504.00    0.64143   0.69690    0.013
 6505.00    0.64578   0.69416    0.014
 6506.00    0.63298   0.68812    0.014
 6507.00    0.61014   0.68669    0.013
 6508.00    0.61836   0.69144    0.014
 6509.00    0.64246   0.69494    0.014
 6510.00    0.69160   0.69460    0.014
 6511.00    0.75183   0.69284    0.014
 6512.00    0.75272   0.68758    0.014
 6513.00    0.73107   0.67721    0.014
 6514.00    0.68953   0.66860    0.014
 6515.00    0.64158   0.66583    0.014
 6516.00    0.62139   0.66561    0.014
 6517.00    0.60871   0.67061    0.013
 6518.00    0.59468   0.68260    0.013
 6519.00    0.58036   0.69160    0.013
 6520.00    0.60310   0.69271    0.013
 6521.00    0.63238   0.69177    0.013
 6522.00    0.64535   0.69340    0.013
 6523.00    0.65613   0.69155    0.013
 6524.00    0.63402   0.68211    0.013
 6525.00    0.60877   0.67510    0.013
 6526.00    0.59726   0.67960    0.013
 6527.00    0.58657   0.68800    0.013
 6528.00    0.58123   0.69054    0.000
 6529.00    0.57600   0.68484    0.000
 6530.00    0.56789   0.67637    0.000
 6531.00    0.56090   0.67307    0.000
 6532.00    0.58200   0.67786    0.000
 6533.00    0.60371   0.68638    0.000
 6534.00    0.63349   0.68962    0.000
 6535.00    0.66056   0.68679    0.000
 6536.00    0.66344   0.68615    0.000
 6537.00    0.66194   0.69103    0.000
 6538.00    0.63181   0.69391    0.000
 6539.00    0.60859   0.68988    0.000
 6540.00    0.62068   0.68190    0.000
 6541.00    0.63255   0.67530    0.000
 6542.00    0.64352   0.66935    0.000
 6543.00    0.65578   0.65747    0.000
 6544.00    0.67250   0.64528    0.000
 6545.00    0.69050   0.64737    0.000
 6546.00    0.71217   0.65874    0.000
 6547.00    0.72568   0.66448    0.000
 6548.00    0.71909   0.66097    0.000
 6549.00    0.70090   0.65361    0.000
 6550.00    0.65807   0.64786    0.000
 6551.00    0.62488   0.64176    0.000
 6552.00    0.60944   0.63060    0.000
 6553.00    0.61463   0.61879    0.000
 6554.00    0.65301   0.61502    0.000
 6555.00    0.75659   0.61747    0.000
 6556.00    0.95224   0.61554    0.000
 6557.00    1.23162   0.60405    0.000
 6558.00    1.61502   0.57724    0.000
 6559.00    1.92232   0.51556    0.000
 6560.00    2.14628   0.42981    0.000
 6561.00    2.16383   0.40280    0.000
 6562.00    1.98198   0.47009    0.000
 6563.00    1.71231   0.55353    0.000
 6564.00    1.36783   0.59865    0.000
 6565.00    1.09657   0.61778    0.000
 6566.00    0.88025   0.62189    0.000
 6567.00    0.74657   0.61952    0.000
 6568.00    0.66738   0.62331    0.000
 6569.00    0.61416   0.62992    0.000
 6570.00    0.57592   0.62860    0.000
 6571.00    0.55166   0.62224    0.000
 6572.00    0.53442   0.61986    0.000
 6573.00    0.52390   0.62683    0.000
 6574.00    0.51630   0.64301    0.000
 6575.00    0.55014   0.65801    0.000
 6576.00    0.59943   0.66450    0.000
 6577.00    0.70496   0.66280    0.000
 6578.00    0.82829   0.65569    0.000
 6579.00    0.94633   0.65147    0.000
 6580.00    1.06297   0.65569    0.000
 6581.00    1.08764   0.66241    0.000
 6582.00    1.09243   0.66437    0.000
 6583.00    1.01880   0.66169    0.000
 6584.00    0.93172   0.65840    0.000
 6585.00    0.78355   0.66171    0.000
 6586.00    0.62744   0.66920    0.000
 6587.00    0.58257   0.67391    0.000
 6588.00    0.54786   0.67297    0.000
 6589.00    0.56068   0.66077    0.000
 6590.00    0.57613   0.63609    0.000
 6591.00    0.58068   0.61812    0.000
 6592.00    0.58492   0.62619    0.000
 6593.00    0.58188   0.64822    0.000
 6594.00    0.57689   0.66019    0.000
 6595.00    0.52699   0.65931    0.000
 6596.00    0.48151   0.65517    0.000
 6597.00    0.49212   0.65861    0.000
 6598.00    0.50502   0.66893    0.000
 6599.00    0.53751   0.67671    0.000
 6600.00    0.56779   0.67702    0.000
 6601.00    0.58400   0.67159    0.000
 6602.00    0.59706   0.66356    0.000
 6603.00    0.59440   0.65824    0.000
 6604.00    0.59169   0.65673    0.000
 6605.00    0.58882   0.65343    0.000
 6606.00    0.58593   0.64591    0.000
 6607.00    0.58293   0.64241    0.000
 6608.00    0.57507   0.65270    0.000
 6609.00    0.55345   0.66776    0.013
 6610.00    0.55010   0.67161    0.013
 6611.00    0.59092   0.66659    0.013
 6612.00    0.61381   0.66609    0.013
 6613.00    0.59927   0.67268    0.013
 6614.00    0.58219   0.67608    0.013
 6615.00    0.56047   0.67380    0.013
 6616.00    0.55422   0.67246    0.013
 6617.00    0.57251   0.67464    0.013
 6618.00    0.59132   0.67736    0.013
 6619.00    0.61087   0.67792    0.013
 6620.00    0.61033   0.67479    0.013
 6621.00    0.58519   0.66638    0.014
 6622.00    0.56171   0.65595    0.014
 6623.00    0.54002   0.65287    0.014
 6624.00    0.53507   0.65921    0.014
 6625.00    0.54607   0.66422    0.014
 6626.00    0.56814   0.66476    0.014
 6627.00    0.59952   0.66412    0.014
 6628.00    0.60877   0.66244    0.014
 6629.00    0.60167   0.65834    0.014
 6630.00    0.59378   0.64939    0.013
 6631.00    0.58538   0.63786    0.013
 6632.00    0.57112   0.63461    0.013
 6633.00    0.55354   0.64519    0.013
 6634.00    0.54611   0.65836    0.013
 6635.00    0.54371   0.66534    0.013
 6636.00    0.55736   0.66526    0.013
 6637.00    0.57787   0.66122    0.013
 6638.00    0.58745   0.66050    0.013
 6639.00    0.59301   0.66422    0.013
 6640.00    0.57735   0.66026    0.013
 6641.00    0.55508   0.64773    0.013
 6642.00    0.53542   0.64472    0.013
 6643.00    0.51644   0.65366    0.013
 6644.00    0.50959   0.66023    0.014
 6645.00    0.50530   0.65991    0.014
 6646.00    0.54790   0.65982    0.014
 6647.00    0.59830   0.66224    0.014
 6648.00    0.60250   0.66191    0.014
 6649.00    0.60090   0.65948    0.014
 6650.00    0.58773   0.65814    0.014
 6651.00    0.57355   0.65779    0.014
 6652.00    0.57406   0.65868    0.014
 6653.00    0.57531   0.65964    0.014
 6654.00    0.56026   0.65860    0.013
 6655.00    0.54504   0.65824    0.013
 6656.00    0.53853   0.65981    0.013
 6657.00    0.53273   0.65939    0.013
 6658.00    0.54173   0.65650    0.013
 6659.00    0.55099   0.65079    0.013
 6660.00    0.56336   0.64112    0.013
 6661.00    0.57584   0.63157    0.013
 6662.00    0.58915   0.63322    0.013
 6663.00    0.59707   0.64174    0.013
 6664.00    0.57166   0.64475    0.013
 6665.00    0.54730   0.64440    0.013
 6666.00    0.52808   0.64748    0.013
 6667.00    0.51893   0.65422    0.013
 6668.00    0.54955   0.66000    0.014
 6669.00    0.57387   0.66164    0.014
 6670.00    0.57751   0.66115    0.014
 6671.00    0.57400   0.66110    0.014
 6672.00    0.55065   0.66193    0.014
 6673.00    0.54343   0.66089    0.014
 6674.00    0.57458   0.65048    0.013
 6675.00    0.59725   0.62918    0.013
 6676.00    0.60253   0.61600    0.013
 6677.00    0.60984   0.62566    0.013
 6678.00    0.62079   0.64101    0.013
 6679.00    0.61708   0.64685    0.013
 6680.00    0.59048   0.64923    0.013
 6681.00    0.56898   0.65232    0.013
 6682.00    0.55448   0.65539    0.013
 6683.00    0.55207   0.65659    0.013
 6684.00    0.56427   0.65560    0.013
 6685.00    0.56952   0.65369    0.013
 6686.00    0.56737   0.65261    0.013
 6687.00    0.55798   0.65393    0.013
 6688.00    0.54179   0.65587    0.013
 6689.00    0.54190   0.65619    0.013
 6690.00    0.55551   0.65532    0.013
 6691.00    0.56550   0.65482    0.014
 6692.00    0.57283   0.65218    0.014
 6693.00    0.56870   0.64351    0.014
 6694.00    0.55724   0.63458    0.014
 6695.00    0.55932   0.63426    0.014
 6696.00    0.56900   0.63988    0.000
 6697.00    0.58663   0.64615    0.000
 6698.00    0.60813   0.65244    0.000
 6699.00    0.60436   0.65456    0.000
 6700.00    0.58995   0.65102    0.000
 6701.00    0.56830   0.64382    0.000
 6702.00    0.54405   0.63904    0.000
 6703.00    0.53463   0.64061    0.000
 6704.00    0.52973   0.64569    0.000
 6705.00    0.54660   0.64876    0.000
 6706.00    0.56900   0.64927    0.000
 6707.00    0.56381   0.64782    0.000
 6708.00    0.55293   0.64529    0.000
 6709.00    0.58949   0.64434    0.000
 6710.00    0.63373   0.64269    0.000
 6711.00    0.72203   0.63754    0.000
 6712.00    0.81566   0.63251    0.000
 6713.00    0.83382   0.62672    0.000
 6714.00    0.84571   0.61758    0.000
 6715.00    0.82775   0.60983    0.000
 6716.00    0.80837   0.61428    0.000
 6717.00    0.75419   0.62886    0.000
 6718.00    0.69964   0.63793    0.000
 6719.00    0.65160   0.63835    0.000
 6720.00    0.60408   0.63868    0.000
 6721.00    0.56675   0.64298    0.000
 6722.00    0.53121   0.64521    0.000
 6723.00    0.51626   0.64083    0.000
 6724.00    0.51338   0.63622    0.000
 6725.00    0.60673   0.63749    0.000
 6726.00    0.69338   0.64227    0.000
 6727.00    0.73985   0.64552    0.000
 6728.00    0.77107   0.64769    0.000
 6729.00    0.73010   0.64801    0.000
 6730.00    0.68517   0.64561    0.000
 6731.00    0.62498   0.64270    0.000
 6732.00    0.57325   0.64277    0.000
 6733.00    0.54877   0.64495    0.000
 6734.00    0.53704   0.64529    0.000
 6735.00    0.56008   0.64075    0.000
 6736.00    0.57707   0.63387    0.000
 6737.00    0.57995   0.63109    0.000
 6738.00    0.56819   0.63416    0.000
 6739.00    0.52685   0.63650    0.000
 6740.00    0.50891   0.63354    0.000
 6741.00    0.53217   0.63061    0.000
 6742.00    0.54329   0.63321    0.000
 6743.00    0.53571   0.63600    0.000
 6744.00    0.52187   0.63451    0.000
 6745.00    0.49955   0.63159    0.000
 6746.00    0.49089   0.62794    0.000
 6747.00    0.49849   0.62390    0.000
 6748.00    0.50792   0.62327    0.000
 6749.00    0.51928   0.62620    0.000
 6750.00    0.52905   0.62679    0.000
 6751.00    0.53733   0.62624    0.000
 6752.00    0.58291   0.63038    0.000
 6753.00    0.65894   0.63451    0.015
 6754.00    0.69687   0.63672    0.016
 6755.00    0.70743   0.64002    0.016
 6756.00    0.67125   0.64413    0.016
 6757.00    0.60561   0.64749    0.016
 6758.00    0.55870   0.64832    0.016
 6759.00    0.52213   0.64671    0.016
 6760.00    0.54095   0.64486    0.016
 6761.00    0.58630   0.64523    0.016
 6762.00    0.59501   0.64539    0.016
 6763.00    0.58855   0.64187    0.016
 6764.00    0.56512   0.63418    0.016
 6765.00    0.53568   0.62678    0.016
 6766.00    0.53434   0.62696    0.015
 6767.00    0.54141   0.63226    0.015
 6768.00    0.57960   0.63289    0.015
 6769.00    0.62551   0.62969    0.015
 6770.00    0.64089   0.63155    0.015
 6771.00    0.65014   0.63836    0.015
 6772.00    0.64547   0.64526    0.015
 6773.00    0.63861   0.64917    0.015
 6774.00    0.60157   0.64944    0.015
 6775.00    0.56100   0.64810    0.014
 6776.00    0.54257   0.64847    0.014
 6777.00    0.52588   0.65075    0.014
 6778.00    0.60820   0.64921    0.015
 6779.00    0.69484   0.64292    0.015
 6780.00    0.67199   0.63350    0.015
 6781.00    0.64730   0.62354    0.015
 6782.00    0.58982   0.61818    0.015
 6783.00    0.53612   0.61903    0.014
 6784.00    0.55074   0.62301    0.014
 6785.00    0.56404   0.62909    0.014
 6786.00    0.56304   0.63533    0.014
 6787.00    0.56246   0.63660    0.014
 6788.00    0.56503   0.63631    0.014
 6789.00    0.57054   0.63776    0.014
 6790.00    0.59311   0.63654    0.014
 6791.00    0.60904   0.63147    0.015
 6792.00    0.59430   0.62854    0.015
 6793.00    0.58490   0.62948    0.015
 6794.00    0.59567   0.63148    0.015
 6795.00    0.60293   0.63360    0.015
 6796.00    0.59913   0.63458    0.015
 6797.00    0.58628   0.63546    0.015
 6798.00    0.54920   0.63779    0.015
 6799.00    0.52383   0.63986    0.015
 6800.00    0.52534   0.63964    0.015
 6801.00    0.52092   0.63635    0.015
 6802.00    0.50471   0.63396    0.015
 6803.00    0.48700   0.63508    0.014
 6804.00    0.46669   0.63457    0.014
 6805.00    0.46565   0.63396    0.014
 6806.00    0.49383   0.63515    0.014
 6807.00    0.52574   0.63350    0.014
 6808.00    0.56263   0.63108    0.013
 6809.00    0.59760   0.63258    0.013
 6810.00    0.63032   0.63510    0.014
 6811.00    0.64488   0.63340    0.014
 6812.00    0.64064   0.62818    0.015
 6813.00    0.62696   0.62653    0.015
 6814.00    0.60466   0.63257    0.015
 6815.00    0.58623   0.63881    0.015
 6816.00    0.57092   0.63791    0.015
 6817.00    0.56493   0.63261    0.015
 6818.00    0.56553   0.62936    0.015
 6819.00    0.58453   0.63300    0.014
 6820.00    0.61497   0.63932    0.014
 6821.00    0.62636   0.64268    0.014
 6822.00    0.62741   0.64332    0.014
 6823.00    0.62127   0.64284    0.014
 6824.00    0.61172   0.64006    0.014
 6825.00    0.58233   0.63239    0.013
 6826.00    0.54486   0.62541    0.013
 6827.00    0.56473   0.62711    0.013
 6828.00    0.60452   0.63444    0.013
 6829.00    0.60353   0.63862    0.014
 6830.00    0.59061   0.63706    0.014
 6831.00    0.58006   0.63543    0.014
 6832.00    0.57008   0.63776    0.014
 6833.00    0.57578   0.63975    0.014
 6834.00    0.58456   0.63758    0.014
 6835.00    0.57495   0.63215    0.014
 6836.00    0.56253   0.62555    0.015
 6837.00    0.61018   0.61841    0.015
 6838.00    0.66457   0.61058    0.015
 6839.00    0.64445   0.60353    0.016
 6840.00    0.61876   0.60304    0.016
 6841.00    0.56544   0.61084    0.015
 6842.00    0.51103   0.62234    0.015
 6843.00    0.51132   0.63082    0.014
 6844.00    0.51397   0.63343    0.014
 6845.00    0.59564   0.63355    0.014
 6846.00    0.67036   0.63333    0.014
 6847.00    0.62782   0.63263    0.014
 6848.00    0.58961   0.63182    0.013
 6849.00    0.59675   0.63233    0.014
 6850.00    0.60515   0.63369    0.014
 6851.00    0.62286   0.63116    0.014
 6852.00    0.63836   0.62114    0.014
 6853.00    0.64133   0.61157    0.014
 6854.00    0.63642   0.61202    0.014
 6855.00    0.59597   0.61704    0.014
 6856.00    0.56226   0.62055    0.014
 6857.00    0.55353   0.62249    0.014
 6858.00    0.53942   0.61870    0.015
 6859.00    0.50866   0.61204    0.015
 6860.00    0.50313   0.61436    0.015
 6861.00    0.56396   0.62547    0.015
 6862.00    0.61096   0.63416    0.014
 6863.00    0.62673   0.63469    0.014
 6864.00    0.62580   0.62813    0.014
 6865.00    0.59220   0.61750    0.014
 6866.00    0.56180   0.61224    0.014
 6867.00    0.53688   0.61873    0.014
 6868.00    0.52153   0.62526    0.014
 6869.00    0.52047   0.62315    0.014
 6870.00    0.51738   0.61934    0.014
 6871.00    0.51160   0.62049    0.013
 6872.00    0.50934   0.62283    0.013
 6873.00    0.51115   0.62252    0.013
 6874.00    0.52210   0.62406    0.013
 6875.00    0.54238   0.62901    0.014
 6876.00    0.53681   0.63298    0.014
 6877.00    0.50798   0.63263    0.014
 6878.00    0.51162   0.62871    0.014
 6879.00    0.54101   0.62107    0.014
 6880.00    0.53799   0.61368    0.014
 6881.00    0.51237   0.61447    0.014
 6882.00    0.51457   0.62202    0.014
 6883.00    0.53378   0.62471    0.014
 6884.00    0.53728   0.62436    0.014
 6885.00    0.53238   0.62917    0.014
 6886.00    0.51821   0.63358    0.014
 6887.00    0.49974   0.63503    0.014
 6888.00    0.48064   0.63808    0.013
 6889.00    0.46129   0.63984    0.013
 6890.00    0.48926   0.63694    0.013
 6891.00    0.53337   0.63522    0.013
 6892.00    0.54260   0.63477    0.014
 6893.00    0.54183   0.63060    0.014
 6894.00    0.55819   0.62823    0.014
 6895.00    0.57861   0.63261    0.014
 6896.00    0.58523   0.63601    0.014
 6897.00    0.58922   0.63270    0.014
 6898.00    0.61023   0.62974    0.014
 6899.00    0.63374   0.63386    0.014
 6900.00    0.63655   0.63880    0.015
 6901.00    0.63713   0.63790    0.015
 6902.00    0.62957   0.63448    0.015
 6903.00    0.62144   0.63522    0.014
 6904.00    0.61535   0.63916    0.014
 6905.00    0.60934   0.64166    0.014
 6906.00    0.52662   0.64107    0.014
 6907.00    0.44573   0.63978    0.014
 6908.00    0.43698   0.63885    0.013
 6909.00    0.43293   0.63601    0.013
 6910.00    0.50320   0.63106    0.013
 6911.00    0.56765   0.62373    0.014
 6912.00    0.57373   0.61847    0.014
 6913.00    0.57926   0.62006    0.013
 6914.00    0.58079   0.62292    0.014
 6915.00    0.58212   0.62401    0.014
 6916.00    0.58235   0.62674    0.014
 6917.00    0.58493   0.63140    0.014
 6918.00    0.59782   0.63566    0.014
 6919.00    0.60780   0.63796    0.015
 6920.00    0.60724   0.63640    0.014
 6921.00    0.60594   0.62843    0.014
 6922.00    0.60240   0.61834    0.014
 6923.00    0.60829   0.61420    0.014
 6924.00    0.63855   0.61870    0.014
 6925.00    0.64938   0.62735    0.014
 6926.00    0.61702   0.63230    0.014
 6927.00    0.57790   0.63287    0.014
 6928.00    0.52574   0.63276    0.014
 6929.00    0.50175   0.63102    0.014
 6930.00    0.52511   0.62592    0.014
 6931.00    0.54729   0.62253    0.013
 6932.00    0.56771   0.62634    0.014
 6933.00    0.56630   0.63211    0.014
 6934.00    0.53662   0.63264    0.014
 6935.00    0.54182   0.63086    0.014
 6936.00    0.58680   0.63080    0.014
 6937.00    0.60994   0.63296    0.015
 6938.00    0.61113   0.63556    0.015
 6939.00    0.61610   0.63565    0.015
 6940.00    0.62443   0.63135    0.015
 6941.00    0.59977   0.62407    0.015
 6942.00    0.54932   0.61568    0.015
 6943.00    0.55294   0.61221    0.015
 6944.00    0.59374   0.61852    0.014
 6945.00    0.60527   0.62754    0.014
 6946.00    0.59917   0.63275    0.014
 6947.00    0.58149   0.63373    0.014
 6948.00    0.55772   0.62893    0.014
 6949.00    0.53988   0.62175    0.014
 6950.00    0.52476   0.61906    0.014
 6951.00    0.52211   0.61966    0.014
 6952.00    0.52437   0.62098    0.014
 6953.00    0.54732   0.62441    0.014
 6954.00    0.57719   0.62936    0.014
 6955.00    0.55845   0.63241    0.014
 6956.00    0.52606   0.63190    0.014
 6957.00    0.50159   0.63104    0.014
 6958.00    0.47895   0.63151    0.014
 6959.00    0.50818   0.63317    0.014
 6960.00    0.54703   0.63458    0.015
 6961.00    0.57153   0.63538    0.015
 6962.00    0.59397   0.63450    0.015
 6963.00    0.61243   0.63130    0.015
 6964.00    0.63047   0.63029    0.014
 6965.00    0.58960   0.63473    0.014
 6966.00    0.54480   0.63934    0.014
 6967.00    0.52418   0.63838    0.014
 6968.00    0.50433   0.63316    0.014
 6969.00    0.52517   0.62988    0.014
 6970.00    0.54649   0.63305    0.014
 6971.00    0.58276   0.63637    0.014
 6972.00    0.61163   0.63252    0.014
 6973.00    0.53032   0.62379    0.014
 6974.00    0.45807   0.61345    0.014
 6975.00    0.47272   0.59957    0.014
 6976.00    0.49003   0.58685    0.015
 6977.00    0.52586   0.58902    0.015
 6978.00    0.55499   0.60626    0.015
 6979.00    0.54813   0.62291    0.015
 6980.00    0.54742   0.63228    0.015
 6981.00    0.57318   0.63690    0.015
 6982.00    0.58828   0.63830    0.015
 6983.00    0.56550   0.63767    0.015
 6984.00    0.55494   0.63608    0.015
 6985.00    0.58084   0.63308    0.015
 6986.00    0.59250   0.62767    0.014
 6987.00    0.56799   0.62377    0.014
 6988.00    0.54387   0.62635    0.014
 6989.00    0.52057   0.63253    0.014
 6990.00    0.51436   0.63600    0.014
 6991.00    0.54053   0.63465    0.014
 6992.00    0.55158   0.63208    0.014
 6993.00    0.53760   0.63283    0.014
 6994.00    0.53065   0.63532    0.014
 6995.00    0.53390   0.63462    0.014
 6996.00    0.55322   0.62753    0.014
 6997.00    0.59307   0.61816    0.015
 6998.00    0.58968   0.61620    0.015
 6999.00    0.53766   0.62307    0.015
 7000.00    0.50846   0.62829    0.015
 7001.00    0.50192   0.62399    0.015
 7002.00    0.50037   0.61558    0.015
 7003.00    0.50318   0.61233    0.015
 7004.00    0.49534   0.61499    0.015
 7005.00    0.47927   0.62051    0.014
 7006.00    0.51397   0.62675    0.014
 7007.00    0.58306   0.63049    0.014
 7008.00    0.60649   0.62915    0.014
 7009.00    0.60281   0.62652    0.015
 7010.00    0.57542   0.62726    0.015
 7011.00    0.53576   0.62889    0.014
 7012.00    0.54708   0.62244    0.014
 7013.00    0.58128   0.60530    0.014
 7014.00    0.55170   0.59217    0.014
 7015.00    0.49750   0.59897    0.014
 7016.00    0.49028   0.61782    0.015
 7017.00    0.49848   0.63128    0.015
 7018.00    0.49291   0.63605    0.015
 7019.00    0.48355   0.63331    0.015
 7020.00    0.45715   0.62231    0.015
 7021.00    0.42689   0.60920    0.015
 7022.00    0.54601   0.60491    0.015
 7023.00    0.69212   0.61061    0.015
 7024.00    0.60899   0.61760    0.015
 7025.00    0.49412   0.62077    0.015
 7026.00    0.48944   0.62301    0.015
 7027.00    0.49571   0.62622    0.015
 7028.00    0.52129   0.62867    0.015
 7029.00    0.54809   0.62899    0.014
 7030.00    0.52567   0.62724    0.014
 7031.00    0.50204   0.62525    0.015
 7032.00    0.52545   0.62449    0.015
 7033.00    0.54954   0.62643    0.015
 7034.00    0.59238   0.62655    0.015
 7035.00    0.63242   0.61736    0.015
 7036.00    0.63325   0.60774    0.015
 7037.00    0.62743   0.61475    0.016
 7038.00    0.56019   0.63387    0.015
 7039.00    0.50844   0.64781    0.015
 7040.00    0.56099   0.65191    0.016
 7041.00    0.59769   0.64849    0.016
 7042.00    0.55147   0.64047    0.016
 7043.00    0.52334   0.63536    0.016
 7044.00    0.57138   0.63794    0.015
 7045.00    0.60974   0.64497    0.015
 7046.00    0.61442   0.65012    0.015
 7047.00    0.61031   0.64970    0.015
 7048.00    0.58049   0.64433    0.015
 7049.00    0.55040   0.63364    0.015
 7050.00    0.51968   0.61778   -2.000
 7051.00    0.50121   0.60345   -2.000
 7052.00    0.50911   0.59733   -2.000
 7053.00    0.52221   0.59995   -2.000
 7054.00    0.54502   0.60725   -2.000
 7055.00    0.58275   0.61230   -2.000
 7056.00    0.64482   0.60938   -2.000
 7057.00    0.67586   0.60010   -2.000
 7058.00    0.66254   0.59367   -2.000
 7059.00    0.65986   0.59558   -2.000
 7060.00    0.67057   0.60118   -2.000
 7061.00    0.68705   0.60685   -2.000
 7062.00    0.70994   0.61148   -2.000
 7063.00    0.70398   0.60990   -2.000
 7064.00    0.66981   0.60049   -2.000
 7065.00    0.65238   0.58936   -2.000
 7066.00    0.64939   0.58376   -2.000
 7067.00    0.65824   0.58981   -2.000
 7068.00    0.67608   0.60217   -2.000
 7069.00    0.65774   0.60947   -2.000
 7070.00    0.61522   0.61077   -2.000
 7071.00    0.63437   0.61104   -2.000
 7072.00    0.68957   0.61077   -2.000
 7073.00    0.71704   0.60909   -2.000
 7074.00    0.73038   0.60789   -2.000
 7075.00    0.67043   0.60860   -2.000
 7076.00    0.57811   0.61052   -2.000
 7077.00    0.58465   0.61232   -2.000
 7078.00    0.62866   0.61392   -2.000
 7079.00    0.63574   0.61266   -2.000
 7080.00    0.63091   0.60425   -2.000
 7081.00    0.61298   0.58931   -2.000
 7082.00    0.59152   0.57619   -2.000
 7083.00    0.54805   0.57391   -2.000
 7084.00    0.49972   0.57749   -2.000
 7085.00    0.56984   0.57664   -2.000
 7086.00    0.66079   0.57296   -2.000
 7087.00    0.62188   0.56964   -2.000
 7088.00    0.56558   0.56754   -2.000
 7089.00    0.49331   0.56887   -2.000
 7090.00    0.41953   0.57062   -2.000
 7091.00    0.47605   0.57050   -2.000
 7092.00    0.54021   0.57084   -2.000
 7093.00    0.57038   0.57110   -2.000
 7094.00    0.59956   0.57130   -2.000
 7095.00    0.60803   0.57347   -2.000
 7096.00    0.61511   0.57950   -2.000
 7097.00    0.58741   0.58623   -2.000
 7098.00    0.56140   0.58729   -2.000
 7099.00    0.55793   0.58442   -2.000
 7100.00    0.55324   0.58157   -2.000
 7101.00    0.53762   0.58276   -2.000
 7102.00    0.52526   0.58756   -2.000
 7103.00    0.53412   0.59014   -2.000
 7104.00    0.54184   0.58726   -2.000
 7105.00    0.54374   0.58402   -2.000
 7106.00    0.55086   0.58453   -2.000
 7107.00    0.57950   0.58399   -2.000
 7108.00    0.58893   0.57808   -2.000
 7109.00    0.53284   0.57243   -2.000
 7110.00    0.51413   0.57378   -2.000
 7111.00    0.60278   0.57944   -2.000
 7112.00    0.65869   0.58347   -2.000
 7113.00    0.63425   0.58570   -2.000
 7114.00    0.62733   0.58791   -2.000
 7115.00    0.65748   0.58867   -2.000
 7116.00    0.63891   0.58803   -2.000
 7117.00    0.53073   0.58715   -2.000
 7118.00    0.50088   0.58554   -2.000
 7119.00    0.59685   0.58190   -2.000
 7120.00    0.66910   0.57996   -2.000
 7121.00    0.70789   0.58403   -2.000
 7122.00    0.72267   0.58614   -2.000
 7123.00    0.70766   0.58084   -2.000
 7124.00    0.72006   0.57594   -2.000
 7125.00    0.76241   0.57642   -2.000
 7126.00    0.79539   0.57709   -2.000
 7127.00    0.81934   0.57156   -2.000
 7128.00    0.75488   0.56262   -2.000
 7129.00    0.61525   0.56073   -2.000
 7130.00    0.56116   0.56804   -2.000
 7131.00    0.57114   0.57721   -2.000
 7132.00    0.58975   0.58335   -2.000
 7133.00    0.61405   0.58575   -2.000
 7134.00    0.54754   0.58744   -2.000
 7135.00    0.42872   0.58887   -2.000
 7136.00    0.46794   0.58602   -2.000
 7137.00    0.58645   0.58225   -2.000
 7138.00    0.61347   0.58392   -2.000
 7139.00    0.60075   0.58739   -2.000
 7140.00    0.59250   0.58732   -2.000
 7141.00    0.58591   0.58628   -2.000
 7142.00    0.56442   0.58615   -2.000
 7143.00    0.53824   0.58578   -2.000
 7144.00    0.52730   0.58162   -2.000
 7145.00    0.52039   0.57016   -2.000
 7146.00    0.54859   0.56121   -2.000
 7147.00    0.58436   0.56544   -2.000
 7148.00    0.56163   0.57538   -2.000
 7149.00    0.52891   0.58363   -2.000
 7150.00    0.54331   0.59155   -2.000
 7151.00    0.56382   0.59578   -2.000
 7152.00    0.59717   0.59270   -2.000
 7153.00    0.63168   0.58934   -2.000
 7154.00    0.67593   0.59326   -2.000
 7155.00    0.72070   0.59828   -2.000
 7156.00    0.67203   0.59607   -2.000
 7157.00    0.62161   0.59023   -2.000
 7158.00    0.59077   0.58788   -2.000
 7159.00    0.56603   0.59039   -2.000
 7160.00    0.67985   0.58930   -2.000
 7161.00    0.78273   0.57658   -2.000
 7162.00    0.74787   0.56016   -2.000
 7163.00    0.71930   0.55625   -2.000
 7164.00    0.74434   0.56821   -2.000
 7165.00    0.74482   0.58327   -2.000
 7166.00    0.58967   0.59072   -2.000
 7167.00    0.46423   0.59039   -2.000
 7168.00    0.48632   0.58948   -2.000
 7169.00    0.51064   0.59245   -2.000
 7170.00    0.54391   0.59628   -2.000
 7171.00    0.54204   0.59760   -2.000
 7172.00    0.42280   0.59443   -2.000
 7173.00    0.34605   0.58609   -2.000
 7174.00    0.38916   0.58033   -2.000
 7175.00    0.46448   0.58453   -2.000
 7176.00    0.61749   0.58941   -2.000
 7177.00    0.72092   0.58228   -2.000
 7178.00    0.72110   0.56834   -2.000
 7179.00    0.70690   0.56336   -2.000
 7180.00    0.66668   0.57322   -2.000
 7181.00    0.62243   0.58635   -2.000
 7182.00    0.57182   0.59094   -2.000
 7183.00    0.52762   0.58660   -2.000
 7184.00    0.49231   0.57484   -2.000
 7185.00    0.47566   0.56268   -2.000
 7186.00    0.48182   0.55938   -2.000
 7187.00    0.49869   0.56348   -2.000
 7188.00    0.52710   0.57065   -2.000
 7189.00    0.56556   0.57553   -2.000
 7190.00    0.61360   0.57427   -2.000
 7191.00    0.60588   0.57231   -2.000
 7192.00    0.55141   0.57600   -2.000
 7193.00    0.52996   0.58015   -2.000
 7194.00    0.53288   0.57743   -2.000
 7195.00    0.57029   0.57466   -2.000
 7196.00    0.63006   0.57941   -2.000
 7197.00    0.60064   0.58540   -2.000
 7198.00    0.52062   0.58467   -2.000
 7199.00    0.55101   0.57952   -2.000
 7200.00    0.63593   0.57762   -2.000
 7201.00    0.58021   0.58315   -2.000
 7202.00    0.46445   0.59030   -2.000
 7203.00    0.49251   0.58694   -2.000
 7204.00    0.57320   0.57045   -2.000
 7205.00    0.51872   0.55621   -2.000
 7206.00    0.42236   0.55699   -2.000
 7207.00    0.42648   0.56841   -2.000
 7208.00    0.45653   0.58235   -2.000
 7209.00    0.47119   0.59024   -2.000
 7210.00    0.48261   0.58794   -2.000
 7211.00    0.53391   0.58150   -2.000
 7212.00    0.59184   0.57737   -2.000
 7213.00    0.54810   0.57741   -2.000
 7214.00    0.49166   0.58225   -2.000
 7215.00    0.52038   0.58918   -2.000
 7216.00    0.55648   0.59236   -2.000
 7217.00    0.59224   0.59040   -2.000
 7218.00    0.62798   0.58696   -2.000
