###################################################################
## OUTPUT of StarlightChains_v04.for    [Cid@UFSC - 01/Apr/2007] ##
###################################################################

## Some input info
KUG0210-078._62_34.txt                   [arq_obs]
Base.CB07.vall.4m                        [arq_base]
Masks.EmLines.NEW.gm                     [arq_masks]
StCv04.C11.config                        [arq_config]
   66                                    [N_base]
    0                                    [N_YAV_components = # of components with extra extinction!]
    0                                    [i_FitPowerLaw (1/0 = Yes/No)]
-9.99                                    [alpha_PowerLaw]
CCM                                      [red_law_option]
 1.458241                                [q_norm = A(l_norm)/A(V)]

## (Re)Sampling Parameters
 3741.00                                 [l_ini (A)]
 7218.00                                 [l_fin (A)]
    1.00                                 [dl    (A)]     (OBS: dl_cushion =    50.00 A)

## Normalization info
 4020.00                                 [l_norm (A) - for base]
 4010.00                                 [llow_norm (A) - window for f_obs]
 4060.00                                 [lupp_norm (A) - window for f_obs]
3.072601E-18                             [fobs_norm (in input units)]

## S/N
 3691.00                                 [llow_SN (A) - window for S/N]
 7268.00                                 [lupp_SN (A) - window for S/N]
   1.883                                 [S/N in S/N window]
   1.718                                 [S/N in norm. window]
   0.004                                 [S/N_err in S/N window]
   0.003                                 [S/N_err in norm. window]
  1.0000                                 [fscale_chi2]

## etc...
    -2008041                             [idum_orig]
  2336                                   [NOl_eff]
  2311                                   [Nl_eff]
    25    NSIGMA                         [Ntot_cliped & clip_method]
  1295910                                [Nglobal_steps]
   7                                     [N_chains]
  36                                     [NEX0s_base = N_base in EX0s-fits]
 0   0   1       25   2.0   6.549E+02    [Clip-Bug, RC-Crash & Burn-In warning-flags, n_censored_weights, wei_nsig_threshold & wei_limit]
    25     24.899     24.380      0.519  [idt_all, wdt_TotTime, wdt_UsrTime & wdt_SysTime (sec)]

## Synthesis Results - Best model ##

 8.94650E-06                             [chi2/Nl_eff]
    70.07499                             [adev (%)]

   129.99998                             [sum-of-x (%)]
 2.08662E-17                             [Flux_tot (units of input spectrum!)]
 5.50850E-14                             [Mini_tot (???)]
 3.09583E-14                             [Mcor_tot (???)]

 289.83                                  [v0_min  (km/s)]
   0.91                                  [vd_min  (km/s)]
 1.2309                                  [AV_min  (mag)]
 0.0000                                  [YAV_min (mag)]

# j     x_j(%)      Mini_j(%)     Mcor_j(%)     age_j(yr)     Z_j      (L/M)_j    YAV?  Mstars   component_j        a/Fe...       SSP_chi2r SSP_adev(%)   SSP_AV   SSP_x(%)
  1     16.0793     4.2827E-01    7.6203E-01    1.000000E+06  0.00400  1.094E-02    0   1.0000   age020_m42            0.0000     8.3142E-06    71.5142   2.2469   142.0208
  2      0.0000     0.0000E+00    0.0000E+00    3.160000E+06  0.00400  4.007E-02    0   0.9999   age045_m42            0.0000     8.3268E-06    69.9707   1.5151   151.4657
  3      6.3903     7.3338E-02    1.2381E-01    5.010000E+06  0.00400  2.539E-02    0   0.9488   age055_m42            0.0000     8.3882E-06    70.9163   1.8463   147.3929
  4      2.5005     2.7810E-02    4.5623E-02    6.610000E+06  0.00400  2.620E-02    0   0.9220   age061_m42            0.0000     8.4129E-06    70.2099   1.4561   151.0407
  5      0.0000     0.0000E+00    0.0000E+00    1.000000E+07  0.00400  1.322E-02    0   0.8862   age070_m42            0.0000     8.5079E-06    72.5268   1.2297   151.8139
  6      8.8674     3.2777E-01    4.9988E-01    1.445000E+07  0.00400  7.883E-03    0   0.8571   age078_m42            0.0000     8.4995E-06    72.7478   1.5484   148.4202
  7     26.4323     1.4668E+00    2.1333E+00    2.512000E+07  0.00400  5.251E-03    0   0.8174   age090_m42            0.0000     8.5379E-06    72.7864   1.1058   152.2446
  8      0.0000     0.0000E+00    0.0000E+00    4.000000E+07  0.00400  3.649E-03    0   0.7851   age104_m42            0.0000     8.5061E-06    72.2178   0.8692   153.9009
  9      0.0000     0.0000E+00    0.0000E+00    5.500000E+07  0.00400  3.098E-03    0   0.7629   age110_m42            0.0000     8.4666E-06    70.8092   0.9976   155.0145
 10      0.0000     0.0000E+00    0.0000E+00    1.015200E+08  0.00400  2.228E-03    0   0.7207   age116_m42            0.0000     8.4923E-06    69.7036   1.0027   155.8289
 11      0.0000     0.0000E+00    0.0000E+00    2.861200E+08  0.00400  1.093E-03    0   0.6648   age125_m42            0.0000     8.5711E-06    69.8178   0.4553   159.1112
 12      0.0000     0.0000E+00    0.0000E+00    5.088000E+08  0.00400  6.597E-04    0   0.6365   age130_m42            0.0000     8.5361E-06    68.2071   0.4183   161.7738
 13      1.3246     1.8104E+00    1.8677E+00    1.434000E+09  0.00400  2.132E-04    0   0.5798   age139_m42            0.0000     8.3760E-06    67.1701  -0.5836   166.4585
 14      0.0000     0.0000E+00    0.0000E+00    4.250000E+09  0.00400  5.895E-05    0   0.5377   age158_m42            0.0000     8.2220E-06    67.1466  -1.0000   160.5497
 15      0.0000     0.0000E+00    0.0000E+00    7.500000E+09  0.00400  3.510E-05    0   0.5212   age171_m42            0.0000     8.2601E-06    70.1189  -1.0000   154.8222
 16      1.2260     1.7818E+01    1.5960E+01    1.300000E+10  0.00400  2.005E-05    0   0.5034   age193_m42            0.0000     8.3832E-06    73.0588  -1.0000   149.4507
 17      0.0000     0.0000E+00    0.0000E+00    1.800000E+10  0.00400  1.525E-05    0   0.4967   age213_m42            0.0000     8.4148E-06    73.6563  -1.0000   147.9818
 18      0.0000     0.0000E+00    0.0000E+00    1.000000E+06  0.00800  1.238E-02    0   1.0000   age020_m52            0.0000     8.3156E-06    71.5512   2.2446   142.2860
 19     10.2473     9.7134E-02    1.7225E-01    3.160000E+06  0.00800  3.074E-02    0   0.9966   age045_m52            0.0000     8.3649E-06    71.5673   2.1715   143.3781
 20      1.8588     2.0301E-02    3.4110E-02    5.010000E+06  0.00800  2.668E-02    0   0.9443   age055_m52            0.0000     8.3899E-06    71.3215   1.9335   146.0599
 21      0.0000     0.0000E+00    0.0000E+00    6.610000E+06  0.00800  2.136E-02    0   0.9177   age061_m52            0.0000     8.3743E-06    72.2947   0.7130   154.5272
 22      0.0000     0.0000E+00    0.0000E+00    1.000000E+07  0.00800  1.215E-02    0   0.8827   age070_m52            0.0000     8.5166E-06    73.4283   1.4191   151.1092
 23      0.0000     0.0000E+00    0.0000E+00    1.445000E+07  0.00800  8.717E-03    0   0.8552   age078_m52            0.0000     8.4868E-06    72.7596   1.5182   150.3932
 24      0.0000     0.0000E+00    0.0000E+00    2.512000E+07  0.00800  5.592E-03    0   0.8162   age090_m52            0.0000     8.5251E-06    72.9478   1.1729   153.9971
 25     10.1693     7.6057E-01    1.0611E+00    4.000000E+07  0.00800  3.896E-03    0   0.7841   age104_m52            0.0000     8.4969E-06    72.0258   1.0710   155.6737
 26      6.1895     8.3963E-01    1.0796E+00    1.015200E+08  0.00800  2.148E-03    0   0.7226   age116_m52            0.0000     8.5140E-06    70.3842   0.9875   156.1917
 27      0.0000     0.0000E+00    0.0000E+00    2.861200E+08  0.00800  9.925E-04    0   0.6683   age125_m52            0.0000     8.5224E-06    68.2387   0.4782   163.4343
 28      1.5136     1.4042E+00    1.5336E+00    9.047900E+08  0.00800  3.141E-04    0   0.6138   age135_m52            0.0000     8.2791E-06    65.6715  -0.3870   173.5726
 29      0.0000     0.0000E+00    0.0000E+00    1.434000E+09  0.00800  1.719E-04    0   0.5853   age139_m52            0.0000     8.2069E-06    66.0196  -0.9644   170.0748
 30      1.5491     5.7342E+00    5.7137E+00    2.500000E+09  0.00800  7.872E-05    0   0.5600   age150_m52            0.0000     8.1966E-06    69.1701  -1.0000   160.1366
 31      0.0000     0.0000E+00    0.0000E+00    4.250000E+09  0.00800  4.336E-05    0   0.5426   age158_m52            0.0000     8.2002E-06    69.4756  -1.0000   158.2942
 32      0.0000     0.0000E+00    0.0000E+00    6.250000E+09  0.00800  3.159E-05    0   0.5319   age166_m52            0.0000     8.4043E-06    72.6101  -1.0000   152.3728
 33      0.0000     0.0000E+00    0.0000E+00    1.300000E+10  0.00800  1.361E-05    0   0.5073   age193_m52            0.0000     9.3162E-06    81.1744  -1.0000   135.2151
 34      0.6225     1.8349E+01    1.6292E+01    1.800000E+10  0.00800  9.886E-06    0   0.4990   age213_m52            0.0000     9.6606E-06    82.2149  -1.0000   130.5851
 35      0.0000     0.0000E+00    0.0000E+00    1.000000E+06  0.02000  1.544E-02    0   1.0000   age020_m62            0.0000     8.3342E-06    71.6120   2.2409   142.6054
 36      0.0000     0.0000E+00    0.0000E+00    3.160000E+06  0.02000  3.762E-02    0   0.9858   age045_m62            0.0000     8.3602E-06    71.7860   2.1811   143.9217
 37      0.0000     0.0000E+00    0.0000E+00    5.010000E+06  0.02000  3.296E-02    0   0.9342   age055_m62            0.0000     8.3802E-06    70.4604   1.8011   149.5138
 38      0.0000     0.0000E+00    0.0000E+00    8.710000E+06  0.02000  1.154E-02    0   0.8861   age067_m62            0.0000     8.8215E-06    78.5761   0.9637   151.1669
 39      0.0000     0.0000E+00    0.0000E+00    1.445000E+07  0.02000  7.663E-03    0   0.8472   age078_m62            0.0000     8.5610E-06    74.8171   1.0902   153.3784
 40      0.0000     0.0000E+00    0.0000E+00    2.512000E+07  0.02000  4.532E-03    0   0.8099   age090_m62            0.0000     8.6414E-06    75.0093   1.0962   152.1756
 41      0.0000     0.0000E+00    0.0000E+00    5.500000E+07  0.02000  2.733E-03    0   0.7595   age110_m62            0.0000     8.5551E-06    72.1511   1.0614   154.1624
 42      3.9081     8.3181E-01    1.0338E+00    1.609000E+08  0.02000  1.369E-03    0   0.6985   age120_m62            0.0000     8.5824E-06    69.5368   0.8655   159.7011
 43      0.2116     6.8412E-02    8.1728E-02    2.861200E+08  0.02000  9.013E-04    0   0.6714   age125_m62            0.0000     8.5670E-06    67.8645   0.5905   165.4478
 44      2.0998     1.2169E+00    1.3963E+00    5.088000E+08  0.02000  5.028E-04    0   0.6449   age130_m62            0.0000     8.3590E-06    65.3558   0.1499   173.1265
 45      2.8302     3.3965E+00    3.7343E+00    9.047900E+08  0.02000  2.428E-04    0   0.6179   age135_m62            0.0000     8.1621E-06    64.6374  -0.4688   173.7994
 46      7.6685     1.7692E+01    1.8598E+01    1.434000E+09  0.02000  1.263E-04    0   0.5908   age139_m62            0.0000     8.0972E-06    64.2790  -0.9265   171.9594
 47      0.6581     3.2042E+00    3.2344E+00    2.500000E+09  0.02000  5.985E-05    0   0.5673   age150_m62            0.0000     8.1528E-06    68.5722  -1.0000   162.1532
 48      0.0000     0.0000E+00    0.0000E+00    4.250000E+09  0.02000  3.271E-05    0   0.5468   age158_m62            0.0000     8.5853E-06    73.4751  -1.0000   151.1590
 49      0.0000     0.0000E+00    0.0000E+00    1.000000E+10  0.02000  1.360E-05    0   0.5167   age181_m62            0.0000     9.4137E-06    78.8354  -1.0000   137.9620
 50      0.0000     0.0000E+00    0.0000E+00    1.800000E+10  0.02000  7.124E-06    0   0.5013   age213_m62            0.0000     1.0097E-05    81.4743  -1.0000   128.7760
 51      0.0000     0.0000E+00    0.0000E+00    1.000000E+06  0.05000  2.592E-02    0   0.9998   age020_m72            0.0000     8.3917E-06    71.8759   2.2409   142.3045
 52     11.4722     6.8996E-02    1.1757E-01    3.160000E+06  0.05000  4.845E-02    0   0.9577   age045_m72            0.0000     8.3851E-06    71.2173   2.0650   145.6152
 53      1.4712     1.3955E-02    2.2712E-02    5.010000E+06  0.05000  3.072E-02    0   0.9147   age055_m72            0.0000     8.4924E-06    73.7649   1.6467   149.0454
 54      0.0000     0.0000E+00    0.0000E+00    6.610000E+06  0.05000  1.455E-02    0   0.8877   age061_m72            0.0000     9.0034E-06    80.2250   1.0383   150.6737
 55      0.0000     0.0000E+00    0.0000E+00    1.000000E+07  0.05000  9.074E-03    0   0.8524   age070_m72            0.0000     8.4939E-06    73.6753   1.8189   148.7333
 56      0.0000     0.0000E+00    0.0000E+00    2.512000E+07  0.05000  4.250E-03    0   0.7902   age090_m72            0.0000     8.5784E-06    73.0223   1.5284   150.7788
 57      0.0000     0.0000E+00    0.0000E+00    4.000000E+07  0.05000  3.087E-03    0   0.7618   age104_m72            0.0000     8.6393E-06    73.0434   1.3136   152.5916
 58      0.0000     0.0000E+00    0.0000E+00    1.015200E+08  0.05000  1.700E-03    0   0.7096   age116_m72            0.0000     8.6427E-06    70.5467   1.0304   157.9314
 59      0.0000     0.0000E+00    0.0000E+00    2.861200E+08  0.05000  7.384E-04    0   0.6633   age125_m72            0.0000     8.4570E-06    66.4848   0.4239   169.4788
 60      0.0000     0.0000E+00    0.0000E+00    5.088000E+08  0.05000  3.819E-04    0   0.6372   age130_m72            0.0000     8.2054E-06    64.7955  -0.1266   175.4378
 61      1.5682     2.7263E+00    2.9640E+00    9.047900E+08  0.05000  1.676E-04    0   0.6110   age135_m72            0.0000     7.9830E-06    62.6915  -0.8890   175.8631
 62      0.0000     0.0000E+00    0.0000E+00    1.434000E+09  0.05000  8.837E-05    0   0.5874   age139_m72            0.0000     8.1404E-06    68.3494  -1.0000   164.8634
 63      3.1413     2.1624E+01    2.1539E+01    2.500000E+09  0.05000  4.233E-05    0   0.5598   age150_m72            0.0000     8.5710E-06    73.1025  -1.0000   152.7893
 64      0.0000     0.0000E+00    0.0000E+00    6.250000E+09  0.05000  1.435E-05    0   0.5249   age166_m72            0.0000     9.6721E-06    80.3455  -1.0000   133.7820
 65      0.0000     0.0000E+00    0.0000E+00    1.300000E+10  0.05000  6.513E-06    0   0.5036   age193_m72            0.0000     1.0707E-05    83.8088  -1.0000   123.6803
 66      0.0000     0.0000E+00    0.0000E+00    1.800000E+10  0.05000  4.527E-06    0   0.4945   age213_m72            0.0000     1.1373E-05    85.4688  -1.0000   116.7594


## Synthesis Results - Average & Chains ##

# j      x_j: min, <> & last-chain-values for 1 ...  7 chains
  1     16.0793      1.2876      0.2624      0.0772      0.4835      1.4494      1.0606      0.2161      0.6391
  2      0.0000      1.0332      0.4271      0.4043      0.0000      0.0000      0.0000      2.6118      0.4096
  3      6.3903      1.3990      0.0000      0.3255      0.0000      0.0000      1.2470      0.8170      0.5645
  4      2.5005      1.2447      0.2925      0.0000      1.1517      0.3557      1.4066      0.0000      0.8909
  5      0.0000      1.0411      0.7948      0.0000      0.3095      0.0285      0.2372      0.0000      0.5553
  6      8.8674      1.1857      0.6723      0.1910      0.7543      1.2687      0.9907      0.2614      0.4969
  7     26.4323      1.3016      0.8039      0.1667      1.8273      0.3694      0.8217      0.0000      0.0000
  8      0.0000      1.3513      0.0000      0.3405      1.3684      0.0000      0.1853      0.0000      0.0242
  9      0.0000      1.4748      0.6467      1.0035      1.2351      1.7856      0.1090      0.0677      0.0000
 10      0.0000      1.3644      0.5154      0.8714      0.0749      1.0456      0.0000      0.5878      0.4799
 11      0.0000      1.5807      0.6154      0.2196      1.1098      0.1259      0.0000      0.0000      1.6306
 12      0.0000      0.9506      0.0000      1.3408      0.0000      0.0000      0.8091      0.0000      0.5082
 13      1.3246      0.9112      0.2336      0.0000      0.3205      1.0565      0.9098      0.2695      0.1796
 14      0.0000      1.3317      0.0000      0.2988      0.0000      0.0000      0.1417      0.2557      0.9665
 15      0.0000      1.2872      0.4876      0.8056      0.1669      0.0000      0.2210      0.1444      0.0000
 16      1.2260      1.5023      0.1136      0.0000      2.7302      0.8514      0.4800      0.0536      1.5913
 17      0.0000      1.2129      0.6985      0.0448      1.1735      1.9718      1.3031      0.0000      0.5843
 18      0.0000      1.2784      0.3079      1.6086      0.0000      0.9234      0.1947      1.7271      0.3074
 19     10.2473      0.8235      0.0000      0.0249      1.1060      0.0000      0.3087      0.4078      1.5386
 20      1.8588      1.0593      0.0000      0.0969      0.9252      0.3480      2.1323      1.2959      0.0000
 21      0.0000      1.0428      0.1526      0.9782      0.0000      1.0223      0.2159      0.6201      0.4307
 22      0.0000      1.0855      0.5132      1.2777      0.0000      1.4986      0.0939      0.0000      0.0000
 23      0.0000      1.2567      0.2645      0.0000      0.3940      1.2067      0.0000      1.3168      1.6489
 24      0.0000      1.0362      0.7555      1.1658      0.3280      0.0000      0.0000      0.0000      0.4584
 25     10.1693      0.8679      0.0000      0.0072      0.0000      0.6370      0.6484      0.0000      0.9651
 26      6.1895      1.1004      0.0000      0.8035      0.0000      0.0000      1.5352      0.0000      0.8578
 27      0.0000      1.0768      0.0000      0.0000      1.1078      0.4212      0.5084      0.0000      0.3303
 28      1.5136      1.1863      0.4500      0.0000      0.0000      0.0000      0.5570      0.0000      0.9153
 29      0.0000      1.2597      0.0046      0.0000      0.8072      0.0000      1.1503      0.0000      0.1723
 30      1.5491      1.1011      1.8885      0.0000      0.2174      1.6087      1.8062      0.0529      0.0000
 31      0.0000      0.9020      0.3101      0.0000      1.0266      0.0396      0.0701      0.1271      0.8656
 32      0.0000      0.9829      0.0157      0.0000      0.0000      1.5618      0.0135      0.3939      0.0919
 33      0.0000      0.9945      0.0000      0.8383      0.0469      0.0545      0.5476      0.0212      0.0039
 34      0.6225      1.0163      0.5714      0.0000      0.0000      1.2407      0.7247      0.0000      0.5462
 35      0.0000      1.0367      0.2306      1.1989      0.9210      0.3140      0.0494      1.4406      0.5835
 36      0.0000      1.1263      0.8217      1.1953      0.0450      1.5369      0.0733      0.0000      0.9941
 37      0.0000      1.1436      1.1974      0.0000      1.0352      0.5215      0.9019      0.3421      0.1617
 38      0.0000      0.9261      0.2188      0.0000      1.0254      0.7986      0.0000      1.7153      0.0000
 39      0.0000      0.9363      0.2569      0.4343      0.0147      0.7914      1.6759      0.0000      1.0062
 40      0.0000      1.1434      1.9776      0.0000      0.0000      0.2197      0.6130      0.3123      0.0000
 41      0.0000      1.0574      1.0767      2.0038      0.7043      0.0000      0.0000      0.9172      0.4051
 42      3.9081      1.1285      0.5956      2.9310      0.0100      0.1132      0.6022      1.9467      0.1940
 43      0.2116      1.2284      1.0407      1.3314      0.6833      0.0000      0.3672      0.5183      2.0089
 44      2.0998      1.1724      0.2208      0.0000      0.8660      0.0000      0.9727      0.6454      0.2018
 45      2.8302      1.5815      0.4043      0.2399      0.3188      1.1159      2.7756      0.4532      0.0854
 46      7.6685      1.4109      0.9520      0.3742      0.0368      0.7194      1.5346      0.8711      0.0000
 47      0.6581      1.4395      1.1081      1.2544      1.2238      0.0000      0.9194      1.0734      0.3716
 48      0.0000      1.0493      0.0000      1.4836      0.3378      2.1433      0.0000      0.5951      0.2598
 49      0.0000      1.2427      0.5466      1.0737      1.5117      0.0000      0.0000      1.2675      0.0000
 50      0.0000      0.6736      0.0000      0.0000      0.1545      1.3295      0.2142      0.0000      0.0000
 51      0.0000      1.3665      0.6557      0.5417      0.0093      0.0000      0.0000      2.5423      0.2731
 52     11.4722      1.1405      0.1126      0.0621      0.6753      0.0000      0.7819      0.0000      0.2734
 53      1.4712      1.8758      0.2952      1.0911      1.3634      0.2277      0.8254      1.4981      0.2493
 54      0.0000      1.2336      0.0090      0.0000      0.9124      0.0000      0.0000      0.0000      1.3616
 55      0.0000      1.1499      0.0000      0.2958      0.5590      1.3052      0.0000      0.8364      1.7739
 56      0.0000      0.7443      0.0000      0.0000      1.2134      0.0000      0.0000      0.3252      0.1246
 57      0.0000      1.2838      0.0000      0.0000      0.0000      0.7183      0.0610      1.0762      0.0000
 58      0.0000      1.2195      1.2318      0.1433      0.0000      0.0323      0.0273      0.4867      0.0190
 59      0.0000      0.6513      0.0810      0.3107      0.1685      0.1341      0.0000      0.0000      0.0000
 60      0.0000      0.6736      0.1702      0.3931      0.2798      0.9149      0.2116      0.0000      0.8792
 61      1.5682      5.3827      9.6826      8.2717      9.1253      8.8430      6.5831      8.3712      8.5589
 62      0.0000      1.3225      0.0000      0.0000      0.3961      1.9418      1.2678      0.2135      0.0000
 63      3.1413      1.2139      0.4040      0.0000      0.1632      0.0000      0.4345      0.6787      0.1533
 64      0.0000      1.1617      0.1262      0.8936      0.9416      3.8640      0.3045      0.0000      0.0000
 65      0.0000      9.7978     21.1401     22.1089     21.2262     14.6190     21.1382     23.3676     20.9581
 66      0.0000     21.3038     52.7102     48.8828     44.4973     45.9179     47.4334     46.3392     50.0646

# j      m_j: min, <> & last-chain-values for 1 ...  7 chains
  1  7.6203E-01  3.3044E-03  3.1723E-04  9.7423E-05  6.5033E-04  1.9882E-03  1.3759E-03  2.8206E-04  8.0592E-04
  2  0.0000E+00  7.2381E-04  1.4097E-04  1.3923E-04  0.0000E+00  0.0000E+00  0.0000E+00  9.3065E-04  1.4103E-04
  3  1.2381E-01  1.4677E-03  0.0000E+00  1.6786E-04  0.0000E+00  0.0000E+00  6.6138E-04  4.3596E-04  2.9104E-04
  4  4.5623E-02  1.2297E-03  1.3616E-04  0.0000E+00  5.9643E-04  1.8782E-04  7.0255E-04  0.0000E+00  4.3254E-04
  5  0.0000E+00  1.9594E-03  7.0482E-04  0.0000E+00  3.0530E-04  2.8636E-05  2.2572E-04  0.0000E+00  5.1356E-04
  6  4.9988E-01  3.6193E-03  9.6704E-04  2.8655E-04  1.2069E-03  2.0700E-03  1.5288E-03  4.0577E-04  7.4536E-04
  7  2.1333E+00  5.6885E-03  1.6553E-03  3.5808E-04  4.1857E-03  8.6299E-04  1.8154E-03  0.0000E+00  0.0000E+00
  8  0.0000E+00  8.1626E-03  0.0000E+00  1.0109E-03  4.3326E-03  0.0000E+00  5.6576E-04  0.0000E+00  7.1888E-05
  9  0.0000E+00  1.0196E-02  2.1066E-03  3.4102E-03  4.4758E-03  6.5986E-03  3.8104E-04  2.3791E-04  0.0000E+00
 10  0.0000E+00  1.2391E-02  2.2054E-03  3.8901E-03  3.5671E-04  5.0757E-03  0.0000E+00  2.7149E-03  2.1417E-03
 11  0.0000E+00  2.6992E-02  4.9516E-03  1.8436E-03  9.9328E-03  1.1496E-03  0.0000E+00  0.0000E+00  1.3684E-02
 12  0.0000E+00  2.5748E-02  0.0000E+00  1.7852E-02  0.0000E+00  0.0000E+00  1.1081E-02  0.0000E+00  6.7649E-03
 13  1.8677E+00  6.9573E-02  8.4051E-03  0.0000E+00  1.2826E-02  4.3114E-02  3.5117E-02  1.0465E-02  6.7394E-03
 14  0.0000E+00  3.4101E-01  0.0000E+00  3.7613E-02  0.0000E+00  0.0000E+00  1.8346E-02  3.3299E-02  1.2162E-01
 15  0.0000E+00  5.3662E-01  9.5788E-02  1.6507E-01  3.6474E-02  0.0000E+00  4.6572E-02  3.0610E-02  0.0000E+00
 16  1.5960E+01  1.0589E+00  3.7722E-02  0.0000E+00  1.0087E+00  3.2077E-01  1.7105E-01  1.9205E-02  5.5123E-01
 17  0.0000E+00  1.1091E+00  3.0095E-01  2.0124E-02  5.6243E-01  9.6376E-01  6.0240E-01  0.0000E+00  2.6257E-01
 18  0.0000E+00  2.8992E-03  3.2896E-04  1.7931E-03  0.0000E+00  1.1193E-03  2.2317E-04  1.9920E-03  3.4258E-04
 19  1.7225E-01  7.4952E-04  0.0000E+00  1.1143E-05  5.2767E-04  0.0000E+00  1.4207E-04  1.8877E-04  6.8821E-04
 20  3.4110E-02  1.0526E-03  0.0000E+00  4.7327E-05  4.8187E-04  1.8485E-04  1.0712E-03  6.5493E-04  0.0000E+00
 21  0.0000E+00  1.2578E-03  8.6740E-05  5.8000E-04  0.0000E+00  6.5911E-04  1.3166E-04  3.8040E-04  2.5531E-04
 22  0.0000E+00  2.2139E-03  4.9318E-04  1.2810E-03  0.0000E+00  1.6337E-03  9.6777E-05  0.0000E+00  0.0000E+00
 23  0.0000E+00  3.4615E-03  3.4330E-04  0.0000E+00  5.6885E-04  1.7765E-03  0.0000E+00  1.8447E-03  2.2319E-03
 24  0.0000E+00  4.2461E-03  1.4588E-03  2.3482E-03  7.0440E-04  0.0000E+00  0.0000E+00  0.0000E+00  9.2314E-04
 25  1.0611E+00  4.9040E-03  0.0000E+00  1.9876E-05  0.0000E+00  1.9238E-03  1.8523E-03  0.0000E+00  2.6797E-03
 26  1.0796E+00  1.0393E-02  0.0000E+00  3.7300E-03  0.0000E+00  0.0000E+00  7.3302E-03  0.0000E+00  3.9811E-03
 27  0.0000E+00  2.0356E-02  0.0000E+00  0.0000E+00  1.0976E-02  4.2562E-03  4.8589E-03  0.0000E+00  3.0688E-03
 28  1.5336E+00  6.5081E-02  1.1633E-02  0.0000E+00  0.0000E+00  0.0000E+00  1.5449E-02  0.0000E+00  2.4678E-02
 29  0.0000E+00  1.2042E-01  2.0603E-04  0.0000E+00  4.0446E-02  0.0000E+00  5.5589E-02  0.0000E+00  8.0920E-03
 30  5.7137E+00  2.1991E-01  1.7772E-01  0.0000E+00  2.2761E-02  1.7174E-01  1.8237E-01  5.3697E-03  0.0000E+00
 31  0.0000E+00  3.1690E-01  5.1328E-02  0.0000E+00  1.8904E-01  7.4398E-03  1.2445E-02  2.2704E-02  1.4944E-01
 32  0.0000E+00  4.6462E-01  3.4894E-03  0.0000E+00  0.0000E+00  3.9463E-01  3.2287E-03  9.4700E-02  2.1360E-02
 33  0.0000E+00  1.0407E+00  0.0000E+00  4.3123E-01  2.5708E-02  3.0489E-02  2.8969E-01  1.1296E-02  2.0236E-03
 34  1.6292E+01  1.4402E+00  3.8151E-01  0.0000E+00  0.0000E+00  9.3977E-01  5.1920E-01  0.0000E+00  3.8040E-01
 35  0.0000E+00  1.8850E-03  1.9756E-04  1.0716E-03  8.7777E-04  3.0517E-04  4.5400E-05  1.3322E-03  5.2140E-04
 36  0.0000E+00  8.2861E-04  2.8484E-04  4.3223E-04  1.7371E-05  6.0437E-04  2.7271E-05  0.0000E+00  3.5940E-04
 37  0.0000E+00  9.0998E-04  4.4895E-04  0.0000E+00  4.3176E-04  2.2182E-04  3.6282E-04  1.3844E-04  6.3213E-05
 38  0.0000E+00  1.9965E-03  2.2228E-04  0.0000E+00  1.1587E-03  9.2023E-04  0.0000E+00  1.8807E-03  0.0000E+00
 39  0.0000E+00  2.9062E-03  3.7575E-04  6.6258E-04  2.3988E-05  1.3130E-03  2.6298E-03  0.0000E+00  1.5348E-03
 40  0.0000E+00  5.7368E-03  4.6752E-03  0.0000E+00  0.0000E+00  5.8914E-04  1.5549E-03  7.9685E-04  0.0000E+00
 41  0.0000E+00  8.2499E-03  3.9580E-03  7.6848E-03  2.8802E-03  0.0000E+00  0.0000E+00  3.6398E-03  1.5530E-03
 42  1.0338E+00  1.6165E-02  4.0203E-03  2.0638E-02  7.4916E-05  8.6657E-04  4.3611E-03  1.4183E-02  1.3655E-03
 43  8.1728E-02  2.5690E-02  1.0255E-02  1.3687E-02  7.4904E-03  0.0000E+00  3.8824E-03  5.5136E-03  2.0647E-02
 44  1.3963E+00  4.2217E-02  3.7469E-03  0.0000E+00  1.6345E-02  0.0000E+00  1.7708E-02  1.1821E-02  3.5713E-03
 45  3.7343E+00  1.1299E-01  1.3610E-02  8.4242E-03  1.1939E-02  4.2616E-02  1.0025E-01  1.6468E-02  2.9977E-03
 46  1.8598E+01  1.8529E-01  5.8912E-02  2.4156E-02  2.5345E-03  5.0499E-02  1.0188E-01  5.8185E-02  0.0000E+00
 47  3.2344E+00  3.8308E-01  1.3894E-01  1.6408E-01  1.7070E-01  0.0000E+00  1.2370E-01  1.4528E-01  4.8601E-02
 48  0.0000E+00  4.9245E-01  0.0000E+00  3.4224E-01  8.3088E-02  5.3765E-01  0.0000E+00  1.4204E-01  5.9921E-02
 49  0.0000E+00  1.3255E+00  2.7470E-01  5.6293E-01  8.4516E-01  0.0000E+00  0.0000E+00  6.8763E-01  0.0000E+00
 50  0.0000E+00  1.3307E+00  0.0000E+00  0.0000E+00  1.5996E-01  1.4039E+00  2.1391E-01  0.0000E+00  0.0000E+00
 51  0.0000E+00  1.4798E-03  3.3458E-04  2.8837E-04  5.2508E-06  0.0000E+00  0.0000E+00  1.4002E-03  1.4533E-04
 52  1.1757E-01  6.3293E-04  2.9431E-05  1.6935E-05  1.9643E-04  0.0000E+00  2.1936E-04  0.0000E+00  7.4558E-05
 53  2.2712E-02  1.5680E-03  1.1628E-04  4.4834E-04  5.9738E-04  1.0174E-04  3.4882E-04  6.3692E-04  1.0241E-04
 54  0.0000E+00  2.1130E-03  7.2402E-06  0.0000E+00  8.1916E-04  0.0000E+00  0.0000E+00  0.0000E+00  1.1461E-03
 55  0.0000E+00  3.0326E-03  0.0000E+00  3.8340E-04  7.7274E-04  1.8400E-03  0.0000E+00  1.1220E-03  2.2991E-03
 56  0.0000E+00  3.8850E-03  0.0000E+00  0.0000E+00  3.3200E-03  0.0000E+00  0.0000E+00  8.6350E-04  3.1974E-04
 57  0.0000E+00  8.8944E-03  0.0000E+00  0.0000E+00  0.0000E+00  2.6601E-03  2.1348E-04  3.7923E-03  0.0000E+00
 58  0.0000E+00  1.4291E-02  6.8017E-03  8.2552E-04  0.0000E+00  2.0256E-04  1.6188E-04  2.9011E-03  1.0970E-04
 59  0.0000E+00  1.6425E-02  9.6196E-04  3.8516E-03  2.2270E-03  1.8080E-03  0.0000E+00  0.0000E+00  0.0000E+00
 60  0.0000E+00  3.1554E-02  3.7561E-03  9.0522E-03  6.8698E-03  2.2907E-02  5.0104E-03  0.0000E+00  2.0240E-02
 61  2.9640E+00  5.5092E-01  4.6695E-01  4.1614E-01  4.8954E-01  4.8377E-01  3.4063E-01  4.3577E-01  4.3049E-01
 62  0.0000E+00  2.4679E-01  0.0000E+00  0.0000E+00  3.8742E-02  1.9369E-01  1.1961E-01  2.0266E-02  0.0000E+00
 63  2.1539E+01  4.5071E-01  7.0674E-02  0.0000E+00  3.1754E-02  0.0000E+00  8.1551E-02  1.2816E-01  2.7965E-02
 64  0.0000E+00  1.1930E+00  6.1072E-02  4.5108E-01  5.0682E-01  2.1210E+00  1.5806E-01  0.0000E+00  0.0000E+00
 65  0.0000E+00  2.1269E+01  2.1624E+01  2.3591E+01  2.4152E+01  1.6963E+01  2.3198E+01  2.5800E+01  2.2358E+01
 66  0.0000E+00  6.5333E+01  7.6167E+01  7.3688E+01  7.1526E+01  7.5269E+01  7.3540E+01  7.2278E+01  7.5450E+01

# AV, chi2 & Mass for <> & i_chain = 1 ...  7 solutions
AV       1.2309     -0.9411     -0.9444     -0.8942     -0.8226     -0.8488     -0.9000     -0.8716     -0.8687
chi2 8.9465E-06  1.1404E-05  1.0698E-05  1.0644E-05  1.0630E-05  1.0624E-05  1.0572E-05  1.0633E-05  1.0611E-05
Mass 3.0958E-14  3.0919E-14  6.5328E-14  6.6991E-14  6.9170E-14  6.5483E-14  6.4633E-14  6.6743E-14  6.9346E-14
 289.83                                  [v0_min (km/s) before EX0s...]
   0.91                                  [vd_min (km/s) before EX0s...]


## Synthetic spectrum (Best Model) ##l_obs f_obs f_syn wei
 3478    [Nl_obs]
 3741.00   -1.89375   0.93589    0.000
 3742.00   -0.56459   1.00460    0.000
 3743.00    0.79227   1.05865    0.000
 3744.00    1.57208   1.09072    0.000
 3745.00    2.01567   1.09970    0.009
 3746.00    2.26997   1.08926    0.009
 3747.00    2.42814   1.07122    0.009
 3748.00    0.97832   1.04678    0.008
 3749.00   -1.17859   1.00822    0.000
 3750.00   -1.86754   0.96111    0.000
 3751.00   -2.00230   0.90299    0.000
 3752.00    0.35513   0.82574    0.008
 3753.00    3.51128   0.76333    0.008
 3754.00    4.33890   0.76353    0.008
 3755.00    4.54251   0.82570    0.008
 3756.00    3.12644   0.90556    0.008
 3757.00    1.35487   0.97571    0.007
 3758.00   -0.13994   1.03426    0.000
 3759.00   -1.58643   1.07542    0.000
 3760.00   -1.42761   1.09206    0.000
 3761.00   -1.05554   1.09008    0.000
 3762.00    0.04893   1.08842    0.007
 3763.00    1.22223   1.09734    0.007
 3764.00    0.17492   1.11260    0.007
 3765.00   -1.00050   1.12541    0.000
 3766.00   -1.12474   1.12791    0.000
 3767.00   -1.21172   1.11602    0.000
 3768.00    0.19514   1.09490    0.007
 3769.00    1.54479   1.06347    0.007
 3770.00    1.50499   1.01233    0.007
 3771.00    1.44672   0.95056    0.007
 3772.00    1.14648   0.88375    0.007
 3773.00    0.94818   0.80995    0.007
 3774.00    1.64486   0.76102    0.007
 3775.00    2.10316   0.78225    0.007
 3776.00    1.01580   0.85970    0.007
 3777.00   -0.01807   0.94145    0.000
 3778.00   -0.78124   1.00455    0.000
 3779.00   -1.19310   1.05468    0.000
 3780.00   -0.16695   1.09766    0.000
 3781.00    0.53905   1.13325    0.007
 3782.00    0.15918   1.16103    0.008
 3783.00    0.05295   1.18662    0.008
 3784.00    0.72937   1.20810    0.008
 3785.00    1.48567   1.21861    0.008
 3786.00    2.43717   1.22352    0.008
 3787.00    2.78102   1.22775    0.008
 3788.00    1.84415   1.22397    0.008
 3789.00    1.19327   1.20594    0.007
 3790.00    1.06624   1.18533    0.007
 3791.00    0.85591   1.17135    0.007
 3792.00    0.51225   1.15880    0.007
 3793.00    0.24525   1.14257    0.007
 3794.00    0.08594   1.12305    0.007
 3795.00    0.04254   1.10032    0.007
 3796.00    0.14242   1.06677    0.007
 3797.00    0.01538   1.01424    0.007
 3798.00   -0.35888   0.94680    0.000
 3799.00   -0.84103   0.87267    0.000
 3800.00   -1.42687   0.79178    0.000
 3801.00   -1.47154   0.72308    0.000
 3802.00   -1.05764   0.71488    0.000
 3803.00   -0.85220   0.78188    0.000
 3804.00   -0.80232   0.87906    0.000
 3805.00   -0.58863   0.96320    0.000
 3806.00   -0.26756   1.02959    0.000
 3807.00    0.47514   1.08337    0.007
 3808.00    1.45978   1.11712    0.007
 3809.00    1.90975   1.13056    0.007
 3810.00    2.09247   1.14054    0.007
 3811.00    1.87433   1.16429    0.007
 3812.00    1.48284   1.19619    0.007
 3813.00    0.44819   1.22337    0.007
 3814.00   -0.82498   1.24089    0.000
 3815.00   -1.30368   1.24282    0.000
 3816.00   -1.53265   1.22895    0.000
 3817.00   -2.34524   1.21101    0.000
 3818.00   -3.31093   1.20186    0.000
 3819.00   -2.04209   1.20106    0.000
 3820.00   -0.29449   1.20252    0.000
 3821.00   -0.63051   1.19082    0.000
 3822.00   -1.32014   1.14108    0.000
 3823.00   -0.13347   1.07682    0.000
 3824.00    1.29397   1.07314    0.007
 3825.00    0.96912   1.13241    0.007
 3826.00    0.48697   1.18030    0.007
 3827.00    0.78581   1.18496    0.007
 3828.00    1.12663   1.16356    0.007
 3829.00   -0.02892   1.14183    0.000
 3830.00   -1.18827   1.12638    0.000
 3831.00   -0.13832   1.10747    0.000
 3832.00    0.84963   1.08181    0.007
 3833.00    0.46001   1.05148    0.007
 3834.00    0.06816   1.01322    0.007
 3835.00   -0.35147   0.95504    0.000
 3836.00   -0.64677   0.87651    0.000
 3837.00    0.10869   0.79073    0.007
 3838.00    0.61159   0.71113    0.007
 3839.00   -0.47438   0.67360    0.000
 3840.00   -1.35230   0.70889    0.000
 3841.00   -1.20365   0.78735    0.000
 3842.00   -0.95233   0.86719    0.000
 3843.00   -0.28999   0.93684    0.000
 3844.00    0.19077   0.99423    0.007
 3845.00    0.06784   1.04672    0.007
 3846.00    0.09007   1.09620    0.007
 3847.00    0.51997   1.13432    0.000
 3848.00    0.97079   1.15907    0.000
 3849.00    1.47186   1.17542    0.000
 3850.00    1.27595   1.19152    0.000
 3851.00   -0.36542   1.20861    0.000
 3852.00   -1.61828   1.21785    0.000
 3853.00   -2.17040   1.21674    0.000
 3854.00   -2.16042   1.22032    0.000
 3855.00   -1.26398   1.23593    0.000
 3856.00   -0.77233   1.24801    0.000
 3857.00   -0.84105   1.24817    0.000
 3858.00   -0.78074   1.24094    0.000
 3859.00   -0.56321   1.23115    0.000
 3860.00   -0.61239   1.22748    0.000
 3861.00   -0.94806   1.23504    0.000
 3862.00   -1.45304   1.23598    0.000
 3863.00   -2.11842   1.22737    0.000
 3864.00   -2.26516   1.22878    0.000
 3865.00   -1.97862   1.24355    0.000
 3866.00   -0.93700   1.25372    0.000
 3867.00    0.65998   1.25737    0.000
 3868.00    1.38394   1.25802    0.000
 3869.00    1.54400   1.25037    0.000
 3870.00    1.46129   1.23461    0.000
 3871.00    1.24137   1.22154    0.000
 3872.00    1.04977   1.22811    0.000
 3873.00    0.87210   1.23942    0.000
 3874.00    0.96564   1.22514    0.000
 3875.00    1.17450   1.19240    0.000
 3876.00    0.90807   1.17598    0.000
 3877.00    0.46851   1.19013    0.000
 3878.00    0.05597   1.20994    0.000
 3879.00   -0.34824   1.21383    0.000
 3880.00    0.57041   1.19998    0.000
 3881.00    1.82867   1.17396    0.006
 3882.00    2.25308   1.14907    0.007
 3883.00    2.50317   1.14186    0.007
 3884.00    1.93071   1.13830    0.007
 3885.00    1.22261   1.11367    0.007
 3886.00    0.16076   1.07493    0.008
 3887.00   -0.94489   1.04112    0.000
 3888.00   -1.90193   1.00304    0.000
 3889.00   -2.84626   0.93884    0.000
 3890.00   -0.89599   0.85516    0.000
 3891.00    1.19855   0.76646    0.009
 3892.00    0.82138   0.68733    0.009
 3893.00    0.41017   0.66570    0.008
 3894.00    0.41550   0.73111    0.008
 3895.00    0.40413   0.83429    0.007
 3896.00    0.05140   0.92168    0.007
 3897.00   -0.21281   0.98406    0.000
 3898.00    0.56980   1.02989    0.007
 3899.00    1.33088   1.06595    0.007
 3900.00    1.91650   1.10078    0.006
 3901.00    2.25510   1.13268    0.006
 3902.00    1.08493   1.14874    0.006
 3903.00    0.04777   1.15763    0.006
 3904.00   -0.34934   1.17618    0.000
 3905.00   -0.58545   1.19892    0.000
 3906.00   -0.19102   1.20979    0.000
 3907.00    0.24794   1.21248    0.006
 3908.00    0.83205   1.21525    0.006
 3909.00    1.15800   1.21153    0.006
 3910.00    0.77203   1.21324    0.006
 3911.00    0.32585   1.23210    0.006
 3912.00   -0.26250   1.25445    0.000
 3913.00   -0.19203   1.26701    0.000
 3914.00    1.22304   1.27159    0.007
 3915.00    1.99172   1.27289    0.007
 3916.00    1.61234   1.26888    0.007
 3917.00    1.11310   1.26182    0.007
 3918.00    0.42764   1.26092    0.007
 3919.00    0.21245   1.26459    0.007
 3920.00    0.63890   1.26091    0.007
 3921.00    0.34119   1.25336    0.007
 3922.00   -0.82641   1.23946    0.000
 3923.00   -0.70676   1.22038    0.000
 3924.00    0.77621   1.20867    0.007
 3925.00    1.85256   1.21420    0.007
 3926.00    2.54907   1.22829    0.007
 3927.00    1.85979   1.23145    0.007
 3928.00    0.02922   1.22606    0.007
 3929.00    0.05177   1.20752    0.007
 3930.00    1.41769   1.17962    0.007
 3931.00    2.12722   1.17021    0.007
 3932.00    2.41901   1.17252    0.007
 3933.00    1.21007   1.16351    0.007
 3934.00   -0.83406   1.14808    0.000
 3935.00   -1.28819   1.12329    0.000
 3936.00   -0.97265   1.08384    0.000
 3937.00   -1.01829   1.04815    0.000
 3938.00   -1.21494   1.04816    0.000
 3939.00    0.30891   1.08350    0.007
 3940.00    2.44818   1.12778    0.007
 3941.00    2.05538   1.16367    0.007
 3942.00    0.89724   1.18835    0.007
 3943.00    0.32047   1.20545    0.007
 3944.00   -0.11029   1.21878    0.000
 3945.00    0.52395   1.22448    0.007
 3946.00    1.37537   1.22238    0.007
 3947.00    1.00107   1.21586    0.007
 3948.00    0.43051   1.21412    0.007
 3949.00    0.29025   1.22698    0.007
 3950.00    0.20137   1.24017    0.007
 3951.00    1.27107   1.23718    0.007
 3952.00    2.43512   1.22993    0.007
 3953.00    2.22702   1.23129    0.007
 3954.00    1.95586   1.23678    0.007
 3955.00    0.01329   1.23485    0.007
 3956.00   -1.90108   1.22467    0.000
 3957.00   -1.23013   1.21827    0.000
 3958.00   -0.59610   1.22009    0.000
 3959.00   -0.66169   1.21199    0.000
 3960.00   -0.64792   1.19159    0.000
 3961.00    0.26021   1.17870    0.000
 3962.00    1.14024   1.17784    0.000
 3963.00    1.79935   1.17198    0.000
 3964.00    2.13249   1.14384    0.000
 3965.00    0.53145   1.09616    0.000
 3966.00   -0.81695   1.05610    0.000
 3967.00   -0.97909   1.02059    0.000
 3968.00   -1.01965   0.96807    0.000
 3969.00   -0.59430   0.91085    0.000
 3970.00   -0.13950   0.85224    0.000
 3971.00    0.40946   0.77397    0.000
 3972.00    1.04227   0.68356    0.000
 3973.00    1.90219   0.61023    0.000
 3974.00    2.54149   0.59598    0.000
 3975.00    2.66850   0.66014    0.000
 3976.00    2.72343   0.75866    0.000
 3977.00    2.63357   0.84724    0.000
 3978.00    2.38161   0.92227    0.000
 3979.00    1.84611   0.98626    0.000
 3980.00    1.41579   1.03495    0.000
 3981.00    1.14652   1.07488    0.007
 3982.00    0.82145   1.11232    0.007
 3983.00    0.42133   1.14487    0.007
 3984.00   -0.18566   1.16832    0.000
 3985.00   -1.03764   1.17741    0.000
 3986.00   -1.08646   1.17914    0.000
 3987.00   -0.29661   1.18731    0.000
 3988.00   -0.18124   1.20200    0.000
 3989.00   -0.68709   1.21625    0.000
 3990.00   -1.46536   1.22489    0.000
 3991.00   -2.46480   1.23493    0.000
 3992.00   -1.71775   1.24836    0.000
 3993.00    0.27712   1.25147    0.007
 3994.00    1.17296   1.24947    0.007
 3995.00    1.37972   1.25715    0.007
 3996.00    0.60623   1.26862    0.007
 3997.00   -0.70446   1.27252    0.000
 3998.00    0.31378   1.26543    0.007
 3999.00    2.44139   1.25682    0.007
 4000.00    2.11231   1.25091    0.007
 4001.00    0.77351   1.24504    0.007
 4002.00    0.73774   1.24849    0.007
 4003.00    1.15962   1.26715    0.007
 4004.00    1.57960   1.28305    0.007
 4005.00    1.99902   1.28409    0.007
 4006.00    2.03846   1.28158    0.007
 4007.00    1.98455   1.27875    0.007
 4008.00    1.95332   1.26194    0.007
 4009.00    1.92659   1.23616    0.007
 4010.00    1.47660   1.23075    0.007
 4011.00    0.96084   1.23948    0.007
 4012.00    0.99935   1.23384    0.007
 4013.00    1.10159   1.22042    0.007
 4014.00    0.72354   1.23113    0.007
 4015.00    0.30836   1.25840    0.007
 4016.00    1.00582   1.27374    0.007
 4017.00    1.75013   1.27926    0.007
 4018.00    1.71474   1.28354    0.007
 4019.00    1.65053   1.28983    0.007
 4020.00    0.63604   1.29105    0.007
 4021.00   -0.29797   1.28468    0.000
 4022.00    0.18725   1.28578    0.007
 4023.00    0.63999   1.29708    0.007
 4024.00    0.74322   1.29840    0.007
 4025.00    0.83460   1.28425    0.007
 4026.00    0.83607   1.26897    0.007
 4027.00    0.80225   1.24724    0.007
 4028.00    0.56491   1.20147    0.007
 4029.00    0.23521   1.14171    0.007
 4030.00   -0.51779   1.11696    0.000
 4031.00   -0.89616   1.16219    0.000
 4032.00    0.13075   1.22757    0.007
 4033.00    1.01866   1.25358    0.007
 4034.00    1.47085   1.24438    0.007
 4035.00    1.60662   1.23421    0.007
 4036.00    0.90062   1.23655    0.006
 4037.00    0.63893   1.24279    0.006
 4038.00    1.39178   1.25215    0.007
 4039.00    1.65117   1.26598    0.007
 4040.00    0.93506   1.28704    0.007
 4041.00    0.78658   1.30830    0.007
 4042.00    1.61599   1.31488    0.007
 4043.00    2.60660   1.30681    0.007
 4044.00    3.84040   1.29440    0.007
 4045.00    4.07535   1.28868    0.007
 4046.00    2.98624   1.29357    0.007
 4047.00    2.48794   1.28926    0.007
 4048.00    2.67941   1.25916    0.007
 4049.00    2.69730   1.22648    0.007
 4050.00    2.53649   1.22676    0.007
 4051.00    2.02243   1.25933    0.007
 4052.00    1.18759   1.28542    0.007
 4053.00    1.00000   1.29183    0.007
 4054.00    1.33046   1.29491    0.007
 4055.00    1.17955   1.29523    0.007
 4056.00    0.68969   1.28689    0.007
 4057.00   -0.09942   1.27484    0.000
 4058.00   -1.07338   1.26430    0.000
 4059.00   -0.02330   1.26152    0.000
 4060.00    2.11893   1.26351    0.007
 4061.00    2.30524   1.25896    0.007
 4062.00    1.57484   1.25514    0.007
 4063.00    1.40286   1.26389    0.007
 4064.00    1.45648   1.27826    0.007
 4065.00    0.68722   1.27940    0.007
 4066.00   -0.36576   1.25799    0.000
 4067.00   -0.14700   1.22948    0.000
 4068.00    0.44105   1.22578    0.006
 4069.00    1.76945   1.24789    0.007
 4070.00    3.27567   1.25621    0.007
 4071.00    3.36788   1.24682    0.007
 4072.00    3.18610   1.25082    0.007
 4073.00    2.62317   1.26133    0.007
 4074.00    2.00280   1.25091    0.007
 4075.00    2.43354   1.22622    0.007
 4076.00    2.98055   1.22069    0.006
 4077.00    2.59825   1.24392    0.006
 4078.00    2.14790   1.25566    0.006
 4079.00    0.20964   1.23490    0.006
 4080.00   -1.78560   1.20467    0.000
 4081.00   -0.73444   1.18857    0.000
 4082.00    0.32936   1.19558    0.006
 4083.00    1.23335   1.21865    0.006
 4084.00    2.07846   1.24368    0.006
 4085.00    1.95323   1.25769    0.007
 4086.00    1.78494   1.25245    0.007
 4087.00    1.17349   1.23478    0.007
 4088.00    0.57377   1.21809    0.006
 4089.00    0.06015   1.21015    0.006
 4090.00   -0.25861   1.21310    0.000
 4091.00    0.51570   1.22013    0.006
 4092.00    1.13231   1.21746    0.000
 4093.00    1.04323   1.20550    0.000
 4094.00    0.64973   1.19638    0.000
 4095.00   -0.86178   1.18551    0.000
 4096.00   -1.93151   1.16486    0.000
 4097.00   -1.64256   1.14609    0.000
 4098.00   -1.10849   1.12655    0.000
 4099.00    0.06626   1.08722    0.000
 4100.00    1.05784   1.03519    0.000
 4101.00    1.63809   0.98571    0.000
 4102.00    1.94226   0.93629    0.000
 4103.00    1.70920   0.87330    0.000
 4104.00    1.71148   0.78095    0.000
 4105.00    2.11308   0.68225    0.000
 4106.00    2.03728   0.65879    0.000
 4107.00    1.25183   0.73563    0.000
 4108.00    1.17036   0.83946    0.000
 4109.00    2.00872   0.92338    0.000
 4110.00    2.00440   0.98872    0.000
 4111.00    1.03013   1.03511    0.000
 4112.00    0.27283   1.06804    0.000
 4113.00   -0.26423   1.09234    0.000
 4114.00   -0.20782   1.11030    0.000
 4115.00    0.37993   1.12827    0.007
 4116.00    0.85871   1.15082    0.007
 4117.00    1.25151   1.17310    0.007
 4118.00    1.98032   1.18902    0.007
 4119.00    2.94231   1.19835    0.007
 4120.00    2.75020   1.20678    0.007
 4121.00    1.85583   1.21150    0.007
 4122.00    1.07784   1.20283    0.010
 4123.00    0.36168   1.18580    0.041
 4124.00    0.22797   1.17090   -1.000
 4125.00    0.36283   1.17217   -1.000
 4126.00    0.36924   1.19453   -1.000
 4127.00    0.32463   1.21705   -1.000
 4128.00    0.39604   1.23396   -1.000
 4129.00    0.50671   1.24683   -1.000
 4130.00    1.11516   1.24412   -1.000
 4131.00    1.86525   1.22516   -1.000
 4132.00    1.39503   1.20913    0.016
 4133.00    0.63829   1.21354    0.007
 4134.00    0.31158   1.21429    0.006
 4135.00    0.06604   1.20302    0.006
 4136.00    0.09308   1.19695    0.006
 4137.00    0.15991   1.20332    0.006
 4138.00    1.10904   1.21759    0.006
 4139.00    2.15194   1.23856    0.006
 4140.00    2.80712   1.25606    0.006
 4141.00    3.43549   1.25671    0.006
 4142.00    2.07527   1.25816    0.006
 4143.00    0.64647   1.26531    0.006
 4144.00    1.95219   1.26537    0.006
 4145.00    3.18453   1.25144    0.006
 4146.00    1.81325   1.20425    0.006
 4147.00    0.54189   1.13471    0.006
 4148.00    0.81554   1.11830    0.006
 4149.00    1.10081   1.17454    0.006
 4150.00    1.50049   1.22717    0.006
 4151.00    1.84215   1.24592    0.006
 4152.00    1.77179   1.24944    0.006
 4153.00    1.67226   1.24327    0.006
 4154.00    1.41347   1.23766    0.006
 4155.00    1.13258   1.24170    0.006
 4156.00    0.75504   1.24096    0.006
 4157.00    0.38102   1.23234    0.006
 4158.00    0.01967   1.22627    0.006
 4159.00   -0.18508   1.22730    0.000
 4160.00    0.08276   1.22878    0.006
 4161.00    0.37416   1.23195    0.006
 4162.00    0.72607   1.24400    0.006
 4163.00    1.19958   1.25576    0.006
 4164.00    1.94170   1.25827    0.006
 4165.00    2.58078   1.25485    0.006
 4166.00    3.02249   1.25568    0.006
 4167.00    3.19154   1.25983    0.006
 4168.00    2.90492   1.25994    0.006
 4169.00    2.47127   1.25820    0.006
 4170.00    1.82224   1.25346    0.006
 4171.00    1.43495   1.24202    0.006
 4172.00    1.38476   1.23252    0.006
 4173.00    1.35544   1.23732    0.006
 4174.00    1.34980   1.24496    0.006
 4175.00    1.29350   1.23245    0.006
 4176.00    1.18649   1.20390    0.006
 4177.00    1.17700   1.19140    0.006
 4178.00    1.25357   1.20281    0.006
 4179.00    1.47818   1.22035    0.006
 4180.00    1.81793   1.22906    0.006
 4181.00    1.18343   1.22237    0.006
 4182.00   -0.11732   1.21317    0.000
 4183.00   -0.17190   1.22121    0.000
 4184.00    0.52047   1.23858    0.006
 4185.00    1.29558   1.24123    0.006
 4186.00    2.11396   1.23248    0.006
 4187.00    2.40070   1.23199    0.006
 4188.00    2.44629   1.23910    0.006
 4189.00    2.45994   1.24662    0.006
 4190.00    2.46114   1.24146    0.006
 4191.00    2.04982   1.22280    0.006
 4192.00    1.50148   1.21866    0.006
 4193.00    1.40035   1.23150    0.006
 4194.00    1.42386   1.24039    0.006
 4195.00    1.45576   1.24093    0.006
 4196.00    1.48958   1.24713    0.006
 4197.00    0.61342   1.26205    0.006
 4198.00   -0.42998   1.26401    0.000
 4199.00    0.29588   1.24532    0.006
 4200.00    1.27191   1.22632    0.006
 4201.00    1.39132   1.21349    0.006
 4202.00    1.42339   1.19468    0.006
 4203.00    1.02463   1.18441    0.006
 4204.00    0.59780   1.19313    0.006
 4205.00    0.48807   1.19940    0.006
 4206.00    0.39040   1.20148    0.006
 4207.00    1.78531   1.21288    0.006
 4208.00    3.10108   1.22349    0.006
 4209.00    2.09177   1.22842    0.006
 4210.00    1.17080   1.23799    0.006
 4211.00    1.53593   1.24829    0.006
 4212.00    1.84989   1.25373    0.006
 4213.00    1.68006   1.25148    0.006
 4214.00    1.41773   1.24600    0.006
 4215.00    0.51950   1.24956    0.006
 4216.00   -0.15431   1.25729    0.000
 4217.00    0.36463   1.25727    0.006
 4218.00    0.80231   1.24369    0.006
 4219.00    0.89288   1.21755    0.006
 4220.00    0.87191   1.20811    0.006
 4221.00    0.45796   1.23013    0.006
 4222.00   -0.00978   1.25429    0.000
 4223.00   -0.63683   1.26436    0.000
 4224.00   -0.53567   1.26668    0.000
 4225.00    1.40317   1.26801    0.006
 4226.00    2.67773   1.26005    0.006
 4227.00    2.50878   1.24395    0.006
 4228.00    2.13865   1.22135    0.006
 4229.00    1.38911   1.18881    0.006
 4230.00    1.23945   1.15265    0.006
 4231.00    2.07741   1.14315    0.005
 4232.00    2.24572   1.18054    0.005
 4233.00    1.44738   1.22840    0.005
 4234.00    1.03277   1.25320    0.005
 4235.00    1.10537   1.26076    0.005
 4236.00    1.23472   1.24764    0.005
 4237.00    1.42758   1.22195    0.005
 4238.00    1.54952   1.21678    0.005
 4239.00    1.60149   1.22337    0.005
 4240.00    1.79005   1.21788    0.005
 4241.00    2.09746   1.21805    0.005
 4242.00    1.81068   1.22416    0.005
 4243.00    1.06837   1.22490    0.005
 4244.00    1.27978   1.23090    0.005
 4245.00    2.13390   1.24174    0.005
 4246.00    2.72192   1.24427    0.006
 4247.00    3.15282   1.24713    0.006
 4248.00    2.79784   1.26068    0.006
 4249.00    2.03825   1.26535    0.006
 4250.00    2.21343   1.24757    0.006
 4251.00    2.80566   1.22722    0.006
 4252.00    2.72279   1.22232    0.006
 4253.00    2.38106   1.22017    0.006
 4254.00    1.91183   1.20897    0.006
 4255.00    1.40103   1.20936    0.006
 4256.00    0.80306   1.22609    0.005
 4257.00    0.18128   1.22959    0.005
 4258.00    0.40354   1.21608    0.005
 4259.00    0.81493   1.21341    0.005
 4260.00    1.57884   1.23106    0.006
 4261.00    2.40579   1.24771    0.006
 4262.00    2.67387   1.24095    0.006
 4263.00    2.86550   1.21932    0.006
 4264.00    2.57003   1.20014    0.006
 4265.00    2.22697   1.19715    0.006
 4266.00    1.63155   1.21858    0.006
 4267.00    1.02070   1.24677    0.006
 4268.00    1.16791   1.26100    0.006
 4269.00    1.33392   1.26227    0.006
 4270.00    1.17521   1.24688    0.005
 4271.00    1.03779   1.21862    0.005
 4272.00    1.46338   1.20973    0.005
 4273.00    1.84325   1.21817    0.005
 4274.00    1.59479   1.21034    0.005
 4275.00    1.36142   1.18300    0.005
 4276.00    1.26510   1.16924    0.006
 4277.00    1.15052   1.18211    0.006
 4278.00    0.91429   1.19003    0.006
 4279.00    0.83653   1.19101    0.006
 4280.00    1.57919   1.20735    0.006
 4281.00    2.13480   1.23131    0.006
 4282.00    1.90953   1.24468   -2.000
 4283.00    1.53332   1.24214   -2.000
 4284.00    0.63602   1.22968   -2.000
 4285.00    0.17446   1.22084   -2.000
 4286.00    0.97939   1.21595   -2.000
 4287.00    1.55936   1.21572   -2.000
 4288.00    1.58133   1.21892   -2.000
 4289.00    1.90851   1.21372   -2.000
 4290.00    2.88817   1.20854   -2.000
 4291.00    3.42261   1.20971   -2.000
 4292.00    3.13043   1.20204   -2.000
 4293.00    2.31940   1.17666   -2.000
 4294.00    0.66689   1.15580   -2.000
 4295.00   -0.02932   1.16717   -2.000
 4296.00    0.63490   1.19871   -2.000
 4297.00    1.20977   1.21581   -2.000
 4298.00    1.67282   1.20647    0.006
 4299.00    1.56785   1.19669    0.006
 4300.00    0.83631   1.19761    0.006
 4301.00    0.48576   1.19424    0.006
 4302.00    0.50591   1.17827    0.006
 4303.00    0.54406   1.14821    0.006
 4304.00    0.59764   1.12800    0.006
 4305.00    0.80873   1.13358    0.006
 4306.00    1.13883   1.13941    0.006
 4307.00    1.25852   1.13993    0.006
 4308.00    1.23850   1.15037    0.006
 4309.00    1.88341   1.15872    0.006
 4310.00    2.91500   1.15578    0.006
 4311.00    2.48352   1.14192    0.006
 4312.00    1.31056   1.12418    0.006
 4313.00    1.07243   1.12325    0.005
 4314.00    1.24453   1.14030    0.005
 4315.00    1.34518   1.15959    0.005
 4316.00    1.41892   1.16914    0.005
 4317.00    1.05367   1.16803    0.005
 4318.00    0.54807   1.16493    0.006
 4319.00    0.92997   1.17944    0.006
 4320.00    1.54907   1.21324    0.006
 4321.00    1.25776   1.23710    0.006
 4322.00    0.76723   1.23815    0.006
 4323.00    0.80093   1.22823    0.006
 4324.00    0.92582   1.21545    0.006
 4325.00    0.87411   1.20498    0.006
 4326.00    0.79904   1.20115    0.006
 4327.00    1.61434   1.18700    0.006
 4328.00    2.51284   1.15252    0.005
 4329.00    2.69888   1.11099    0.006
 4330.00    2.84417   1.09316    0.000
 4331.00    2.53743   1.11700    0.000
 4332.00    2.22139   1.15335    0.000
 4333.00    2.04527   1.16513    0.000
 4334.00    1.85649   1.14915    0.000
 4335.00    1.36343   1.12824    0.000
 4336.00    0.89707   1.11442    0.000
 4337.00    0.77835   1.09891    0.000
 4338.00    0.68523   1.07867    0.000
 4339.00    0.81589   1.05467    0.000
 4340.00    1.03635   1.01040    0.000
 4341.00    1.83682   0.93226    0.000
 4342.00    2.41329   0.84213    0.000
 4343.00    1.85974   0.75288    0.000
 4344.00    1.34173   0.67233    0.000
 4345.00    0.96877   0.66338    0.000
 4346.00    0.70188   0.74591    0.000
 4347.00    0.79384   0.84408    0.000
 4348.00    0.96346   0.91368    0.000
 4349.00    1.35466   0.97151    0.000
 4350.00    1.61200   1.01991    0.000
 4351.00    1.54300   1.05262    0.006
 4352.00    1.58060   1.08350    0.006
 4353.00    1.84240   1.11483    0.005
 4354.00    1.90521   1.12352    0.005
 4355.00    1.60421   1.10085    0.005
 4356.00    1.40457   1.08436    0.005
 4357.00    1.36687   1.10694    0.005
 4358.00    1.62353   1.14420    0.007
 4359.00    2.29289   1.16793    0.019
 4360.00    2.55866   1.18590   -1.000
 4361.00    2.32649   1.20002   -1.000
 4362.00    1.67727   1.19826   -1.000
 4363.00    0.57448   1.18820   -1.000
 4364.00    0.58346   1.19222   -1.000
 4365.00    1.65896   1.20995   -1.000
 4366.00    2.37804   1.22426    0.019
 4367.00    2.79564   1.22942    0.007
 4368.00    2.80758   1.23684    0.005
 4369.00    2.51735   1.24725    0.005
 4370.00    2.28105   1.24237    0.005
 4371.00    2.08002   1.22087    0.005
 4372.00    1.75269   1.20495    0.005
 4373.00    1.35301   1.20662    0.005
 4374.00    0.81842   1.21425    0.005
 4375.00    0.21654   1.22081    0.005
 4376.00    0.33810   1.22421    0.005
 4377.00    0.77185   1.21647    0.005
 4378.00    0.99970   1.19412    0.005
 4379.00    1.15135   1.17679    0.005
 4380.00    1.31877   1.18766    0.005
 4381.00    1.49113   1.21825    0.005
 4382.00    1.43410   1.24018    0.005
 4383.00    1.31705   1.24238    0.005
 4384.00    1.14276   1.23664    0.005
 4385.00    0.95625   1.23008    0.005
 4386.00    1.45199   1.20589    0.005
 4387.00    2.06311   1.15577    0.005
 4388.00    2.26270   1.11541    0.005
 4389.00    2.40971   1.11988    0.005
 4390.00    2.23167   1.14692    0.005
 4391.00    2.02462   1.14568    0.005
 4392.00    2.35725   1.12897    0.005
 4393.00    2.71863   1.14211    0.005
 4394.00    2.38060   1.17124    0.005
 4395.00    2.02895   1.19140    0.005
 4396.00    1.68357   1.21010    0.005
 4397.00    1.36420   1.22113    0.005
 4398.00    1.61668   1.21219    0.005
 4399.00    1.87084   1.19827    0.005
 4400.00    2.14577   1.20859    0.005
 4401.00    2.34773   1.23674    0.005
 4402.00    1.93574   1.24940    0.005
 4403.00    1.63866   1.23661    0.005
 4404.00    2.06178   1.21238    0.005
 4405.00    2.41608   1.20374    0.005
 4406.00    2.43189   1.22078    0.005
 4407.00    2.31368   1.22864    0.005
 4408.00    1.66050   1.20231    0.005
 4409.00    1.14554   1.17793    0.005
 4410.00    1.08896   1.18866    0.005
 4411.00    1.16876   1.20569    0.005
 4412.00    1.63065   1.20390    0.005
 4413.00    1.89580   1.20632    0.005
 4414.00    1.68941   1.22543    0.005
 4415.00    1.45272   1.24321    0.005
 4416.00    1.15332   1.25451    0.005
 4417.00    1.13802   1.25615    0.005
 4418.00    1.63416   1.23098    0.005
 4419.00    1.90759   1.19255    0.005
 4420.00    1.83044   1.17835    0.005
 4421.00    1.62380   1.18949    0.005
 4422.00    1.23821   1.20953    0.005
 4423.00    0.98454   1.23492    0.005
 4424.00    0.89132   1.25294    0.005
 4425.00    1.15560   1.25019    0.005
 4426.00    1.80321   1.23125    0.005
 4427.00    2.19677   1.22047    0.005
 4428.00    2.35005   1.22768    0.005
 4429.00    2.24467   1.23511    0.005
 4430.00    1.92358   1.23268    0.005
 4431.00    2.36380   1.22787    0.005
 4432.00    3.36296   1.23129    0.005
 4433.00    3.17675   1.23520    0.005
 4434.00    2.22629   1.22535    0.005
 4435.00    1.69702   1.21892    0.005
 4436.00    1.40531   1.22694    0.005
 4437.00    1.39266   1.22673    0.005
 4438.00    1.51701   1.20809    0.005
 4439.00    1.45254   1.18833    0.005
 4440.00    1.30795   1.18661    0.005
 4441.00    1.69334   1.20253    0.005
 4442.00    2.27134   1.22743    0.005
 4443.00    2.31074   1.25145    0.005
 4444.00    2.18452   1.25697    0.005
 4445.00    2.18500   1.23774    0.005
 4446.00    2.21792   1.20962    0.005
 4447.00    2.10240   1.19086    0.005
 4448.00    1.95595   1.19594    0.005
 4449.00    1.35708   1.22377    0.005
 4450.00    0.68388   1.24604    0.005
 4451.00    1.47061   1.24563    0.005
 4452.00    2.43733   1.24232    0.005
 4453.00    2.60361   1.24480    0.005
 4454.00    2.70181   1.23958    0.005
 4455.00    1.92345   1.23452    0.005
 4456.00    1.10182   1.23846    0.005
 4457.00    1.56579   1.23625    0.005
 4458.00    2.03679   1.21616    0.005
 4459.00    1.66532   1.19167    0.005
 4460.00    1.32969   1.18767    0.005
 4461.00    1.71967   1.19965    0.000
 4462.00    2.06668   1.20550    0.000
 4463.00    1.90874   1.20214    0.000
 4464.00    1.71464   1.19916    0.000
 4465.00    1.22727   1.19254    0.000
 4466.00    0.84819   1.18705    0.000
 4467.00    1.12808   1.19990    0.000
 4468.00    1.36821   1.21872    0.000
 4469.00    1.41764   1.22338    0.000
 4470.00    1.46214   1.21892    0.000
 4471.00    1.48738   1.21255    0.000
 4472.00    1.56127   1.19947    0.000
 4473.00    1.79334   1.17675    0.000
 4474.00    1.98124   1.14290    0.000
 4475.00    2.04762   1.10486    0.000
 4476.00    2.13468   1.10365    0.000
 4477.00    2.27044   1.15655    0.000
 4478.00    2.33262   1.21425    0.000
 4479.00    2.24494   1.23918    0.000
 4480.00    2.29004   1.24676    0.000
 4481.00    2.57054   1.25760    0.000
 4482.00    2.77620   1.26445    0.005
 4483.00    2.86579   1.25022    0.005
 4484.00    2.64877   1.20834    0.005
 4485.00    2.01417   1.16220    0.005
 4486.00    1.39083   1.15491    0.005
 4487.00    0.78099   1.19167    0.005
 4488.00    0.59559   1.23400    0.005
 4489.00    0.85892   1.25857    0.005
 4490.00    1.12684   1.26750    0.005
 4491.00    1.39903   1.26445    0.005
 4492.00    1.70015   1.24664    0.005
 4493.00    2.02505   1.22275    0.005
 4494.00    1.93316   1.21122    0.005
 4495.00    1.53969   1.21942    0.005
 4496.00    1.62603   1.23731    0.005
 4497.00    2.01715   1.24564    0.005
 4498.00    1.87569   1.23470    0.005
 4499.00    1.43841   1.22021    0.005
 4500.00    1.25202   1.21809    0.005
 4501.00    1.18683   1.22780    0.005
 4502.00    1.28994   1.24376    0.005
 4503.00    1.46326   1.25661    0.005
 4504.00    1.98408   1.25523    0.005
 4505.00    2.62891   1.24067    0.005
 4506.00    2.07440   1.23661    0.005
 4507.00    1.15827   1.25731    0.005
 4508.00    1.43451   1.28126    0.005
 4509.00    2.00939   1.28804    0.005
 4510.00    1.81661   1.28100    0.005
 4511.00    1.46778   1.26822    0.005
 4512.00    1.81313   1.25753    0.005
 4513.00    2.26922   1.25726    0.005
 4514.00    2.38422   1.26654    0.005
 4515.00    2.45869   1.27256    0.005
 4516.00    2.33890   1.26587    0.005
 4517.00    2.20339   1.25362    0.005
 4518.00    1.58898   1.24227    0.005
 4519.00    0.95279   1.23479    0.005
 4520.00    1.80972   1.23730    0.005
 4521.00    2.65073   1.24241    0.005
 4522.00    1.74407   1.24047    0.005
 4523.00    0.92543   1.24068    0.005
 4524.00    1.75882   1.24846    0.005
 4525.00    2.46390   1.25538    0.005
 4526.00    1.73140   1.24828    0.005
 4527.00    1.13538   1.23206    0.005
 4528.00    1.60739   1.22559    0.005
 4529.00    1.88204   1.22410    0.005
 4530.00    0.98982   1.21628    0.005
 4531.00    0.29260   1.20458    0.005
 4532.00    0.50820   1.19141    0.005
 4533.00    0.71163   1.18253    0.005
 4534.00    0.86855   1.18583    0.005
 4535.00    1.10815   1.19826    0.005
 4536.00    1.61141   1.21187    0.005
 4537.00    1.93406   1.21179    0.005
 4538.00    1.76868   1.19404    0.005
 4539.00    1.55799   1.18120    0.005
 4540.00    1.24233   1.19483    0.005
 4541.00    1.04229   1.22941    0.005
 4542.00    1.07401   1.25447    0.005
 4543.00    1.17899   1.25190    0.005
 4544.00    1.41184   1.23041    0.005
 4545.00    1.53904   1.20879    0.005
 4546.00    1.50477   1.20678    0.005
 4547.00    1.62518   1.22243    0.005
 4548.00    1.95324   1.23034    0.005
 4549.00    2.24261   1.22490    0.005
 4550.00    2.48627   1.22457    0.000
 4551.00    2.74267   1.23046    0.000
 4552.00    3.01236   1.22539    0.000
 4553.00    2.76484   1.20389    0.000
 4554.00    2.04179   1.19256    0.000
 4555.00    1.35977   1.20781    0.000
 4556.00    0.71101   1.21988    0.000
 4557.00    1.42260   1.21361    0.000
 4558.00    3.10435   1.20382    0.000
 4559.00    3.31796   1.19791    0.000
 4560.00    2.61276   1.20343    0.000
 4561.00    1.89141   1.22449    0.000
 4562.00    1.16121   1.24333    0.000
 4563.00    1.30780   1.24964    0.000
 4564.00    1.87120   1.25301    0.000
 4565.00    2.11369   1.25833    0.000
 4566.00    2.22458   1.25933    0.000
 4567.00    1.97694   1.24587    0.000
 4568.00    1.60366   1.22313    0.000
 4569.00    1.84502   1.21175    0.000
 4570.00    2.26804   1.21956    0.000
 4571.00    2.09271   1.23718    0.000
 4572.00    1.77080   1.25137    0.000
 4573.00    1.10097   1.25725    0.000
 4574.00    0.36218   1.25371    0.000
 4575.00    0.77722   1.23570    0.000
 4576.00    1.37087   1.21956    0.000
 4577.00    1.19922   1.22953    0.000
 4578.00    0.94000   1.24858    0.000
 4579.00    1.39918   1.25203    0.000
 4580.00    1.91354   1.24875    0.000
 4581.00    2.01769   1.24979    0.000
 4582.00    2.10477   1.24837    0.000
 4583.00    2.10821   1.23693    0.000
 4584.00    2.10860   1.22056    0.000
 4585.00    2.00875   1.21171    0.000
 4586.00    1.91591   1.21369    0.000
 4587.00    1.94563   1.21518    0.000
 4588.00    1.96888   1.21174    0.000
 4589.00    1.92287   1.21245    0.000
 4590.00    1.87309   1.21836    0.000
 4591.00    1.79474   1.22627    0.000
 4592.00    1.69229   1.23574    0.000
 4593.00    1.45127   1.24358    0.000
 4594.00    1.23045   1.24410    0.000
 4595.00    1.10195   1.23450    0.000
 4596.00    1.05631   1.22251    0.000
 4597.00    1.32065   1.21980    0.000
 4598.00    1.54363   1.22441    0.000
 4599.00    1.63724   1.22429    0.000
 4600.00    1.63420   1.22040    0.000
 4601.00    1.37463   1.22211    0.000
 4602.00    1.29097   1.22902    0.000
 4603.00    1.60812   1.23512    0.000
 4604.00    1.71162   1.23277    0.000
 4605.00    1.39360   1.22406    0.000
 4606.00    1.35179   1.22226    0.000
 4607.00    1.78492   1.22829    0.000
 4608.00    2.20899   1.23332    0.000
 4609.00    2.61943   1.23274    0.000
 4610.00    2.64139   1.23155    0.000
 4611.00    2.14932   1.23795    0.000
 4612.00    1.85402   1.25150    0.000
 4613.00    1.78806   1.26444    0.000
 4614.00    1.94090   1.26758    0.000
 4615.00    2.31862   1.26003    0.000
 4616.00    2.20509   1.25095    0.000
 4617.00    1.64626   1.24505    0.000
 4618.00    1.61338   1.24418    0.000
 4619.00    2.00070   1.24912    0.000
 4620.00    1.91636   1.25115    0.000
 4621.00    1.50050   1.24964    0.000
 4622.00    1.39918   1.24651    0.000
 4623.00    1.49179   1.23615    0.000
 4624.00    1.46751   1.23045    0.000
 4625.00    1.38028   1.24074    0.000
 4626.00    1.70187   1.25202    0.000
 4627.00    2.21467   1.25557    0.000
 4628.00    2.18228   1.25749    0.000
 4629.00    1.93011   1.25585    0.000
 4630.00    1.77345   1.25065    0.000
 4631.00    1.64965   1.24979    0.000
 4632.00    1.79266   1.24950    0.000
 4633.00    2.01295   1.24028    0.000
 4634.00    1.97546   1.23273    0.000
 4635.00    1.87622   1.24095    0.000
 4636.00    1.86671   1.25185    0.000
 4637.00    1.87454   1.24713    0.000
 4638.00    1.74657   1.23419    0.000
 4639.00    1.59821   1.22970    0.000
 4640.00    1.73300   1.23334    0.000
 4641.00    1.89895   1.23258    0.000
 4642.00    2.17435   1.22475    0.000
 4643.00    2.45771   1.21845    0.000
 4644.00    2.30530   1.21716    0.000
 4645.00    2.13641   1.22215    0.000
 4646.00    2.10764   1.23170    0.000
 4647.00    2.06901   1.23639    0.000
 4648.00    1.63936   1.23478    0.000
 4649.00    1.24336   1.22908    0.000
 4650.00    1.39762   1.21241    0.000
 4651.00    1.55257   1.19056    0.000
 4652.00    1.71466   1.18175    0.000
 4653.00    1.82151   1.18851    0.000
 4654.00    1.52481   1.20167    0.000
 4655.00    1.32314   1.21497    0.000
 4656.00    1.65279   1.22705    0.000
 4657.00    1.97289   1.23629    0.000
 4658.00    2.25032   1.23359    0.000
 4659.00    2.35515   1.21993    0.000
 4660.00    1.82779   1.21102    0.000
 4661.00    1.43929   1.21471    0.000
 4662.00    1.47682   1.23145    0.000
 4663.00    1.51729   1.25490    0.000
 4664.00    1.56540   1.26937    0.000
 4665.00    1.53429   1.26505    0.000
 4666.00    1.32562   1.24831    0.000
 4667.00    1.20277   1.23215    0.000
 4668.00    1.24659   1.22487    0.000
 4669.00    1.26499   1.22403    0.000
 4670.00    1.24035   1.21295    0.000
 4671.00    1.33341   1.18618    0.000
 4672.00    1.60109   1.16768    0.000
 4673.00    1.85717   1.17574    0.000
 4674.00    2.09811   1.19893    0.000
 4675.00    2.05699   1.22143    0.000
 4676.00    1.69182   1.23384    0.000
 4677.00    1.60823   1.23153    0.000
 4678.00    1.80997   1.22512    0.000
 4679.00    1.77964   1.22730    0.000
 4680.00    1.54190   1.23749    0.000
 4681.00    1.60942   1.24523    0.000
 4682.00    1.91734   1.24070    0.000
 4683.00    2.10256   1.22753    0.000
 4684.00    2.20278   1.21676    0.000
 4685.00    2.28649   1.21112    0.000
 4686.00    2.36018   1.21021    0.000
 4687.00    2.24929   1.21615    0.000
 4688.00    2.04054   1.22051    0.000
 4689.00    1.82950   1.21171    0.000
 4690.00    1.61742   1.19923    0.000
 4691.00    1.44698   1.19991    0.000
 4692.00    1.29304   1.21111    0.000
 4693.00    1.43710   1.22179    0.000
 4694.00    1.68179   1.22656    0.000
 4695.00    1.75313   1.22434    0.000
 4696.00    1.77529   1.22210    0.000
 4697.00    1.98569   1.22596    0.000
 4698.00    2.24017   1.23196    0.000
 4699.00    1.79740   1.23921    0.000
 4700.00    1.22346   1.24767    0.000
 4701.00    1.39168   1.24792    0.000
 4702.00    1.66784   1.23174    0.000
 4703.00    1.96560   1.21077    0.000
 4704.00    2.26565   1.20487    0.000
 4705.00    1.91296   1.21006    0.000
 4706.00    1.51544   1.20824    0.000
 4707.00    1.46748   1.19915    0.000
 4708.00    1.43141   1.19845    0.000
 4709.00    1.51954   1.21029    0.000
 4710.00    1.60026   1.21904    0.000
 4711.00    1.43394   1.21464    0.000
 4712.00    1.28866   1.20445    0.000
 4713.00    1.46614   1.19834    0.000
 4714.00    1.64677   1.20214    0.000
 4715.00    1.85817   1.21653    0.000
 4716.00    2.05731   1.22060    0.000
 4717.00    2.16973   1.19920    0.000
 4718.00    2.23473   1.17910    0.000
 4719.00    2.04178   1.18608    0.000
 4720.00    1.86498   1.21042    0.000
 4721.00    1.75864   1.23176    0.000
 4722.00    1.69762   1.24317    0.000
 4723.00    1.79918   1.24775    0.000
 4724.00    1.80364   1.25306    0.000
 4725.00    1.51578   1.25537    0.000
 4726.00    1.40466   1.25021    0.000
 4727.00    1.74642   1.24515    0.000
 4728.00    2.17606   1.24901    0.000
 4729.00    2.79940   1.25733    0.000
 4730.00    2.96292   1.25695    0.000
 4731.00    2.24734   1.23925    0.000
 4732.00    1.84050   1.21277    0.000
 4733.00    1.94868   1.19830    0.000
 4734.00    1.99106   1.19932    0.000
 4735.00    1.93723   1.20331    0.000
 4736.00    1.75083   1.20939    0.000
 4737.00    1.39398   1.21977    0.000
 4738.00    1.28957   1.22878    0.000
 4739.00    1.47112   1.23457    0.000
 4740.00    1.58542   1.23203    0.000
 4741.00    1.63253   1.22084    0.000
 4742.00    1.73018   1.22115    0.000
 4743.00    1.87236   1.23467    0.000
 4744.00    2.11412   1.23895    0.000
 4745.00    2.43318   1.23167    0.000
 4746.00    2.50852   1.22835    0.000
 4747.00    2.41748   1.23495    0.000
 4748.00    2.37967   1.24171    0.000
 4749.00    2.37370   1.24010    0.000
 4750.00    2.27281   1.23890    0.000
 4751.00    2.12237   1.24452    0.000
 4752.00    1.98816   1.24769    0.000
 4753.00    1.86130   1.24569    0.000
 4754.00    1.95762   1.24587    0.000
 4755.00    2.14084   1.24739    0.000
 4756.00    2.23616   1.24327    0.000
 4757.00    2.30235   1.23481    0.000
 4758.00    2.15720   1.22762    0.000
 4759.00    1.95330   1.22299    0.000
 4760.00    1.98527   1.22062    0.000
 4761.00    2.07119   1.21979    0.004
 4762.00    1.92727   1.22321    0.004
 4763.00    1.74125   1.23054    0.004
 4764.00    1.55334   1.23651    0.004
 4765.00    1.36516   1.23461    0.004
 4766.00    1.35434   1.22012    0.004
 4767.00    1.36151   1.20299    0.004
 4768.00    1.60263   1.19562    0.004
 4769.00    1.85886   1.19265    0.004
 4770.00    1.66703   1.19002    0.004
 4771.00    1.46249   1.19393    0.004
 4772.00    1.68440   1.20536    0.004
 4773.00    1.89800   1.21970    0.004
 4774.00    1.87100   1.23142    0.004
 4775.00    1.83529   1.23099    0.004
 4776.00    1.67358   1.21971    0.004
 4777.00    1.53346   1.21538    0.004
 4778.00    1.59649   1.22571    0.004
 4779.00    1.69972   1.23841    0.004
 4780.00    2.07825   1.24139    0.004
 4781.00    2.35962   1.24005    0.004
 4782.00    2.12640   1.24146    0.004
 4783.00    1.89735   1.23846    0.004
 4784.00    1.68609   1.23117    0.004
 4785.00    1.54729   1.22930    0.004
 4786.00    1.66315   1.22967    0.004
 4787.00    1.80273   1.22259    0.004
 4788.00    2.01242   1.21464    0.004
 4789.00    2.14593   1.21643    0.004
 4790.00    2.08761   1.21659    0.004
 4791.00    2.03289   1.20944    0.004
 4792.00    1.98597   1.20935    0.004
 4793.00    1.91896   1.21289    0.004
 4794.00    1.81415   1.21174    0.004
 4795.00    1.67538   1.21424    0.004
 4796.00    1.48078   1.22033    0.004
 4797.00    1.41942   1.22795    0.004
 4798.00    1.55003   1.24101    0.004
 4799.00    1.69622   1.25353    0.004
 4800.00    1.86216   1.25636    0.004
 4801.00    1.85828   1.24886    0.004
 4802.00    1.66474   1.23548    0.004
 4803.00    1.59740   1.22101    0.004
 4804.00    1.65439   1.21224    0.004
 4805.00    1.50357   1.21594    0.004
 4806.00    1.17221   1.22972    0.004
 4807.00    1.22900   1.24072    0.004
 4808.00    1.58283   1.23876    0.004
 4809.00    1.87364   1.22662    0.004
 4810.00    2.12206   1.21677    0.004
 4811.00    2.31817   1.21616    0.004
 4812.00    2.48343   1.21585    0.004
 4813.00    2.09403   1.21422    0.004
 4814.00    1.41961   1.21766    0.004
 4815.00    1.27102   1.22250    0.004
 4816.00    1.35655   1.22262    0.004
 4817.00    1.43027   1.22089    0.004
 4818.00    1.49947   1.22168    0.004
 4819.00    2.05758   1.22424    0.004
 4820.00    2.77465   1.22780    0.004
 4821.00    2.69277   1.23311    0.004
 4822.00    2.39337   1.23859    0.004
 4823.00    2.22729   1.24043    0.004
 4824.00    2.09099   1.23858    0.004
 4825.00    1.80206   1.23644    0.004
 4826.00    1.48592   1.23275    0.004
 4827.00    1.78098   1.21652    0.004
 4828.00    2.15931   1.19281    0.004
 4829.00    1.89588   1.18944    0.004
 4830.00    1.57011   1.20767    0.004
 4831.00    1.50099   1.22084    0.004
 4832.00    1.44745   1.21883    0.004
 4833.00    1.42069   1.21004    0.004
 4834.00    1.39589   1.20663    0.004
 4835.00    1.59426   1.20791    0.004
 4836.00    1.79223   1.20196    0.004
 4837.00    1.97976   1.19568    0.004
 4838.00    2.13287   1.20202    0.004
 4839.00    1.81614   1.21005    0.004
 4840.00    1.56050   1.20956    0.004
 4841.00    1.85706   1.20619    0.004
 4842.00    2.03432   1.20371    0.004
 4843.00    1.42001   1.19549    0.004
 4844.00    0.97106   1.18125    0.004
 4845.00    1.37537   1.17417    0.004
 4846.00    1.71259   1.17706    0.004
 4847.00    1.77054   1.17653    0.004
 4848.00    1.78669   1.17139    0.000
 4849.00    1.65898   1.17436    0.000
 4850.00    1.64424   1.18153    0.000
 4851.00    1.95713   1.17686    0.000
 4852.00    2.05293   1.15737    0.000
 4853.00    1.61142   1.13610    0.000
 4854.00    1.44160   1.12948    0.000
 4855.00    1.85144   1.13235    0.000
 4856.00    2.04463   1.12620    0.000
 4857.00    1.83638   1.11049    0.000
 4858.00    1.62005   1.08829    0.000
 4859.00    1.39064   1.05102    0.000
 4860.00    1.29693   1.00899    0.000
 4861.00    1.39589   0.98493    0.000
 4862.00    1.53257   0.96547    0.000
 4863.00    1.71637   0.91832    0.000
 4864.00    1.70789   0.83557    0.000
 4865.00    1.48769   0.73566    0.000
 4866.00    1.42955   0.68211    0.000
 4867.00    1.52878   0.72884    0.000
 4868.00    1.44521   0.82727    0.000
 4869.00    1.20507   0.90285    0.000
 4870.00    1.25167   0.95631    0.000
 4871.00    1.51458   1.00077    0.000
 4872.00    1.83390   1.03288    0.000
 4873.00    2.19060   1.05680    0.000
 4874.00    2.10507   1.07318    0.000
 4875.00    1.76284   1.06981    0.004
 4876.00    1.57620   1.05838    0.004
 4877.00    1.46825   1.07034    0.004
 4878.00    1.54143   1.10155    0.004
 4879.00    1.69394   1.12354    0.004
 4880.00    1.98717   1.13212    0.004
 4881.00    2.33329   1.14067    0.004
 4882.00    2.30988   1.15217    0.004
 4883.00    2.16861   1.16565    0.004
 4884.00    1.63312   1.18206    0.004
 4885.00    0.99255   1.18517    0.004
 4886.00    0.83415   1.17383    0.004
 4887.00    0.78094   1.16979    0.004
 4888.00    1.45047   1.17402    0.004
 4889.00    2.24528   1.17047    0.004
 4890.00    2.09077   1.16025    0.004
 4891.00    1.81123   1.15797    0.004
 4892.00    1.60628   1.16611    0.004
 4893.00    1.40825   1.17331    0.004
 4894.00    1.48314   1.16774    0.004
 4895.00    1.57351   1.14910    0.004
 4896.00    1.76040   1.14021    0.004
 4897.00    1.94673   1.16522    0.004
 4898.00    1.83017   1.20212    0.004
 4899.00    1.71525   1.22637    0.004
 4900.00    1.63943   1.23927    0.004
 4901.00    1.60326   1.24141    0.004
 4902.00    2.07983   1.23800    0.004
 4903.00    2.46299   1.23066    0.004
 4904.00    2.03401   1.21555    0.004
 4905.00    1.65092   1.20632    0.004
 4906.00    1.56307   1.21160    0.004
 4907.00    1.54741   1.21219    0.004
 4908.00    1.89482   1.20384    0.004
 4909.00    2.18367   1.20677    0.004
 4910.00    2.23417   1.22379    0.004
 4911.00    2.22247   1.23535    0.004
 4912.00    2.00088   1.23047    0.004
 4913.00    1.83303   1.21354    0.004
 4914.00    1.81817   1.19354    0.004
 4915.00    1.86754   1.17978    0.004
 4916.00    2.07315   1.18351    0.004
 4917.00    2.20353   1.20022    0.004
 4918.00    2.17599   1.21303    0.004
 4919.00    2.11000   1.22165    0.004
 4920.00    1.97386   1.23053    0.004
 4921.00    1.76763   1.22773    0.004
 4922.00    1.44959   1.20498    0.004
 4923.00    1.38159   1.16653    0.004
 4924.00    1.66350   1.12768    0.004
 4925.00    1.77333   1.09898    0.004
 4926.00    1.67122   1.08640    0.004
 4927.00    1.59924   1.10293    0.004
 4928.00    1.55994   1.12836    0.004
 4929.00    1.44481   1.14895    0.004
 4930.00    1.25706   1.17130    0.004
 4931.00    1.27057   1.20196    0.004
 4932.00    1.45402   1.22021    0.004
 4933.00    1.43724   1.22863    0.004
 4934.00    1.27160   1.23654    0.004
 4935.00    1.36151   1.23861    0.004
 4936.00    1.61833   1.23404    0.004
 4937.00    1.72846   1.21767    0.004
 4938.00    1.75472   1.19083    0.004
 4939.00    1.68834   1.18271    0.004
 4940.00    1.57584   1.20076    0.000
 4941.00    1.59505   1.20818    0.000
 4942.00    1.67097   1.18811    0.000
 4943.00    1.55332   1.16313    0.000
 4944.00    1.36421   1.16099    0.000
 4945.00    1.52519   1.18697    0.000
 4946.00    1.79570   1.21482    0.000
 4947.00    1.57100   1.22410    0.000
 4948.00    1.21709   1.22948    0.000
 4949.00    1.34771   1.23267    0.000
 4950.00    1.58152   1.22482    0.000
 4951.00    1.49517   1.21925    0.000
 4952.00    1.35488   1.22570    0.000
 4953.00    1.32078   1.23350    0.000
 4954.00    1.30017   1.23542    0.000
 4955.00    1.35219   1.23696    0.000
 4956.00    1.41064   1.23835    0.000
 4957.00    1.19678   1.23110    0.000
 4958.00    0.96855   1.22235    0.000
 4959.00    1.00736   1.22120    0.000
 4960.00    1.05352   1.21506    0.000
 4961.00    1.27632   1.18561    0.000
 4962.00    1.49191   1.14359    0.000
 4963.00    1.55083   1.14384    0.000
 4964.00    1.64419   1.19089    0.000
 4965.00    2.16041   1.22425    0.000
 4966.00    2.58693   1.22651    0.000
 4967.00    2.26241   1.22308    0.000
 4968.00    1.93424   1.22417    0.000
 4969.00    1.58330   1.21716    0.000
 4970.00    1.28790   1.19855    0.000
 4971.00    1.26482   1.18747    0.000
 4972.00    1.30840   1.18843    0.000
 4973.00    1.61737   1.19028    0.000
 4974.00    1.86259   1.19399    0.000
 4975.00    1.89694   1.19958    0.000
 4976.00    1.84777   1.20717    0.000
 4977.00    1.56510   1.21584    0.000
 4978.00    1.50377   1.22139    0.000
 4979.00    1.97178   1.22638    0.000
 4980.00    2.11814   1.22631    0.000
 4981.00    1.60010   1.22016    0.000
 4982.00    1.37145   1.21116    0.000
 4983.00    1.66273   1.19821    0.000
 4984.00    1.79795   1.19091    0.000
 4985.00    1.68796   1.18699    0.000
 4986.00    1.70616   1.16899    0.000
 4987.00    1.90117   1.14058    0.000
 4988.00    1.93093   1.12787    0.000
 4989.00    1.76006   1.13820    0.000
 4990.00    1.56857   1.15650    0.000
 4991.00    1.35503   1.17806    0.000
 4992.00    1.38798   1.20043    0.000
 4993.00    1.65365   1.20771    0.000
 4994.00    1.98332   1.20025    0.000
 4995.00    2.36627   1.18929    0.000
 4996.00    2.38833   1.18300    0.000
 4997.00    2.14591   1.18827    0.000
 4998.00    1.82716   1.19050    0.000
 4999.00    1.45928   1.19017    0.000
 5000.00    1.60326   1.19983    0.000
 5001.00    2.03541   1.20678    0.000
 5002.00    2.10551   1.20516    0.000
 5003.00    1.99823   1.19737    0.000
 5004.00    1.78520   1.17953    0.000
 5005.00    1.52739   1.16196    0.000
 5006.00    1.56275   1.15531    0.000
 5007.00    1.70441   1.15915    0.000
 5008.00    1.67995   1.16858    0.000
 5009.00    1.60453   1.16570    0.000
 5010.00    1.68500   1.14484    0.000
 5011.00    1.80527   1.13067    0.000
 5012.00    1.79264   1.14668    0.000
 5013.00    1.75240   1.17652    0.000
 5014.00    1.63414   1.19014    0.000
 5015.00    1.50310   1.18472    0.000
 5016.00    1.22188   1.17061    0.000
 5017.00    0.92223   1.14962    0.000
 5018.00    0.77720   1.12901    0.000
 5019.00    0.64525   1.11219    0.000
 5020.00    1.03814   1.10265    0.000
 5021.00    1.45668   1.11539    0.000
 5022.00    1.54802   1.12786    0.000
 5023.00    1.62741   1.12878    0.000
 5024.00    1.28661   1.13749    0.000
 5025.00    0.96793   1.15797    0.000
 5026.00    1.09283   1.16272    0.000
 5027.00    1.19787   1.15602    0.000
 5028.00    1.07092   1.16273    0.000
 5029.00    1.03117   1.17882    0.004
 5030.00    1.69536   1.18496    0.004
 5031.00    2.18554   1.17919    0.004
 5032.00    1.62063   1.16393    0.004
 5033.00    1.13913   1.16221    0.004
 5034.00    1.05654   1.17925    0.004
 5035.00    0.99839   1.18891    0.004
 5036.00    1.03543   1.19134    0.004
 5037.00    1.10650   1.20119    0.004
 5038.00    1.28796   1.21242    0.004
 5039.00    1.40763   1.20597    0.004
 5040.00    1.35766   1.17833    0.004
 5041.00    1.24330   1.15839    0.004
 5042.00    0.97755   1.16570    0.004
 5043.00    0.90065   1.16797    0.004
 5044.00    1.20761   1.14561    0.004
 5045.00    1.37138   1.10884    0.004
 5046.00    1.28180   1.08816    0.004
 5047.00    1.23473   1.11491    0.004
 5048.00    1.25346   1.16529    0.004
 5049.00    1.27470   1.19327    0.004
 5050.00    1.29933   1.20782    0.004
 5051.00    1.30053   1.21077    0.004
 5052.00    1.27368   1.18911    0.004
 5053.00    1.37392   1.16100    0.004
 5054.00    1.60827   1.15018    0.004
 5055.00    1.69154   1.15638    0.004
 5056.00    1.63415   1.15796    0.004
 5057.00    1.63615   1.16231    0.004
 5058.00    1.68689   1.17827    0.004
 5059.00    1.68722   1.19211    0.004
 5060.00    1.65115   1.18806    0.004
 5061.00    1.52913   1.18269    0.004
 5062.00    1.35262   1.18940    0.004
 5063.00    1.36296   1.20273    0.004
 5064.00    1.47689   1.20519    0.004
 5065.00    1.44193   1.20770    0.004
 5066.00    1.33517   1.21497    0.004
 5067.00    1.41198   1.21692    0.004
 5068.00    1.56520   1.20264    0.004
 5069.00    1.51888   1.17229    0.004
 5070.00    1.40149   1.15402    0.004
 5071.00    1.21339   1.16389    0.004
 5072.00    1.00401   1.17301    0.004
 5073.00    0.93606   1.16827    0.004
 5074.00    0.90344   1.17036    0.004
 5075.00    1.02425   1.18245    0.004
 5076.00    1.17615   1.18019    0.004
 5077.00    1.33322   1.16568    0.004
 5078.00    1.49110   1.16763    0.004
 5079.00    1.54996   1.17711    0.004
 5080.00    1.59710   1.17454    0.004
 5081.00    1.30638   1.17324    0.004
 5082.00    0.98850   1.17960    0.003
 5083.00    0.92083   1.17075    0.003
 5084.00    0.86441   1.13562    0.004
 5085.00    1.02799   1.11588    0.003
 5086.00    1.19534   1.13020    0.003
 5087.00    1.42050   1.14795    0.003
 5088.00    1.61871   1.15224    0.003
 5089.00    1.31588   1.15957    0.003
 5090.00    1.06935   1.17446    0.003
 5091.00    1.44988   1.18107    0.004
 5092.00    1.76002   1.17793    0.004
 5093.00    1.52180   1.17777    0.004
 5094.00    1.28888   1.18382    0.003
 5095.00    1.08725   1.18586    0.004
 5096.00    0.96623   1.18562    0.004
 5097.00    1.22141   1.19255    0.004
 5098.00    1.44533   1.20172    0.004
 5099.00    1.55012   1.20222    0.004
 5100.00    1.53899   1.19246    0.004
 5101.00    1.15919   1.17720    0.003
 5102.00    0.90558   1.15879    0.003
 5103.00    0.99220   1.13829    0.004
 5104.00    1.01610   1.12665    0.004
 5105.00    0.89495   1.13984    0.004
 5106.00    0.82717   1.16578    0.004
 5107.00    0.86618   1.17919    0.004
 5108.00    0.89861   1.17685    0.004
 5109.00    0.91956   1.17109    0.004
 5110.00    0.98679   1.17025    0.004
 5111.00    1.12462   1.16501    0.004
 5112.00    1.32184   1.15120    0.004
 5113.00    1.59865   1.14665    0.004
 5114.00    1.59869   1.14935    0.004
 5115.00    1.27213   1.14674    0.004
 5116.00    1.17793   1.15649    0.004
 5117.00    1.32549   1.17313    0.004
 5118.00    1.45817   1.17840    0.004
 5119.00    1.57720   1.18047    0.004
 5120.00    1.70199   1.18303    0.004
 5121.00    1.83144   1.18755    0.004
 5122.00    1.75767   1.19725    0.004
 5123.00    1.53924   1.20126    0.004
 5124.00    1.27830   1.19557    0.004
 5125.00    0.99081   1.18488    0.004
 5126.00    1.14104   1.17186    0.004
 5127.00    1.53021   1.15837    0.004
 5128.00    1.56023   1.14034    0.004
 5129.00    1.41986   1.12914    0.004
 5130.00    1.43907   1.13476    0.004
 5131.00    1.52359   1.14179    0.004
 5132.00    1.75704   1.14131    0.004
 5133.00    2.04257   1.13890    0.004
 5134.00    2.10709   1.13806    0.004
 5135.00    2.10645   1.14316    0.004
 5136.00    1.75295   1.15465    0.004
 5137.00    1.31325   1.15928    0.004
 5138.00    1.61738   1.15685    0.004
 5139.00    2.06844   1.16235    0.004
 5140.00    2.04767   1.17738    0.004
 5141.00    1.95414   1.17468    0.004
 5142.00    1.85827   1.15606    0.004
 5143.00    1.76214   1.14137    0.004
 5144.00    1.48408   1.12962    0.004
 5145.00    1.19215   1.13993    0.004
 5146.00    1.13182   1.15439    0.004
 5147.00    1.08102   1.13706    0.004
 5148.00    1.27454   1.12674    0.004
 5149.00    1.47010   1.14373    0.004
 5150.00    1.66724   1.14950    0.004
 5151.00    1.85652   1.14010    0.004
 5152.00    1.90984   1.13459    0.004
 5153.00    1.94395   1.13677    0.004
 5154.00    1.77368   1.14838    0.004
 5155.00    1.58289   1.15002    0.004
 5156.00    1.23769   1.13868    0.004
 5157.00    0.99635   1.13214    0.004
 5158.00    1.34988   1.13075    0.004
 5159.00    1.62474   1.13026    0.004
 5160.00    1.54119   1.14015    0.004
 5161.00    1.46464   1.15803    0.004
 5162.00    1.41422   1.17448    0.004
 5163.00    1.36667   1.18289    0.004
 5164.00    1.32808   1.18032    0.004
 5165.00    1.33774   1.18027    0.004
 5166.00    1.47522   1.17696    0.004
 5167.00    1.57606   1.16329    0.004
 5168.00    1.59361   1.15811    0.004
 5169.00    1.58026   1.15474    0.004
 5170.00    1.50606   1.12710    0.004
 5171.00    1.35214   1.07678    0.004
 5172.00    1.06140   1.02669    0.004
 5173.00    0.92662   1.01133    0.004
 5174.00    1.02624   1.04318    0.004
 5175.00    1.08372   1.08472    0.004
 5176.00    1.08554   1.07685    0.004
 5177.00    1.10445   1.02514    0.004
 5178.00    1.14324   1.01491    0.004
 5179.00    1.21754   1.07272    0.004
 5180.00    1.32827   1.13081    0.004
 5181.00    1.22264   1.14828    0.004
 5182.00    0.92122   1.15212    0.004
 5183.00    0.94490   1.15894    0.004
 5184.00    1.22784   1.15785    0.004
 5185.00    1.29658   1.14847    0.004
 5186.00    1.21504   1.13268    0.004
 5187.00    1.21247   1.09090    0.004
 5188.00    1.25851   1.02624    0.004
 5189.00    1.28054   1.00719    0.004
 5190.00    1.28968   1.06211    0.000
 5191.00    1.15612   1.12380    0.000
 5192.00    0.95595   1.14834    0.000
 5193.00    1.12758   1.14507    0.000
 5194.00    1.44877   1.14801    0.000
 5195.00    1.35189   1.16023    0.000
 5196.00    1.11153   1.13843    0.000
 5197.00    1.00060   1.10196    0.000
 5198.00    0.92706   1.10383    0.000
 5199.00    1.22154   1.12482    0.000
 5200.00    1.60392   1.12705    0.000
 5201.00    1.15690   1.12783    0.000
 5202.00    0.55021   1.13768    0.000
 5203.00    1.02081   1.14668    0.000
 5204.00    1.65247   1.15819    0.000
 5205.00    1.39023   1.16460    0.000
 5206.00    1.03010   1.16248    0.000
 5207.00    1.06985   1.15553    0.000
 5208.00    1.13849   1.14951    0.000
 5209.00    1.54983   1.12884    0.000
 5210.00    1.97396   1.09915    0.000
 5211.00    1.89386   1.08947    0.004
 5212.00    1.80507   1.09586    0.004
 5213.00    1.48498   1.08989    0.004
 5214.00    1.18454   1.08959    0.004
 5215.00    1.20271   1.10955    0.004
 5216.00    1.23844   1.13170    0.004
 5217.00    1.45295   1.15310    0.004
 5218.00    1.63705   1.16980    0.004
 5219.00    1.59982   1.17030    0.004
 5220.00    1.56236   1.14974    0.004
 5221.00    1.52356   1.13018    0.004
 5222.00    1.46853   1.13341    0.004
 5223.00    1.34128   1.15331    0.004
 5224.00    1.25369   1.17161    0.004
 5225.00    1.31100   1.18024    0.004
 5226.00    1.42064   1.18586    0.004
 5227.00    1.69049   1.18426    0.004
 5228.00    1.77779   1.17058    0.004
 5229.00    1.39007   1.14780    0.004
 5230.00    1.14643   1.11686    0.004
 5231.00    1.22504   1.08013    0.004
 5232.00    1.27955   1.06406    0.004
 5233.00    1.28735   1.09749    0.004
 5234.00    1.37849   1.14288    0.004
 5235.00    1.61048   1.16308    0.004
 5236.00    1.72914   1.17076    0.004
 5237.00    1.67993   1.15850    0.004
 5238.00    1.55927   1.13158    0.004
 5239.00    1.34556   1.12168    0.004
 5240.00    1.16640   1.13210    0.004
 5241.00    1.02685   1.15495    0.004
 5242.00    1.10478   1.17421    0.004
 5243.00    1.40267   1.18045    0.003
 5244.00    1.58137   1.17899    0.004
 5245.00    1.65374   1.17784    0.004
 5246.00    1.55793   1.18101    0.004
 5247.00    1.32989   1.17919    0.004
 5248.00    1.09080   1.17429    0.004
 5249.00    0.84408   1.18218    0.004
 5250.00    0.91738   1.19130    0.004
 5251.00    1.18467   1.17263    0.004
 5252.00    1.29515   1.14310    0.004
 5253.00    1.32264   1.14047    0.004
 5254.00    1.36993   1.14758    0.004
 5255.00    1.42631   1.13687    0.004
 5256.00    1.33517   1.13293    0.004
 5257.00    1.18571   1.14760    0.004
 5258.00    1.26492   1.15834    0.004
 5259.00    1.42115   1.15119    0.004
 5260.00    1.36551   1.14045    0.004
 5261.00    1.24989   1.15296    0.004
 5262.00    1.23494   1.17935    0.004
 5263.00    1.24348   1.19563    0.004
 5264.00    1.45559   1.19617    0.004
 5265.00    1.70588   1.18324    0.004
 5266.00    1.70266   1.15981    0.004
 5267.00    1.66271   1.12975    0.004
 5268.00    1.87199   1.10120    0.004
 5269.00    2.10750   1.08030    0.004
 5270.00    2.08705   1.06572    0.004
 5271.00    2.04916   1.06701    0.004
 5272.00    1.94399   1.09545    0.004
 5273.00    1.83657   1.10823    0.004
 5274.00    1.71804   1.06823    0.004
 5275.00    1.60799   1.03941    0.004
 5276.00    1.77032   1.07471    0.004
 5277.00    1.91520   1.12242    0.004
 5278.00    1.79465   1.13647    0.004
 5279.00    1.68042   1.13169    0.004
 5280.00    1.62783   1.11922    0.004
 5281.00    1.58154   1.12071    0.004
 5282.00    1.57951   1.15364    0.004
 5283.00    1.54643   1.18382    0.004
 5284.00    1.34496   1.18628    0.004
 5285.00    1.16243   1.17106    0.003
 5286.00    1.06221   1.15396    0.003
 5287.00    0.96674   1.14138    0.003
 5288.00    0.88827   1.12861    0.003
 5289.00    0.87580   1.12521    0.004
 5290.00    1.06155   1.15175    0.004
 5291.00    1.35203   1.18740    0.004
 5292.00    1.91029   1.20067    0.004
 5293.00    2.27443   1.19462    0.004
 5294.00    2.21149   1.19094    0.004
 5295.00    2.04234   1.19673    0.004
 5296.00    1.67051   1.20056    0.004
 5297.00    1.41144   1.19479    0.004
 5298.00    1.34009   1.18652    0.004
 5299.00    1.18768   1.18493    0.004
 5300.00    0.91696   1.18065    0.004
 5301.00    0.85989   1.15985    0.004
 5302.00    1.07699   1.12618    0.004
 5303.00    1.21033   1.10850    0.004
 5304.00    1.24896   1.12555    0.004
 5305.00    1.24169   1.14938    0.004
 5306.00    1.18866   1.15241    0.004
 5307.00    1.31848   1.15038    0.004
 5308.00    1.60913   1.16323    0.004
 5309.00    1.69428   1.18455    0.004
 5310.00    1.62018   1.19679    0.004
 5311.00    1.49321   1.19192    0.004
 5312.00    1.33022   1.17930    0.004
 5313.00    1.30625   1.17692    0.004
 5314.00    1.36529   1.18778    0.004
 5315.00    1.28027   1.19716    0.004
 5316.00    1.12021   1.19657    0.004
 5317.00    1.08812   1.19075    0.004
 5318.00    1.11385   1.18415    0.003
 5319.00    1.36114   1.18115    0.003
 5320.00    1.69452   1.17445    0.003
 5321.00    1.61982   1.15706    0.003
 5322.00    1.41022   1.14867    0.003
 5323.00    1.22940   1.16108    0.003
 5324.00    1.05656   1.17343    0.003
 5325.00    1.14135   1.17371    0.003
 5326.00    1.28490   1.17224    0.004
 5327.00    1.29026   1.16998    0.004
 5328.00    1.27041   1.15790    0.004
 5329.00    1.63695   1.13906    0.004
 5330.00    2.05768   1.13704    0.004
 5331.00    1.82362   1.14154    0.004
 5332.00    1.52349   1.11403    0.003
 5333.00    1.10490   1.06291    0.003
 5334.00    0.67871   1.05746    0.003
 5335.00    1.18306   1.10493    0.003
 5336.00    1.71318   1.14750    0.003
 5337.00    1.44707   1.15753    0.003
 5338.00    1.18620   1.15489    0.003
 5339.00    1.07509   1.16330    0.003
 5340.00    0.97909   1.17593    0.003
 5341.00    1.09993   1.17550    0.003
 5342.00    1.20419   1.16792    0.003
 5343.00    1.15321   1.16448    0.003
 5344.00    1.10934   1.15300    0.003
 5345.00    1.11398   1.12686    0.003
 5346.00    1.10751   1.11773    0.003
 5347.00    1.04233   1.13956    0.003
 5348.00    1.01834   1.16247    0.003
 5349.00    1.16928   1.16931    0.003
 5350.00    1.29387   1.15979    0.003
 5351.00    1.32611   1.15055    0.003
 5352.00    1.24865   1.15302    0.003
 5353.00    0.84785   1.15148    0.003
 5354.00    0.63698   1.14265    0.003
 5355.00    0.90336   1.14770    0.003
 5356.00    1.09462   1.16779    0.003
 5357.00    1.12334   1.18062    0.003
 5358.00    1.09693   1.18055    0.003
 5359.00    0.96699   1.18550    0.003
 5360.00    0.91502   1.19706    0.003
 5361.00    0.99094   1.20268    0.003
 5362.00    1.02738   1.20293    0.003
 5363.00    1.00703   1.20262    0.003
 5364.00    0.92370   1.20288    0.003
 5365.00    0.76071   1.19877    0.003
 5366.00    0.73451   1.18531    0.003
 5367.00    0.86081   1.16897    0.003
 5368.00    0.96087   1.16201   -2.000
 5369.00    1.03512   1.15946   -2.000
 5370.00    1.07764   1.15349   -2.000
 5371.00    1.09264   1.15132   -2.000
 5372.00    1.31148   1.15313   -2.000
 5373.00    1.68602   1.15269   -2.000
 5374.00    1.95863   1.14179   -2.000
 5375.00    2.16282   1.11616   -2.000
 5376.00    2.16345   1.09463   -2.000
 5377.00    2.04435   1.10444   -2.000
 5378.00    2.14161   1.14096   -2.000
 5379.00    2.34982   1.17186   -2.000
 5380.00    2.34992   1.18648   -2.000
 5381.00    2.25754   1.18642   -2.000
 5382.00    2.17610   1.17980   -2.000
 5383.00    2.09882   1.17934   -1.000
 5384.00    1.66493   1.17936   -1.000
 5385.00    1.11537   1.17165   -1.000
 5386.00    1.10247   1.16321    0.008
 5387.00    1.23529   1.15932    0.004
 5388.00    1.32459   1.15504    0.003
 5389.00    1.40419   1.15807    0.003
 5390.00    1.19299   1.16950    0.003
 5391.00    0.93015   1.17552    0.003
 5392.00    0.73410   1.17345    0.003
 5393.00    0.54712   1.16863    0.003
 5394.00    0.71107   1.15959    0.003
 5395.00    0.90893   1.14921    0.003
 5396.00    0.98464   1.14421    0.003
 5397.00    1.05300   1.14187    0.003
 5398.00    1.09571   1.13992    0.003
 5399.00    1.13720   1.13965    0.003
 5400.00    1.08612   1.13949    0.003
 5401.00    1.03413   1.12526    0.003
 5402.00    0.95895   1.10391    0.003
 5403.00    0.89118   1.11026    0.003
 5404.00    0.92403   1.13610    0.003
 5405.00    0.94477   1.14645    0.003
 5406.00    0.85667   1.14639    0.003
 5407.00    0.83209   1.15077    0.003
 5408.00    1.22747   1.14359    0.003
 5409.00    1.49404   1.11566    0.003
 5410.00    1.09808   1.08662    0.003
 5411.00    0.80362   1.08062    0.003
 5412.00    0.93046   1.10094    0.003
 5413.00    1.05407   1.12020    0.003
 5414.00    1.16656   1.11436    0.003
 5415.00    1.23573   1.09621    0.003
 5416.00    1.17953   1.09755    0.003
 5417.00    1.15305   1.12089    0.003
 5418.00    1.19998   1.14167    0.003
 5419.00    1.18427   1.14561    0.003
 5420.00    1.03517   1.14458    0.003
 5421.00    1.00671   1.15505    0.003
 5422.00    1.20137   1.16900    0.003
 5423.00    1.24548   1.17179    0.003
 5424.00    1.04633   1.16437    0.003
 5425.00    0.97131   1.15518    0.003
 5426.00    1.07227   1.15289    0.003
 5427.00    1.20519   1.15890    0.003
 5428.00    1.37798   1.15478    0.003
 5429.00    1.45193   1.13760    0.003
 5430.00    1.41726   1.13488    0.003
 5431.00    1.29908   1.15441    0.003
 5432.00    1.09995   1.17376    0.003
 5433.00    0.95373   1.16477    0.003
 5434.00    0.85275   1.12769    0.003
 5435.00    0.88322   1.10805    0.003
 5436.00    1.01267   1.12496    0.003
 5437.00    0.94283   1.13778    0.003
 5438.00    0.74113   1.12753    0.003
 5439.00    0.80920   1.11281    0.003
 5440.00    1.03356   1.10940    0.003
 5441.00    1.03560   1.11833    0.003
 5442.00    0.92541   1.13576    0.003
 5443.00    0.77380   1.15778    0.003
 5444.00    0.60409   1.17548    0.003
 5445.00    0.82391   1.18316    0.003
 5446.00    1.18982   1.18427    0.003
 5447.00    1.22233   1.18380    0.003
 5448.00    1.14876   1.18270    0.003
 5449.00    1.17186   1.17300    0.003
 5450.00    1.22065   1.14843    0.003
 5451.00    1.32703   1.11420    0.003
 5452.00    1.44592   1.09587    0.003
 5453.00    1.22034   1.11408    0.003
 5454.00    0.93526   1.14548    0.003
 5455.00    1.03685   1.16292    0.003
 5456.00    1.18914   1.16581    0.003
 5457.00    1.20123   1.16213    0.003
 5458.00    1.20037   1.15361    0.003
 5459.00    1.29145   1.13468    0.003
 5460.00    1.38771   1.10653    0.003
 5461.00    1.46994   1.09817    0.003
 5462.00    1.54978   1.12274    0.003
 5463.00    1.41301   1.15354    0.003
 5464.00    1.27633   1.16651    0.003
 5465.00    1.14163   1.16269    0.003
 5466.00    1.01454   1.15207    0.003
 5467.00    0.98533   1.13715    0.003
 5468.00    0.95862   1.12211    0.003
 5469.00    0.95362   1.12421    0.003
 5470.00    0.94544   1.13940    0.003
 5471.00    0.91694   1.14535    0.003
 5472.00    0.93696   1.14500    0.003
 5473.00    1.20020   1.15061    0.003
 5474.00    1.38421   1.15372    0.003
 5475.00    1.24659   1.14784    0.003
 5476.00    1.11638   1.14380    0.003
 5477.00    1.01111   1.14243    0.003
 5478.00    0.93462   1.13375   -2.000
 5479.00    0.93990   1.12656   -2.000
 5480.00    0.99586   1.12269   -2.000
 5481.00    1.17485   1.10308   -2.000
 5482.00    1.43849   1.08486   -2.000
 5483.00    1.87947   1.09991   -2.000
 5484.00    2.20734   1.12944   -2.000
 5485.00    2.32924   1.13718   -2.000
 5486.00    2.85846   1.12200   -2.000
 5487.00    4.03602   1.11336   -2.000
 5488.00    4.38956   1.12316   -2.000
 5489.00    3.59196   1.14103   -2.000
 5490.00    3.12561   1.15656   -2.000
 5491.00    3.06649   1.15702   -2.000
 5492.00    2.50967   1.14044   -2.000
 5493.00    1.41349   1.12830   -2.000
 5494.00    0.87203   1.13175   -2.000
 5495.00    0.86083   1.13783   -2.000
 5496.00    0.93106   1.14284   -2.000
 5497.00    1.06994   1.14766   -2.000
 5498.00    1.07649   1.14424   -2.000
 5499.00    0.98483   1.13967   -2.000
 5500.00    1.12382   1.14411   -2.000
 5501.00    1.41317   1.14541   -2.000
 5502.00    1.50721   1.13419    0.003
 5503.00    1.48983   1.13099    0.003
 5504.00    1.39088   1.14589    0.003
 5505.00    1.25142   1.15306    0.003
 5506.00    1.20877   1.13918    0.003
 5507.00    1.20772   1.12492    0.003
 5508.00    1.16836   1.12520    0.003
 5509.00    1.11488   1.13341    0.003
 5510.00    1.08055   1.13361    0.003
 5511.00    1.05219   1.12016    0.003
 5512.00    0.98492   1.11343    0.003
 5513.00    0.90752   1.12523    0.003
 5514.00    1.01599   1.13559    0.003
 5515.00    1.16392   1.13515    0.003
 5516.00    1.04714   1.12833    0.003
 5517.00    0.88591   1.11659    0.003
 5518.00    1.04455   1.10765    0.003
 5519.00    1.24369   1.10956    0.003
 5520.00    1.31189   1.11938    0.003
 5521.00    1.36855   1.12925    0.003
 5522.00    1.18612   1.13732    0.003
 5523.00    0.99119   1.14883    0.003
 5524.00    0.94930   1.15864    0.003
 5525.00    0.90848   1.15905    0.003
 5526.00    0.73208   1.15500    0.003
 5527.00    0.56703   1.15266    0.003
 5528.00    0.64604   1.15277    0.003
 5529.00    0.71922   1.15206    0.003
 5530.00    0.72120   1.14561    0.003
 5531.00    0.72995   1.13379    0.003
 5532.00    0.79504   1.11701    0.003
 5533.00    0.85298   1.10049    0.003
 5534.00    0.86649   1.10216    0.003
 5535.00    0.89690   1.12302    0.003
 5536.00    1.00988   1.14088    0.003
 5537.00    1.07712   1.14468    0.003
 5538.00    0.96275   1.14043    0.003
 5539.00    0.90488   1.13303    0.003
 5540.00    1.03346   1.12502    0.003
 5541.00    1.13777   1.12587    0.003
 5542.00    1.17442   1.13420    0.003
 5543.00    1.18155   1.13896    0.003
 5544.00    1.11820   1.14331    0.003
 5545.00    1.09767   1.15188    0.003
 5546.00    1.16538   1.15814    0.003
 5547.00    1.28774   1.15468    0.003
 5548.00    1.50810   1.14353    0.003
 5549.00    1.51966   1.13624    0.003
 5550.00    1.20375   1.13630    0.003
 5551.00    1.01514   1.13687    0.003
 5552.00    1.00180   1.14028    0.003
 5553.00    1.03437   1.14975    0.003
 5554.00    1.12256   1.15815    0.003
 5555.00    1.09662   1.16144    0.003
 5556.00    0.94875   1.16166    0.003
 5557.00    0.88278   1.15829    0.003
 5558.00    0.89401   1.14968    0.003
 5559.00    0.92300   1.13997    0.003
 5560.00    0.96676   1.13752    0.003
 5561.00    0.92141   1.14192    0.003
 5562.00    0.81088   1.14402    0.003
 5563.00    0.67416   1.14295    0.003
 5564.00    0.52061   1.14381    0.003
 5565.00    0.64314   1.14481    0.003
 5566.00    0.92081   1.14281    0.003
 5567.00    1.00116   1.13670    0.003
 5568.00    0.98503   1.12905    0.003
 5569.00    1.07647   1.12641    0.003
 5570.00    1.21334   1.12592    0.003
 5571.00    1.17794   1.12237    0.003
 5572.00    1.08021   1.12153    0.003
 5573.00    0.98555   1.12407    0.003
 5574.00    0.89183   1.12198    0.003
 5575.00    1.01787   1.12114    0.003
 5576.00    1.19985   1.12848    0.003
 5577.00    1.17013   1.12704    0.003
 5578.00    1.09657   1.11637    0.003
 5579.00    0.93077   1.11975    0.003
 5580.00    0.74993   1.13140    0.003
 5581.00    0.88720   1.13368    0.003
 5582.00    1.06333   1.13424    0.003
 5583.00    1.26124   1.13714    0.003
 5584.00    1.46098   1.13885    0.003
 5585.00    1.49905   1.14167    0.003
 5586.00    1.52930   1.14137    0.003
 5587.00    1.20997   1.13568    0.003
 5588.00    0.88910   1.13374    0.003
 5589.00    0.78735   1.13549    0.003
 5590.00    0.70905   1.12998    0.003
 5591.00    1.09633   1.11204    0.003
 5592.00    1.43848   1.08842    0.003
 5593.00    1.25661   1.07322    0.003
 5594.00    1.10326   1.07274    0.003
 5595.00    1.17905   1.08450    0.003
 5596.00    1.26121   1.09960    0.003
 5597.00    1.38178   1.10760    0.003
 5598.00    1.46649   1.10688    0.003
 5599.00    1.38020   1.10306    0.003
 5600.00    1.31524   1.10832    0.003
 5601.00    1.33314   1.12645    0.003
 5602.00    1.34846   1.13548    0.003
 5603.00    1.35539   1.12226    0.003
 5604.00    1.27223   1.10781    0.003
 5605.00    0.94233   1.10510    0.003
 5606.00    0.70362   1.10156    0.003
 5607.00    0.67890   1.09249    0.003
 5608.00    0.75269   1.09006    0.003
 5609.00    1.02631   1.10530    0.003
 5610.00    1.24399   1.12908    0.003
 5611.00    1.36288   1.14572    0.003
 5612.00    1.39361   1.15189    0.003
 5613.00    1.28812   1.15240    0.003
 5614.00    1.14581   1.15075    0.003
 5615.00    0.95351   1.14879    0.003
 5616.00    0.93757   1.14970    0.003
 5617.00    1.13232   1.15360    0.003
 5618.00    1.21601   1.15366    0.003
 5619.00    1.18269   1.13654    0.003
 5620.00    1.23756   1.10153    0.003
 5621.00    1.37438   1.08046    0.003
 5622.00    1.34251   1.09338    0.003
 5623.00    1.17244   1.11472    0.003
 5624.00    1.12136   1.12106    0.003
 5625.00    1.15608   1.12008    0.003
 5626.00    1.15523   1.12488    0.003
 5627.00    1.13187   1.13317    0.003
 5628.00    1.12843   1.13097    0.003
 5629.00    1.13600   1.11150    0.003
 5630.00    1.16623   1.09386    0.003
 5631.00    1.20736   1.09769    0.003
 5632.00    1.16334   1.11247    0.003
 5633.00    1.08396   1.12274    0.003
 5634.00    0.86351   1.13145    0.003
 5635.00    0.59295   1.14051    0.003
 5636.00    0.51697   1.14527    0.003
 5637.00    0.49936   1.14488    0.003
 5638.00    0.45128   1.14053    0.003
 5639.00    0.39562   1.13475    0.003
 5640.00    0.41362   1.12957    0.003
 5641.00    0.44651   1.12285    0.003
 5642.00    0.62115   1.11428    0.003
 5643.00    0.81824   1.11007    0.003
 5644.00    0.87187   1.11277    0.003
 5645.00    0.90862   1.11439    0.003
 5646.00    0.78523   1.10891    0.003
 5647.00    0.64904   1.10647    0.003
 5648.00    0.74043   1.11249    0.003
 5649.00    0.84195   1.11793    0.003
 5650.00    1.06154   1.11999    0.003
 5651.00    1.27328   1.12157    0.003
 5652.00    1.03713   1.12393    0.003
 5653.00    0.81076   1.12592    0.003
 5654.00    0.76463   1.12482    0.003
 5655.00    0.74720   1.12222    0.003
 5656.00    1.04744   1.12408    0.003
 5657.00    1.29739   1.13124    0.003
 5658.00    1.15717   1.13537    0.003
 5659.00    1.03802   1.12853    0.003
 5660.00    1.04261   1.11747    0.003
 5661.00    1.00078   1.11552    0.003
 5662.00    0.74298   1.11154    0.003
 5663.00    0.58122   1.08852    0.003
 5664.00    0.78456   1.06986    0.003
 5665.00    0.93341   1.08222    0.003
 5666.00    0.90939   1.10181    0.003
 5667.00    0.85377   1.10125    0.003
 5668.00    0.71318   1.09482    0.003
 5669.00    0.58838   1.10237    0.003
 5670.00    0.50003   1.11680    0.003
 5671.00    0.49161   1.12179    0.003
 5672.00    0.64277   1.11513    0.003
 5673.00    0.71865   1.10755    0.003
 5674.00    0.66361   1.10727    0.003
 5675.00    0.67427   1.11143    0.003
 5676.00    0.78497   1.11623    0.003
 5677.00    0.85537   1.12412    0.003
 5678.00    0.87188   1.13511    0.003
 5679.00    0.84775   1.14074    0.003
 5680.00    0.77576   1.13663    0.003
 5681.00    0.78332   1.13257    0.003
 5682.00    0.87350   1.13550    0.003
 5683.00    0.93630   1.13647    0.003
 5684.00    0.97401   1.13021    0.003
 5685.00    0.93640   1.12553    0.003
 5686.00    0.83796   1.12436    0.003
 5687.00    0.76654   1.11703    0.003
 5688.00    0.71432   1.10627    0.003
 5689.00    0.50963   1.10520    0.003
 5690.00    0.20986   1.11171    0.003
 5691.00    0.20317   1.11286    0.003
 5692.00    0.35615   1.10538    0.003
 5693.00    0.64460   1.09866    0.003
 5694.00    0.99719   1.10117    0.003
 5695.00    1.15490   1.11136    0.003
 5696.00    1.23302   1.12177    0.003
 5697.00    1.28200   1.12938    0.003
 5698.00    1.32083   1.13418    0.003
 5699.00    1.18717   1.13350    0.003
 5700.00    1.00279   1.12932    0.003
 5701.00    1.01939   1.12713    0.003
 5702.00    1.08495   1.12574    0.003
 5703.00    1.04562   1.11956    0.003
 5704.00    0.98565   1.11261    0.003
 5705.00    0.92977   1.10904    0.003
 5706.00    0.87452   1.10258    0.003
 5707.00    0.73092   1.09563    0.003
 5708.00    0.57731   1.09808    0.003
 5709.00    0.67437   1.10768    0.003
 5710.00    0.79043   1.11160    0.003
 5711.00    0.67323   1.10359    0.003
 5712.00    0.54654   1.09138    0.003
 5713.00    0.64818   1.08097    0.003
 5714.00    0.75224   1.07123    0.003
 5715.00    0.88302   1.06800    0.003
 5716.00    1.00916   1.07203    0.003
 5717.00    1.05552   1.07657    0.003
 5718.00    1.07784   1.08831    0.003
 5719.00    0.84585   1.10672    0.003
 5720.00    0.64480   1.11762    0.003
 5721.00    0.67565   1.12149    0.003
 5722.00    0.71212   1.12345    0.003
 5723.00    0.78071   1.12322    0.003
 5724.00    0.80954   1.12493    0.003
 5725.00    0.65781   1.12940    0.003
 5726.00    0.51468   1.13301    0.003
 5727.00    0.40359   1.13653    0.003
 5728.00    0.32278   1.13975    0.003
 5729.00    0.33624   1.14018    0.003
 5730.00    0.38123   1.13832    0.003
 5731.00    0.50957   1.13209    0.003
 5732.00    0.59474   1.12098    0.003
 5733.00    0.58194   1.11587    0.003
 5734.00    0.62705   1.12293    0.003
 5735.00    0.78596   1.12918    0.003
 5736.00    0.86566   1.12310    0.003
 5737.00    0.80968   1.11431    0.003
 5738.00    0.81232   1.11731    0.003
 5739.00    0.90288   1.12798    0.003
 5740.00    0.94459   1.13440    0.000
 5741.00    0.92188   1.13425    0.000
 5742.00    0.88104   1.13049    0.000
 5743.00    0.81915   1.12711    0.000
 5744.00    0.73373   1.12520    0.000
 5745.00    0.62419   1.12402    0.000
 5746.00    0.58970   1.12378    0.000
 5747.00    0.62299   1.12342    0.000
 5748.00    0.67716   1.12173    0.000
 5749.00    0.74795   1.12260    0.000
 5750.00    0.79193   1.12943    0.000
 5751.00    0.81714   1.13512    0.000
 5752.00    0.92936   1.13007    0.000
 5753.00    1.09504   1.11682    0.000
 5754.00    1.05734   1.11202    0.000
 5755.00    0.91055   1.12181    0.000
 5756.00    0.84579   1.13044    0.000
 5757.00    0.81924   1.12414    0.000
 5758.00    0.90246   1.10640    0.000
 5759.00    1.02975   1.09136    0.000
 5760.00    1.04548   1.09281    0.000
 5761.00    1.02301   1.10996    0.000
 5762.00    0.94373   1.12703    0.000
 5763.00    0.84809   1.13457    0.000
 5764.00    0.86508   1.13307    0.000
 5765.00    0.90889   1.12439    0.000
 5766.00    1.00866   1.11217    0.000
 5767.00    1.11916   1.09938    0.000
 5768.00    1.07014   1.09219    0.000
 5769.00    0.99736   1.10034    0.000
 5770.00    1.10032   1.11902    0.000
 5771.00    1.22243   1.13122    0.000
 5772.00    1.21788   1.13437    0.000
 5773.00    1.20425   1.13426    0.000
 5774.00    1.11194   1.13218    0.000
 5775.00    1.01672   1.12948    0.000
 5776.00    0.99411   1.12681    0.000
 5777.00    0.97470   1.12262    0.000
 5778.00    1.05890   1.11910    0.000
 5779.00    1.14224   1.11763    0.000
 5780.00    1.21172   1.11581    0.000
 5781.00    1.26569   1.11673    0.000
 5782.00    1.16276   1.12158    0.000
 5783.00    1.04601   1.12445    0.000
 5784.00    0.82918   1.12070    0.000
 5785.00    0.63912   1.10733    0.000
 5786.00    0.59767   1.08635    0.000
 5787.00    0.57816   1.07212    0.000
 5788.00    0.65603   1.07403    0.000
 5789.00    0.72453   1.07972    0.000
 5790.00    0.75893   1.07705    0.000
 5791.00    0.82482   1.07563   -2.000
 5792.00    0.98686   1.08738   -2.000
 5793.00    1.13185   1.10289   -2.000
 5794.00    1.23255   1.11121   -2.000
 5795.00    1.25363   1.11147   -2.000
 5796.00    1.09701   1.10457   -2.000
 5797.00    1.02615   1.10103   -2.000
 5798.00    1.12122   1.10742   -2.000
 5799.00    1.14092   1.11604   -2.000
 5800.00    1.03346   1.12279   -2.000
 5801.00    0.96352   1.12532   -2.000
 5802.00    0.94908   1.11780   -2.000
 5803.00    1.01794   1.10550   -2.000
 5804.00    1.19508   1.10502   -2.000
 5805.00    1.24083   1.11856   -2.000
 5806.00    1.13615   1.13034   -2.000
 5807.00    1.10650   1.13429   -2.000
 5808.00    1.15258   1.13333   -2.000
 5809.00    1.19341   1.12493   -2.000
 5810.00    1.22956   1.11288   -2.000
 5811.00    1.09383   1.10814    0.000
 5812.00    0.82324   1.11105    0.000
 5813.00    0.75899   1.11580    0.000
 5814.00    0.83714   1.11845    0.000
 5815.00    0.90380   1.12039    0.000
 5816.00    0.96351   1.12350    0.000
 5817.00    1.02674   1.12522    0.000
 5818.00    1.09184   1.12421    0.000
 5819.00    1.20007   1.12176    0.000
 5820.00    1.32806   1.11642    0.000
 5821.00    1.42441   1.10782    0.000
 5822.00    1.50828   1.10450    0.000
 5823.00    1.44709   1.11317    0.000
 5824.00    1.33715   1.12605    0.000
 5825.00    1.27171   1.13261    0.000
 5826.00    1.21883   1.13379    0.000
 5827.00    1.22036   1.13221    0.000
 5828.00    1.23455   1.12851    0.000
 5829.00    1.25410   1.12576    0.000
 5830.00    1.27465   1.12680    0.000
 5831.00    1.16095   1.12933    0.000
 5832.00    1.02787   1.12942    0.000
 5833.00    0.94333   1.12855    0.000
 5834.00    0.86387   1.12952    0.000
 5835.00    0.82185   1.13108    0.000
 5836.00    0.78237   1.13022    0.000
 5837.00    0.79143   1.12860    0.000
 5838.00    0.80211   1.12739    0.000
 5839.00    0.81753   1.12420    0.000
 5840.00    0.83067   1.11985    0.000
 5841.00    0.77206   1.12026    0.000
 5842.00    0.70820   1.12445    0.000
 5843.00    0.56513   1.12367    0.000
 5844.00    0.45294   1.11977    0.000
 5845.00    0.64022   1.12161    0.000
 5846.00    0.82741   1.12812    0.000
 5847.00    1.01400   1.13276    0.000
 5848.00    1.17031   1.13354    0.000
 5849.00    1.16303   1.13166    0.000
 5850.00    1.17021   1.12739    0.000
 5851.00    1.23999   1.12124    0.000
 5852.00    1.25579   1.11406    0.000
 5853.00    1.07889   1.10943    0.000
 5854.00    0.92972   1.11042    0.000
 5855.00    0.86363   1.11388    0.000
 5856.00    0.83601   1.11440    0.000
 5857.00    0.90652   1.10855    0.000
 5858.00    0.92437   1.09637    0.000
 5859.00    0.82658   1.08717    0.000
 5860.00    0.72374   1.09102    0.000
 5861.00    0.61127   1.09703    0.000
 5862.00    0.57237   1.08856    0.000
 5863.00    0.65570   1.07297    0.000
 5864.00    0.75162   1.07103    0.000
 5865.00    0.86590   1.08446    0.000
 5866.00    0.91031   1.09757    0.000
 5867.00    0.86520   1.10169    0.000
 5868.00    0.88205   1.09926    0.000
 5869.00    0.96883   1.10042    0.000
 5870.00    1.02288   1.10592    0.000
 5871.00    1.04433   1.10560    0.000
 5872.00    0.98392   1.09882    0.000
 5873.00    0.85165   1.09720    0.000
 5874.00    0.86946   1.10520    0.000
 5875.00    1.00337   1.11389    0.000
 5876.00    1.03488   1.11725    0.000
 5877.00    0.99677   1.11483    0.000
 5878.00    0.85620   1.10854    0.000
 5879.00    0.65457   1.09753    0.000
 5880.00    0.56848   1.07338    0.000
 5881.00    0.54248   1.05041    0.000
 5882.00    0.59915   1.05003    0.000
 5883.00    0.69309   1.07218    0.000
 5884.00    0.79575   1.09335    0.000
 5885.00    0.90179   1.09204    0.000
 5886.00    0.74071   1.08815    0.000
 5887.00    0.49155   1.09134    0.000
 5888.00    0.48359   1.09588    0.000
 5889.00    0.54235   1.09291    0.000
 5890.00    0.65465   1.08935    0.000
 5891.00    0.77913   1.09199    0.000
 5892.00    0.79224   1.09240    0.000
 5893.00    0.78508   1.07442    0.000
 5894.00    0.77167   1.02321    0.000
 5895.00    0.75738   0.95197    0.000
 5896.00    0.79574   0.92245    0.000
 5897.00    0.83937   0.96312    0.000
 5898.00    0.86926   1.01711    0.000
 5899.00    0.89827   1.03850    0.000
 5900.00    0.87811   1.02272    0.000
 5901.00    0.85658   0.97762    0.003
 5902.00    0.86167   0.95776    0.003
 5903.00    0.86429   0.99639    0.003
 5904.00    0.79740   1.04317    0.003
 5905.00    0.72567   1.06347    0.003
 5906.00    0.58512   1.07477    0.003
 5907.00    0.47073   1.08491    0.003
 5908.00    0.60003   1.08915    0.003
 5909.00    0.70899   1.09122    0.003
 5910.00    0.67977   1.09170    0.003
 5911.00    0.66882   1.08864    0.003
 5912.00    0.75396   1.08796    0.003
 5913.00    0.81763   1.09313    0.003
 5914.00    0.79038   1.09766    0.003
 5915.00    0.77294   1.09727    0.003
 5916.00    0.78975   1.09751    0.003
 5917.00    0.80350   1.10080    0.003
 5918.00    0.80822   1.09776    0.003
 5919.00    0.78897   1.08457    0.003
 5920.00    0.70962   1.07198    0.003
 5921.00    0.69377   1.07078    0.003
 5922.00    0.81506   1.07638    0.003
 5923.00    0.89260   1.08416    0.003
 5924.00    0.88813   1.08979    0.003
 5925.00    0.84984   1.09348    0.003
 5926.00    0.75622   1.09629    0.003
 5927.00    0.72497   1.09369    0.003
 5928.00    0.78326   1.08989    0.003
 5929.00    0.77382   1.09169    0.003
 5930.00    0.67884   1.09624    0.003
 5931.00    0.67142   1.10001    0.003
 5932.00    0.76145   1.10145    0.003
 5933.00    0.89255   1.09783    0.003
 5934.00    1.06395   1.08949    0.003
 5935.00    1.17451   1.08052    0.003
 5936.00    1.23241   1.07820    0.003
 5937.00    1.20204   1.08794    0.003
 5938.00    1.10435   1.09772    0.003
 5939.00    1.04831   1.09466    0.003
 5940.00    1.02019   1.08466    0.003
 5941.00    1.05579   1.08345    0.003
 5942.00    1.12880   1.09233    0.003
 5943.00    1.08098   1.09903    0.003
 5944.00    0.97132   1.10149    0.003
 5945.00    0.92446   1.10008    0.003
 5946.00    0.90544   1.09076    0.003
 5947.00    1.00860   1.07987    0.003
 5948.00    1.15829   1.08005    0.003
 5949.00    1.17609   1.08708    0.003
 5950.00    1.15123   1.09311    0.003
 5951.00    0.97692   1.09814    0.003
 5952.00    0.76214   1.09975    0.003
 5953.00    0.64632   1.09308    0.003
 5954.00    0.55247   1.08032    0.003
 5955.00    0.68140   1.07540    0.003
 5956.00    0.84977   1.08390    0.003
 5957.00    1.02932   1.08947    0.003
 5958.00    1.21038   1.08137    0.003
 5959.00    1.08318   1.07606    0.003
 5960.00    0.92635   1.08457    0.003
 5961.00    0.70506   1.08927    0.003
 5962.00    0.47993   1.08078    0.003
 5963.00    0.67976   1.07383    0.003
 5964.00    0.88857   1.07770    0.003
 5965.00    0.80485   1.08723    0.003
 5966.00    0.72394   1.09654    0.003
 5967.00    0.71483   1.10145    0.003
 5968.00    0.71551   1.10297    0.003
 5969.00    0.84794   1.10209    0.003
 5970.00    0.96384   1.09863    0.003
 5971.00    0.93181   1.09207    0.003
 5972.00    0.88472   1.08930    0.003
 5973.00    0.73844   1.09425    0.003
 5974.00    0.60559   1.09941    0.003
 5975.00    0.54158   1.10234    0.003
 5976.00    0.49417   1.10501    0.003
 5977.00    0.51548   1.10669    0.003
 5978.00    0.54824   1.10613    0.003
 5979.00    0.62023   1.10392    0.003
 5980.00    0.66354   1.09797    0.003
 5981.00    0.62408   1.08797    0.003
 5982.00    0.57776   1.07795    0.003
 5983.00    0.51454   1.07271    0.003
 5984.00    0.50148   1.07332    0.003
 5985.00    0.59503   1.08109    0.003
 5986.00    0.70651   1.09159    0.003
 5987.00    0.85108   1.09611    0.003
 5988.00    0.92325   1.08992    0.003
 5989.00    0.87866   1.07515    0.003
 5990.00    0.81837   1.06263    0.003
 5991.00    0.73587   1.06605    0.003
 5992.00    0.73427   1.07730    0.003
 5993.00    0.83337   1.08252    0.003
 5994.00    0.88740   1.08539    0.003
 5995.00    0.89200   1.08964    0.003
 5996.00    0.82653   1.08946    0.003
 5997.00    0.69326   1.08386    0.003
 5998.00    0.62261   1.08434    0.003
 5999.00    0.60540   1.09395    0.003
 6000.00    0.68706   1.10041    0.003
 6001.00    0.84303   1.09802    0.003
 6002.00    0.91149   1.08972    0.003
 6003.00    0.92217   1.08038    0.003
 6004.00    0.84331   1.07669    0.003
 6005.00    0.71267   1.08055    0.003
 6006.00    0.73467   1.08674    0.003
 6007.00    0.83357   1.08768    0.003
 6008.00    0.86044   1.08020    0.003
 6009.00    0.85590   1.07558    0.003
 6010.00    0.85574   1.08077    0.003
 6011.00    0.85722   1.08410    0.003
 6012.00    0.86910   1.07724    0.003
 6013.00    0.88427   1.06420    0.003
 6014.00    0.82398   1.05625    0.003
 6015.00    0.74367   1.06716    0.003
 6016.00    0.70013   1.08547    0.003
 6017.00    0.66456   1.08940    0.003
 6018.00    0.66789   1.07850    0.003
 6019.00    0.67793   1.06866    0.003
 6020.00    0.73351   1.07169    0.003
 6021.00    0.79503   1.07748    0.003
 6022.00    0.74693   1.07379    0.003
 6023.00    0.68876   1.07158    0.003
 6024.00    0.66971   1.07544    0.003
 6025.00    0.65284   1.07201    0.003
 6026.00    0.73736   1.06309    0.003
 6027.00    0.82281   1.06173    0.003
 6028.00    0.78062   1.06698    0.003
 6029.00    0.73657   1.07029    0.002
 6030.00    0.64962   1.07197    0.003
 6031.00    0.56363   1.07866    0.003
 6032.00    0.49004   1.08284    0.003
 6033.00    0.43580   1.08121    0.003
 6034.00    0.54822   1.08509    0.003
 6035.00    0.65121   1.09064    0.003
 6036.00    0.69393   1.09075    0.003
 6037.00    0.74899   1.08957    0.003
 6038.00    0.86566   1.09226    0.003
 6039.00    0.97223   1.09641    0.003
 6040.00    1.03790   1.09676    0.003
 6041.00    1.06929   1.09586    0.003
 6042.00    0.98562   1.09609    0.003
 6043.00    0.91134   1.09678    0.003
 6044.00    0.86365   1.09540    0.003
 6045.00    0.86755   1.09122    0.003
 6046.00    0.99643   1.08743    0.003
 6047.00    1.08731   1.08581    0.003
 6048.00    1.09876   1.08591    0.003
 6049.00    1.11325   1.09107    0.003
 6050.00    1.13325   1.09676    0.003
 6051.00    1.11331   1.09764    0.003
 6052.00    1.02990   1.09696    0.003
 6053.00    0.96759   1.09770    0.003
 6054.00    0.93471   1.09739    0.003
 6055.00    0.97342   1.09663    0.003
 6056.00    1.09999   1.09878    0.003
 6057.00    1.17935   1.09939    0.003
 6058.00    1.20765   1.09451    0.003
 6059.00    1.23811   1.08782    0.003
 6060.00    1.27064   1.08438    0.003
 6061.00    1.26610   1.08102    0.003
 6062.00    1.23037   1.07683    0.003
 6063.00    1.21353   1.07812    0.003
 6064.00    1.21069   1.08386    0.003
 6065.00    1.18135   1.09045    0.003
 6066.00    1.13477   1.09359    0.003
 6067.00    1.07416   1.09212    0.003
 6068.00    1.00556   1.08695    0.003
 6069.00    0.97692   1.07994    0.003
 6070.00    0.96810   1.06832    0.003
 6071.00    0.94093   1.05565    0.003
 6072.00    0.90591   1.06203    0.003
 6073.00    0.86406   1.08299    0.003
 6074.00    0.81970   1.09581    0.003
 6075.00    0.92142   1.09834    0.003
 6076.00    1.06861   1.09824    0.003
 6077.00    1.10658   1.09880    0.003
 6078.00    1.11621   1.10043    0.003
 6079.00    0.98535   1.10057    0.003
 6080.00    0.82477   1.09957    0.003
 6081.00    0.83035   1.09815    0.003
 6082.00    0.86373   1.09399    0.003
 6083.00    0.93140   1.08572    0.003
 6084.00    1.00339   1.07423    0.003
 6085.00    0.96091   1.07050    0.003
 6086.00    0.90838   1.07541    0.003
 6087.00    0.86500   1.07352    0.003
 6088.00    0.82208   1.06672    0.002
 6089.00    0.83763   1.06826    0.002
 6090.00    0.85386   1.07228    0.002
 6091.00    0.84193   1.07070    0.002
 6092.00    0.83436   1.07122    0.002
 6093.00    0.91956   1.07698    0.002
 6094.00    0.99955   1.08087    0.003
 6095.00    1.01638   1.07497    0.003
 6096.00    1.01919   1.06533    0.003
 6097.00    0.90574   1.06361    0.003
 6098.00    0.79982   1.06681    0.003
 6099.00    0.74062   1.06885    0.003
 6100.00    0.67902   1.07528    0.003
 6101.00    0.60574   1.08466    0.003
 6102.00    0.56834   1.08460    0.003
 6103.00    0.67297   1.07930    0.003
 6104.00    0.76807   1.08014    0.003
 6105.00    0.83182   1.08623    0.003
 6106.00    0.86016   1.08816    0.003
 6107.00    0.78996   1.07278    0.003
 6108.00    0.73982   1.03917    0.003
 6109.00    0.73745   1.02480    0.003
 6110.00    0.73545   1.04903    0.003
 6111.00    0.73419   1.07500    0.003
 6112.00    0.73511   1.08116    0.003
 6113.00    0.73990   1.07560    0.002
 6114.00    0.73633   1.07187    0.002
 6115.00    0.71966   1.07922    0.002
 6116.00    0.69621   1.08392    0.002
 6117.00    0.66345   1.07700    0.002
 6118.00    0.62162   1.07336    0.002
 6119.00    0.56882   1.08067    0.002
 6120.00    0.56557   1.08800    0.002
 6121.00    0.61518   1.08587    0.002
 6122.00    0.71306   1.07643    0.002
 6123.00    0.85635   1.07486    0.003
 6124.00    0.96436   1.08053    0.003
 6125.00    1.04311   1.07608    0.003
 6126.00    1.09286   1.06336    0.003
 6127.00    1.12145   1.04557    0.003
 6128.00    1.07385   1.03067    0.003
 6129.00    0.97741   1.04260    0.003
 6130.00    0.95490   1.06740    0.003
 6131.00    0.97386   1.07382    0.003
 6132.00    0.97056   1.06836    0.003
 6133.00    0.95641   1.06352    0.003
 6134.00    0.85006   1.06003    0.003
 6135.00    0.70484   1.06292    0.003
 6136.00    0.68657   1.07245    0.003
 6137.00    0.71412   1.07984    0.003
 6138.00    0.77684   1.08177    0.003
 6139.00    0.85029   1.08179    0.003
 6140.00    0.85309   1.07444    0.003
 6141.00    0.83795   1.05261    0.003
 6142.00    0.82632   1.01632    0.003
 6143.00    0.81541   0.98971    0.002
 6144.00    0.88234   1.00827    0.002
 6145.00    0.96191   1.05217    0.002
 6146.00    0.96498   1.07067    0.002
 6147.00    0.95876   1.05432    0.002
 6148.00    0.85249   1.04218    0.002
 6149.00    0.73787   1.05767    0.002
 6150.00    0.68672   1.07728    0.002
 6151.00    0.63861   1.08249    0.003
 6152.00    0.68745   1.07947    0.003
 6153.00    0.73817   1.07318    0.003
 6154.00    0.81684   1.06293    0.003
 6155.00    0.89304   1.05471    0.003
 6156.00    0.92073   1.05241    0.003
 6157.00    0.94039   1.05800    0.003
 6158.00    0.86723   1.06747    0.003
 6159.00    0.80736   1.07257    0.003
 6160.00    0.85369   1.06569    0.003
 6161.00    0.89293   1.05696    0.003
 6162.00    0.88944   1.05785    0.003
 6163.00    0.88638   1.05921    0.003
 6164.00    0.88538   1.05896    0.003
 6165.00    0.90205   1.05777    0.003
 6166.00    0.98717   1.04230    0.003
 6167.00    1.02849   1.00579    0.003
 6168.00    0.92841   0.97759    0.003
 6169.00    0.82237   0.98267    0.002
 6170.00    0.70005   1.00830    0.002
 6171.00    0.63107   1.02984    0.002
 6172.00    0.68697   1.03890    0.002
 6173.00    0.76417   1.04569    0.002
 6174.00    0.88448   1.03957    0.002
 6175.00    0.96219   1.01214    0.002
 6176.00    0.96481   1.00041    0.002
 6177.00    0.94426   1.02311    0.002
 6178.00    0.88795   1.04565    0.002
 6179.00    0.82104   1.04694    0.002
 6180.00    0.73978   1.04648    0.002
 6181.00    0.70098   1.04899    0.002
 6182.00    0.71280   1.04630    0.002
 6183.00    0.72973   1.04471    0.003
 6184.00    0.75202   1.05190    0.003
 6185.00    0.78706   1.05594    0.003
 6186.00    0.83393   1.05273    0.003
 6187.00    0.82282   1.05593    0.003
 6188.00    0.76430   1.06241    0.003
 6189.00    0.71581   1.06365    0.003
 6190.00    0.67452   1.06261    0.003
 6191.00    0.75020   1.05997    0.003
 6192.00    0.89977   1.05041    0.003
 6193.00    1.04081   1.04134    0.003
 6194.00    1.17714   1.03898    0.003
 6195.00    1.67058   1.03993    0.003
 6196.00    2.33549   1.03090   -2.000
 6197.00    3.21276   1.00712   -2.000
 6198.00    4.17806   1.00530   -2.000
 6199.00    4.19264   1.03232   -2.000
 6200.00    3.87023   1.05145   -2.000
 6201.00    2.87960   1.05560   -2.000
 6202.00    1.68899   1.05874   -2.000
 6203.00    0.80399   1.06313   -2.000
 6204.00   -0.00510   1.05762   -2.000
 6205.00   -0.04643   1.03994   -2.000
 6206.00    0.06684   1.02907   -2.000
 6207.00    0.39907   1.03873   -2.000
 6208.00    0.76584   1.05408    0.003
 6209.00    0.74960   1.06135    0.003
 6210.00    0.68848   1.06099    0.003
 6211.00    0.59632   1.05898    0.003
 6212.00    0.50170   1.06062    0.002
 6213.00    0.60035   1.06213    0.003
 6214.00    0.70751   1.06214    0.003
 6215.00    0.76338   1.06086    0.003
 6216.00    0.81625   1.05643    0.003
 6217.00    0.75282   1.05239    0.003
 6218.00    0.69032   1.04583    0.002
 6219.00    0.64470   1.02818    0.002
 6220.00    0.60595   1.01248    0.003
 6221.00    0.64296   1.00949    0.003
 6222.00    0.68674   1.01529    0.003
 6223.00    0.78291   1.02939    0.002
 6224.00    0.85800   1.03618    0.002
 6225.00    0.80977   1.02569    0.002
 6226.00    0.76918   1.01619    0.002
 6227.00    0.76403   1.02052    0.002
 6228.00    0.76147   1.03201    0.002
 6229.00    0.76872   1.03824    0.002
 6230.00    0.77076   1.03546    0.002
 6231.00    0.75626   1.03547    0.002
 6232.00    0.74666   1.03965    0.002
 6233.00    0.75020   1.04138    0.002
 6234.00    0.75480   1.04008    0.002
 6235.00    0.76183   1.02702    0.002
 6236.00    0.74312   1.00191    0.002
 6237.00    0.67310   0.98919    0.002
 6238.00    0.59956   1.00013    0.002
 6239.00    0.51991   1.01582    0.002
 6240.00    0.47283   1.03472    0.002
 6241.00    0.47522   1.05018    0.002
 6242.00    0.55016   1.05081    0.002
 6243.00    0.72194   1.04099    0.002
 6244.00    0.81863   1.02865    0.003
 6245.00    0.82702   1.01782    0.003
 6246.00    0.80335   1.01102    0.003
 6247.00    0.74643   1.01672    0.002
 6248.00    0.67003   1.01890    0.002
 6249.00    0.57582   1.00658    0.002
 6250.00    0.55910   1.00386    0.002
 6251.00    0.60484   1.00759    0.002
 6252.00    0.66485   1.00541    0.002
 6253.00    0.73500   1.01207    0.002
 6254.00    0.74889   1.02796    0.002
 6255.00    0.72778   1.03818    0.002
 6256.00    0.68479   1.04032    0.002
 6257.00    0.62992   1.03079    0.002
 6258.00    0.79017   1.00941    0.003
 6259.00    1.05206   0.99742    0.003
 6260.00    1.28938   1.00003    0.003
 6261.00    1.51669   1.00525    0.003
 6262.00    1.45562   1.00274    0.003
 6263.00    1.29419   0.99352    0.003
 6264.00    0.99382   0.98533    0.003
 6265.00    0.65269   0.99200    0.003
 6266.00    0.41921   1.01052    0.003
 6267.00    0.21188   1.01993    0.003
 6268.00    0.22041   1.02838    0.003
 6269.00    0.27131   1.04087    0.003
 6270.00    0.46207   1.03941    0.003
 6271.00    0.67422   1.02564    0.003
 6272.00    0.73235   1.02372    0.002
 6273.00    0.77311   1.03374    0.002
 6274.00    0.71102   1.03626    0.002
 6275.00    0.64120   1.03044    0.002
 6276.00    0.61154   1.02733    0.002
 6277.00    0.58349   1.03045    0.002
 6278.00    0.58087   1.03704    0.002
 6279.00    0.58066   1.04077    0.002
 6280.00    0.67022   1.03939    0.000
 6281.00    0.75700   1.03866    0.000
 6282.00    0.79624   1.04036    0.000
 6283.00    0.83109   1.03966    0.000
 6284.00    0.81976   1.03694    0.000
 6285.00    0.81519   1.02958    0.000
 6286.00    0.86102   1.01779    0.000
 6287.00    0.90047   1.01533    0.000
 6288.00    0.90362   1.02287    0.000
 6289.00    0.87691   1.03187    0.000
 6290.00    0.71495   1.03782    0.000
 6291.00    0.57449   1.03651    0.000
 6292.00    0.51377   1.03777    0.000
 6293.00    0.48699   1.04525    0.000
 6294.00    0.56562   1.05179    0.000
 6295.00    0.62574   1.05379    0.000
 6296.00    0.63707   1.04724    0.000
 6297.00    0.63892   1.03871    0.000
 6298.00    0.61930   1.03434    0.000
 6299.00    0.61873   1.03345    0.000
 6300.00    0.65553   1.03844    0.000
 6301.00    0.67135   1.03996    0.000
 6302.00    0.65130   1.02882    0.000
 6303.00    0.63285   1.01632    0.000
 6304.00    0.61680   1.01586    0.000
 6305.00    0.63721   1.02433    0.000
 6306.00    0.70560   1.02545    0.000
 6307.00    0.76332   1.01457    0.000
 6308.00    0.80865   1.00705    0.000
 6309.00    0.76136   1.01491    0.000
 6310.00    0.61937   1.02763    0.000
 6311.00    0.46640   1.03099    0.000
 6312.00    0.30353   1.03229    0.000
 6313.00    0.27270   1.04225    0.000
 6314.00    0.34680   1.05045    0.000
 6315.00    0.40772   1.04850    0.000
 6316.00    0.45942   1.04039    0.000
 6317.00    0.47711   1.03214    0.000
 6318.00    0.47395   1.03010    0.000
 6319.00    0.54839   1.03377    0.000
 6320.00    0.66438   1.02835    0.000
 6321.00    0.71109   1.01634    0.002
 6322.00    0.72559   1.01633    0.002
 6323.00    0.73503   1.01725    0.002
 6324.00    0.74244   1.00579    0.002
 6325.00    0.74012   1.00411    0.002
 6326.00    0.73447   1.01816    0.002
 6327.00    0.67852   1.02853    0.002
 6328.00    0.60811   1.02891    0.002
 6329.00    0.65433   1.03078    0.002
 6330.00    0.72825   1.03887    0.002
 6331.00    0.78958   1.04458    0.002
 6332.00    0.84850   1.04508    0.002
 6333.00    0.78685   1.04085    0.002
 6334.00    0.70732   1.04122    0.002
 6335.00    0.59680   1.04443    0.002
 6336.00    0.48292   1.04019    0.002
 6337.00    0.48088   1.03752    0.002
 6338.00    0.48680   1.04329    0.002
 6339.00    0.66247   1.04904    0.002
 6340.00    0.84432   1.04216    0.002
 6341.00    0.88673   1.01977    0.002
 6342.00    0.92160   1.00344    0.002
 6343.00    0.70941   1.00817    0.002
 6344.00    0.51070   1.02108    0.002
 6345.00    0.52715   1.02769    0.002
 6346.00    0.56095   1.03529    0.002
 6347.00    0.76938   1.04296    0.002
 6348.00    0.95661   1.04051    0.002
 6349.00    0.99083   1.02812    0.002
 6350.00    0.99739   1.01621    0.002
 6351.00    0.85089   1.01594    0.002
 6352.00    0.70500   1.01699    0.002
 6353.00    0.56180   1.01707    0.002
 6354.00    0.43849   1.02335    0.002
 6355.00    0.38754   1.03555    0.002
 6356.00    0.37054   1.04205    0.002
 6357.00    0.45697   1.04405    0.002
 6358.00    0.55408   1.04498    0.002
 6359.00    0.67883   1.04078    0.002
 6360.00    0.76292   1.02924    0.002
 6361.00    0.75647   1.02020    0.002
 6362.00    0.75686   1.02366    0.002
 6363.00    0.77042   1.02630    0.002
 6364.00    0.81039   1.01540    0.002
 6365.00    0.89481   1.00418    0.002
 6366.00    0.94692   1.00388    0.003
 6367.00    0.95135   1.00337    0.003
 6368.00    0.92478   0.99760    0.002
 6369.00    0.85799   0.99665    0.002
 6370.00    0.79213   1.00389    0.002
 6371.00    0.72732   1.01320    0.002
 6372.00    0.69237   1.02032    0.002
 6373.00    0.68753   1.02868    0.002
 6374.00    0.69683   1.03648    0.002
 6375.00    0.71869   1.03687    0.002
 6376.00    0.69137   1.02758    0.002
 6377.00    0.62553   1.02209    0.002
 6378.00    0.57029   1.02888    0.002
 6379.00    0.52234   1.04065    0.002
 6380.00    0.57533   1.04620    0.002
 6381.00    0.68928   1.04500    0.002
 6382.00    0.73501   1.04468    0.002
 6383.00    0.74479   1.04364    0.002
 6384.00    0.72500   1.03735    0.002
 6385.00    0.69169   1.03039    0.002
 6386.00    0.74807   1.02810    0.002
 6387.00    0.83975   1.02950    0.002
 6388.00    0.89426   1.03382    0.002
 6389.00    0.93631   1.03723    0.002
 6390.00    0.98056   1.03467    0.002
 6391.00    1.02544   1.03303    0.002
 6392.00    1.07451   1.03708    0.002
 6393.00    1.12456   1.04190    0.003
 6394.00    1.15085   1.04297    0.003
 6395.00    1.17272   1.04237    0.003
 6396.00    1.15742   1.04251    0.003
 6397.00    1.13679   1.04033    0.003
 6398.00    0.99048   1.02745    0.003
 6399.00    0.83109   1.00661    0.003
 6400.00    0.65237   1.00134    0.002
 6401.00    0.47235   1.01796    0.002
 6402.00    0.51354   1.03602    0.002
 6403.00    0.56194   1.04463    0.002
 6404.00    0.55258   1.04188    0.002
 6405.00    0.54176   1.02030    0.002
 6406.00    0.48548   0.99479    0.002
 6407.00    0.43311   0.99944    0.002
 6408.00    0.43941   1.02539    0.002
 6409.00    0.44354   1.04223    0.002
 6410.00    0.42673   1.04731    0.002
 6411.00    0.42081   1.04511    0.002
 6412.00    0.49099   1.03793    0.002
 6413.00    0.57152   1.02529    0.002
 6414.00    0.70783   1.01542    0.002
 6415.00    0.82205   1.02218    0.002
 6416.00    0.84083   1.03109    0.002
 6417.00    0.83472   1.02317    0.002
 6418.00    0.73998   1.01565    0.002
 6419.00    0.67097   1.02075    0.002
 6420.00    0.67888   1.02716    0.002
 6421.00    0.72064   1.02992    0.002
 6422.00    0.84855   1.03215    0.002
 6423.00    0.95599   1.03260    0.002
 6424.00    1.01860   1.03098    0.002
 6425.00    1.05009   1.02412    0.002
 6426.00    1.02243   1.00979    0.002
 6427.00    0.96257   1.00053    0.002
 6428.00    0.84931   1.01120    0.002
 6429.00    0.76364   1.03252    0.002
 6430.00    0.71809   1.04317    0.002
 6431.00    0.70747   1.04287    0.002
 6432.00    0.74149   1.04312    0.002
 6433.00    0.76926   1.04708    0.002
 6434.00    0.78999   1.04873    0.002
 6435.00    0.75069   1.04074    0.002
 6436.00    0.65172   1.02054    0.002
 6437.00    0.61079   1.00347    0.002
 6438.00    0.62073   1.00661    0.002
 6439.00    0.66635   1.02103    0.003
 6440.00    0.73952   1.03309    0.011
 6441.00    0.85587   1.04013   -1.000
 6442.00    1.00153   1.04313   -1.000
 6443.00    1.15628   1.03907   -1.000
 6444.00    1.31644   1.02100   -1.000
 6445.00    1.36695   1.00294   -1.000
 6446.00    1.36055   1.00996   -1.000
 6447.00    1.30453   1.03277   -1.000
 6448.00    1.22619   1.04629   -1.000
 6449.00    1.07547   1.04874    0.007
 6450.00    0.89677   1.04819    0.003
 6451.00    0.76153   1.04881    0.002
 6452.00    0.64060   1.05100    0.002
 6453.00    0.55422   1.05094    0.002
 6454.00    0.47738   1.03854    0.002
 6455.00    0.40505   1.00720    0.002
 6456.00    0.33374   0.98095    0.002
 6457.00    0.33722   0.98860    0.002
 6458.00    0.35426   1.01466    0.002
 6459.00    0.45146   1.03322    0.002
 6460.00    0.55981   1.03577    0.002
 6461.00    0.73861   1.02253    0.002
 6462.00    0.92444   1.00839    0.002
 6463.00    0.98123   1.01203    0.002
 6464.00    1.02986   1.02901    0.002
 6465.00    0.89533   1.04389    0.002
 6466.00    0.75561   1.04852    0.002
 6467.00    0.64495   1.03653    0.002
 6468.00    0.53888   1.00696    0.002
 6469.00    0.56007   0.98833    0.002
 6470.00    0.58491   1.00131    0.002
 6471.00    0.66139   1.02264    0.003
 6472.00    0.73176   1.03498    0.003
 6473.00    0.74559   1.04057    0.003
 6474.00    0.76591   1.04075    0.003
 6475.00    0.83027   1.03527    0.002
 6476.00    0.88400   1.02838    0.002
 6477.00    0.88207   1.02090    0.002
 6478.00    0.85655   1.01813    0.002
 6479.00    0.73145   1.02530    0.002
 6480.00    0.62515   1.02928    0.002
 6481.00    0.58441   1.02364    0.002
 6482.00    0.57285   1.02152    0.002
 6483.00    0.64688   1.02838    0.002
 6484.00    0.71690   1.03319    0.002
 6485.00    0.77690   1.03338    0.002
 6486.00    0.82989   1.03063    0.002
 6487.00    0.86777   1.01876    0.002
 6488.00    0.88720   1.00198    0.002
 6489.00    0.87210   0.99674    0.002
 6490.00    0.85057   1.00674    0.002
 6491.00    0.81852   1.01916    0.002
 6492.00    0.79825   1.02586    0.002
 6493.00    0.79484   1.02849    0.002
 6494.00    0.76553   1.02932    0.002
 6495.00    0.70359   1.02656    0.002
 6496.00    0.60792   1.01931    0.002
 6497.00    0.47478   1.01148    0.002
 6498.00    0.39072   1.00458    0.002
 6499.00    0.35476   0.98778    0.002
 6500.00    0.39549   0.95635    0.002
 6501.00    0.50249   0.93244    0.002
 6502.00    0.61283   0.93009    0.002
 6503.00    0.72574   0.94213    0.002
 6504.00    0.73667   0.95967    0.002
 6505.00    0.67940   0.97203    0.002
 6506.00    0.62590   0.98336    0.002
 6507.00    0.57460   0.99737    0.002
 6508.00    0.57124   1.00809    0.002
 6509.00    0.59237   1.01419    0.002
 6510.00    0.62293   1.01765    0.002
 6511.00    0.65766   1.02055    0.002
 6512.00    0.65281   1.02355    0.002
 6513.00    0.63292   1.02323    0.002
 6514.00    0.63693   1.01862    0.002
 6515.00    0.64864   1.01547    0.002
 6516.00    0.72509   1.01818    0.002
 6517.00    0.81902   1.02228    0.002
 6518.00    0.80917   1.02310    0.002
 6519.00    0.77633   1.02246    0.002
 6520.00    0.72020   1.01991    0.002
 6521.00    0.65995   1.01214    0.002
 6522.00    0.66820   1.00310    0.002
 6523.00    0.68566   0.99804    0.002
 6524.00    0.66311   0.99486    0.002
 6525.00    0.63674   0.99580    0.002
 6526.00    0.57271   1.00515    0.002
 6527.00    0.50645   1.01590    0.002
 6528.00    0.42989   1.01984    0.000
 6529.00    0.35386   1.01861    0.000
 6530.00    0.39444   1.01857    0.000
 6531.00    0.43526   1.01857    0.000
 6532.00    0.48197   1.01235    0.000
 6533.00    0.52846   1.00345    0.000
 6534.00    0.57202   1.00246    0.000
 6535.00    0.61602   1.00892    0.000
 6536.00    0.66386   1.01395    0.000
 6537.00    0.69261   1.01157    0.000
 6538.00    0.59611   1.00361    0.000
 6539.00    0.50162   0.99762    0.000
 6540.00    0.41742   0.99938    0.000
 6541.00    0.37117   1.00694    0.000
 6542.00    0.48153   1.01190    0.000
 6543.00    0.58697   1.00971    0.000
 6544.00    0.67557   1.00681    0.000
 6545.00    0.71321   1.00941    0.000
 6546.00    0.60415   1.01340    0.000
 6547.00    0.52308   1.01198    0.000
 6548.00    0.51088   1.00497    0.000
 6549.00    0.51939   0.99754    0.000
 6550.00    0.57180   0.99184    0.000
 6551.00    0.63612   0.98171    0.000
 6552.00    0.72235   0.96670    0.000
 6553.00    0.77813   0.96079    0.000
 6554.00    0.78488   0.96854    0.000
 6555.00    0.74387   0.97664    0.000
 6556.00    0.63539   0.97514    0.000
 6557.00    0.61491   0.96624    0.000
 6558.00    0.70376   0.95735    0.000
 6559.00    0.81833   0.94929    0.000
 6560.00    0.96107   0.93656    0.000
 6561.00    1.01885   0.91996    0.000
 6562.00    0.99456   0.90715    0.000
 6563.00    0.93514   0.90123    0.000
 6564.00    0.84579   0.89392    0.000
 6565.00    0.80024   0.87794    0.000
 6566.00    0.78756   0.85025    0.000
 6567.00    0.74920   0.79266    0.000
 6568.00    0.69391   0.69386    0.000
 6569.00    0.64614   0.62046    0.000
 6570.00    0.60271   0.65260    0.000
 6571.00    0.61269   0.75329    0.000
 6572.00    0.64952   0.83562    0.000
 6573.00    0.68295   0.87928    0.000
 6574.00    0.71491   0.89960    0.000
 6575.00    0.74228   0.90663    0.000
 6576.00    0.76793   0.91382    0.000
 6577.00    0.82223   0.92599    0.000
 6578.00    0.88560   0.93284    0.000
 6579.00    0.91951   0.93089    0.000
 6580.00    0.94563   0.92819    0.000
 6581.00    0.88993   0.93279    0.000
 6582.00    0.81654   0.94674    0.000
 6583.00    0.71484   0.96331    0.000
 6584.00    0.60829   0.97474    0.000
 6585.00    0.55958   0.97888    0.000
 6586.00    0.51838   0.97715    0.000
 6587.00    0.49691   0.97299    0.000
 6588.00    0.47724   0.97287    0.000
 6589.00    0.51804   0.97939    0.000
 6590.00    0.56218   0.98545    0.000
 6591.00    0.61358   0.98762    0.000
 6592.00    0.66321   0.98591    0.000
 6593.00    0.52944   0.98691    0.000
 6594.00    0.40186   0.99372    0.000
 6595.00    0.41620   1.00071    0.000
 6596.00    0.43585   1.00414    0.000
 6597.00    0.52265   0.99981    0.000
 6598.00    0.60742   0.98127    0.000
 6599.00    0.67471   0.95714    0.000
 6600.00    0.72577   0.95157    0.000
 6601.00    0.67356   0.96936    0.000
 6602.00    0.63411   0.98843    0.000
 6603.00    0.65820   0.99378    0.000
 6604.00    0.68006   0.98896    0.000
 6605.00    0.69285   0.98611    0.000
 6606.00    0.69697   0.99305    0.000
 6607.00    0.67205   1.00387    0.000
 6608.00    0.64373   1.00906    0.000
 6609.00    0.60580   1.00729    0.002
 6610.00    0.58341   1.00093    0.002
 6611.00    0.59862   0.99400    0.002
 6612.00    0.64468   0.99054    0.002
 6613.00    0.75510   0.98877    0.002
 6614.00    0.82692   0.98368    0.002
 6615.00    0.82872   0.97648    0.002
 6616.00    0.82141   0.97898    0.002
 6617.00    0.79964   0.99322    0.002
 6618.00    0.79550   1.00398    0.002
 6619.00    0.81591   1.00249    0.002
 6620.00    0.80462   0.99775    0.002
 6621.00    0.75448   1.00086    0.002
 6622.00    0.70188   1.00741    0.002
 6623.00    0.64664   1.00898    0.002
 6624.00    0.63906   1.00736    0.002
 6625.00    0.67690   1.00764    0.002
 6626.00    0.67992   1.00996    0.002
 6627.00    0.65371   1.01164    0.002
 6628.00    0.65283   1.01105    0.002
 6629.00    0.67071   1.00604    0.002
 6630.00    0.62281   0.99563    0.002
 6631.00    0.53220   0.98715    0.002
 6632.00    0.42791   0.98930    0.002
 6633.00    0.31586   0.99666    0.002
 6634.00    0.32153   1.00005    0.002
 6635.00    0.38546   0.99963    0.002
 6636.00    0.51252   0.99798    0.002
 6637.00    0.66660   0.99542    0.002
 6638.00    0.76460   0.99000    0.002
 6639.00    0.84205   0.98008    0.002
 6640.00    0.89761   0.97182    0.002
 6641.00    0.94636   0.97548    0.002
 6642.00    0.89813   0.98790    0.002
 6643.00    0.82480   0.99813    0.002
 6644.00    0.77248   1.00173    0.002
 6645.00    0.72460   0.99955    0.002
 6646.00    0.72768   0.99634    0.002
 6647.00    0.73926   0.99819    0.002
 6648.00    0.75353   0.99917    0.002
 6649.00    0.76814   0.98963    0.002
 6650.00    0.77022   0.97984    0.002
 6651.00    0.77120   0.98348    0.002
 6652.00    0.62848   0.99280    0.002
 6653.00    0.47839   0.99584    0.002
 6654.00    0.51928   0.99489    0.002
 6655.00    0.56352   0.99630    0.002
 6656.00    0.60545   0.99870    0.002
 6657.00    0.64454   0.99864    0.002
 6658.00    0.62370   0.99704    0.002
 6659.00    0.61280   0.99600    0.002
 6660.00    0.72173   0.99610    0.002
 6661.00    0.81619   0.99711    0.002
 6662.00    0.79105   0.99721    0.002
 6663.00    0.76005   0.99637    0.002
 6664.00    0.69283   0.99694    0.002
 6665.00    0.62943   0.99758    0.002
 6666.00    0.58458   0.99582    0.002
 6667.00    0.55083   0.99199    0.002
 6668.00    0.56089   0.98522    0.002
 6669.00    0.58530   0.97428    0.002
 6670.00    0.65680   0.96855    0.002
 6671.00    0.70258   0.97414    0.002
 6672.00    0.67691   0.98066    0.002
 6673.00    0.63626   0.98184    0.002
 6674.00    0.56005   0.98278    0.002
 6675.00    0.47348   0.98762    0.002
 6676.00    0.36565   0.99449    0.002
 6677.00    0.30818   0.99906    0.002
 6678.00    0.34067   0.99975    0.002
 6679.00    0.37597   0.99898    0.002
 6680.00    0.41563   0.99879    0.002
 6681.00    0.50687   0.99885    0.002
 6682.00    0.66886   0.99190    0.002
 6683.00    0.79720   0.96704    0.002
 6684.00    0.88490   0.93781    0.002
 6685.00    0.89804   0.93265    0.002
 6686.00    0.83178   0.95378    0.002
 6687.00    0.73761   0.97638    0.002
 6688.00    0.61723   0.98547    0.002
 6689.00    0.52412   0.98821    0.002
 6690.00    0.45359   0.99111    0.002
 6691.00    0.45836   0.99364    0.002
 6692.00    0.51802   0.99457    0.002
 6693.00    0.60179   0.99376    0.002
 6694.00    0.70099   0.99215    0.002
 6695.00    0.69850   0.99177    0.002
 6696.00    0.63909   0.99335    0.000
 6697.00    0.58359   0.99505    0.000
 6698.00    0.53000   0.99526    0.000
 6699.00    0.55236   0.99479    0.000
 6700.00    0.60667   0.99401    0.000
 6701.00    0.61301   0.98969    0.000
 6702.00    0.60206   0.98083    0.000
 6703.00    0.55642   0.97459    0.000
 6704.00    0.50020   0.97606    0.000
 6705.00    0.57388   0.98164    0.000
 6706.00    0.68046   0.98828    0.000
 6707.00    0.72339   0.99320    0.000
 6708.00    0.75321   0.99328    0.000
 6709.00    0.67142   0.98818    0.000
 6710.00    0.57157   0.98132    0.000
 6711.00    0.55820   0.97891    0.000
 6712.00    0.55531   0.98275    0.000
 6713.00    0.60593   0.98768    0.000
 6714.00    0.66098   0.98964    0.000
 6715.00    0.67820   0.98876    0.000
 6716.00    0.69364   0.98591    0.000
 6717.00    0.76439   0.98417    0.000
 6718.00    0.83595   0.98492    0.000
 6719.00    0.90880   0.98357    0.000
 6720.00    0.97249   0.97910    0.000
 6721.00    0.85775   0.97403    0.000
 6722.00    0.73769   0.96685    0.000
 6723.00    0.55671   0.95668    0.000
 6724.00    0.40131   0.95150    0.000
 6725.00    0.44960   0.96031    0.000
 6726.00    0.51120   0.97450    0.000
 6727.00    0.65262   0.98014    0.000
 6728.00    0.74852   0.97919    0.000
 6729.00    0.62876   0.98074    0.000
 6730.00    0.51014   0.98477    0.000
 6731.00    0.39593   0.98454    0.000
 6732.00    0.33699   0.97990    0.000
 6733.00    0.45600   0.97789    0.000
 6734.00    0.54462   0.98126    0.000
 6735.00    0.55038   0.98541    0.000
 6736.00    0.54605   0.98795    0.000
 6737.00    0.51817   0.98925    0.000
 6738.00    0.51284   0.98823    0.000
 6739.00    0.55308   0.98522    0.000
 6740.00    0.59366   0.98313    0.000
 6741.00    0.63488   0.98375    0.000
 6742.00    0.68364   0.98585    0.000
 6743.00    0.74402   0.98563    0.000
 6744.00    0.77495   0.98033    0.000
 6745.00    0.76607   0.97368    0.000
 6746.00    0.73331   0.97250    0.000
 6747.00    0.67212   0.97638    0.000
 6748.00    0.67527   0.97724    0.000
 6749.00    0.74594   0.97265    0.000
 6750.00    0.80326   0.97088    0.000
 6751.00    0.84821   0.97491    0.000
 6752.00    0.89701   0.97728    0.000
 6753.00    0.94895   0.97581    0.003
 6754.00    1.01583   0.97344    0.003
 6755.00    1.09344   0.97002    0.003
 6756.00    1.07229   0.96627    0.003
 6757.00    0.98886   0.96667    0.003
 6758.00    0.85855   0.96961    0.003
 6759.00    0.70240   0.96907    0.003
 6760.00    0.68817   0.96967    0.003
 6761.00    0.74196   0.97481    0.003
 6762.00    0.78666   0.97900    0.003
 6763.00    0.82761   0.98165    0.003
 6764.00    0.75573   0.98491    0.003
 6765.00    0.64395   0.98832    0.003
 6766.00    0.68501   0.99072    0.003
 6767.00    0.77169   0.99062    0.003
 6768.00    0.79326   0.98829    0.003
 6769.00    0.79870   0.98703    0.003
 6770.00    0.83327   0.98803    0.003
 6771.00    0.87368   0.98783    0.003
 6772.00    0.78780   0.98274    0.003
 6773.00    0.68208   0.97320    0.003
 6774.00    0.60020   0.96654    0.002
 6775.00    0.52109   0.96906    0.002
 6776.00    0.43129   0.97414    0.002
 6777.00    0.34065   0.97288    0.002
 6778.00    0.32135   0.97049    0.003
 6779.00    0.30516   0.97465    0.003
 6780.00    0.30957   0.98236    0.003
 6781.00    0.31431   0.98836    0.003
 6782.00    0.32440   0.99121    0.003
 6783.00    0.33739   0.99123    0.003
 6784.00    0.40303   0.99035    0.003
 6785.00    0.46762   0.99139    0.003
 6786.00    0.52087   0.99281    0.003
 6787.00    0.54399   0.99063    0.003
 6788.00    0.33540   0.98421    0.003
 6789.00    0.16060   0.97471    0.003
 6790.00    0.18272   0.96539    0.003
 6791.00    0.22719   0.96129    0.003
 6792.00    0.37500   0.96325    0.003
 6793.00    0.51900   0.96853    0.003
 6794.00    0.64857   0.97559    0.003
 6795.00    0.73715   0.98049    0.003
 6796.00    0.69629   0.98069    0.003
 6797.00    0.64068   0.98035    0.002
 6798.00    0.54556   0.98115    0.003
 6799.00    0.54640   0.97901    0.003
 6800.00    0.76773   0.97439    0.003
 6801.00    0.93488   0.97258    0.003
 6802.00    0.99428   0.97409    0.003
 6803.00    0.97319   0.97639    0.003
 6804.00    0.81265   0.97804    0.003
 6805.00    0.66095   0.97878    0.003
 6806.00    0.52267   0.98017    0.003
 6807.00    0.47562   0.98260    0.002
 6808.00    0.55015   0.98425    0.002
 6809.00    0.61275   0.98341    0.003
 6810.00    0.66132   0.98045    0.003
 6811.00    0.76132   0.97901    0.003
 6812.00    0.91453   0.97917    0.003
 6813.00    1.00794   0.97737    0.003
 6814.00    1.04676   0.97688    0.003
 6815.00    1.02887   0.97846    0.003
 6816.00    0.96537   0.97713    0.003
 6817.00    0.85518   0.97567    0.003
 6818.00    0.71193   0.97779    0.003
 6819.00    0.62398   0.97938    0.002
 6820.00    0.57038   0.97630    0.002
 6821.00    0.47634   0.97087    0.002
 6822.00    0.36036   0.97085    0.002
 6823.00    0.39969   0.97813    0.002
 6824.00    0.51225   0.98395    0.002
 6825.00    0.62534   0.98226    0.002
 6826.00    0.73864   0.97680    0.002
 6827.00    0.79257   0.97449    0.002
 6828.00    0.82588   0.97879    0.003
 6829.00    0.77718   0.98488    0.003
 6830.00    0.70448   0.98767    0.003
 6831.00    0.72351   0.98808    0.003
 6832.00    0.76476   0.98737    0.003
 6833.00    0.78222   0.98328    0.003
 6834.00    0.79503   0.97497    0.002
 6835.00    0.81443   0.96900    0.003
 6836.00    0.83483   0.97174    0.003
 6837.00    0.85149   0.97923    0.003
 6838.00    0.86774   0.98292    0.003
 6839.00    0.81682   0.98120    0.003
 6840.00    0.76089   0.98019    0.003
 6841.00    0.66113   0.98300    0.003
 6842.00    0.55963   0.98483    0.003
 6843.00    0.53559   0.98248    0.002
 6844.00    0.51949   0.97729    0.002
 6845.00    0.79790   0.97072    0.002
 6846.00    1.04569   0.96305    0.002
 6847.00    0.77614   0.95512    0.002
 6848.00    0.52772   0.94895    0.002
 6849.00    0.50032   0.94952    0.002
 6850.00    0.47817   0.95799    0.003
 6851.00    0.49499   0.96950    0.003
 6852.00    0.51485   0.97706    0.003
 6853.00    0.55192   0.97895    0.003
 6854.00    0.61354   0.97901    0.003
 6855.00    0.78601   0.97897    0.003
 6856.00    0.92256   0.97838    0.003
 6857.00    0.92614   0.97781    0.003
 6858.00    0.91039   0.97826    0.003
 6859.00    0.83477   0.97935    0.003
 6860.00    0.78744   0.97623    0.003
 6861.00    0.81456   0.96568    0.002
 6862.00    0.84075   0.95689    0.002
 6863.00    0.86480   0.95844    0.002
 6864.00    0.89621   0.96356    0.002
 6865.00    0.94200   0.96671    0.002
 6866.00    0.90674   0.96792    0.002
 6867.00    0.73315   0.96341    0.003
 6868.00    0.59188   0.95711    0.003
 6869.00    0.49894   0.96072    0.003
 6870.00    0.42866   0.97267    0.003
 6871.00    0.38815   0.98071    0.003
 6872.00    0.33718   0.97946    0.002
 6873.00    0.27411   0.97179    0.002
 6874.00    0.26540   0.96248    0.002
 6875.00    0.31218   0.95905    0.002
 6876.00    0.41290   0.96542    0.002
 6877.00    0.56219   0.97102    0.002
 6878.00    0.53696   0.96754    0.002
 6879.00    0.37331   0.96291    0.002
 6880.00    0.33590   0.96488    0.002
 6881.00    0.38658   0.96834    0.002
 6882.00    0.52321   0.96916    0.002
 6883.00    0.71244   0.97120    0.002
 6884.00    0.77903   0.97627    0.002
 6885.00    0.78008   0.97998    0.002
 6886.00    0.68503   0.97941    0.002
 6887.00    0.54540   0.97515    0.002
 6888.00    0.48457   0.96712    0.002
 6889.00    0.45523   0.95961    0.002
 6890.00    0.48483   0.96060    0.002
 6891.00    0.53450   0.96812    0.002
 6892.00    0.48547   0.97136    0.002
 6893.00    0.40814   0.97084    0.002
 6894.00    0.48931   0.97470    0.002
 6895.00    0.60801   0.97917    0.002
 6896.00    0.67505   0.98036    0.002
 6897.00    0.73223   0.98243    0.002
 6898.00    0.65484   0.98426    0.002
 6899.00    0.55757   0.98204    0.003
 6900.00    0.54791   0.97999    0.003
 6901.00    0.54770   0.97948    0.003
 6902.00    0.57585   0.97663    0.003
 6903.00    0.60600   0.97520    0.002
 6904.00    0.52525   0.97902    0.002
 6905.00    0.44053   0.98202    0.002
 6906.00    0.52437   0.97919    0.002
 6907.00    0.60542   0.97598    0.002
 6908.00    0.57077   0.97981    0.002
 6909.00    0.53766   0.98554    0.002
 6910.00    0.52884   0.98545    0.002
 6911.00    0.51639   0.98183    0.002
 6912.00    0.46748   0.98128    0.002
 6913.00    0.42882   0.98446    0.002
 6914.00    0.46385   0.98727    0.002
 6915.00    0.47758   0.98711    0.002
 6916.00    0.37383   0.98618    0.002
 6917.00    0.30164   0.98482    0.002
 6918.00    0.36859   0.98167    0.002
 6919.00    0.44673   0.97686    0.003
 6920.00    0.56546   0.96972    0.003
 6921.00    0.64707   0.96422    0.002
 6922.00    0.61587   0.96580    0.002
 6923.00    0.56899   0.96890    0.002
 6924.00    0.48158   0.97067    0.002
 6925.00    0.40397   0.97461    0.002
 6926.00    0.34815   0.97979    0.002
 6927.00    0.35772   0.98436    0.002
 6928.00    0.49331   0.98660    0.002
 6929.00    0.58249   0.98454    0.002
 6930.00    0.59366   0.97660    0.002
 6931.00    0.63623   0.96618    0.002
 6932.00    0.72502   0.96132    0.002
 6933.00    0.70783   0.96544    0.002
 6934.00    0.55341   0.97390    0.002
 6935.00    0.48530   0.97879    0.003
 6936.00    0.51566   0.97976    0.003
 6937.00    0.57253   0.98007    0.003
 6938.00    0.65607   0.97823    0.003
 6939.00    0.67344   0.97244    0.003
 6940.00    0.63209   0.96810    0.003
 6941.00    0.64787   0.97227    0.003
 6942.00    0.70834   0.97875    0.003
 6943.00    0.77167   0.97942    0.003
 6944.00    0.83697   0.97759    0.002
 6945.00    0.75907   0.97765    0.002
 6946.00    0.59486   0.98026    0.002
 6947.00    0.48609   0.98364    0.002
 6948.00    0.40648   0.98462    0.002
 6949.00    0.44860   0.98050    0.002
 6950.00    0.54626   0.97238    0.002
 6951.00    0.59959   0.96226    0.002
 6952.00    0.63550   0.95748    0.002
 6953.00    0.64658   0.96461    0.002
 6954.00    0.64935   0.97529    0.002
 6955.00    0.67408   0.98117    0.002
 6956.00    0.70498   0.98215    0.003
 6957.00    0.58097   0.97723    0.003
 6958.00    0.42113   0.96979    0.003
 6959.00    0.45913   0.96677    0.003
 6960.00    0.53387   0.96692    0.003
 6961.00    0.49556   0.96786    0.003
 6962.00    0.44106   0.97143    0.003
 6963.00    0.41522   0.97671    0.003
 6964.00    0.39235   0.98017    0.003
 6965.00    0.50847   0.98028    0.003
 6966.00    0.63386   0.97951    0.003
 6967.00    0.64354   0.97975    0.003
 6968.00    0.64948   0.98131    0.003
 6969.00    0.54997   0.98250    0.003
 6970.00    0.45380   0.98341    0.002
 6971.00    0.46047   0.98304    0.002
 6972.00    0.46701   0.97974    0.002
 6973.00    0.47177   0.97830    0.002
 6974.00    0.46757   0.98268    0.002
 6975.00    0.37725   0.98797    0.002
 6976.00    0.30639   0.98753    0.002
 6977.00    0.37099   0.98211    0.003
 6978.00    0.43616   0.97799    0.003
 6979.00    0.50436   0.98096    0.003
 6980.00    0.55473   0.98508    0.003
 6981.00    0.52827   0.98184    0.003
 6982.00    0.49272   0.97291    0.003
 6983.00    0.42486   0.96274    0.003
 6984.00    0.39088   0.94874    0.004
 6985.00    0.45796   0.93366    0.004
 6986.00    0.54011   0.93402    0.004
 6987.00    0.66056   0.95276    0.004
 6988.00    0.71352   0.97111    0.004
 6989.00    0.61892   0.98087    0.003
 6990.00    0.53033   0.98598    0.003
 6991.00    0.45313   0.98757    0.003
 6992.00    0.43863   0.98682    0.002
 6993.00    0.52796   0.98593    0.002
 6994.00    0.60420   0.98320    0.002
 6995.00    0.66143   0.97722    0.002
 6996.00    0.68461   0.97231    0.003
 6997.00    0.66431   0.97451    0.003
 6998.00    0.65007   0.98145    0.003
 6999.00    0.64265   0.98617    0.003
 7000.00    0.62886   0.98499    0.003
 7001.00    0.60875   0.98135    0.003
 7002.00    0.63920   0.98171    0.003
 7003.00    0.71386   0.98495    0.003
 7004.00    0.70544   0.98508    0.003
 7005.00    0.63298   0.97841    0.003
 7006.00    0.54114   0.96759    0.003
 7007.00    0.43616   0.96343    0.003
 7008.00    0.35084   0.97035    0.003
 7009.00    0.27720   0.97775    0.003
 7010.00    0.28532   0.97470    0.003
 7011.00    0.33578   0.96567    0.003
 7012.00    0.44841   0.96200    0.003
 7013.00    0.58896   0.96441    0.002
 7014.00    0.57260   0.96907    0.002
 7015.00    0.49568   0.97449    0.003
 7016.00    0.43287   0.97878    0.003
 7017.00    0.37469   0.97835    0.003
 7018.00    0.39296   0.97543    0.003
 7019.00    0.43227   0.97599    0.003
 7020.00    0.56992   0.97889    0.003
 7021.00    0.72981   0.97382    0.003
 7022.00    0.83874   0.95620    0.003
 7023.00    0.93845   0.93935    0.003
 7024.00    0.96489   0.94465    0.003
 7025.00    0.98117   0.96643    0.003
 7026.00    0.85030   0.98174    0.003
 7027.00    0.70483   0.98669    0.003
 7028.00    0.68917   0.98529    0.003
 7029.00    0.68164   0.97573    0.003
 7030.00    0.59856   0.96177    0.003
 7031.00    0.51352   0.95488    0.003
 7032.00    0.47988   0.96013    0.003
 7033.00    0.44784   0.96898    0.003
 7034.00    0.45968   0.97267    0.003
 7035.00    0.47103   0.97395    0.003
 7036.00    0.47544   0.97676    0.003
 7037.00    0.49173   0.97979    0.003
 7038.00    0.61747   0.98056    0.003
 7039.00    0.72165   0.97840    0.003
 7040.00    0.68055   0.97615    0.003
 7041.00    0.64748   0.97545    0.003
 7042.00    0.65634   0.97763    0.003
 7043.00    0.69898   0.97970    0.003
 7044.00    0.88380   0.97141    0.003
 7045.00    0.97217   0.95766    0.003
 7046.00    0.72502   0.96153    0.003
 7047.00    0.52993   0.98278    0.003
 7048.00    0.48721   0.99979    0.003
 7049.00    0.45706   1.00543    0.003
 7050.00    0.45830   1.00287   -2.000
 7051.00    0.48893   0.99400   -2.000
 7052.00    0.58278   0.98730   -2.000
 7053.00    0.59910   0.98948   -2.000
 7054.00    0.47061   0.99712   -2.000
 7055.00    0.40388   1.00333   -2.000
 7056.00    0.43788   1.00399   -2.000
 7057.00    0.46240   0.99949   -2.000
 7058.00    0.47338   0.98913   -2.000
 7059.00    0.46160   0.97271   -2.000
 7060.00    0.42117   0.95808   -2.000
 7061.00    0.36763   0.95312   -2.000
 7062.00    0.29954   0.95597   -2.000
 7063.00    0.38363   0.96317   -2.000
 7064.00    0.61658   0.96934   -2.000
 7065.00    0.71818   0.96794   -2.000
 7066.00    0.70648   0.95855   -2.000
 7067.00    0.70892   0.94997   -2.000
 7068.00    0.72210   0.95099   -2.000
 7069.00    0.65575   0.95669   -2.000
 7070.00    0.53629   0.96153   -2.000
 7071.00    0.60172   0.96639   -2.000
 7072.00    0.77527   0.96607   -2.000
 7073.00    0.85459   0.95757   -2.000
 7074.00    0.88587   0.94727   -2.000
 7075.00    0.79608   0.93954   -2.000
 7076.00    0.65284   0.94332   -2.000
 7077.00    0.57079   0.95668   -2.000
 7078.00    0.51195   0.96635   -2.000
 7079.00    0.53570   0.96889   -2.000
 7080.00    0.58605   0.96961   -2.000
 7081.00    0.68578   0.96990   -2.000
 7082.00    0.79881   0.96879   -2.000
 7083.00    0.89532   0.96711   -2.000
 7084.00    0.98818   0.96680   -2.000
 7085.00    0.81013   0.96861   -2.000
 7086.00    0.58446   0.97017   -2.000
 7087.00    0.61633   0.97221   -2.000
 7088.00    0.68270   0.97272   -2.000
 7089.00    0.61225   0.96566   -2.000
 7090.00    0.52880   0.94988   -2.000
 7091.00    0.50815   0.93242   -2.000
 7092.00    0.49119   0.92666   -2.000
 7093.00    0.56066   0.93294   -2.000
 7094.00    0.63237   0.93478   -2.000
 7095.00    0.71795   0.93059   -2.000
 7096.00    0.79130   0.92678   -2.000
 7097.00    0.56085   0.92357   -2.000
 7098.00    0.36174   0.92479   -2.000
 7099.00    0.57894   0.92783   -2.000
 7100.00    0.74905   0.92742   -2.000
 7101.00    0.50178   0.92783   -2.000
 7102.00    0.31193   0.92833   -2.000
 7103.00    0.49714   0.92850   -2.000
 7104.00    0.64809   0.92975   -2.000
 7105.00    0.62456   0.93462   -2.000
 7106.00    0.65615   0.94503   -2.000
 7107.00    0.91462   0.94835   -2.000
 7108.00    1.10946   0.94543   -2.000
 7109.00    1.08741   0.94043   -2.000
 7110.00    1.09815   0.93953   -2.000
 7111.00    1.20308   0.94527   -2.000
 7112.00    1.13573   0.95061   -2.000
 7113.00    0.64562   0.94826   -2.000
 7114.00    0.39702   0.94302   -2.000
 7115.00    0.65948   0.94264   -2.000
 7116.00    0.82721   0.94350   -2.000
 7117.00    0.82074   0.93762   -2.000
 7118.00    0.77970   0.92971   -2.000
 7119.00    0.68310   0.93031   -2.000
 7120.00    0.67786   0.93732   -2.000
 7121.00    0.80141   0.94291   -2.000
 7122.00    1.00332   0.94512   -2.000
 7123.00    1.30241   0.94753   -2.000
 7124.00    1.63724   0.94912   -2.000
 7125.00    2.01112   0.94856   -2.000
 7126.00    1.89606   0.94707   -2.000
 7127.00    1.30948   0.94551   -2.000
 7128.00    0.76963   0.94180   -2.000
 7129.00    0.26953   0.93703   -2.000
 7130.00    0.24389   0.94061   -2.000
 7131.00    0.57357   0.94640   -2.000
 7132.00    0.74981   0.94241   -2.000
 7133.00    0.82508   0.93488   -2.000
 7134.00    0.69807   0.93432   -2.000
 7135.00    0.45454   0.93755   -2.000
 7136.00    0.72462   0.93480   -2.000
 7137.00    1.25243   0.92339   -2.000
 7138.00    1.29469   0.91714   -2.000
 7139.00    1.12610   0.92485   -2.000
 7140.00    0.85590   0.93604   -2.000
 7141.00    0.54785   0.94435   -2.000
 7142.00    0.60465   0.94727   -2.000
 7143.00    0.77670   0.94754   -2.000
 7144.00    0.80409   0.95016   -2.000
 7145.00    0.79334   0.94766   -2.000
 7146.00    0.81401   0.94120   -2.000
 7147.00    0.84145   0.94199   -2.000
 7148.00    0.53530   0.94830   -2.000
 7149.00    0.17214   0.94987   -2.000
 7150.00    0.44462   0.94873   -2.000
 7151.00    0.79936   0.94842   -2.000
 7152.00    0.83489   0.94731   -2.000
 7153.00    0.84143   0.94522   -2.000
 7154.00    0.78084   0.93494   -2.000
 7155.00    0.71657   0.92075   -2.000
 7156.00    0.70673   0.92311   -2.000
 7157.00    0.70020   0.93574   -2.000
 7158.00    0.89229   0.94425   -2.000
 7159.00    1.08565   0.95242   -2.000
 7160.00    1.30796   0.95943   -2.000
 7161.00    1.50960   0.95745   -2.000
 7162.00    1.45106   0.95076   -2.000
 7163.00    1.35333   0.95280   -2.000
 7164.00    0.92128   0.96134   -2.000
 7165.00    0.47222   0.96118   -2.000
 7166.00   -0.08465   0.95345   -2.000
 7167.00   -0.36545   0.94876   -2.000
 7168.00    0.72455   0.95154   -2.000
 7169.00    1.58779   0.95587   -2.000
 7170.00    1.53829   0.94632   -2.000
 7171.00    1.41479   0.92649   -2.000
 7172.00    1.04403   0.91501   -2.000
 7173.00    0.67559   0.92479   -2.000
 7174.00    0.31366   0.94323   -2.000
 7175.00    0.11126   0.95351   -2.000
 7176.00    0.29366   0.95364   -2.000
 7177.00    0.48881   0.95128   -2.000
 7178.00    0.71050   0.95382   -2.000
 7179.00    0.90753   0.95952   -2.000
 7180.00    1.05990   0.96234   -2.000
 7181.00    1.06188   0.96038   -2.000
 7182.00    0.82581   0.95259   -2.000
 7183.00    0.60889   0.94385   -2.000
 7184.00    0.41856   0.94599   -2.000
 7185.00    0.39674   0.95448   -2.000
 7186.00    0.58099   0.95063   -2.000
 7187.00    0.91866   0.93382   -2.000
 7188.00    1.42171   0.92246   -2.000
 7189.00    1.40272   0.92965   -2.000
 7190.00    0.88736   0.94723   -2.000
 7191.00    0.70594   0.95683   -2.000
 7192.00    0.80448   0.95507   -2.000
 7193.00    0.73299   0.94446   -2.000
 7194.00    0.53601   0.92680   -2.000
 7195.00    0.45208   0.91775   -2.000
 7196.00    0.44146   0.92069   -2.000
 7197.00    0.67189   0.92994   -2.000
 7198.00    1.03906   0.94028   -2.000
 7199.00    1.38239   0.94160   -2.000
 7200.00    1.71395   0.93684   -2.000
 7201.00    1.72420   0.93860   -2.000
 7202.00    1.59725   0.94619   -2.000
 7203.00    1.27006   0.94515   -2.000
 7204.00    0.86961   0.93774   -2.000
 7205.00    0.44254   0.94046   -2.000
 7206.00    0.00722   0.94929   -2.000
 7207.00   -0.17275   0.95230   -2.000
 7208.00   -0.28683   0.94675   -2.000
 7209.00    0.03034   0.94051   -2.000
 7210.00    0.43822   0.94456   -2.000
 7211.00    0.85873   0.95621   -2.000
 7212.00    1.28134   0.95954   -2.000
 7213.00    1.48964   0.94411   -2.000
 7214.00    1.67116   0.92052   -2.000
 7215.00    1.25243   0.91479   -2.000
 7216.00    0.78171   0.92552   -2.000
 7217.00    0.63238   0.94182   -2.000
 7218.00    0.49936   0.95677   -2.000
