###################################################################
## OUTPUT of StarlightChains_v04.for    [Cid@UFSC - 01/Apr/2007] ##
###################################################################

## Some input info
KUG0210-078._22_32.txt                   [arq_obs]
Base.CB07.vall.4m                        [arq_base]
Masks.EmLines.NEW.gm                     [arq_masks]
StCv04.C11.config                        [arq_config]
   66                                    [N_base]
    0                                    [N_YAV_components = # of components with extra extinction!]
    0                                    [i_FitPowerLaw (1/0 = Yes/No)]
-9.99                                    [alpha_PowerLaw]
CCM                                      [red_law_option]
 1.458241                                [q_norm = A(l_norm)/A(V)]

## (Re)Sampling Parameters
 3741.00                                 [l_ini (A)]
 7218.00                                 [l_fin (A)]
    1.00                                 [dl    (A)]     (OBS: dl_cushion =    50.00 A)

## Normalization info
 4020.00                                 [l_norm (A) - for base]
 4010.00                                 [llow_norm (A) - window for f_obs]
 4060.00                                 [lupp_norm (A) - window for f_obs]
1.254280E-17                             [fobs_norm (in input units)]

## S/N
 3691.00                                 [llow_SN (A) - window for S/N]
 7268.00                                 [lupp_SN (A) - window for S/N]
   2.838                                 [S/N in S/N window]
   4.015                                 [S/N in norm. window]
   0.013                                 [S/N_err in S/N window]
   0.018                                 [S/N_err in norm. window]
  1.0000                                 [fscale_chi2]

## etc...
    -2007246                             [idum_orig]
  2384                                   [NOl_eff]
  1945                                   [Nl_eff]
   439    NSIGMA                         [Ntot_cliped & clip_method]
  2050510                                [Nglobal_steps]
   7                                     [N_chains]
  46                                     [NEX0s_base = N_base in EX0s-fits]
 0   0   1      439   2.0   1.185E+04    [Clip-Bug, RC-Crash & Burn-In warning-flags, n_censored_weights, wei_nsig_threshold & wei_limit]
    43     42.362     41.725      0.637  [idt_all, wdt_TotTime, wdt_UsrTime & wdt_SysTime (sec)]

## Synthesis Results - Best model ##

 1.02925E-05                             [chi2/Nl_eff]
    16.41946                             [adev (%)]

    94.43851                             [sum-of-x (%)]
 1.45879E-17                             [Flux_tot (units of input spectrum!)]
 4.02317E-13                             [Mini_tot (???)]
 2.01772E-13                             [Mcor_tot (???)]

-120.75                                  [v0_min  (km/s)]
  50.56                                  [vd_min  (km/s)]
 0.1551                                  [AV_min  (mag)]
 0.0000                                  [YAV_min (mag)]

# j     x_j(%)      Mini_j(%)     Mcor_j(%)     age_j(yr)     Z_j      (L/M)_j    YAV?  Mstars   component_j        a/Fe...       SSP_chi2r SSP_adev(%)   SSP_AV   SSP_x(%)
  1      0.0000     0.0000E+00    0.0000E+00    1.000000E+06  0.00400  1.094E-02    0   1.0000   age020_m42            0.0000     1.4608E-05    20.3075   2.2217    79.7278
  2      0.0000     0.0000E+00    0.0000E+00    3.160000E+06  0.00400  4.007E-02    0   0.9999   age045_m42            0.0000     1.3452E-05    19.1837   1.6069    82.5713
  3      0.0000     0.0000E+00    0.0000E+00    5.010000E+06  0.00400  2.539E-02    0   0.9488   age055_m42            0.0000     1.3799E-05    19.6090   1.8773    81.8072
  4      6.1146     8.9607E-03    1.6473E-02    6.610000E+06  0.00400  2.620E-02    0   0.9220   age061_m42            0.0000     1.3101E-05    18.9874   1.5357    82.9871
  5      0.0000     0.0000E+00    0.0000E+00    1.000000E+07  0.00400  1.322E-02    0   0.8862   age070_m42            0.0000     1.1744E-05    17.7784   1.2542    86.6559
  6      0.0000     0.0000E+00    0.0000E+00    1.445000E+07  0.00400  7.883E-03    0   0.8571   age078_m42            0.0000     1.2220E-05    18.2885   1.5521    84.6709
  7      0.0000     0.0000E+00    0.0000E+00    2.512000E+07  0.00400  5.251E-03    0   0.8174   age090_m42            0.0000     1.1384E-05    17.4428   1.1351    87.3761
  8      1.6037     1.6875E-02    2.6416E-02    4.000000E+07  0.00400  3.649E-03    0   0.7851   age104_m42            0.0000     1.1285E-05    17.3152   0.9304    87.6137
  9      0.5367     6.6517E-03    1.0118E-02    5.500000E+07  0.00400  3.098E-03    0   0.7629   age110_m42            0.0000     1.1740E-05    17.7205   1.0967    86.2266
 10      0.0000     0.0000E+00    0.0000E+00    1.015200E+08  0.00400  2.228E-03    0   0.7207   age116_m42            0.0000     1.1987E-05    17.9391   1.1255    85.6168
 11      0.5097     1.7904E-02    2.3733E-02    2.861200E+08  0.00400  1.093E-03    0   0.6648   age125_m42            0.0000     1.1261E-05    17.3434   0.5823    88.5944
 12      0.0000     0.0000E+00    0.0000E+00    5.088000E+08  0.00400  6.597E-04    0   0.6365   age130_m42            0.0000     1.1499E-05    17.4923   0.6024    88.0274
 13      1.6812     3.0277E-01    3.5002E-01    1.434000E+09  0.00400  2.132E-04    0   0.5798   age139_m42            0.0000     1.0947E-05    16.9143  -0.3042    89.3043
 14      0.0000     0.0000E+00    0.0000E+00    4.250000E+09  0.00400  5.895E-05    0   0.5377   age158_m42            0.0000     1.1596E-05    17.6893  -0.7546    85.5099
 15      0.5245     5.7379E-01    5.9630E-01    7.500000E+09  0.00400  3.510E-05    0   0.5212   age171_m42            0.0000     1.1806E-05    17.8780  -0.9237    84.4828
 16      0.0000     6.7799E-05    6.8052E-05    1.300000E+10  0.00400  2.005E-05    0   0.5034   age193_m42            0.0000     1.2107E-05    17.7091  -1.0000    81.1561
 17      0.0595     1.4973E-01    1.4829E-01    1.800000E+10  0.00400  1.525E-05    0   0.4967   age213_m42            0.0000     1.2147E-05    17.4850  -1.0000    79.7404
 18      0.0000     0.0000E+00    0.0000E+00    1.000000E+06  0.00800  1.238E-02    0   1.0000   age020_m52            0.0000     1.4601E-05    20.3123   2.2172    79.9185
 19      0.0000     0.0000E+00    0.0000E+00    3.160000E+06  0.00800  3.074E-02    0   0.9966   age045_m52            0.0000     1.4537E-05    20.2584   2.1478    80.3697
 20      0.0000     0.0000E+00    0.0000E+00    5.010000E+06  0.00800  2.668E-02    0   0.9443   age055_m52            0.0000     1.3816E-05    19.6594   1.9482    81.4297
 21      0.0000     0.0000E+00    0.0000E+00    6.610000E+06  0.00800  2.136E-02    0   0.9177   age061_m52            0.0000     1.1362E-05    17.5183   0.7833    88.2755
 22     13.2594     4.1901E-02    7.3747E-02    1.000000E+07  0.00800  1.215E-02    0   0.8827   age070_m52            0.0000     1.1528E-05    17.5906   1.4265    87.1075
 23      1.0832     4.7712E-03    8.1358E-03    1.445000E+07  0.00800  8.717E-03    0   0.8552   age078_m52            0.0000     1.1969E-05    18.0309   1.5324    85.7756
 24      3.8477     2.6418E-02    4.2994E-02    2.512000E+07  0.00800  5.592E-03    0   0.8162   age090_m52            0.0000     1.1229E-05    17.2377   1.2127    88.1729
 25      0.0000     0.0000E+00    0.0000E+00    4.000000E+07  0.00800  3.896E-03    0   0.7841   age104_m52            0.0000     1.1255E-05    17.2516   1.1509    87.9485
 26      0.2202     3.9369E-03    5.6723E-03    1.015200E+08  0.00800  2.148E-03    0   0.7226   age116_m52            0.0000     1.1518E-05    17.5215   1.1122    86.7174
 27      0.0356     1.3788E-03    1.8373E-03    2.861200E+08  0.00800  9.925E-04    0   0.6683   age125_m52            0.0000     1.1304E-05    17.2193   0.6924    88.7534
 28      0.0394     4.8107E-03    5.8877E-03    9.047900E+08  0.00800  3.141E-04    0   0.6138   age135_m52            0.0000     1.1063E-05    16.9879  -0.0071    90.0177
 29      0.0000     0.0000E+00    0.0000E+00    1.434000E+09  0.00800  1.719E-04    0   0.5853   age139_m52            0.0000     1.1096E-05    17.1448  -0.5929    89.0107
 30      4.0209     1.9612E+00    2.1898E+00    2.500000E+09  0.00800  7.872E-05    0   0.5600   age150_m52            0.0000     1.1654E-05    17.7373  -0.8433    85.8341
 31      0.1176     1.0416E-01    1.1269E-01    4.250000E+09  0.00800  4.336E-05    0   0.5426   age158_m52            0.0000     1.1729E-05    17.8365  -0.8653    85.1111
 32      0.0000     0.0000E+00    0.0000E+00    6.250000E+09  0.00800  3.159E-05    0   0.5319   age166_m52            0.0000     1.2051E-05    17.8602  -1.0000    82.9067
 33      2.3276     6.5665E+00    6.6421E+00    1.300000E+10  0.00800  1.361E-05    0   0.5073   age193_m52            0.0000     1.4171E-05    16.6268  -1.0000    67.6489
 34      0.0000     0.0000E+00    0.0000E+00    1.800000E+10  0.00800  9.886E-06    0   0.4990   age213_m52            0.0000     1.5146E-05    16.7542  -1.0000    64.2819
 35     12.0204     2.9891E-02    5.9601E-02    1.000000E+06  0.02000  1.544E-02    0   1.0000   age020_m62            0.0000     1.4595E-05    20.3300   2.2107    80.1976
 36      3.2010     3.2670E-03    6.4216E-03    3.160000E+06  0.02000  3.762E-02    0   0.9858   age045_m62            0.0000     1.4612E-05    20.3648   2.1509    80.7785
 37      0.1964     2.2877E-04    4.2614E-04    5.010000E+06  0.02000  3.296E-02    0   0.9342   age055_m62            0.0000     1.3703E-05    19.5427   1.8544    82.3000
 38      0.0195     6.4898E-05    1.1466E-04    8.710000E+06  0.02000  1.154E-02    0   0.8861   age067_m62            0.0000     9.9233E-06    15.7392   0.8559    95.1700
 39      1.7403     8.7195E-03    1.4729E-02    1.445000E+07  0.02000  7.663E-03    0   0.8472   age078_m62            0.0000     1.0747E-05    16.7910   1.0930    90.3730
 40      0.0000     0.0000E+00    0.0000E+00    2.512000E+07  0.02000  4.532E-03    0   0.8099   age090_m62            0.0000     1.0656E-05    16.6766   1.0876    90.2149
 41      0.0000     0.0000E+00    0.0000E+00    5.500000E+07  0.02000  2.733E-03    0   0.7595   age110_m62            0.0000     1.1142E-05    17.2419   1.1304    88.0007
 42      3.4311     9.6228E-02    1.3402E-01    1.609000E+08  0.02000  1.369E-03    0   0.6985   age120_m62            0.0000     1.1357E-05    17.3319   1.0191    88.2612
 43      0.0000     0.0000E+00    0.0000E+00    2.861200E+08  0.02000  9.013E-04    0   0.6714   age125_m62            0.0000     1.1209E-05    17.1427   0.8139    89.7314
 44      0.0000     0.0000E+00    0.0000E+00    5.088000E+08  0.02000  5.028E-04    0   0.6449   age130_m62            0.0000     1.1312E-05    17.2690   0.5146    89.8254
 45      0.0172     2.7222E-03    3.3538E-03    9.047900E+08  0.02000  2.428E-04    0   0.6179   age135_m62            0.0000     1.1225E-05    17.3735  -0.0294    88.8136
 46      0.0003     7.8536E-05    9.2516E-05    1.434000E+09  0.02000  1.263E-04    0   0.5908   age139_m62            0.0000     1.1284E-05    17.5560  -0.4664    87.7408
 47      0.0000     0.0000E+00    0.0000E+00    2.500000E+09  0.02000  5.985E-05    0   0.5673   age150_m62            0.0000     1.1848E-05    18.0611  -0.8197    85.9024
 48      0.0100     1.1695E-02    1.2751E-02    4.250000E+09  0.02000  3.271E-05    0   0.5468   age158_m62            0.0000     1.2505E-05    18.0726  -1.0000    81.1651
 49      0.0000     0.0000E+00    0.0000E+00    1.000000E+10  0.02000  1.360E-05    0   0.5167   age181_m62            0.0000     1.4181E-05    17.3895  -1.0000    70.0089
 50      0.0000     0.0000E+00    0.0000E+00    1.800000E+10  0.02000  7.124E-06    0   0.5013   age213_m62            0.0000     1.5851E-05    17.4763  -1.0000    63.6124
 51      6.5731     9.7366E-03    1.9410E-02    1.000000E+06  0.05000  2.592E-02    0   0.9998   age020_m72            0.0000     1.4599E-05    20.3336   2.1966    80.4588
 52      0.0000     0.0000E+00    0.0000E+00    3.160000E+06  0.05000  4.845E-02    0   0.9577   age045_m72            0.0000     1.4467E-05    20.2334   2.0591    81.0466
 53      0.0000     0.0000E+00    0.0000E+00    5.010000E+06  0.05000  3.072E-02    0   0.9147   age055_m72            0.0000     1.2207E-05    18.2227   1.6430    85.6199
 54      0.0000     0.0000E+00    0.0000E+00    6.610000E+06  0.05000  1.455E-02    0   0.8877   age061_m72            0.0000     1.0137E-05    16.1497   0.9198    96.1088
 55      4.3829     1.8546E-02    3.1520E-02    1.000000E+07  0.05000  9.074E-03    0   0.8524   age070_m72            0.0000     1.3024E-05    18.7174   1.8440    84.2713
 56      6.7435     6.0921E-02    9.5988E-02    2.512000E+07  0.05000  4.250E-03    0   0.7902   age090_m72            0.0000     1.2031E-05    17.9098   1.5721    85.6904
 57      0.0000     0.0000E+00    0.0000E+00    4.000000E+07  0.05000  3.087E-03    0   0.7618   age104_m72            0.0000     1.1628E-05    17.4913   1.3601    87.1190
 58      0.0000     0.0000E+00    0.0000E+00    1.015200E+08  0.05000  1.700E-03    0   0.7096   age116_m72            0.0000     1.1293E-05    17.2470   1.1442    88.4073
 59      4.1412     2.1533E-01    2.8480E-01    2.861200E+08  0.05000  7.384E-04    0   0.6633   age125_m72            0.0000     1.1097E-05    17.1421   0.7212    89.8306
 60      4.0951     4.1171E-01    5.2309E-01    5.088000E+08  0.05000  3.819E-04    0   0.6372   age130_m72            0.0000     1.1026E-05    17.3320   0.2972    89.9494
 61      0.0000     0.0000E+00    0.0000E+00    9.047900E+08  0.05000  1.676E-04    0   0.6110   age135_m72            0.0000     1.1510E-05    18.0526  -0.3514    87.3913
 62      0.0000     0.0000E+00    0.0000E+00    1.434000E+09  0.05000  8.837E-05    0   0.5874   age139_m72            0.0000     1.1738E-05    18.1597  -0.7802    86.7963
 63      0.0111     1.0068E-02    1.1238E-02    2.500000E+09  0.05000  4.233E-05    0   0.5598   age150_m72            0.0000     1.2576E-05    18.3250  -1.0000    82.0483
 64      0.0044     1.1684E-02    1.2228E-02    6.250000E+09  0.05000  1.435E-05    0   0.5249   age166_m72            0.0000     1.4774E-05    17.6568  -1.0000    67.4817
 65      4.3890     2.5874E+01    2.5981E+01    1.300000E+10  0.05000  6.513E-06    0   0.5036   age193_m72            0.0000     1.7405E-05    17.8226  -1.0000    60.2502
 66      7.4804     6.3443E+01    6.2555E+01    1.800000E+10  0.05000  4.527E-06    0   0.4945   age213_m72            0.0000     1.9081E-05    18.1149  -1.0000    56.0841


## Synthesis Results - Average & Chains ##

# j      x_j: min, <> & last-chain-values for 1 ...  7 chains
  1      0.0000      0.8039      0.3051      0.0000      0.0000      0.7503      0.0000      1.2129      0.0000
  2      0.0000      1.2197      0.0000      0.2452      0.0000      0.0000      1.5226      0.6051      1.8530
  3      0.0000      1.1735      0.1468      0.1291      5.5438      2.1139      0.0000      0.5574      0.6289
  4      6.1146      0.8658      0.4586      0.0000      3.6688      0.5076      1.4772      0.4354      0.1326
  5      0.0000      0.8471      0.4489      0.0000      0.0000      0.0000      0.0000      1.5881      0.5459
  6      0.0000      0.8904      0.2176      0.2462      2.8084      0.0000      0.0000      0.8829      0.2973
  7      0.0000      1.1096      0.0000      0.0000      1.6565      0.0000      0.0000      0.0000      0.2102
  8      1.6037      1.2098      0.4266      0.0000      1.7808      1.3609      0.4959      0.0000      0.0000
  9      0.5367      1.0092      0.0000      0.2756      1.1835      1.0208      0.4878      0.0000      0.0000
 10      0.0000      1.2064      1.6713      0.0000      2.0331      0.0000      0.1421      0.2905      1.3448
 11      0.5097      1.4020      0.8357      1.1243      0.0000      0.0000      0.3741      0.0000      0.9371
 12      0.0000      1.0871      0.0000      1.1039      0.5080      0.0622      0.2823      0.1095      0.0000
 13      1.6812      1.0207      0.7989      0.3888      1.4464      0.1715      4.3562      0.1480      1.2318
 14      0.0000      1.1542      1.1121      2.5524      0.5133      0.4526      0.6743      0.0000      1.1620
 15      0.5245      0.9893      0.5267      1.1840      0.0000      0.4791      0.5717      0.0000      0.2266
 16      0.0000      1.2756      0.2376      0.9217      1.6752      0.3389      1.6796      1.1013      0.0000
 17      0.0595      0.8745      0.3946      1.8724      0.0000      0.3458      0.7477      0.0878      0.7267
 18      0.0000      1.5449      1.0972      1.3383      3.2661      1.2416      0.6708      1.0452      1.3797
 19      0.0000      1.1141      0.8610      0.0000      2.6417      0.6916      0.3368      1.1966      0.3521
 20      0.0000      0.9562      0.0000      0.4656      0.7747      0.1571      1.9193      0.3553      0.1503
 21      0.0000      1.0088      0.0000      0.2629      0.0000      0.7547      1.8232      0.7780      0.2292
 22     13.2594      1.0431      0.5276      0.0000      1.6993      0.5268      1.8447      0.6999      1.7747
 23      1.0832      0.9507      0.7461      1.3151      3.2161      0.0000      0.6494      0.5323      0.0000
 24      3.8477      1.4607      0.6185      0.3122      1.2326      0.0000      1.0011      0.3148      1.0371
 25      0.0000      1.1070      0.0000      0.6365      0.8125      0.1794      0.2922      0.0000      0.4367
 26      0.2202      0.8665      0.0000      1.8773      1.4644      0.4320      0.6310      0.1260      0.0000
 27      0.0356      1.0217      0.4796      1.7332      0.0000      0.0000      1.3009      0.1584      1.0504
 28      0.0394      1.0069      0.0000      1.3205      1.0472      0.2229      1.9323      0.8320      0.0000
 29      0.0000      0.8855      0.0000      0.1047      0.0000      1.1106      0.0496      0.3010      1.4286
 30      4.0209      1.1806      0.0501      0.2970      2.0240      0.4951      1.4058      1.4621      1.0231
 31      0.1176      0.9769      0.1399      0.0000      0.0000      0.3025      1.2536      0.2405      0.0000
 32      0.0000      0.7443      0.9446      0.0000      0.6647      0.2302      0.1954      0.7641      0.0000
 33      2.3276      3.2564      4.5592      5.0161      3.9158      4.5443      2.0646      4.6210      4.5898
 34      0.0000      3.5786      6.9874      4.9556      4.1107      6.7122      0.1342      4.8401      4.1957
 35     12.0204      1.3974      0.7898      0.0000      3.0584      1.0940      0.6340      1.4765      0.0000
 36      3.2010      0.9600      0.0000      0.5891      1.1419      0.9434      1.3038      0.2520      1.5230
 37      0.1964      0.8785      0.2792      0.0000      0.0000      0.0000      2.9243      0.0000      0.4462
 38      0.0195      1.4299      0.0000      0.1355      0.1118      0.6971      0.9650      0.5752      1.3023
 39      1.7403      0.8484      0.0000      0.0000      0.7653      0.0000      1.1394      0.4032      0.7807
 40      0.0000      1.0948      1.4807      0.3097      0.0000      2.1461      0.0000      1.1399      0.0000
 41      0.0000      1.1311      0.2497      0.7172      0.0000      2.0484      0.4238      0.4998      0.4096
 42      3.4311      1.0591      0.5701      0.0000      0.6987      0.2843      2.0482      0.0726      0.0000
 43      0.0000      0.7605      0.7612      0.0000      0.3419      0.5846      0.0000      0.0000      1.4211
 44      0.0000      0.9245      0.2129      0.0000      1.0805      1.1946      0.0000      1.0242      0.5132
 45      0.0172      1.1692      0.8264      1.6908      0.0000      0.3841      4.0984      0.7051      0.0000
 46      0.0003      0.9822      2.1387      0.0133      0.4449      0.5314      1.7387      0.0823      0.0000
 47      0.0000      1.1272      0.3966      0.0466      3.9693      0.0000      0.0000      0.2473      0.0000
 48      0.0100      0.7674      0.0000      0.8702      3.0379      0.0000      0.4224      0.0000      0.6308
 49      0.0000      3.8785      5.8589      6.3185      9.8858      6.3075      3.9291      6.2366      6.6256
 50      0.0000      2.9925      4.9887      3.7644      2.6261      4.7589      2.2308      5.3544      4.2621
 51      6.5731     12.3737     24.3128     23.7290      0.0000     21.2668      7.8935     23.3090     22.7902
 52      0.0000      1.1203      0.2229      1.3325      0.0157      0.2919      2.9073      0.0000      0.1346
 53      0.0000      1.0547      1.8203      0.0000      2.9303      0.2650      0.1469      0.3918      0.6018
 54      0.0000      0.9608      0.0000      0.6136      0.5847      1.4132      0.0000      0.3720      0.0413
 55      4.3829      1.1632      0.1172      2.0883      2.0383      0.0000      3.9479      0.6141      1.4866
 56      6.7435      1.4287      2.2010      0.1191      1.7172      0.8693      3.9460      0.0238      1.1471
 57      0.0000      1.6671      1.6694      0.0000      0.0000      0.8404      0.0000      0.5392      0.0000
 58      0.0000      1.1627      0.3909      0.3956      1.6331      1.4434      3.0345      1.7129      1.2214
 59      4.1412      0.7947      0.9334      0.0000      1.0886      0.4228      1.6604      0.6356      0.0000
 60      4.0951      0.9735      1.1268      0.8431      0.0614      0.1976      1.0480      0.0966      0.0000
 61      0.0000      0.9426      0.0000      0.1274      1.4103      0.3329      0.2535      0.6993      1.2201
 62      0.0000      4.9678      7.5844      7.8824      5.3347      8.6382      3.3154      9.3304      8.5503
 63      0.0111      6.2054      8.4682      9.4996      7.7528      9.7988      4.1348     10.8497      9.4971
 64      0.0044      2.1249      4.3347      5.4524      0.0000      4.2256      0.4352      5.2303      5.0709
 65      4.3890      2.7932      3.6218      6.0135      0.9555      4.5386      1.1662      4.2749      4.8914
 66      7.4804      3.7897      6.1848      2.7832      4.7313      5.1181     17.9209      4.3311      4.9411

# j      m_j: min, <> & last-chain-values for 1 ...  7 chains
  1  0.0000E+00  4.4363E-03  1.1367E-03  0.0000E+00  0.0000E+00  2.8661E-03  0.0000E+00  4.8138E-03  0.0000E+00
  2  0.0000E+00  1.8376E-03  0.0000E+00  2.7236E-04  0.0000E+00  0.0000E+00  1.4109E-03  6.5563E-04  2.0151E-03
  3  0.0000E+00  2.6477E-03  2.2354E-04  2.1483E-04  1.1348E-02  3.3013E-03  0.0000E+00  9.0431E-04  1.0241E-03
  4  1.6473E-02  1.8396E-03  6.5771E-04  0.0000E+00  7.0723E-03  7.4660E-04  1.9304E-03  6.6531E-04  2.0333E-04
  5  0.0000E+00  3.4285E-03  1.2264E-03  0.0000E+00  0.0000E+00  0.0000E+00  0.0000E+00  4.6224E-03  1.5948E-03
  6  0.0000E+00  5.8452E-03  9.6430E-04  1.1915E-03  1.6726E-02  0.0000E+00  0.0000E+00  4.1678E-03  1.4087E-03
  7  0.0000E+00  1.0428E-02  0.0000E+00  0.0000E+00  1.4125E-02  0.0000E+00  0.0000E+00  0.0000E+00  1.4260E-03
  8  2.6416E-02  1.5716E-02  3.7406E-03  0.0000E+00  2.0989E-02  1.2237E-02  3.9623E-03  0.0000E+00  0.0000E+00
  9  1.0118E-02  1.5004E-02  0.0000E+00  3.0207E-03  1.5964E-02  1.0506E-02  4.4606E-03  0.0000E+00  0.0000E+00
 10  0.0000E+00  2.3560E-02  2.2033E-02  0.0000E+00  3.6024E-02  0.0000E+00  1.7063E-03  4.0805E-03  1.8957E-02
 11  2.3733E-02  5.1485E-02  2.0714E-02  3.0440E-02  0.0000E+00  0.0000E+00  8.4487E-03  0.0000E+00  2.4838E-02
 12  0.0000E+00  6.3326E-02  0.0000E+00  4.7409E-02  2.6849E-02  2.5094E-03  1.0114E-02  4.5866E-03  0.0000E+00
 13  3.5002E-01  1.6758E-01  8.8545E-02  4.7070E-02  2.1547E-01  1.9489E-02  4.3993E-01  1.7472E-02  1.4598E-01
 14  0.0000E+00  6.3561E-01  4.1339E-01  1.0363E+00  2.5647E-01  1.7251E-01  2.2841E-01  0.0000E+00  4.6190E-01
 15  5.9630E-01  8.8692E-01  3.1874E-01  7.8257E-01  0.0000E+00  2.9729E-01  3.1524E-01  0.0000E+00  1.4663E-01
 16  6.8052E-05  1.9335E+00  2.4313E-01  1.0301E+00  2.3040E+00  3.5560E-01  1.5659E+00  1.2006E+00  0.0000E+00
 17  1.4829E-01  1.7197E+00  5.2374E-01  2.7145E+00  0.0000E+00  4.7067E-01  9.0429E-01  1.2419E-01  1.0314E+00
 18  0.0000E+00  7.5341E-03  3.6119E-03  4.8117E-03  1.4451E-02  4.1914E-03  2.0122E-03  3.6657E-03  4.8566E-03
 19  0.0000E+00  2.1807E-03  1.1376E-03  0.0000E+00  4.6914E-03  9.3709E-04  4.0544E-04  1.6844E-03  4.9743E-04
 20  0.0000E+00  2.0433E-03  0.0000E+00  7.3357E-04  1.5019E-03  2.3232E-04  2.5226E-03  5.4594E-04  2.3184E-04
 21  0.0000E+00  2.6168E-03  0.0000E+00  5.0275E-04  0.0000E+00  1.3551E-03  2.9088E-03  1.4513E-03  4.2904E-04
 22  7.3747E-02  4.5754E-03  1.5621E-03  0.0000E+00  6.7627E-03  1.5993E-03  4.9766E-03  2.2077E-03  5.6186E-03
 23  8.1358E-03  5.6311E-03  2.9830E-03  5.7430E-03  1.7283E-02  0.0000E+00  2.3657E-03  2.2676E-03  0.0000E+00
 24  4.2994E-02  1.2872E-02  3.6790E-03  2.0281E-03  9.8546E-03  0.0000E+00  5.4262E-03  1.9947E-03  6.5966E-03
 25  0.0000E+00  1.3451E-02  0.0000E+00  5.7024E-03  8.9576E-03  1.5088E-03  2.1835E-03  0.0000E+00  3.8297E-03
 26  5.6723E-03  1.7598E-02  0.0000E+00  2.8111E-02  2.6985E-02  6.0742E-03  7.8822E-03  1.8406E-03  0.0000E+00
 27  1.8373E-03  4.1533E-02  1.3160E-02  5.1949E-02  0.0000E+00  0.0000E+00  3.2528E-02  4.6301E-03  3.0824E-02
 28  5.8877E-03  1.1880E-01  0.0000E+00  1.1487E-01  1.1210E-01  1.8207E-02  1.4022E-01  7.0593E-02  0.0000E+00
 29  0.0000E+00  1.8203E-01  0.0000E+00  1.5865E-02  0.0000E+00  1.5803E-01  6.2722E-03  4.4496E-02  2.1198E-01
 30  2.1898E+00  5.0708E-01  1.4521E-02  9.4042E-02  7.8871E-01  1.4720E-01  3.7138E-01  4.5161E-01  3.1716E-01
 31  1.1269E-01  7.3805E-01  7.1368E-02  0.0000E+00  0.0000E+00  1.5822E-01  5.8255E-01  1.3066E-01  0.0000E+00
 32  0.0000E+00  7.5667E-01  6.4817E-01  0.0000E+00  6.1306E-01  1.6202E-01  1.2220E-01  5.5858E-01  0.0000E+00
 33  6.6421E+00  7.3282E+00  6.9255E+00  8.3225E+00  7.9953E+00  7.0789E+00  2.8578E+00  7.4787E+00  7.4554E+00
 34  0.0000E+00  1.0905E+01  1.4373E+01  1.1134E+01  1.1366E+01  1.4159E+01  2.5162E-01  1.0608E+01  9.2290E+00
 35  5.9601E-02  5.4641E-03  2.0847E-03  0.0000E+00  1.0851E-02  2.9612E-03  1.5249E-03  4.1522E-03  0.0000E+00
 36  6.4216E-03  1.5188E-03  0.0000E+00  6.8715E-04  1.6391E-03  1.0331E-03  1.2687E-03  2.8674E-04  1.7392E-03
 37  4.2614E-04  1.5033E-03  3.2249E-04  0.0000E+00  0.0000E+00  0.0000E+00  3.0779E-03  0.0000E+00  5.5109E-04
 38  1.1466E-04  6.6288E-03  0.0000E+00  4.6306E-04  4.7011E-04  2.2371E-03  2.7517E-03  1.9178E-03  4.3578E-03
 39  1.4729E-02  5.6632E-03  0.0000E+00  0.0000E+00  4.6348E-03  0.0000E+00  4.6778E-03  1.9355E-03  3.7613E-03
 40  0.0000E+00  1.1812E-02  1.0784E-02  2.4638E-03  0.0000E+00  1.6028E-02  0.0000E+00  8.8450E-03  0.0000E+00
 41  0.0000E+00  1.8977E-02  2.8280E-03  8.8714E-03  0.0000E+00  2.3790E-02  4.3736E-03  6.0300E-03  4.9603E-03
 42  1.3402E-01  3.2626E-02  1.1854E-02  0.0000E+00  1.9528E-02  6.0618E-03  3.8807E-02  1.6088E-03  0.0000E+00
 43  0.0000E+00  3.4205E-02  2.3109E-02  0.0000E+00  1.3951E-02  1.8201E-02  0.0000E+00  0.0000E+00  4.6133E-02
 44  0.0000E+00  7.1589E-02  1.1127E-02  0.0000E+00  7.5912E-02  6.4036E-02  0.0000E+00  5.7038E-02  2.8685E-02
 45  3.3538E-03  1.7965E-01  8.5708E-02  1.9154E-01  0.0000E+00  4.0854E-02  3.8732E-01  7.7907E-02  0.0000E+00
 46  9.2516E-05  2.7740E-01  4.0770E-01  2.7616E-03  1.1401E-01  1.0388E-01  3.0202E-01  1.6721E-02  0.0000E+00
 47  0.0000E+00  6.4503E-01  1.5319E-01  1.9641E-02  2.0610E+00  0.0000E+00  0.0000E+00  1.0178E-01  0.0000E+00
 48  1.2751E-02  7.7445E-01  0.0000E+00  6.4748E-01  2.7818E+00  0.0000E+00  2.6223E-01  0.0000E+00  4.5954E-01
 49  0.0000E+00  8.8965E+00  9.0713E+00  1.0685E+01  2.0574E+01  1.0015E+01  5.5434E+00  1.0288E+01  1.0970E+01
 50  0.0000E+00  1.2714E+01  1.4306E+01  1.1791E+01  1.0123E+01  1.3995E+01  5.8294E+00  1.6359E+01  1.3070E+01
 51  1.9410E-02  2.8816E-02  3.8218E-02  4.0742E-02  0.0000E+00  3.4283E-02  1.1306E-02  3.9037E-02  3.8309E-02
 52  0.0000E+00  1.3369E-03  1.7958E-04  1.1724E-03  1.7007E-05  2.4115E-04  2.1340E-03  0.0000E+00  1.1591E-04
 53  0.0000E+00  1.8960E-03  2.2088E-03  0.0000E+00  4.7795E-03  3.2976E-04  1.6242E-04  5.0649E-04  7.8081E-04
 54  0.0000E+00  3.5391E-03  0.0000E+00  1.6665E-03  1.9540E-03  3.6034E-03  0.0000E+00  9.8538E-04  1.0983E-04
 55  3.1520E-02  6.5973E-03  4.4880E-04  8.7322E-03  1.0489E-02  0.0000E+00  1.3772E-02  2.5049E-03  6.0859E-03
 56  9.5988E-02  1.6037E-02  1.6677E-02  9.8592E-04  1.7490E-02  6.7544E-03  2.7245E-02  1.9192E-04  9.2942E-03
 57  0.0000E+00  2.4838E-02  1.6789E-02  0.0000E+00  0.0000E+00  8.6674E-03  0.0000E+00  5.7776E-03  0.0000E+00
 58  0.0000E+00  2.9300E-02  6.6493E-03  7.3509E-03  3.7342E-02  2.5179E-02  4.7036E-02  3.1044E-02  2.2217E-02
 59  2.8480E-01  4.3100E-02  3.4168E-02  0.0000E+00  5.3567E-02  1.5873E-02  5.5387E-02  2.4791E-02  0.0000E+00
 60  5.2309E-01  9.8063E-02  7.6621E-02  6.2618E-02  5.6120E-03  1.3781E-02  6.4933E-02  6.9950E-03  0.0000E+00
 61  0.0000E+00  2.0746E-01  0.0000E+00  2.0676E-02  2.8163E-01  5.0720E-02  3.4313E-02  1.1069E-01  1.9383E-01
 62  0.0000E+00  1.9936E+00  2.0545E+00  2.3322E+00  1.9424E+00  2.3997E+00  8.1836E-01  2.6928E+00  2.4767E+00
 63  1.1238E-02  4.9546E+00  4.5639E+00  5.5921E+00  5.6163E+00  5.4157E+00  2.0306E+00  6.2299E+00  5.4733E+00
 64  1.2228E-02  4.6927E+00  6.4616E+00  8.8775E+00  0.0000E+00  6.4597E+00  5.9114E-01  8.3067E+00  8.0832E+00
 65  2.5981E+01  1.3039E+01  1.1413E+01  2.0697E+01  4.0470E+00  1.4666E+01  3.3485E+00  1.4352E+01  1.6482E+01
 66  6.2555E+01  2.4993E+01  2.7532E+01  1.3533E+01  2.8310E+01  2.3365E+01  7.2693E+01  2.0541E+01  2.3521E+01

# AV, chi2 & Mass for <> & i_chain = 1 ...  7 solutions
AV       0.1551     -0.9721     -0.9960     -0.9960     -0.8335     -0.9960     -0.8282     -0.9892     -0.9751
chi2 1.0292E-05  2.7028E-05  1.2145E-05  1.2101E-05  1.2121E-05  1.2113E-05  1.1572E-05  1.2146E-05  1.2161E-05
Mass 2.0177E-13  5.6300E-14  8.0779E-14  7.3956E-14  7.4745E-14  7.8770E-14  1.1106E-13  7.6506E-14  7.7692E-14
-120.75                                  [v0_min (km/s) before EX0s...]
  50.56                                  [vd_min (km/s) before EX0s...]


## Synthetic spectrum (Best Model) ##l_obs f_obs f_syn wei
 3478    [Nl_obs]
 3741.00   -1.06235   0.79693    0.000
 3742.00   -1.11860   0.77708    0.000
 3743.00   -0.74069   0.75247    0.000
 3744.00    0.25687   0.72274    0.000
 3745.00    1.61548   0.68860   -1.000
 3746.00    2.05665   0.64522   -1.000
 3747.00    2.03194   0.59453   -1.000
 3748.00    1.03038   0.56230   -1.000
 3749.00   -0.40073   0.57458    0.000
 3750.00   -0.36431   0.62412    0.000
 3751.00    0.22616   0.68228   -1.000
 3752.00    0.66397   0.73252   -1.000
 3753.00    1.05286   0.77242   -1.000
 3754.00    0.87292   0.79691   -1.000
 3755.00    0.54056   0.79946   -1.000
 3756.00    0.57628   0.78845   -1.000
 3757.00    0.69279   0.78224   -1.000
 3758.00    0.41154   0.78916   -1.000
 3759.00    0.06085   0.80388   -1.000
 3760.00    0.04434   0.81386   -1.000
 3761.00    0.07222   0.81145   -1.000
 3762.00    0.50671   0.80126   -1.000
 3763.00    0.97941   0.78833   -1.000
 3764.00    0.71326   0.76639   -1.000
 3765.00    0.40448   0.73147   -1.000
 3766.00    0.19088   0.69230   -1.000
 3767.00   -0.01786   0.65261    0.000
 3768.00    0.08902   0.61287   -1.000
 3769.00    0.16927   0.59360   -1.000
 3770.00   -0.39708   0.61613    0.000
 3771.00   -0.84573   0.66660    0.000
 3772.00    0.24807   0.71590   -1.000
 3773.00    1.20069   0.75487   -1.000
 3774.00    0.91383   0.78810   -1.000
 3775.00    0.64791   0.81680   -1.000
 3776.00    0.51774   0.83962   -1.000
 3777.00    0.25997   0.85958   -1.000
 3778.00   -0.64360   0.87965    0.000
 3779.00   -1.16649   0.89511    0.000
 3780.00   -0.13125   0.90225    0.000
 3781.00    0.83113   0.90536   -1.000
 3782.00    1.54633   0.90675   -1.000
 3783.00    2.23622   0.90007   -1.000
 3784.00    2.85370   0.88166   -1.000
 3785.00    3.23442   0.86029   -1.000
 3786.00    3.03671   0.84449   -1.000
 3787.00    2.43611   0.83255   -1.000
 3788.00    0.98635   0.82080   -1.000
 3789.00    0.08845   0.80864   -1.000
 3790.00    0.20137   0.79345   -1.000
 3791.00    0.39345   0.76834   -1.000
 3792.00    0.71221   0.72958   -1.000
 3793.00    0.78763   0.68146   -1.000
 3794.00    0.52123   0.62886   -1.000
 3795.00    0.67690   0.57489   -1.000
 3796.00    1.35427   0.53637   -1.000
 3797.00    1.53226   0.54073   -1.000
 3798.00    1.16617   0.59092   -1.000
 3799.00    1.15159   0.65865   -1.000
 3800.00    1.47482   0.71876   -1.000
 3801.00    1.26185   0.76621   -1.000
 3802.00    0.59451   0.80140   -1.000
 3803.00    0.35900   0.82059   -1.000
 3804.00    0.44573   0.82503   -1.000
 3805.00    0.46071   0.82844   -1.000
 3806.00    0.42863   0.84420   -1.000
 3807.00    0.55755   0.86863   -1.000
 3808.00    0.77885   0.88943   -1.000
 3809.00    1.02855   0.89976   -1.000
 3810.00    1.29245   0.89737   -1.000
 3811.00    0.69901   0.88405   -1.000
 3812.00   -0.26516   0.86799    0.000
 3813.00   -0.48504   0.85692    0.000
 3814.00   -0.42889   0.85239    0.000
 3815.00   -0.31392   0.85098    0.000
 3816.00   -0.18047   0.83886    0.000
 3817.00   -0.86721   0.80500    0.000
 3818.00   -1.76909   0.77264    0.000
 3819.00   -1.23028   0.77649    0.000
 3820.00   -0.38280   0.80879    0.000
 3821.00    0.19265   0.83288   -1.000
 3822.00    0.72193   0.83112   -1.000
 3823.00    0.69806   0.81398   -1.000
 3824.00    0.60322   0.79780   -1.000
 3825.00    0.40876   0.78621   -1.000
 3826.00    0.20536   0.77409   -1.000
 3827.00   -0.33345   0.75837    0.000
 3828.00   -0.89028   0.73806    0.000
 3829.00   -0.39567   0.70866    0.000
 3830.00    0.12134   0.66480   -1.000
 3831.00    0.74951   0.60945   -1.000
 3832.00    1.34625   0.55227   -1.000
 3833.00    1.24464   0.50909   -1.000
 3834.00    1.07726   0.50110   -1.000
 3835.00    0.09191   0.53117   -1.000
 3836.00   -0.77971   0.57818    0.000
 3837.00   -0.69009   0.62531    0.000
 3838.00   -0.54501   0.66870    0.000
 3839.00   -0.05107   0.70909    0.000
 3840.00    0.43979   0.74885   -1.000
 3841.00    0.91542   0.78472   -1.000
 3842.00    1.23907   0.81048   -1.000
 3843.00    0.95431   0.82616   -1.000
 3844.00    0.56818   0.83695   -1.000
 3845.00   -0.15497   0.84739    0.000
 3846.00   -0.54715   0.85577    0.000
 3847.00   -0.00995   0.85685    0.000
 3848.00    0.43049   0.85373    0.000
 3849.00    0.63853   0.85773    0.000
 3850.00    0.66868   0.86973    0.000
 3851.00    0.32989   0.87725    0.000
 3852.00    0.27893   0.87461    0.000
 3853.00    0.74709   0.86612    0.000
 3854.00    1.20500   0.85754    0.000
 3855.00    1.64672   0.85585    0.000
 3856.00    1.58367   0.85866    0.000
 3857.00    0.82184   0.85606    0.000
 3858.00    0.24382   0.85135    0.000
 3859.00   -0.11023   0.85569    0.000
 3860.00   -0.03759   0.86764    0.000
 3861.00    0.49339   0.87710    0.000
 3862.00    0.54409   0.87975    0.000
 3863.00    0.13971   0.87714    0.000
 3864.00   -0.16805   0.87136    0.000
 3865.00   -0.39510   0.86450    0.000
 3866.00   -0.21590   0.86194    0.000
 3867.00    0.26210   0.86519    0.000
 3868.00    0.51566   0.86332    0.000
 3869.00    0.62426   0.84824    0.000
 3870.00    0.50280   0.83009    0.000
 3871.00    0.25133   0.82654    0.000
 3872.00   -0.08253   0.83941    0.000
 3873.00   -0.45692   0.85155    0.000
 3874.00   -0.12505   0.84887    0.000
 3875.00    0.50714   0.83288    0.000
 3876.00    0.62229   0.81314    0.000
 3877.00    0.54910   0.80075    0.000
 3878.00    0.78575   0.79739    0.000
 3879.00    1.11792   0.78941    0.000
 3880.00    0.79541   0.76997    0.000
 3881.00    0.30484   0.74994   -1.000
 3882.00    0.05553   0.73260   -1.000
 3883.00   -0.14335   0.70190    0.000
 3884.00   -0.36535   0.65004    0.000
 3885.00   -0.59117   0.59009    0.000
 3886.00    0.26852   0.53576   -1.000
 3887.00    1.26264   0.50329   -1.000
 3888.00    1.67788   0.51588   -1.000
 3889.00    2.04357   0.57206   -1.000
 3890.00    1.22519   0.64013   -1.000
 3891.00    0.34780   0.69424   -1.000
 3892.00    0.77841   0.72967   -1.000
 3893.00    1.22819   0.75303   -1.000
 3894.00    1.53281   0.77413   -1.000
 3895.00    1.80779   0.79659   -1.000
 3896.00    1.47651   0.81222   -1.000
 3897.00    1.16061   0.81747   -1.000
 3898.00    1.02661   0.82366   -1.000
 3899.00    0.86984   0.83886   -1.000
 3900.00    0.52754   0.85392   -1.000
 3901.00    0.22255   0.85938   -1.000
 3902.00    0.14544   0.85969   -1.000
 3903.00    0.07426   0.85792   -1.000
 3904.00    0.03161   0.85590   -1.000
 3905.00    0.06513   0.86350   -1.000
 3906.00    0.39696   0.88228   -1.000
 3907.00    0.66715   0.90043   -1.000
 3908.00    0.73641   0.90980   -1.000
 3909.00    0.75992   0.91211   -1.000
 3910.00    0.65723   0.91166   -1.000
 3911.00    0.51469   0.91000   -1.000
 3912.00    0.27805   0.90822   -1.000
 3913.00    0.26911   0.90755   -1.000
 3914.00    0.72489   0.90504   -1.000
 3915.00    0.94701   0.89816   -1.000
 3916.00    0.75409   0.88644   -1.000
 3917.00    0.52634   0.86890   -1.000
 3918.00    0.24447   0.85072   -1.000
 3919.00    0.18338   0.84253   -1.000
 3920.00    0.42351   0.84710   -1.000
 3921.00    0.46568   0.85508   -1.000
 3922.00    0.27005   0.85884   -1.000
 3923.00    0.40572   0.85558   -1.000
 3924.00    0.89228   0.84336   -1.000
 3925.00    1.13314   0.82853   -1.000
 3926.00    1.14448   0.81826   -1.000
 3927.00    0.90357   0.80994   -1.000
 3928.00    0.45490   0.79922   -1.000
 3929.00    0.39608   0.78368   -1.000
 3930.00    0.61986   0.76041   -1.000
 3931.00    0.55852   0.73226   -1.000
 3932.00    0.31571   0.71549   -1.000
 3933.00    0.12431   0.72471   -1.000
 3934.00   -0.03848   0.75362    0.000
 3935.00   -0.18859   0.78548    0.000
 3936.00   -0.33256   0.81124    0.000
 3937.00   -0.34292   0.83095    0.000
 3938.00   -0.29741   0.84573    0.000
 3939.00   -0.14320   0.85339    0.000
 3940.00    0.04988   0.85325   -1.000
 3941.00   -0.06501   0.84745    0.000
 3942.00   -0.27298   0.84110    0.000
 3943.00    0.29261   0.84456   -1.000
 3944.00    1.05249   0.85954   -1.000
 3945.00    1.13244   0.87094   -1.000
 3946.00    1.07374   0.87073   -1.000
 3947.00    0.87702   0.86994   -1.000
 3948.00    0.65821   0.87625   -1.000
 3949.00    0.42674   0.88167   -1.000
 3950.00    0.19377   0.87763   -1.000
 3951.00    0.31917   0.87005   -1.000
 3952.00    0.47376   0.86831   -1.000
 3953.00    0.52026   0.86684   -1.000
 3954.00    0.56180   0.85644   -1.000
 3955.00    0.47710   0.84329   -1.000
 3956.00    0.39382   0.83741   -1.000
 3957.00    0.46849   0.83383   -1.000
 3958.00    0.54929   0.81744   -1.000
 3959.00    0.74626   0.78322   -1.000
 3960.00    0.89128   0.74591    0.000
 3961.00    0.45073   0.71824    0.000
 3962.00    0.08679   0.69205    0.000
 3963.00    0.32488   0.65809    0.000
 3964.00    0.52282   0.61754    0.000
 3965.00    0.48249   0.56882    0.000
 3966.00    0.43909   0.51102    0.000
 3967.00    0.38137   0.45572    0.000
 3968.00    0.44086   0.42642    0.000
 3969.00    0.94957   0.44250    0.000
 3970.00    1.23587   0.49613    0.000
 3971.00    0.81127   0.56031    0.000
 3972.00    0.50824   0.61944    0.000
 3973.00    0.53450   0.67165    0.000
 3974.00    0.55214   0.71474    0.000
 3975.00    0.54980   0.74870    0.000
 3976.00    0.57289   0.77848    0.000
 3977.00    0.64706   0.80614    0.000
 3978.00    0.75030   0.82852    0.000
 3979.00    0.90437   0.84074    0.000
 3980.00    1.03020   0.84292    0.000
 3981.00    1.11281   0.84381   -1.000
 3982.00    1.18609   0.85142   -1.000
 3983.00    1.24683   0.86440   -1.000
 3984.00    0.93071   0.87650   -1.000
 3985.00    0.16830   0.88643   -1.000
 3986.00   -0.08292   0.89623    0.000
 3987.00    0.19963   0.90129   -1.000
 3988.00    0.38420   0.89971   -1.000
 3989.00    0.47852   0.90054   -1.000
 3990.00    0.66674   0.90777   -1.000
 3991.00    0.93119   0.91424   -1.000
 3992.00    1.15124   0.91257   -1.000
 3993.00    1.33957   0.90456   -1.000
 3994.00    1.19471   0.89684   -1.000
 3995.00    0.84094   0.89141   -1.000
 3996.00    0.92575   0.89114   -1.000
 3997.00    1.25090   0.90213   -1.000
 3998.00    1.37620   0.91912   -1.000
 3999.00    1.40630   0.92899   -1.000
 4000.00    1.19722   0.93052   -1.000
 4001.00    0.88983   0.92799   -1.000
 4002.00    0.91205   0.91591   -1.000
 4003.00    1.05003   0.89303   -1.000
 4004.00    1.11260   0.87713   -1.000
 4005.00    1.15281   0.88054   -1.000
 4006.00    1.19205   0.89019   -1.000
 4007.00    1.23105   0.89311   -1.000
 4008.00    0.84757   0.89610   -1.000
 4009.00    0.38008   0.90589   -1.000
 4010.00    0.69297   0.91658   -1.000
 4011.00    1.12712   0.92367   -1.000
 4012.00    0.88910   0.92884   -1.000
 4013.00    0.57378   0.93390   -1.000
 4014.00    0.72287   0.93637   -1.000
 4015.00    0.90785   0.93305   -1.000
 4016.00    1.10683   0.93053   -1.000
 4017.00    1.30639   0.93580   -1.000
 4018.00    1.28392   0.94076   -1.000
 4019.00    1.25763   0.93627   -1.000
 4020.00    1.15233   0.92535   -1.000
 4021.00    1.05095   0.91006   -1.000
 4022.00    1.01863   0.88460   -1.000
 4023.00    0.97070   0.85150   -1.000
 4024.00    0.75494   0.83169   -1.000
 4025.00    0.54135   0.84495   -1.000
 4026.00    0.34430   0.88024   -1.000
 4027.00    0.30689   0.90355   -1.000
 4028.00    1.19032   0.89793   -1.000
 4029.00    1.71248   0.87841   -1.000
 4030.00    0.57898   0.86560   -1.000
 4031.00   -0.15282   0.86279    0.000
 4032.00    0.62219   0.86716   -1.000
 4033.00    1.15054   0.88080   -1.000
 4034.00    0.90558   0.90456   -1.000
 4035.00    0.82866   0.93110   -1.000
 4036.00    1.19878   0.94765   -1.000
 4037.00    1.63679   0.94815   -1.000
 4038.00    2.22986   0.93766   -1.000
 4039.00    2.36606   0.92745   -1.000
 4040.00    1.59908   0.92464   -1.000
 4041.00    1.22697   0.91918   -1.000
 4042.00    1.53512   0.89554   -1.000
 4043.00    1.70713   0.86059   -1.000
 4044.00    1.67379   0.84234   -1.000
 4045.00    1.44758   0.85721   -1.000
 4046.00    0.96571   0.88919   -1.000
 4047.00    0.92135   0.91402   -1.000
 4048.00    1.38780   0.92726   -1.000
 4049.00    1.51596   0.93260   -1.000
 4050.00    1.29583   0.92922   -1.000
 4051.00    1.00000   0.91881   -1.000
 4052.00    0.63544   0.90637   -1.000
 4053.00    0.62116   0.89687   -1.000
 4054.00    0.88724   0.89260   -1.000
 4055.00    0.99278   0.88894   -1.000
 4056.00    0.98526   0.88456   -1.000
 4057.00    0.89971   0.88711   -1.000
 4058.00    0.76595   0.89713   -1.000
 4059.00    0.90513   0.90134   -1.000
 4060.00    1.19157   0.88702   -1.000
 4061.00    1.05203   0.85999   -1.000
 4062.00    0.71284   0.84523   -1.000
 4063.00    0.56733   0.85599   -1.000
 4064.00    0.50008   0.87283   -1.000
 4065.00    0.98149   0.87675   -1.000
 4066.00    1.65208   0.87636   -1.000
 4067.00    1.58386   0.87997   -1.000
 4068.00    1.30111   0.87611   -1.000
 4069.00    1.11205   0.85869   -1.000
 4070.00    0.94548   0.84655   -1.000
 4071.00    1.11720   0.85769   -1.000
 4072.00    1.35446   0.87598   -1.000
 4073.00    0.54511   0.87349   -1.000
 4074.00   -0.42195   0.85074    0.000
 4075.00   -0.01717   0.82992    0.000
 4076.00    0.53936   0.82788   -1.000
 4077.00    0.99322   0.84572   -1.000
 4078.00    1.43956   0.87268   -1.000
 4079.00    1.22596   0.89440   -1.000
 4080.00    0.98710   0.89978   -1.000
 4081.00    0.71956   0.88872   -1.000
 4082.00    0.46931   0.87270   -1.000
 4083.00    0.87668   0.86317   -1.000
 4084.00    1.25098   0.86426   -1.000
 4085.00    1.08034   0.87264   -1.000
 4086.00    0.93134   0.87868   -1.000
 4087.00    1.00501   0.87662   -1.000
 4088.00    1.12122   0.87006   -1.000
 4089.00    1.54955   0.86132   -1.000
 4090.00    1.86705   0.84874   -1.000
 4091.00    1.56287   0.83561   -1.000
 4092.00    1.27336   0.82146    0.000
 4093.00    1.04953   0.79557    0.000
 4094.00    0.86018   0.75707    0.000
 4095.00    0.79748   0.71917    0.000
 4096.00    0.73662   0.68784    0.000
 4097.00    0.68137   0.65297    0.000
 4098.00    0.58423   0.60158    0.000
 4099.00    0.37760   0.54259    0.000
 4100.00    0.37068   0.51291    0.000
 4101.00    0.81230   0.53647    0.000
 4102.00    1.17947   0.59400    0.000
 4103.00    1.40180   0.65523    0.000
 4104.00    1.57545   0.70736    0.000
 4105.00    1.66654   0.74551    0.000
 4106.00    1.62701   0.76857    0.000
 4107.00    1.39333   0.78070    0.000
 4108.00    1.19021   0.78724    0.000
 4109.00    1.02701   0.79390    0.000
 4110.00    1.02324   0.80561    0.000
 4111.00    1.20298   0.82257    0.000
 4112.00    0.99593   0.83867    0.000
 4113.00    0.39626   0.84800   -1.000
 4114.00    0.31634   0.85265   -1.000
 4115.00    0.70176   0.85485   -1.000
 4116.00    0.73331   0.84877   -1.000
 4117.00    0.48567   0.83514   -1.000
 4118.00    0.52812   0.82580   -1.000
 4119.00    0.77189   0.82676   -1.000
 4120.00    0.85718   0.83550   -1.000
 4121.00    0.84602   0.84852   -1.000
 4122.00    0.66583   0.86355   -1.000
 4123.00    0.39583   0.87614   -1.000
 4124.00    0.75362   0.87782   -1.000
 4125.00    1.40089   0.86641   -1.000
 4126.00    1.65667   0.85203   -1.000
 4127.00    1.75698   0.84483   -1.000
 4128.00    1.25044   0.84082   -1.000
 4129.00    0.53851   0.83188   -1.000
 4130.00    0.31397   0.82169   -1.000
 4131.00    0.22810   0.82044   -1.000
 4132.00    0.85137   0.83123   -1.000
 4133.00    1.64114   0.85019   -1.000
 4134.00    1.43375   0.86906   -1.000
 4135.00    1.03815   0.87880   -1.000
 4136.00    1.10167   0.88162   -1.000
 4137.00    1.23223   0.88424   -1.000
 4138.00    0.94439   0.88444   -1.000
 4139.00    0.61208   0.87316   -1.000
 4140.00    0.13866   0.84133   -1.000
 4141.00   -0.34453   0.79701    0.000
 4142.00    0.18339   0.77386   -1.000
 4143.00    0.74619   0.79243   -1.000
 4144.00    1.03059   0.82978   -1.000
 4145.00    1.30402   0.85534   -1.000
 4146.00    1.23358   0.86292   -1.000
 4147.00    1.19013   0.85845   -1.000
 4148.00    1.56390   0.85062   -1.000
 4149.00    1.84703   0.84720   -1.000
 4150.00    1.23665   0.84635   -1.000
 4151.00    0.65903   0.84314   -1.000
 4152.00    0.31397   0.83925   -1.000
 4153.00    0.05607   0.83811   -1.000
 4154.00    0.27402   0.83896   -1.000
 4155.00    0.52048   0.84265   -1.000
 4156.00    0.89150   0.85271   -1.000
 4157.00    1.20453   0.86557   -1.000
 4158.00    1.30901   0.87303   -1.000
 4159.00    1.36474   0.87422   -1.000
 4160.00    1.27334   0.87543   -1.000
 4161.00    1.15060   0.87754   -1.000
 4162.00    0.94740   0.87562   -1.000
 4163.00    0.76713   0.87000   -1.000
 4164.00    0.63753   0.86306   -1.000
 4165.00    0.50012   0.85445   -1.000
 4166.00    0.34775   0.84900   -1.000
 4167.00    0.17482   0.85230   -1.000
 4168.00   -0.03246   0.85746    0.000
 4169.00    0.27114   0.85078   -1.000
 4170.00    1.32310   0.83077   -1.000
 4171.00    1.53579   0.81387   -1.000
 4172.00    0.66754   0.81366   -1.000
 4173.00    0.09716   0.82440   -1.000
 4174.00   -0.13522   0.83233    0.000
 4175.00   -0.07807   0.83188    0.000
 4176.00    0.26884   0.82911   -1.000
 4177.00    0.52985   0.83286   -1.000
 4178.00    0.71503   0.84117   -1.000
 4179.00    0.78602   0.84450   -1.000
 4180.00    0.76819   0.84242   -1.000
 4181.00    0.95352   0.84377   -1.000
 4182.00    1.27780   0.85142   -1.000
 4183.00    1.30469   0.85810   -1.000
 4184.00    1.15333   0.85306   -1.000
 4185.00    0.90664   0.83729   -1.000
 4186.00    0.61008   0.82887   -1.000
 4187.00    0.58359   0.83607    0.083
 4188.00    0.67960   0.84596    0.034
 4189.00    0.83481   0.84988    0.029
 4190.00    1.01312   0.85513    0.029
 4191.00    1.08281   0.86550    0.029
 4192.00    1.11643   0.86861    0.029
 4193.00    1.28644   0.85551    0.030
 4194.00    1.49446   0.83545    0.030
 4195.00    1.44361   0.81906    0.029
 4196.00    1.33335   0.80657    0.029
 4197.00    0.78734   0.79938    0.029
 4198.00    0.16123   0.80063    0.029
 4199.00    0.32701   0.80461    0.028
 4200.00    0.60477   0.80816    0.028
 4201.00    0.72842   0.81710    0.028
 4202.00    0.83636   0.83036    0.028
 4203.00    0.92420   0.84183    0.027
 4204.00    1.01073   0.85207    0.027
 4205.00    1.09693   0.86194    0.027
 4206.00    1.18269   0.86785    0.027
 4207.00    0.98663   0.86602    0.027
 4208.00    0.79141   0.85941    0.027
 4209.00    0.62098   0.85708    0.027
 4210.00    0.48890   0.86014    0.027
 4211.00    0.91505   0.85896    0.027
 4212.00    1.31534   0.84606    0.028
 4213.00    1.47105   0.82657    0.028
 4214.00    1.54936   0.81980    0.028
 4215.00    1.09553   0.83751    0.027
 4216.00    0.72533   0.86434    0.027
 4217.00    0.79961   0.88090    0.027
 4218.00    0.84903   0.88622    0.027
 4219.00    0.79224   0.88437    0.027
 4220.00    0.70907   0.87266    0.027
 4221.00    0.53294   0.85095    0.027
 4222.00    0.50069   0.82284    0.027
 4223.00    0.89453   0.78899    0.027
 4224.00    1.08378   0.75513    0.027
 4225.00    0.75673   0.74120    0.027
 4226.00    0.51415   0.76336    0.027
 4227.00    0.45508   0.80714    0.026
 4228.00    0.50217   0.84430    0.026
 4229.00    0.74944   0.86225    0.027
 4230.00    0.98054   0.85902    0.027
 4231.00    1.18501   0.84258    0.026
 4232.00    1.19213   0.83127    0.026
 4233.00    0.91436   0.82844    0.026
 4234.00    0.71516   0.82512    0.026
 4235.00    0.61570   0.82452    0.026
 4236.00    0.59792   0.82999    0.025
 4237.00    0.67153   0.83588    0.025
 4238.00    0.81466   0.84218    0.025
 4239.00    1.02640   0.85127    0.026
 4240.00    1.13531   0.85913    0.026
 4241.00    1.15473   0.86673    0.026
 4242.00    1.10630   0.87903    0.026
 4243.00    1.00587   0.88721    0.026
 4244.00    0.88278   0.87873    0.027
 4245.00    0.74442   0.85884    0.027
 4246.00    0.65510   0.84155    0.027
 4247.00    0.59474   0.82886    0.027
 4248.00    0.50630   0.81653    0.027
 4249.00    0.40341   0.81249    0.027
 4250.00    0.38040   0.82073    0.027
 4251.00    0.39304   0.82415    0.027
 4252.00    0.41423   0.81480    0.027
 4253.00    0.43871   0.81164    0.027
 4254.00    0.84678   0.82817    0.027
 4255.00    1.37986   0.84895    0.027
 4256.00    1.23610   0.85023    0.027
 4257.00    0.90758   0.83053    0.027
 4258.00    0.85534   0.80814    0.027
 4259.00    0.86501   0.80263    0.027
 4260.00    1.04858   0.82155    0.027
 4261.00    1.26327   0.85163    0.027
 4262.00    1.23056   0.87307    0.027
 4263.00    1.16400   0.87934    0.027
 4264.00    1.10984   0.87120    0.027
 4265.00    1.05688   0.85246    0.027
 4266.00    0.92432   0.83603    0.027
 4267.00    0.78688   0.82639    0.027
 4268.00    1.06624   0.81030    0.027
 4269.00    1.35680   0.78377    0.027
 4270.00    1.63845   0.76550    0.027
 4271.00    1.88808   0.76720    0.026
 4272.00    1.29144   0.77530    0.026
 4273.00    0.72563   0.78255    0.026
 4274.00    0.58348   0.80000    0.026
 4275.00    0.45879   0.82776    0.026
 4276.00    0.49270   0.85039    0.026
 4277.00    0.51330   0.85516    0.026
 4278.00    0.44518   0.84354    0.026
 4279.00    0.44017   0.83061    0.026
 4280.00    0.76184   0.82590    0.026
 4281.00    1.03654   0.82686    0.026
 4282.00    1.11516   0.82778   -2.000
 4283.00    1.18963   0.82404   -2.000
 4284.00    1.24973   0.81936   -2.000
 4285.00    1.29128   0.81776   -2.000
 4286.00    1.27888   0.80969   -2.000
 4287.00    1.15528   0.78804   -2.000
 4288.00    0.75587   0.76849   -2.000
 4289.00    0.38865   0.77199   -2.000
 4290.00    0.09029   0.79533   -2.000
 4291.00    0.04426   0.81491   -2.000
 4292.00    0.46672   0.81610   -2.000
 4293.00    0.84813   0.80966   -2.000
 4294.00    1.16295   0.80696   -2.000
 4295.00    1.30711   0.80126   -2.000
 4296.00    1.20850   0.78395   -2.000
 4297.00    1.01250   0.75773   -2.000
 4298.00    0.69463   0.73807    0.026
 4299.00    0.55971   0.73595    0.026
 4300.00    0.62659   0.74140    0.026
 4301.00    0.63683   0.74474    0.026
 4302.00    0.59196   0.74931    0.026
 4303.00    0.58077   0.75290    0.025
 4304.00    0.59847   0.74780    0.025
 4305.00    0.78807   0.73340    0.025
 4306.00    1.10758   0.71858    0.026
 4307.00    1.08809   0.71661    0.026
 4308.00    0.84348   0.73105    0.026
 4309.00    0.70339   0.75219    0.026
 4310.00    0.62407   0.76943    0.025
 4311.00    0.87780   0.77977    0.025
 4312.00    1.30031   0.78850    0.026
 4313.00    1.31123   0.80770    0.025
 4314.00    1.14155   0.84031    0.025
 4315.00    0.99406   0.86795    0.025
 4316.00    0.85491   0.87494    0.026
 4317.00    0.64915   0.86665    0.025
 4318.00    0.42209   0.85435    0.024
 4319.00    0.36696   0.84326    0.024
 4320.00    0.35779   0.83172    0.025
 4321.00    0.50823   0.80948    0.025
 4322.00    0.69360   0.77160    0.025
 4323.00    0.78462   0.73233    0.025
 4324.00    0.85921   0.71791    0.025
 4325.00    0.79243   0.74214    0.025
 4326.00    0.70695   0.78541    0.025
 4327.00    0.87133   0.81318    0.025
 4328.00    1.05907   0.81298    0.025
 4329.00    0.95368   0.80017    0.025
 4330.00    0.83152   0.79099    0.000
 4331.00    0.79490   0.78581    0.000
 4332.00    0.75962   0.78015    0.000
 4333.00    0.65114   0.76882    0.000
 4334.00    0.54670   0.73814    0.000
 4335.00    0.53943   0.68005    0.000
 4336.00    0.53960   0.61009    0.000
 4337.00    0.63645   0.54768    0.000
 4338.00    0.69984   0.50566    0.000
 4339.00    0.47089   0.50595    0.000
 4340.00    0.30373   0.55369    0.000
 4341.00    0.53565   0.61476    0.000
 4342.00    0.74290   0.66127    0.000
 4343.00    0.82569   0.69723    0.000
 4344.00    0.86729   0.72696    0.000
 4345.00    0.74077   0.74890    0.000
 4346.00    0.68561   0.77050    0.000
 4347.00    0.87188   0.79132    0.000
 4348.00    1.02156   0.79185    0.000
 4349.00    1.06687   0.76551    0.000
 4350.00    1.02096   0.74153    0.000
 4351.00    0.75270   0.74825    0.025
 4352.00    0.60074   0.77547    0.025
 4353.00    0.69343   0.80032    0.025
 4354.00    0.89301   0.81894    0.025
 4355.00    1.28799   0.83164    0.025
 4356.00    1.42329   0.83119    0.025
 4357.00    1.14367   0.82166    0.025
 4358.00    1.06634   0.82105    0.025
 4359.00    1.27264   0.83490    0.025
 4360.00    1.33974   0.84989    0.025
 4361.00    1.23510   0.85791    0.026
 4362.00    1.25186   0.86546    0.026
 4363.00    1.40066   0.87294    0.025
 4364.00    1.39396   0.86749    0.025
 4365.00    1.23811   0.84727    0.025
 4366.00    1.08579   0.82985    0.025
 4367.00    0.93647   0.82726    0.025
 4368.00    0.95468   0.83282    0.025
 4369.00    1.09768   0.83736    0.025
 4370.00    1.10279   0.83686    0.025
 4371.00    1.01769   0.82634    0.025
 4372.00    0.85740   0.80609    0.024
 4373.00    0.65403   0.79090    0.024
 4374.00    0.67359   0.79746    0.024
 4375.00    0.80435   0.82270    0.024
 4376.00    0.78091   0.84530    0.025
 4377.00    0.69092   0.85037    0.025
 4378.00    0.73029   0.84132    0.025
 4379.00    0.81753   0.82350    0.025
 4380.00    0.95915   0.79030    0.025
 4381.00    1.11781   0.74307    0.025
 4382.00    1.02972   0.71010    0.025
 4383.00    0.87707   0.71682    0.025
 4384.00    0.84011   0.74836    0.024
 4385.00    0.82786   0.76915    0.024
 4386.00    0.84658   0.77213    0.024
 4387.00    0.87054   0.77495    0.024
 4388.00    0.91135   0.78391    0.024
 4389.00    0.95430   0.79632    0.024
 4390.00    0.71370   0.81103    0.024
 4391.00    0.44780   0.82018    0.024
 4392.00    0.59687   0.81693    0.024
 4393.00    0.76804   0.81216    0.024
 4394.00    0.94363   0.82361    0.024
 4395.00    1.11487   0.84684    0.025
 4396.00    0.92506   0.85831    0.024
 4397.00    0.74243   0.84728    0.024
 4398.00    0.71770   0.82658    0.024
 4399.00    0.68206   0.81777    0.024
 4400.00    0.51151   0.82389    0.024
 4401.00    0.35983   0.81892    0.024
 4402.00    0.36687   0.78943    0.024
 4403.00    0.41078   0.76377    0.024
 4404.00    0.68575   0.76695    0.024
 4405.00    0.88799   0.78335    0.024
 4406.00    0.73254   0.79397    0.024
 4407.00    0.64020   0.80709    0.024
 4408.00    0.79985   0.83005    0.024
 4409.00    0.90461   0.85198    0.024
 4410.00    0.82733   0.86314    0.024
 4411.00    0.75705   0.85733    0.024
 4412.00    0.70636   0.82895    0.024
 4413.00    0.68071   0.79393    0.024
 4414.00    0.71509   0.78152    0.024
 4415.00    0.77815   0.79672    0.024
 4416.00    0.90057   0.82369    0.024
 4417.00    0.99102   0.84887    0.024
 4418.00    1.02389   0.86123    0.024
 4419.00    1.00683   0.85406    0.024
 4420.00    0.91118   0.83512    0.024
 4421.00    0.91255   0.82327    0.024
 4422.00    1.04798   0.82615    0.024
 4423.00    1.03911   0.83224    0.024
 4424.00    0.85473   0.83242    0.024
 4425.00    0.75899   0.83159    0.024
 4426.00    0.75832   0.83486    0.024
 4427.00    0.75586   0.83539    0.024
 4428.00    0.75173   0.82804    0.024
 4429.00    0.77871   0.82434    0.024
 4430.00    0.83163   0.82888    0.024
 4431.00    0.92639   0.82564    0.024
 4432.00    1.05188   0.80706    0.024
 4433.00    1.06159   0.78878    0.024
 4434.00    0.99665   0.78985    0.024
 4435.00    0.90628   0.81233    0.024
 4436.00    0.80157   0.84229    0.024
 4437.00    0.68066   0.86253    0.024
 4438.00    0.55182   0.86071    0.024
 4439.00    0.57716   0.83808    0.024
 4440.00    0.66793   0.81110    0.024
 4441.00    0.72255   0.79880    0.024
 4442.00    0.76402   0.81007    0.024
 4443.00    0.67381   0.83620    0.024
 4444.00    0.54309   0.85544    0.024
 4445.00    0.63593   0.85813    0.024
 4446.00    0.78602   0.85612    0.024
 4447.00    0.86060   0.85567    0.024
 4448.00    0.91944   0.85161    0.024
 4449.00    1.08099   0.84688    0.024
 4450.00    1.25941   0.84410    0.023
 4451.00    1.30687   0.83443    0.024
 4452.00    1.33818   0.81317    0.024
 4453.00    1.01639   0.79218    0.024
 4454.00    0.66457   0.78673    0.023
 4455.00    0.59601   0.79355    0.023
 4456.00    0.54144   0.79747    0.023
 4457.00    0.64161   0.79423    0.023
 4458.00    0.74300   0.78845    0.023
 4459.00    0.76587   0.78240    0.023
 4460.00    0.79067   0.78379    0.023
 4461.00    0.85459   0.80053    0.000
 4462.00    0.90213   0.82026    0.000
 4463.00    0.75720   0.82641    0.000
 4464.00    0.62731   0.82228    0.000
 4465.00    0.61940   0.81679    0.000
 4466.00    0.64506   0.80837    0.000
 4467.00    0.87506   0.79359    0.000
 4468.00    1.04534   0.77655    0.000
 4469.00    0.92911   0.76766    0.000
 4470.00    0.85827   0.77960    0.000
 4471.00    0.96471   0.81110    0.000
 4472.00    1.05376   0.84035    0.000
 4473.00    1.08624   0.85357    0.000
 4474.00    1.13604   0.86103    0.000
 4475.00    1.23346   0.87188    0.000
 4476.00    1.21132   0.87510    0.000
 4477.00    0.90746   0.85567    0.000
 4478.00    0.69410   0.81728    0.000
 4479.00    0.66507   0.78444    0.000
 4480.00    0.63877   0.78154    0.000
 4481.00    0.61729   0.80886    0.000
 4482.00    0.71711   0.84437    0.022
 4483.00    1.00505   0.86936    0.022
 4484.00    1.13792   0.87873    0.022
 4485.00    1.05961   0.87167    0.023
 4486.00    0.95899   0.85040    0.023
 4487.00    0.83163   0.82680    0.022
 4488.00    0.80208   0.81705    0.022
 4489.00    0.87592   0.82618    0.023
 4490.00    0.88491   0.84152    0.023
 4491.00    0.83342   0.84400    0.023
 4492.00    0.84281   0.82901    0.022
 4493.00    0.90225   0.81283    0.022
 4494.00    0.89013   0.81159    0.022
 4495.00    0.82624   0.82561    0.023
 4496.00    0.95286   0.84527    0.023
 4497.00    1.20049   0.85885    0.023
 4498.00    1.13771   0.85850    0.022
 4499.00    0.90251   0.84973    0.022
 4500.00    0.79541   0.85168    0.022
 4501.00    0.75020   0.87216    0.022
 4502.00    0.71353   0.89373    0.022
 4503.00    0.68041   0.89921    0.022
 4504.00    0.73152   0.89001    0.022
 4505.00    0.81270   0.87678    0.022
 4506.00    1.01954   0.86915    0.022
 4507.00    1.26426   0.87081    0.022
 4508.00    1.25719   0.87667    0.022
 4509.00    1.18705   0.87677    0.022
 4510.00    1.09716   0.86659    0.022
 4511.00    1.00325   0.85162    0.022
 4512.00    0.87054   0.84013    0.022
 4513.00    0.73164   0.83744    0.022
 4514.00    0.80409   0.84191    0.022
 4515.00    0.90166   0.84463    0.022
 4516.00    0.88968   0.84390    0.022
 4517.00    0.86884   0.84840    0.022
 4518.00    0.74191   0.85944    0.022
 4519.00    0.61017   0.86618    0.022
 4520.00    0.77876   0.85897    0.022
 4521.00    0.94933   0.84399    0.022
 4522.00    1.03272   0.83318    0.022
 4523.00    1.10489   0.82393    0.022
 4524.00    0.96649   0.80916    0.022
 4525.00    0.83740   0.79105    0.022
 4526.00    0.81267   0.77619    0.022
 4527.00    0.79977   0.77105    0.022
 4528.00    0.87946   0.77780    0.022
 4529.00    0.92302   0.79153    0.021
 4530.00    0.75301   0.80349    0.022
 4531.00    0.63161   0.80314    0.022
 4532.00    0.73771   0.79052    0.022
 4533.00    0.86263   0.78345    0.022
 4534.00    1.05946   0.79946    0.022
 4535.00    1.18394   0.83200    0.022
 4536.00    1.07777   0.85353    0.022
 4537.00    1.00162   0.84866    0.022
 4538.00    1.00659   0.82811    0.022
 4539.00    0.97784   0.81277    0.022
 4540.00    0.87094   0.81527    0.021
 4541.00    0.86587   0.82747    0.021
 4542.00    1.06490   0.83138    0.022
 4543.00    1.17369   0.82619    0.022
 4544.00    1.12495   0.82443    0.022
 4545.00    1.06377   0.82635    0.022
 4546.00    0.98359   0.82092    0.022
 4547.00    0.89914   0.80879    0.022
 4548.00    0.80895   0.80553    0.021
 4549.00    0.79087   0.81358    0.021
 4550.00    0.85803   0.81644    0.000
 4551.00    0.85372   0.80904    0.000
 4552.00    0.77491   0.80091    0.000
 4553.00    0.71152   0.80053    0.000
 4554.00    0.66229   0.81322    0.000
 4555.00    0.75443   0.83514    0.000
 4556.00    0.96112   0.85294    0.000
 4557.00    0.95501   0.85997    0.000
 4558.00    0.79712   0.86086    0.000
 4559.00    0.76315   0.86094    0.000
 4560.00    0.80671   0.85732    0.000
 4561.00    0.86410   0.84334    0.000
 4562.00    0.92906   0.82404    0.000
 4563.00    0.90137   0.81467    0.000
 4564.00    0.82963   0.82317    0.000
 4565.00    0.72227   0.84233    0.000
 4566.00    0.60030   0.85737    0.000
 4567.00    0.67583   0.85995    0.000
 4568.00    0.82057   0.84966    0.000
 4569.00    0.92657   0.83251    0.000
 4570.00    1.02112   0.82608    0.000
 4571.00    1.06110   0.83847    0.000
 4572.00    1.08772   0.85166    0.000
 4573.00    1.15494   0.85284    0.000
 4574.00    1.23021   0.85021    0.000
 4575.00    1.06819   0.84850    0.000
 4576.00    0.86944   0.84112    0.000
 4577.00    0.78466   0.82510    0.000
 4578.00    0.71294   0.80912    0.000
 4579.00    0.82060   0.80469    0.000
 4580.00    0.94204   0.81118    0.000
 4581.00    0.94989   0.81678    0.000
 4582.00    0.95302   0.81574    0.000
 4583.00    1.01396   0.81276    0.000
 4584.00    1.07093   0.81378    0.000
 4585.00    0.93616   0.82283    0.000
 4586.00    0.81843   0.83764    0.000
 4587.00    0.99858   0.84796    0.000
 4588.00    1.16108   0.84510    0.000
 4589.00    1.13487   0.83160    0.000
 4590.00    1.09537   0.81912    0.000
 4591.00    0.95548   0.81465    0.000
 4592.00    0.84714   0.81342    0.000
 4593.00    0.92017   0.81030    0.000
 4594.00    0.96164   0.80859    0.000
 4595.00    0.85888   0.81187    0.000
 4596.00    0.76268   0.81834    0.000
 4597.00    0.69105   0.82240    0.000
 4598.00    0.65783   0.81924    0.000
 4599.00    0.74476   0.81410    0.000
 4600.00    0.75487   0.81494    0.000
 4601.00    0.56108   0.81873    0.000
 4602.00    0.44492   0.81911    0.000
 4603.00    0.50566   0.81683    0.000
 4604.00    0.59208   0.81936    0.000
 4605.00    0.72915   0.83286    0.000
 4606.00    0.79360   0.85336    0.000
 4607.00    0.73319   0.86791    0.000
 4608.00    0.73526   0.86740    0.000
 4609.00    0.83143   0.85651    0.000
 4610.00    0.88027   0.84546    0.000
 4611.00    0.86651   0.83980    0.000
 4612.00    0.89138   0.84218    0.000
 4613.00    0.96129   0.84949    0.000
 4614.00    0.97534   0.85405    0.000
 4615.00    0.93197   0.85420    0.000
 4616.00    0.81967   0.84934    0.000
 4617.00    0.64487   0.84093    0.000
 4618.00    0.65061   0.83947    0.000
 4619.00    0.80057   0.84711    0.000
 4620.00    0.87833   0.85305    0.000
 4621.00    0.90535   0.85406    0.000
 4622.00    0.89129   0.85308    0.000
 4623.00    0.85191   0.84907    0.000
 4624.00    0.80766   0.84452    0.000
 4625.00    0.76079   0.84374    0.000
 4626.00    0.74157   0.84233    0.000
 4627.00    0.73527   0.83668    0.000
 4628.00    0.77680   0.83502    0.000
 4629.00    0.83760   0.84120    0.000
 4630.00    0.89135   0.84348    0.000
 4631.00    0.94266   0.83507    0.000
 4632.00    0.98720   0.82569    0.000
 4633.00    1.02977   0.82317    0.000
 4634.00    1.08335   0.82249    0.000
 4635.00    1.13956   0.81641    0.000
 4636.00    1.02956   0.80643    0.000
 4637.00    0.88745   0.79882    0.000
 4638.00    0.76424   0.79815    0.000
 4639.00    0.64386   0.80605    0.000
 4640.00    0.85446   0.81620    0.000
 4641.00    1.10149   0.81911    0.000
 4642.00    1.05717   0.81279    0.000
 4643.00    0.99168   0.79792    0.000
 4644.00    0.85575   0.77654    0.000
 4645.00    0.71716   0.76014    0.000
 4646.00    0.68689   0.75952    0.000
 4647.00    0.65471   0.77170    0.000
 4648.00    0.53163   0.78773    0.000
 4649.00    0.42741   0.80303    0.000
 4650.00    0.63144   0.81554    0.000
 4651.00    0.82941   0.81970    0.000
 4652.00    0.96526   0.81148    0.000
 4653.00    1.05252   0.79942    0.000
 4654.00    0.78463   0.79639    0.000
 4655.00    0.58215   0.80756    0.000
 4656.00    0.74541   0.82986    0.000
 4657.00    0.85302   0.85174    0.000
 4658.00    0.71238   0.85976    0.000
 4659.00    0.61890   0.84999    0.000
 4660.00    0.69822   0.83064    0.000
 4661.00    0.75885   0.81394    0.000
 4662.00    0.76217   0.80525    0.000
 4663.00    0.77359   0.79659    0.000
 4664.00    0.80610   0.77678    0.000
 4665.00    0.83403   0.75251    0.000
 4666.00    0.85171   0.74470    0.000
 4667.00    0.81429   0.76100    0.000
 4668.00    0.66986   0.78808    0.000
 4669.00    0.59458   0.80873    0.000
 4670.00    0.63639   0.81470    0.000
 4671.00    0.61836   0.80987    0.000
 4672.00    0.51151   0.80548    0.000
 4673.00    0.53294   0.80919    0.000
 4674.00    0.72166   0.81816    0.000
 4675.00    0.81796   0.82154    0.000
 4676.00    0.80807   0.81388    0.000
 4677.00    0.75368   0.80138    0.000
 4678.00    0.65418   0.79151    0.000
 4679.00    0.61995   0.78694    0.000
 4680.00    0.64405   0.78937    0.000
 4681.00    0.72341   0.79692    0.000
 4682.00    0.84630   0.80062    0.000
 4683.00    0.89151   0.79670    0.000
 4684.00    0.88292   0.79242    0.000
 4685.00    0.84538   0.79279    0.000
 4686.00    0.79024   0.79636    0.000
 4687.00    0.85177   0.80057    0.000
 4688.00    0.97516   0.80180    0.000
 4689.00    0.95531   0.79962    0.000
 4690.00    0.86957   0.79941    0.000
 4691.00    0.90861   0.80387    0.000
 4692.00    0.99711   0.81157    0.000
 4693.00    0.90694   0.82057    0.000
 4694.00    0.75645   0.82490    0.000
 4695.00    0.73988   0.81655    0.000
 4696.00    0.76133   0.79760    0.000
 4697.00    0.76952   0.78272    0.000
 4698.00    0.77460   0.78027    0.000
 4699.00    0.70114   0.78152    0.000
 4700.00    0.61292   0.77798    0.000
 4701.00    0.64350   0.77510    0.000
 4702.00    0.69136   0.78065    0.000
 4703.00    0.65844   0.78977    0.000
 4704.00    0.61698   0.79181    0.000
 4705.00    0.57498   0.78560    0.000
 4706.00    0.53295   0.77881    0.000
 4707.00    0.66468   0.77838    0.000
 4708.00    0.80231   0.78708    0.000
 4709.00    0.64120   0.79849    0.000
 4710.00    0.48621   0.79841    0.000
 4711.00    0.54505   0.78530    0.000
 4712.00    0.60246   0.77456    0.000
 4713.00    0.63789   0.77929    0.000
 4714.00    0.66989   0.79699    0.000
 4715.00    0.66825   0.81548    0.000
 4716.00    0.66712   0.82804    0.000
 4717.00    0.66961   0.83672    0.000
 4718.00    0.65136   0.84161    0.000
 4719.00    0.52026   0.83946    0.000
 4720.00    0.43383   0.83247    0.000
 4721.00    0.54208   0.82954    0.000
 4722.00    0.65899   0.83490    0.000
 4723.00    0.80696   0.83934    0.000
 4724.00    0.89643   0.82929    0.000
 4725.00    0.80979   0.80398    0.000
 4726.00    0.77066   0.77909    0.000
 4727.00    0.85326   0.76856    0.000
 4728.00    0.89633   0.77095    0.000
 4729.00    0.85226   0.77923    0.000
 4730.00    0.83126   0.79001    0.000
 4731.00    0.85436   0.79986    0.000
 4732.00    0.85941   0.80610    0.000
 4733.00    0.83437   0.80723    0.000
 4734.00    0.82091   0.80213    0.000
 4735.00    0.82436   0.79936    0.000
 4736.00    0.86018   0.80779    0.000
 4737.00    0.93759   0.81750    0.000
 4738.00    0.92097   0.81663    0.000
 4739.00    0.79784   0.81109    0.000
 4740.00    0.74038   0.81133    0.000
 4741.00    0.74853   0.81635    0.000
 4742.00    0.68254   0.81865    0.000
 4743.00    0.55121   0.81849    0.000
 4744.00    0.51838   0.82223    0.000
 4745.00    0.56201   0.82795    0.000
 4746.00    0.63105   0.82952    0.000
 4747.00    0.71744   0.82858    0.000
 4748.00    0.79784   0.82794    0.000
 4749.00    0.87466   0.82448    0.000
 4750.00    0.79002   0.81642    0.000
 4751.00    0.62109   0.80762    0.000
 4752.00    0.61911   0.80161    0.000
 4753.00    0.69272   0.79925    0.000
 4754.00    0.82271   0.79966    0.000
 4755.00    0.97466   0.80181    0.000
 4756.00    0.96607   0.80551    0.000
 4757.00    0.90428   0.81011    0.000
 4758.00    0.79056   0.81132    0.000
 4759.00    0.66241   0.80336    0.000
 4760.00    0.69775   0.78923    0.000
 4761.00    0.77048   0.77805    0.019
 4762.00    0.65780   0.77076    0.019
 4763.00    0.51116   0.76360    0.018
 4764.00    0.50260   0.76041    0.019
 4765.00    0.51348   0.76744    0.019
 4766.00    0.60468   0.78268    0.019
 4767.00    0.70401   0.79813    0.019
 4768.00    0.54613   0.80499    0.019
 4769.00    0.37162   0.80033    0.019
 4770.00    0.62276   0.79392    0.019
 4771.00    0.88636   0.79768    0.018
 4772.00    0.94014   0.80974    0.018
 4773.00    0.98366   0.81835    0.018
 4774.00    0.72985   0.81983    0.019
 4775.00    0.50108   0.82029    0.019
 4776.00    0.63399   0.82023    0.019
 4777.00    0.74787   0.81607    0.018
 4778.00    0.68273   0.81038    0.018
 4779.00    0.63700   0.80508    0.018
 4780.00    0.72411   0.79685    0.018
 4781.00    0.80712   0.78771    0.018
 4782.00    0.86836   0.78530    0.018
 4783.00    0.90684   0.78694    0.018
 4784.00    0.84842   0.78471    0.018
 4785.00    0.80607   0.78248    0.018
 4786.00    0.82021   0.78418    0.018
 4787.00    0.79762   0.78521    0.018
 4788.00    0.66651   0.78592    0.018
 4789.00    0.59328   0.79062    0.018
 4790.00    0.66578   0.80010    0.018
 4791.00    0.73033   0.81417    0.018
 4792.00    0.77767   0.82910    0.018
 4793.00    0.80523   0.83644    0.018
 4794.00    0.79554   0.83190    0.018
 4795.00    0.77058   0.81921    0.018
 4796.00    0.72049   0.80415    0.018
 4797.00    0.72520   0.79254    0.018
 4798.00    0.80884   0.79106    0.018
 4799.00    0.84474   0.80153    0.018
 4800.00    0.82012   0.81559    0.019
 4801.00    0.81347   0.82113    0.019
 4802.00    0.82687   0.81403    0.019
 4803.00    0.73544   0.80153    0.019
 4804.00    0.54075   0.79249    0.019
 4805.00    0.53113   0.78743    0.018
 4806.00    0.68228   0.78544    0.019
 4807.00    0.74262   0.78904    0.018
 4808.00    0.73347   0.79606    0.018
 4809.00    0.71757   0.80022    0.018
 4810.00    0.69714   0.79994    0.018
 4811.00    0.72656   0.79860    0.018
 4812.00    0.78536   0.79909    0.018
 4813.00    0.84043   0.80230    0.018
 4814.00    0.89359   0.80823    0.018
 4815.00    0.94069   0.81521    0.018
 4816.00    0.98509   0.82045    0.018
 4817.00    0.84473   0.82265    0.018
 4818.00    0.63369   0.82139    0.018
 4819.00    0.63615   0.81508    0.018
 4820.00    0.70801   0.80064    0.018
 4821.00    0.67643   0.78149    0.018
 4822.00    0.61668   0.77264    0.018
 4823.00    0.59410   0.78124    0.018
 4824.00    0.57982   0.79403    0.018
 4825.00    0.75977   0.79673    0.019
 4826.00    0.97434   0.79084    0.019
 4827.00    0.96122   0.78623    0.019
 4828.00    0.91708   0.78492    0.019
 4829.00    0.88330   0.78011    0.019
 4830.00    0.85052   0.77366    0.019
 4831.00    0.75733   0.77602    0.019
 4832.00    0.66047   0.78596    0.019
 4833.00    0.70820   0.79244    0.018
 4834.00    0.75955   0.79245    0.018
 4835.00    0.77364   0.78963    0.018
 4836.00    0.78496   0.78310    0.018
 4837.00    0.72435   0.77229    0.018
 4838.00    0.66176   0.76431    0.018
 4839.00    0.57230   0.76369    0.018
 4840.00    0.50090   0.76422    0.018
 4841.00    0.59275   0.76217    0.018
 4842.00    0.66323   0.76476    0.018
 4843.00    0.59198   0.77389    0.018
 4844.00    0.53157   0.77830    0.018
 4845.00    0.52707   0.76937    0.018
 4846.00    0.56134   0.75327    0.018
 4847.00    0.75695   0.74419    0.018
 4848.00    0.86847   0.74573    0.000
 4849.00    0.69044   0.74742    0.000
 4850.00    0.56724   0.74235    0.000
 4851.00    0.60302   0.72971    0.000
 4852.00    0.62110   0.70693    0.000
 4853.00    0.59538   0.67984    0.000
 4854.00    0.58831   0.66302    0.000
 4855.00    0.62102   0.65529    0.000
 4856.00    0.71034   0.63653    0.000
 4857.00    0.90455   0.59390    0.000
 4858.00    0.92976   0.53783    0.000
 4859.00    0.68141   0.49988    0.000
 4860.00    0.55407   0.50809    0.000
 4861.00    0.59858   0.55272    0.000
 4862.00    0.58738   0.60032    0.000
 4863.00    0.50659   0.63635    0.000
 4864.00    0.51006   0.66357    0.000
 4865.00    0.60631   0.68286    0.000
 4866.00    0.64256   0.69525    0.000
 4867.00    0.62055   0.70057    0.000
 4868.00    0.65001   0.69311    0.000
 4869.00    0.72356   0.67822    0.000
 4870.00    0.71066   0.67683    0.000
 4871.00    0.63255   0.69548    0.000
 4872.00    0.65455   0.71676    0.000
 4873.00    0.74291   0.72871    0.000
 4874.00    0.74249   0.73680    0.000
 4875.00    0.69053   0.74668    0.018
 4876.00    0.68635   0.75882    0.018
 4877.00    0.70632   0.77083    0.018
 4878.00    0.75043   0.77321    0.018
 4879.00    0.80511   0.76368    0.018
 4880.00    0.69307   0.75641    0.018
 4881.00    0.51837   0.75726    0.018
 4882.00    0.46733   0.75441    0.018
 4883.00    0.45573   0.74280    0.018
 4884.00    0.44072   0.73360    0.018
 4885.00    0.42480   0.73519    0.018
 4886.00    0.49782   0.74094    0.018
 4887.00    0.59023   0.73809    0.018
 4888.00    0.62146   0.72363    0.018
 4889.00    0.64208   0.71385    0.018
 4890.00    0.60361   0.72881    0.018
 4891.00    0.55737   0.76310    0.018
 4892.00    0.61382   0.79506    0.018
 4893.00    0.67981   0.81381    0.018
 4894.00    0.70274   0.82012    0.018
 4895.00    0.72322   0.81835    0.018
 4896.00    0.63872   0.81079    0.018
 4897.00    0.55243   0.79789    0.018
 4898.00    0.53228   0.78657    0.018
 4899.00    0.52113   0.78339    0.018
 4900.00    0.72326   0.78202    0.018
 4901.00    0.90466   0.77768    0.019
 4902.00    0.81806   0.77932    0.018
 4903.00    0.73738   0.79192    0.018
 4904.00    0.70827   0.80412    0.018
 4905.00    0.67645   0.80277    0.018
 4906.00    0.62713   0.78793    0.018
 4907.00    0.59972   0.76871    0.018
 4908.00    0.68243   0.75546    0.018
 4909.00    0.75188   0.75528    0.018
 4910.00    0.76737   0.76579    0.018
 4911.00    0.76989   0.77860    0.018
 4912.00    0.72865   0.79004    0.018
 4913.00    0.67201   0.79893    0.018
 4914.00    0.57151   0.79796    0.018
 4915.00    0.55466   0.77860    0.018
 4916.00    0.74131   0.74233    0.018
 4917.00    0.84611   0.70322    0.018
 4918.00    0.77908   0.67898    0.018
 4919.00    0.71653   0.67963    0.018
 4920.00    0.66213   0.69977    0.018
 4921.00    0.62834   0.72093    0.018
 4922.00    0.62743   0.73311    0.018
 4923.00    0.66688   0.74532    0.017
 4924.00    0.76282   0.76519    0.017
 4925.00    0.78839   0.78526    0.017
 4926.00    0.72730   0.79954    0.017
 4927.00    0.69501   0.80930    0.017
 4928.00    0.69399   0.81335    0.017
 4929.00    0.67792   0.80928    0.017
 4930.00    0.64744   0.79487    0.017
 4931.00    0.63223   0.77408    0.017
 4932.00    0.62991   0.76311    0.017
 4933.00    0.62243   0.76806    0.017
 4934.00    0.61110   0.77064    0.017
 4935.00    0.63236   0.75589    0.017
 4936.00    0.67491   0.73453    0.017
 4937.00    0.69284   0.72896    0.017
 4938.00    0.69669   0.74651    0.017
 4939.00    0.72044   0.77197    0.017
 4940.00    0.75411   0.78951    0.000
 4941.00    0.80471   0.79896    0.000
 4942.00    0.86259   0.80231    0.000
 4943.00    0.75814   0.79843    0.000
 4944.00    0.59375   0.79407    0.000
 4945.00    0.62543   0.79703    0.000
 4946.00    0.71846   0.80376    0.000
 4947.00    0.74656   0.80837    0.000
 4948.00    0.75773   0.81134    0.000
 4949.00    0.82598   0.81250    0.000
 4950.00    0.90638   0.80802    0.000
 4951.00    0.86957   0.79867    0.000
 4952.00    0.81301   0.78867    0.000
 4953.00    0.82628   0.77396    0.000
 4954.00    0.84844   0.74544    0.000
 4955.00    0.81582   0.71288    0.000
 4956.00    0.77834   0.70704    0.000
 4957.00    0.75188   0.73589    0.000
 4958.00    0.72601   0.76987    0.000
 4959.00    0.72943   0.78533    0.000
 4960.00    0.73189   0.78699    0.000
 4961.00    0.61506   0.78468    0.000
 4962.00    0.51069   0.77609    0.000
 4963.00    0.67713   0.76049    0.000
 4964.00    0.82468   0.74811    0.000
 4965.00    0.74030   0.74545    0.000
 4966.00    0.66291   0.74885    0.000
 4967.00    0.64400   0.75437    0.000
 4968.00    0.64487   0.76104    0.000
 4969.00    0.76916   0.76923    0.000
 4970.00    0.86105   0.77816    0.000
 4971.00    0.79403   0.78532    0.000
 4972.00    0.74908   0.78910    0.000
 4973.00    0.79195   0.78808    0.000
 4974.00    0.82699   0.78186    0.000
 4975.00    0.83612   0.77128    0.000
 4976.00    0.82639   0.75864    0.000
 4977.00    0.76398   0.74890    0.000
 4978.00    0.69793   0.74105    0.000
 4979.00    0.62318   0.72610    0.000
 4980.00    0.59398   0.70467    0.000
 4981.00    0.65883   0.69202    0.000
 4982.00    0.69637   0.69714    0.000
 4983.00    0.68483   0.71353    0.000
 4984.00    0.64315   0.73345    0.000
 4985.00    0.55414   0.75185    0.000
 4986.00    0.52474   0.76143    0.000
 4987.00    0.57757   0.75959    0.000
 4988.00    0.59087   0.75233    0.000
 4989.00    0.55615   0.74841    0.000
 4990.00    0.61201   0.75078    0.000
 4991.00    0.76481   0.75317    0.000
 4992.00    0.80584   0.75365    0.000
 4993.00    0.74135   0.75731    0.000
 4994.00    0.73997   0.76202    0.000
 4995.00    0.79114   0.76139    0.000
 4996.00    0.78916   0.75267    0.000
 4997.00    0.74823   0.73685    0.000
 4998.00    0.76480   0.72112    0.000
 4999.00    0.81838   0.71351    0.000
 5000.00    0.77070   0.71435    0.000
 5001.00    0.66603   0.71697    0.000
 5002.00    0.67151   0.71240    0.000
 5003.00    0.73097   0.69924    0.000
 5004.00    0.72949   0.69037    0.000
 5005.00    0.70220   0.69966    0.000
 5006.00    0.66237   0.72164    0.000
 5007.00    0.61800   0.73735    0.000
 5008.00    0.62135   0.73753    0.000
 5009.00    0.63935   0.72519    0.000
 5010.00    0.63737   0.70579    0.000
 5011.00    0.63030   0.68663    0.000
 5012.00    0.62174   0.67548    0.000
 5013.00    0.61288   0.67682    0.000
 5014.00    0.56787   0.68663    0.000
 5015.00    0.51695   0.69440    0.000
 5016.00    0.59049   0.69818    0.000
 5017.00    0.67930   0.70433    0.000
 5018.00    0.56653   0.71153    0.000
 5019.00    0.43672   0.71244    0.000
 5020.00    0.34152   0.71004    0.000
 5021.00    0.24801   0.71483    0.000
 5022.00    0.46004   0.72625    0.000
 5023.00    0.67216   0.73339    0.000
 5024.00    0.60148   0.73035    0.000
 5025.00    0.53474   0.72216    0.000
 5026.00    0.54708   0.72115    0.000
 5027.00    0.56119   0.73132    0.000
 5028.00    0.59605   0.74347    0.000
 5029.00    0.63538   0.75291    0.017
 5030.00    0.71091   0.76252    0.017
 5031.00    0.76864   0.76881    0.017
 5032.00    0.71844   0.76170    0.017
 5033.00    0.66388   0.74095    0.017
 5034.00    0.58856   0.72305    0.017
 5035.00    0.53241   0.71883    0.017
 5036.00    0.55090   0.71538    0.017
 5037.00    0.55701   0.69720    0.016
 5038.00    0.52295   0.67006    0.017
 5039.00    0.51637   0.65728    0.017
 5040.00    0.58525   0.67501    0.017
 5041.00    0.63280   0.71127    0.017
 5042.00    0.63018   0.74312    0.017
 5043.00    0.63126   0.76264    0.016
 5044.00    0.63988   0.76808    0.017
 5045.00    0.63186   0.75576    0.016
 5046.00    0.59440   0.73230    0.016
 5047.00    0.57828   0.71407    0.016
 5048.00    0.59520   0.70891    0.016
 5049.00    0.61932   0.71192    0.016
 5050.00    0.65323   0.71927    0.016
 5051.00    0.64565   0.73104    0.016
 5052.00    0.58840   0.74278    0.017
 5053.00    0.60023   0.74834    0.017
 5054.00    0.68497   0.74955    0.017
 5055.00    0.73113   0.75296    0.017
 5056.00    0.74139   0.75912    0.016
 5057.00    0.73168   0.76416    0.016
 5058.00    0.70559   0.76879    0.016
 5059.00    0.68618   0.77345    0.016
 5060.00    0.67160   0.77163    0.017
 5061.00    0.63639   0.75636    0.017
 5062.00    0.58809   0.73214    0.016
 5063.00    0.63082   0.71579    0.016
 5064.00    0.72401   0.71552    0.016
 5065.00    0.66874   0.72021    0.016
 5066.00    0.54190   0.72182    0.017
 5067.00    0.56769   0.72589    0.017
 5068.00    0.65703   0.73228    0.017
 5069.00    0.74915   0.73152    0.017
 5070.00    0.84225   0.72515    0.017
 5071.00    0.81167   0.72464    0.017
 5072.00    0.74390   0.72937    0.016
 5073.00    0.66474   0.73071    0.016
 5074.00    0.58273   0.72977    0.017
 5075.00    0.59481   0.72820    0.017
 5076.00    0.62595   0.71647    0.017
 5077.00    0.49253   0.69306    0.017
 5078.00    0.33295   0.67673    0.018
 5079.00    0.46365   0.67968    0.018
 5080.00    0.62870   0.69138    0.018
 5081.00    0.61374   0.70054    0.018
 5082.00    0.58431   0.70938    0.018
 5083.00    0.71917   0.72007    0.017
 5084.00    0.86142   0.72767    0.016
 5085.00    0.70938   0.73029    0.016
 5086.00    0.55787   0.73222    0.016
 5087.00    0.60566   0.73563    0.016
 5088.00    0.65475   0.73863    0.016
 5089.00    0.72781   0.74188    0.016
 5090.00    0.78258   0.74801    0.016
 5091.00    0.63375   0.75390    0.016
 5092.00    0.49098   0.75255    0.016
 5093.00    0.39532   0.74252    0.016
 5094.00    0.31534   0.72798    0.016
 5095.00    0.32770   0.71154    0.016
 5096.00    0.36228   0.69545    0.016
 5097.00    0.50048   0.68816    0.016
 5098.00    0.63318   0.69731    0.016
 5099.00    0.74488   0.71555    0.016
 5100.00    0.82096   0.72747    0.016
 5101.00    0.78377   0.72769    0.016
 5102.00    0.72450   0.72239    0.016
 5103.00    0.60573   0.71721    0.016
 5104.00    0.50787   0.71114    0.016
 5105.00    0.45837   0.70355    0.016
 5106.00    0.45084   0.69838    0.016
 5107.00    0.52727   0.69695    0.016
 5108.00    0.56856   0.69884    0.016
 5109.00    0.54863   0.70642    0.016
 5110.00    0.51871   0.71701    0.016
 5111.00    0.47356   0.72497    0.016
 5112.00    0.46885   0.73063    0.016
 5113.00    0.51834   0.73615    0.016
 5114.00    0.56357   0.74250    0.016
 5115.00    0.60378   0.74919    0.017
 5116.00    0.62553   0.75188    0.017
 5117.00    0.62808   0.74691    0.017
 5118.00    0.65996   0.73576    0.017
 5119.00    0.71875   0.72168    0.016
 5120.00    0.71945   0.70571    0.016
 5121.00    0.67314   0.68962    0.016
 5122.00    0.68666   0.68035    0.016
 5123.00    0.74277   0.68132    0.016
 5124.00    0.69924   0.68555    0.016
 5125.00    0.59347   0.68635    0.016
 5126.00    0.59301   0.68522    0.016
 5127.00    0.65004   0.68687    0.016
 5128.00    0.66873   0.69398    0.016
 5129.00    0.66924   0.70440    0.016
 5130.00    0.64173   0.71218    0.016
 5131.00    0.60275   0.71615    0.016
 5132.00    0.59360   0.72133    0.016
 5133.00    0.59489   0.72659    0.016
 5134.00    0.61669   0.72309    0.016
 5135.00    0.64453   0.70966    0.016
 5136.00    0.66546   0.69523    0.016
 5137.00    0.68470   0.68944    0.016
 5138.00    0.69987   0.69449    0.016
 5139.00    0.71424   0.69845    0.016
 5140.00    0.58621   0.69283    0.016
 5141.00    0.43622   0.68855    0.016
 5142.00    0.43424   0.69198    0.016
 5143.00    0.44913   0.69317    0.016
 5144.00    0.49750   0.68820    0.016
 5145.00    0.54842   0.68462    0.016
 5146.00    0.66612   0.68730    0.016
 5147.00    0.78658   0.69215    0.016
 5148.00    0.63225   0.69187    0.016
 5149.00    0.47955   0.68621    0.016
 5150.00    0.49038   0.68095    0.016
 5151.00    0.50186   0.67983    0.016
 5152.00    0.52473   0.68456    0.016
 5153.00    0.54665   0.69612    0.016
 5154.00    0.55856   0.71180    0.016
 5155.00    0.58199   0.72560    0.017
 5156.00    0.69211   0.73244    0.017
 5157.00    0.77005   0.73283    0.017
 5158.00    0.66370   0.73082    0.017
 5159.00    0.55737   0.72550    0.016
 5160.00    0.45120   0.71526    0.017
 5161.00    0.38480   0.70286    0.017
 5162.00    0.46680   0.68504    0.016
 5163.00    0.51379   0.65357    0.016
 5164.00    0.45158   0.61197    0.016
 5165.00    0.43086   0.57922    0.016
 5166.00    0.52003   0.57411    0.016
 5167.00    0.55919   0.59379    0.016
 5168.00    0.48461   0.61030    0.016
 5169.00    0.42948   0.59979    0.016
 5170.00    0.41265   0.57613    0.016
 5171.00    0.41611   0.57657    0.016
 5172.00    0.45441   0.61140    0.016
 5173.00    0.46382   0.65347    0.016
 5174.00    0.42984   0.67887    0.016
 5175.00    0.44519   0.68917    0.016
 5176.00    0.52569   0.69255    0.016
 5177.00    0.60162   0.68917    0.016
 5178.00    0.67223   0.67607    0.016
 5179.00    0.69484   0.64987    0.016
 5180.00    0.66819   0.61086    0.016
 5181.00    0.61949   0.57654    0.016
 5182.00    0.55081   0.57562    0.016
 5183.00    0.46830   0.61285    0.015
 5184.00    0.37475   0.65950    0.015
 5185.00    0.41510   0.68860    0.015
 5186.00    0.54939   0.69969    0.016
 5187.00    0.53512   0.70422    0.015
 5188.00    0.42944   0.70043    0.015
 5189.00    0.40022   0.68122    0.015
 5190.00    0.41211   0.66002    0.000
 5191.00    0.47468   0.65637    0.000
 5192.00    0.56090   0.66609    0.000
 5193.00    0.62754   0.67528    0.000
 5194.00    0.68629   0.68348    0.000
 5195.00    0.59109   0.69432    0.000
 5196.00    0.44305   0.70540    0.000
 5197.00    0.44383   0.71316    0.000
 5198.00    0.48761   0.71524    0.000
 5199.00    0.47715   0.71138    0.000
 5200.00    0.45373   0.70317    0.000
 5201.00    0.47685   0.68908    0.000
 5202.00    0.50893   0.66659    0.000
 5203.00    0.52333   0.64330    0.000
 5204.00    0.53509   0.63088    0.000
 5205.00    0.54669   0.62782    0.000
 5206.00    0.55827   0.62767    0.000
 5207.00    0.50456   0.63507    0.000
 5208.00    0.44613   0.65477    0.000
 5209.00    0.50843   0.68110    0.000
 5210.00    0.57524   0.70468    0.000
 5211.00    0.60914   0.71714    0.016
 5212.00    0.64203   0.71407    0.016
 5213.00    0.64373   0.70082    0.016
 5214.00    0.64415   0.69155    0.016
 5215.00    0.62399   0.69607    0.016
 5216.00    0.61093   0.71068    0.016
 5217.00    0.67019   0.72494    0.016
 5218.00    0.70952   0.73311    0.016
 5219.00    0.60385   0.73474    0.016
 5220.00    0.52460   0.72812    0.016
 5221.00    0.59250   0.71099    0.016
 5222.00    0.64351   0.68500    0.016
 5223.00    0.61937   0.65592    0.016
 5224.00    0.58122   0.63450    0.016
 5225.00    0.49189   0.63575    0.016
 5226.00    0.41207   0.66279    0.016
 5227.00    0.36139   0.69657    0.016
 5228.00    0.35759   0.71694    0.016
 5229.00    0.47575   0.71889    0.016
 5230.00    0.53734   0.70643    0.016
 5231.00    0.47243   0.69148    0.016
 5232.00    0.49117   0.68827    0.016
 5233.00    0.67203   0.69988    0.016
 5234.00    0.75381   0.71844    0.016
 5235.00    0.66811   0.73341    0.016
 5236.00    0.58000   0.73892    0.016
 5237.00    0.48835   0.73755    0.016
 5238.00    0.53040   0.73543    0.016
 5239.00    0.74653   0.73479    0.016
 5240.00    0.79668   0.73469    0.016
 5241.00    0.65644   0.73685    0.016
 5242.00    0.60855   0.74084    0.016
 5243.00    0.65406   0.73655    0.016
 5244.00    0.69299   0.71776    0.016
 5245.00    0.72605   0.69774    0.016
 5246.00    0.76519   0.69067    0.016
 5247.00    0.80910   0.69015    0.016
 5248.00    0.77397   0.68733    0.016
 5249.00    0.68419   0.68845    0.016
 5250.00    0.58095   0.69709    0.016
 5251.00    0.46956   0.70350    0.016
 5252.00    0.47839   0.70159    0.016
 5253.00    0.55085   0.70126    0.016
 5254.00    0.55041   0.71433    0.016
 5255.00    0.51650   0.73526    0.016
 5256.00    0.58588   0.74864    0.016
 5257.00    0.69610   0.74684    0.016
 5258.00    0.74773   0.73146    0.016
 5259.00    0.77962   0.70703    0.016
 5260.00    0.66422   0.67855    0.016
 5261.00    0.50712   0.65166    0.016
 5262.00    0.46219   0.63122    0.016
 5263.00    0.44344   0.62123    0.016
 5264.00    0.48339   0.62537    0.016
 5265.00    0.53435   0.63600    0.016
 5266.00    0.43010   0.63192    0.016
 5267.00    0.30336   0.61175    0.016
 5268.00    0.35898   0.60653    0.016
 5269.00    0.43378   0.63252    0.016
 5270.00    0.40706   0.66665    0.016
 5271.00    0.37342   0.68430    0.016
 5272.00    0.46989   0.68562    0.016
 5273.00    0.57073   0.68478    0.016
 5274.00    0.62270   0.69581    0.016
 5275.00    0.67372   0.71850    0.016
 5276.00    0.69598   0.73633    0.016
 5277.00    0.71737   0.73683    0.016
 5278.00    0.72547   0.72336    0.016
 5279.00    0.72172   0.70625    0.016
 5280.00    0.60243   0.69248    0.016
 5281.00    0.50197   0.68671    0.016
 5282.00    0.53405   0.69578    0.016
 5283.00    0.56597   0.72002    0.016
 5284.00    0.59702   0.74487    0.016
 5285.00    0.61954   0.75563    0.016
 5286.00    0.60499   0.75459    0.016
 5287.00    0.58000   0.75360    0.016
 5288.00    0.51762   0.75670    0.016
 5289.00    0.47161   0.75804    0.016
 5290.00    0.47480   0.75355    0.016
 5291.00    0.52156   0.74653    0.016
 5292.00    0.67974   0.73948    0.016
 5293.00    0.75359   0.72663    0.016
 5294.00    0.64194   0.70300    0.016
 5295.00    0.55141   0.67833    0.016
 5296.00    0.50118   0.67094    0.016
 5297.00    0.48846   0.68366    0.016
 5298.00    0.53821   0.69918    0.016
 5299.00    0.57154   0.70628    0.016
 5300.00    0.58093   0.71315    0.016
 5301.00    0.59297   0.72834    0.016
 5302.00    0.60840   0.74629    0.016
 5303.00    0.64174   0.75577    0.016
 5304.00    0.69530   0.75357    0.016
 5305.00    0.74010   0.74766    0.016
 5306.00    0.77615   0.74782    0.016
 5307.00    0.78717   0.75403    0.016
 5308.00    0.77619   0.75860    0.016
 5309.00    0.71432   0.75709    0.016
 5310.00    0.61303   0.75136    0.016
 5311.00    0.63050   0.74528    0.016
 5312.00    0.72889   0.74014    0.015
 5313.00    0.76771   0.73401    0.016
 5314.00    0.77097   0.72752    0.016
 5315.00    0.79367   0.72545    0.016
 5316.00    0.82650   0.72831    0.015
 5317.00    0.74975   0.73097    0.015
 5318.00    0.62349   0.73090    0.015
 5319.00    0.61566   0.72831    0.015
 5320.00    0.65384   0.72095    0.015
 5321.00    0.68620   0.70822    0.015
 5322.00    0.71663   0.69710    0.015
 5323.00    0.67442   0.69143    0.015
 5324.00    0.61207   0.67856    0.015
 5325.00    0.62192   0.64915    0.015
 5326.00    0.64825   0.62412    0.015
 5327.00    0.61857   0.63206    0.015
 5328.00    0.57867   0.66700    0.015
 5329.00    0.56198   0.69846    0.015
 5330.00    0.54854   0.71234    0.015
 5331.00    0.54498   0.71885    0.015
 5332.00    0.54241   0.72816    0.015
 5333.00    0.58929   0.73637    0.015
 5334.00    0.63933   0.73729    0.015
 5335.00    0.71278   0.73212    0.015
 5336.00    0.78650   0.72159    0.016
 5337.00    0.68281   0.70378    0.015
 5338.00    0.58565   0.68684    0.015
 5339.00    0.67497   0.68627    0.015
 5340.00    0.75383   0.70240    0.016
 5341.00    0.68265   0.71854    0.015
 5342.00    0.61969   0.72256    0.015
 5343.00    0.63364   0.71706    0.015
 5344.00    0.63493   0.71154    0.016
 5345.00    0.54987   0.70865    0.015
 5346.00    0.50004   0.70454    0.015
 5347.00    0.63621   0.70295    0.015
 5348.00    0.74620   0.71176    0.016
 5349.00    0.74503   0.72753    0.015
 5350.00    0.73883   0.73994    0.015
 5351.00    0.71500   0.74739    0.015
 5352.00    0.69882   0.75518    0.016
 5353.00    0.70522   0.76326    0.016
 5354.00    0.71099   0.76764    0.016
 5355.00    0.71517   0.76816    0.016
 5356.00    0.73321   0.76675    0.016
 5357.00    0.78124   0.76319    0.016
 5358.00    0.78548   0.75557    0.016
 5359.00    0.70747   0.74417    0.016
 5360.00    0.66178   0.73359    0.015
 5361.00    0.66913   0.72677    0.015
 5362.00    0.64145   0.72148    0.015
 5363.00    0.56339   0.71679    0.016
 5364.00    0.57813   0.71452    0.016
 5365.00    0.71024   0.71286    0.016
 5366.00    0.74186   0.70565    0.015
 5367.00    0.66144   0.68814    0.015
 5368.00    0.65514   0.66640   -2.000
 5369.00    0.72172   0.65839   -2.000
 5370.00    0.59794   0.67565   -2.000
 5371.00    0.30907   0.70759   -2.000
 5372.00    0.20605   0.73366   -2.000
 5373.00    0.24498   0.74408   -2.000
 5374.00    0.28559   0.74272   -2.000
 5375.00    0.32733   0.73934   -2.000
 5376.00    0.49737   0.73967   -2.000
 5377.00    0.74289   0.74022   -2.000
 5378.00    0.90570   0.73641   -2.000
 5379.00    1.02609   0.72955   -2.000
 5380.00    0.93787   0.72318   -2.000
 5381.00    0.75695   0.72083   -2.000
 5382.00    0.65056   0.72485   -2.000
 5383.00    0.57263   0.73145    0.015
 5384.00    0.65224   0.73399    0.015
 5385.00    0.78296   0.73066    0.015
 5386.00    0.75201   0.72275    0.015
 5387.00    0.67717   0.71212    0.015
 5388.00    0.68277   0.70263    0.015
 5389.00    0.70628   0.69761    0.015
 5390.00    0.67464   0.69639    0.015
 5391.00    0.63319   0.69622    0.015
 5392.00    0.66143   0.69424    0.015
 5393.00    0.69911   0.68626    0.015
 5394.00    0.58699   0.67248    0.015
 5395.00    0.46040   0.66558    0.015
 5396.00    0.49491   0.67600    0.015
 5397.00    0.53910   0.69368    0.015
 5398.00    0.53892   0.70425    0.015
 5399.00    0.53820   0.70753    0.016
 5400.00    0.64189   0.70480    0.016
 5401.00    0.73811   0.69013    0.016
 5402.00    0.64199   0.66510    0.015
 5403.00    0.55400   0.64553    0.015
 5404.00    0.57629   0.64545    0.015
 5405.00    0.59353   0.65968    0.015
 5406.00    0.56534   0.66943    0.015
 5407.00    0.54786   0.66703    0.015
 5408.00    0.60109   0.66557    0.015
 5409.00    0.64088   0.67762    0.015
 5410.00    0.61157   0.69681    0.015
 5411.00    0.59865   0.70960    0.015
 5412.00    0.65381   0.71400    0.015
 5413.00    0.68785   0.71861    0.015
 5414.00    0.64933   0.72771    0.015
 5415.00    0.62808   0.73509    0.015
 5416.00    0.65677   0.73394    0.015
 5417.00    0.66594   0.72580    0.015
 5418.00    0.62694   0.71845    0.015
 5419.00    0.63335   0.71706    0.015
 5420.00    0.73645   0.71685    0.015
 5421.00    0.80083   0.71093    0.015
 5422.00    0.79358   0.70534    0.015
 5423.00    0.78299   0.71135    0.015
 5424.00    0.76701   0.72475    0.015
 5425.00    0.75240   0.72746    0.015
 5426.00    0.73974   0.70942    0.015
 5427.00    0.71153   0.68503    0.015
 5428.00    0.66394   0.67744    0.015
 5429.00    0.62566   0.68523    0.015
 5430.00    0.59763   0.68790    0.015
 5431.00    0.62123   0.67921    0.015
 5432.00    0.69489   0.67037    0.015
 5433.00    0.71407   0.67127    0.015
 5434.00    0.68666   0.68328    0.015
 5435.00    0.64608   0.70269    0.015
 5436.00    0.59558   0.72351    0.015
 5437.00    0.60833   0.73941    0.015
 5438.00    0.66292   0.74752    0.015
 5439.00    0.71250   0.74959    0.015
 5440.00    0.75918   0.74805    0.015
 5441.00    0.77002   0.74119    0.015
 5442.00    0.76277   0.72410    0.015
 5443.00    0.69473   0.69689    0.015
 5444.00    0.60013   0.67174    0.015
 5445.00    0.59950   0.66612    0.015
 5446.00    0.63412   0.68258    0.015
 5447.00    0.64811   0.70463    0.015
 5448.00    0.65554   0.71699    0.015
 5449.00    0.66931   0.71763    0.015
 5450.00    0.68477   0.71018    0.015
 5451.00    0.64133   0.69571    0.015
 5452.00    0.58507   0.67612    0.015
 5453.00    0.57330   0.66235    0.015
 5454.00    0.56921   0.66774    0.015
 5455.00    0.57071   0.68979    0.015
 5456.00    0.57295   0.71077    0.015
 5457.00    0.61195   0.71767    0.015
 5458.00    0.65435   0.71151    0.015
 5459.00    0.67319   0.69950    0.015
 5460.00    0.69070   0.68791    0.015
 5461.00    0.68380   0.68358    0.015
 5462.00    0.67631   0.68954    0.015
 5463.00    0.66392   0.69864    0.015
 5464.00    0.65195   0.70382    0.016
 5465.00    0.65002   0.70649    0.033
 5466.00    0.64300   0.70760   -1.000
 5467.00    0.57060   0.70450   -1.000
 5468.00    0.50664   0.69910   -1.000
 5469.00    0.51574   0.69543   -1.000
 5470.00    0.52916   0.69164   -1.000
 5471.00    0.57027   0.68557   -1.000
 5472.00    0.58882   0.67840   -1.000
 5473.00    0.49430   0.66790   -1.000
 5474.00    0.43870   0.65594    0.143
 5475.00    0.54109   0.65585    0.024
 5476.00    0.61275   0.67168    0.014
 5477.00    0.58093   0.68596    0.015
 5478.00    0.57607   0.68417   -2.000
 5479.00    0.64778   0.67484   -2.000
 5480.00    0.66635   0.67465   -2.000
 5481.00    0.55593   0.68710   -2.000
 5482.00    0.52430   0.70306   -2.000
 5483.00    0.65774   0.71096   -2.000
 5484.00    0.55696   0.70550   -2.000
 5485.00    0.02964   0.69410   -2.000
 5486.00   -0.70086   0.68894   -2.000
 5487.00   -1.75481   0.69192   -2.000
 5488.00   -2.14522   0.69738   -2.000
 5489.00   -1.60869   0.70168   -2.000
 5490.00   -0.85253   0.70235   -2.000
 5491.00    0.17366   0.69975   -2.000
 5492.00    1.27129   0.69861   -2.000
 5493.00    2.44635   0.69884   -2.000
 5494.00    2.50047   0.69561   -2.000
 5495.00    1.48308   0.69242   -2.000
 5496.00    0.88949   0.69705   -2.000
 5497.00    0.65311   0.70434   -2.000
 5498.00    0.58439   0.70233   -2.000
 5499.00    0.64009   0.69217   -2.000
 5500.00    0.60281   0.68519   -2.000
 5501.00    0.50491   0.68522   -2.000
 5502.00    0.52005   0.68548    0.015
 5503.00    0.59967   0.68023    0.015
 5504.00    0.57314   0.67484    0.015
 5505.00    0.49385   0.67847    0.015
 5506.00    0.50037   0.68831    0.015
 5507.00    0.54375   0.69333    0.015
 5508.00    0.49676   0.68884    0.015
 5509.00    0.41648   0.67778    0.015
 5510.00    0.44021   0.66693    0.015
 5511.00    0.49639   0.66294    0.015
 5512.00    0.55885   0.66686    0.015
 5513.00    0.62295   0.67511    0.015
 5514.00    0.59926   0.68527    0.015
 5515.00    0.55692   0.69736    0.015
 5516.00    0.60908   0.70915    0.015
 5517.00    0.67711   0.71546    0.015
 5518.00    0.66832   0.71507    0.015
 5519.00    0.64980   0.71236    0.015
 5520.00    0.67586   0.71074    0.015
 5521.00    0.70585   0.70951    0.015
 5522.00    0.69520   0.70603    0.015
 5523.00    0.68243   0.69830    0.015
 5524.00    0.64945   0.68584    0.014
 5525.00    0.61676   0.67210    0.014
 5526.00    0.63500   0.66650    0.014
 5527.00    0.65404   0.67509    0.015
 5528.00    0.69012   0.69019    0.015
 5529.00    0.71654   0.69940    0.015
 5530.00    0.62503   0.69972    0.014
 5531.00    0.54868   0.69542    0.014
 5532.00    0.59874   0.69043    0.014
 5533.00    0.65089   0.68818    0.015
 5534.00    0.71606   0.69010    0.015
 5535.00    0.75782   0.69367    0.015
 5536.00    0.68518   0.69793    0.014
 5537.00    0.62136   0.70455    0.014
 5538.00    0.59257   0.71153    0.014
 5539.00    0.59673   0.71330    0.014
 5540.00    0.70963   0.70817    0.015
 5541.00    0.77531   0.70146    0.015
 5542.00    0.70933   0.69837    0.015
 5543.00    0.65440   0.69819    0.015
 5544.00    0.62582   0.70018    0.015
 5545.00    0.64663   0.70641    0.015
 5546.00    0.76925   0.71512    0.015
 5547.00    0.82343   0.72112    0.015
 5548.00    0.75486   0.72239    0.015
 5549.00    0.73604   0.71967    0.015
 5550.00    0.79522   0.71341    0.015
 5551.00    0.80077   0.70553    0.015
 5552.00    0.73250   0.70032    0.015
 5553.00    0.66579   0.69996    0.015
 5554.00    0.60096   0.70143    0.015
 5555.00    0.58337   0.70161    0.015
 5556.00    0.61627   0.70149    0.015
 5557.00    0.60786   0.70192    0.015
 5558.00    0.56052   0.70081    0.015
 5559.00    0.57091   0.69659    0.015
 5560.00    0.62928   0.69120    0.015
 5561.00    0.64775   0.68810    0.015
 5562.00    0.63702   0.68679    0.015
 5563.00    0.65159   0.68413    0.015
 5564.00    0.68241   0.68109    0.015
 5565.00    0.70318   0.68028    0.015
 5566.00    0.71831   0.68050    0.014
 5567.00    0.72410   0.68140    0.014
 5568.00    0.72531   0.68456    0.014
 5569.00    0.65353   0.68594    0.014
 5570.00    0.55090   0.68257    0.014
 5571.00    0.59299   0.68177    0.014
 5572.00    0.68742   0.68760    0.014
 5573.00    0.73725   0.69342    0.014
 5574.00    0.77342   0.69580    0.014
 5575.00    0.73186   0.69717    0.014
 5576.00    0.67050   0.69830    0.014
 5577.00    0.60043   0.69942    0.014
 5578.00    0.52856   0.69989    0.014
 5579.00    0.51591   0.69784    0.014
 5580.00    0.51292   0.69445    0.014
 5581.00    0.59773   0.69099    0.014
 5582.00    0.69325   0.68425    0.015
 5583.00    0.71778   0.67084    0.015
 5584.00    0.73634   0.65307    0.015
 5585.00    0.68708   0.63861    0.029
 5586.00    0.63453   0.63408    1.986
 5587.00    0.64993   0.63997   -1.000
 5588.00    0.66651   0.65104   -1.000
 5589.00    0.69248   0.66014   -1.000
 5590.00    0.71968   0.66379   -1.000
 5591.00    0.77115   0.66479   -1.000
 5592.00    0.81421   0.66968   -1.000
 5593.00    0.75965   0.68099   -1.000
 5594.00    0.70736   0.68994   -1.000
 5595.00    0.67338   0.68652   -1.000
 5596.00    0.64648   0.67491    0.217
 5597.00    0.66232   0.66552    0.027
 5598.00    0.67713   0.65960    0.016
 5599.00    0.68700   0.65443    0.016
 5600.00    0.69299   0.65331    0.015
 5601.00    0.68391   0.66206    0.015
 5602.00    0.67064   0.67938    0.015
 5603.00    0.64378   0.69689    0.015
 5604.00    0.61203   0.70783    0.015
 5605.00    0.56689   0.71129    0.015
 5606.00    0.55476   0.71015    0.015
 5607.00    0.62008   0.70818    0.015
 5608.00    0.66945   0.70829    0.015
 5609.00    0.68644   0.71048    0.015
 5610.00    0.67785   0.70966    0.014
 5611.00    0.62407   0.69743    0.014
 5612.00    0.60843   0.67282    0.014
 5613.00    0.65173   0.65121    0.014
 5614.00    0.67253   0.64911    0.014
 5615.00    0.66279   0.66183    0.014
 5616.00    0.66392   0.67266    0.014
 5617.00    0.67806   0.67637    0.014
 5618.00    0.69176   0.67939    0.014
 5619.00    0.70501   0.68410    0.014
 5620.00    0.70864   0.68366    0.014
 5621.00    0.70335   0.67267    0.014
 5622.00    0.70622   0.65843    0.014
 5623.00    0.71577   0.65426    0.014
 5624.00    0.68782   0.66237    0.014
 5625.00    0.63284   0.67419    0.014
 5626.00    0.62074   0.68451    0.014
 5627.00    0.63579   0.69331    0.014
 5628.00    0.64421   0.69943    0.014
 5629.00    0.64896   0.70109    0.015
 5630.00    0.70632   0.69861    0.015
 5631.00    0.78899   0.69351    0.015
 5632.00    0.75824   0.68710    0.015
 5633.00    0.68036   0.68016    0.015
 5634.00    0.66762   0.67375    0.015
 5635.00    0.67801   0.67027    0.014
 5636.00    0.72159   0.67095    0.014
 5637.00    0.77511   0.67246    0.015
 5638.00    0.77916   0.67080    0.015
 5639.00    0.77087   0.66802    0.014
 5640.00    0.71163   0.66855    0.014
 5641.00    0.64209   0.67201    0.014
 5642.00    0.64186   0.67566    0.014
 5643.00    0.65260   0.67880    0.014
 5644.00    0.76137   0.68165    0.015
 5645.00    0.88167   0.68339    0.015
 5646.00    0.73717   0.68294    0.015
 5647.00    0.57151   0.68188    0.014
 5648.00    0.60618   0.68387    0.014
 5649.00    0.64978   0.68926    0.014
 5650.00    0.73088   0.69293    0.014
 5651.00    0.81088   0.68996    0.014
 5652.00    0.81618   0.68265    0.014
 5653.00    0.81232   0.67726    0.014
 5654.00    0.63985   0.67181    0.014
 5655.00    0.48899   0.65930    0.014
 5656.00    0.57745   0.64595    0.014
 5657.00    0.64678   0.64549    0.014
 5658.00    0.56771   0.65490    0.014
 5659.00    0.50927   0.66014    0.014
 5660.00    0.57198   0.66019    0.014
 5661.00    0.62594   0.66451    0.014
 5662.00    0.63919   0.67433    0.014
 5663.00    0.63676   0.68134    0.014
 5664.00    0.57473   0.68027    0.014
 5665.00    0.53972   0.67474    0.014
 5666.00    0.59044   0.67146    0.014
 5667.00    0.64795   0.67249    0.014
 5668.00    0.72370   0.67626    0.014
 5669.00    0.74124   0.68279    0.014
 5670.00    0.62446   0.69186    0.014
 5671.00    0.55303   0.69897    0.014
 5672.00    0.57212   0.70026    0.014
 5673.00    0.58658   0.69882    0.014
 5674.00    0.59296   0.69903    0.015
 5675.00    0.57899   0.69904    0.015
 5676.00    0.53403   0.69577    0.015
 5677.00    0.54910   0.69110    0.015
 5678.00    0.64446   0.68668    0.015
 5679.00    0.67414   0.68039    0.015
 5680.00    0.62644   0.67339    0.015
 5681.00    0.59408   0.67151    0.015
 5682.00    0.57766   0.67506    0.014
 5683.00    0.60699   0.67651    0.014
 5684.00    0.67825   0.67165    0.014
 5685.00    0.73904   0.66558    0.014
 5686.00    0.79137   0.66566    0.014
 5687.00    0.78684   0.67311    0.014
 5688.00    0.74191   0.68349    0.014
 5689.00    0.68573   0.69253    0.014
 5690.00    0.62253   0.69810    0.014
 5691.00    0.58193   0.69882    0.014
 5692.00    0.55363   0.69580    0.013
 5693.00    0.57542   0.69237    0.013
 5694.00    0.62093   0.68927    0.014
 5695.00    0.57872   0.68405    0.014
 5696.00    0.50070   0.67702    0.014
 5697.00    0.52069   0.67075    0.014
 5698.00    0.57487   0.66488    0.014
 5699.00    0.62606   0.65978    0.014
 5700.00    0.67639   0.65959    0.014
 5701.00    0.69082   0.66507    0.014
 5702.00    0.69652   0.66966    0.014
 5703.00    0.73513   0.66679    0.014
 5704.00    0.78023   0.65725    0.014
 5705.00    0.76112   0.64626    0.014
 5706.00    0.73214   0.63791    0.014
 5707.00    0.66392   0.63489    0.014
 5708.00    0.59125   0.63707    0.014
 5709.00    0.57880   0.64223    0.014
 5710.00    0.57091   0.65159    0.014
 5711.00    0.58168   0.66520    0.014
 5712.00    0.59321   0.67740    0.014
 5713.00    0.63233   0.68447    0.014
 5714.00    0.67110   0.68750    0.014
 5715.00    0.68653   0.68857    0.014
 5716.00    0.70019   0.69002    0.014
 5717.00    0.68358   0.69302    0.014
 5718.00    0.66925   0.69683    0.014
 5719.00    0.67901   0.70097    0.014
 5720.00    0.68603   0.70476    0.014
 5721.00    0.67248   0.70638    0.014
 5722.00    0.66257   0.70439    0.014
 5723.00    0.67335   0.69805    0.013
 5724.00    0.67519   0.68889    0.013
 5725.00    0.63644   0.68326    0.014
 5726.00    0.60547   0.68552    0.014
 5727.00    0.60346   0.68982    0.014
 5728.00    0.59004   0.68805    0.013
 5729.00    0.54111   0.68305    0.013
 5730.00    0.52111   0.68370    0.013
 5731.00    0.57755   0.69070    0.013
 5732.00    0.64306   0.69710    0.013
 5733.00    0.72913   0.69841    0.013
 5734.00    0.78032   0.69564    0.013
 5735.00    0.76294   0.69214    0.013
 5736.00    0.74109   0.69009    0.013
 5737.00    0.71162   0.68956    0.013
 5738.00    0.70623   0.68950    0.013
 5739.00    0.73700   0.68873    0.013
 5740.00    0.74402   0.68753    0.000
 5741.00    0.71971   0.68870    0.000
 5742.00    0.68451   0.69382    0.000
 5743.00    0.63664   0.69854    0.000
 5744.00    0.62218   0.69632    0.000
 5745.00    0.64195   0.68769    0.000
 5746.00    0.64941   0.68187    0.000
 5747.00    0.64577   0.68502    0.000
 5748.00    0.63912   0.69080    0.000
 5749.00    0.63009   0.68862    0.000
 5750.00    0.66515   0.67708    0.000
 5751.00    0.73107   0.66547    0.000
 5752.00    0.75022   0.66437    0.000
 5753.00    0.74064   0.67543    0.000
 5754.00    0.74739   0.69008    0.000
 5755.00    0.76289   0.69887    0.000
 5756.00    0.70871   0.69820    0.000
 5757.00    0.62207   0.68936    0.000
 5758.00    0.61064   0.67619    0.000
 5759.00    0.62939   0.66416    0.000
 5760.00    0.66487   0.65965    0.000
 5761.00    0.70608   0.66674    0.000
 5762.00    0.67156   0.68151    0.000
 5763.00    0.61523   0.69435    0.000
 5764.00    0.67536   0.70036    0.000
 5765.00    0.76324   0.70140    0.000
 5766.00    0.79081   0.69999    0.000
 5767.00    0.80681   0.69720    0.000
 5768.00    0.78146   0.69363    0.000
 5769.00    0.74995   0.68978    0.000
 5770.00    0.70394   0.68660    0.000
 5771.00    0.65635   0.68476    0.000
 5772.00    0.67201   0.68419    0.000
 5773.00    0.69221   0.68562    0.000
 5774.00    0.72256   0.68867    0.000
 5775.00    0.75329   0.69008    0.000
 5776.00    0.73160   0.68588    0.000
 5777.00    0.70989   0.67370    0.000
 5778.00    0.69554   0.65613    0.000
 5779.00    0.67749   0.64198    0.000
 5780.00    0.59967   0.63763    0.000
 5781.00    0.53116   0.63868    0.000
 5782.00    0.55688   0.63852    0.000
 5783.00    0.58812   0.63995    0.000
 5784.00    0.65933   0.64899    0.000
 5785.00    0.72132   0.66278    0.000
 5786.00    0.73215   0.67310    0.000
 5787.00    0.73543   0.67563    0.000
 5788.00    0.70521   0.67258    0.000
 5789.00    0.68566   0.67118    0.000
 5790.00    0.70501   0.67607    0.000
 5791.00    0.69796   0.68453   -2.000
 5792.00    0.61028   0.69148   -2.000
 5793.00    0.52975   0.69283   -2.000
 5794.00    0.46778   0.68682   -2.000
 5795.00    0.43522   0.67878   -2.000
 5796.00    0.46829   0.67831   -2.000
 5797.00    0.56340   0.68748   -2.000
 5798.00    0.77852   0.69850   -2.000
 5799.00    0.89677   0.70438   -2.000
 5800.00    0.85156   0.70325   -2.000
 5801.00    0.77574   0.69581   -2.000
 5802.00    0.65467   0.68638   -2.000
 5803.00    0.62988   0.68108   -2.000
 5804.00    0.73022   0.68140   -2.000
 5805.00    0.78539   0.68430   -2.000
 5806.00    0.78883   0.68716   -2.000
 5807.00    0.78151   0.68959   -2.000
 5808.00    0.76331   0.69162   -2.000
 5809.00    0.72910   0.69244   -2.000
 5810.00    0.68065   0.69150   -2.000
 5811.00    0.65997   0.68841    0.000
 5812.00    0.66108   0.68244    0.000
 5813.00    0.67092   0.67558    0.000
 5814.00    0.68677   0.67356    0.000
 5815.00    0.70710   0.67974    0.000
 5816.00    0.73014   0.69012    0.000
 5817.00    0.73108   0.69805    0.000
 5818.00    0.72036   0.70090    0.000
 5819.00    0.67710   0.69970    0.000
 5820.00    0.61891   0.69667    0.000
 5821.00    0.58740   0.69453    0.000
 5822.00    0.56642   0.69481    0.000
 5823.00    0.58162   0.69638    0.000
 5824.00    0.60898   0.69723    0.000
 5825.00    0.64982   0.69735    0.000
 5826.00    0.69446   0.69802    0.000
 5827.00    0.68044   0.69913    0.000
 5828.00    0.65276   0.69915    0.000
 5829.00    0.63532   0.69774    0.000
 5830.00    0.61979   0.69541    0.000
 5831.00    0.65076   0.69184    0.000
 5832.00    0.68842   0.68817    0.000
 5833.00    0.72111   0.68736    0.000
 5834.00    0.75328   0.68886    0.000
 5835.00    0.68066   0.68881    0.000
 5836.00    0.60095   0.68763    0.000
 5837.00    0.59241   0.68965    0.000
 5838.00    0.58624   0.69522    0.000
 5839.00    0.62477   0.70048    0.000
 5840.00    0.66029   0.70267    0.000
 5841.00    0.59999   0.70135    0.000
 5842.00    0.54630   0.69688    0.000
 5843.00    0.59238   0.69029    0.000
 5844.00    0.63314   0.68336    0.000
 5845.00    0.62216   0.67855    0.000
 5846.00    0.60760   0.67748    0.000
 5847.00    0.56790   0.67857    0.000
 5848.00    0.53880   0.67784    0.000
 5849.00    0.56697   0.67243    0.000
 5850.00    0.59099   0.66405    0.000
 5851.00    0.59699   0.65855    0.000
 5852.00    0.60638   0.65864    0.000
 5853.00    0.62785   0.65856    0.000
 5854.00    0.64658   0.65219    0.000
 5855.00    0.65708   0.64374    0.000
 5856.00    0.64580   0.64274    0.000
 5857.00    0.57897   0.65082    0.000
 5858.00    0.53679   0.66065    0.000
 5859.00    0.54873   0.66564    0.000
 5860.00    0.56570   0.66595    0.000
 5861.00    0.59229   0.66617    0.000
 5862.00    0.63173   0.66748    0.000
 5863.00    0.69253   0.66661    0.000
 5864.00    0.71551   0.66379    0.000
 5865.00    0.68340   0.66444    0.000
 5866.00    0.64624   0.67073    0.000
 5867.00    0.60263   0.67805    0.000
 5868.00    0.59718   0.68130    0.000
 5869.00    0.63481   0.67929    0.000
 5870.00    0.64601   0.67390    0.000
 5871.00    0.63090   0.66739    0.000
 5872.00    0.64254   0.66109    0.000
 5873.00    0.67768   0.65637    0.000
 5874.00    0.69139   0.65496    0.000
 5875.00    0.68854   0.65645    0.000
 5876.00    0.71588   0.65690    0.000
 5877.00    0.76375   0.65388    0.000
 5878.00    0.76892   0.65126    0.000
 5879.00    0.74864   0.65255    0.000
 5880.00    0.70931   0.65495    0.000
 5881.00    0.66009   0.65442    0.000
 5882.00    0.64623   0.65226    0.000
 5883.00    0.64831   0.64978    0.000
 5884.00    0.66098   0.64054    0.000
 5885.00    0.67775   0.61349    0.000
 5886.00    0.65697   0.56658    0.000
 5887.00    0.62381   0.51942    0.000
 5888.00    0.56183   0.50259    0.000
 5889.00    0.49188   0.52383    0.000
 5890.00    0.50373   0.55740    0.000
 5891.00    0.53418   0.57328    0.000
 5892.00    0.53287   0.56205    0.000
 5893.00    0.52579   0.53932    0.000
 5894.00    0.53194   0.53442    0.000
 5895.00    0.53994   0.55861    0.000
 5896.00    0.55142   0.59318    0.000
 5897.00    0.56325   0.61919    0.000
 5898.00    0.56895   0.63530    0.000
 5899.00    0.57426   0.64542    0.000
 5900.00    0.58143   0.65103    0.000
 5901.00    0.58872   0.65340    0.012
 5902.00    0.61908   0.65336    0.012
 5903.00    0.64825   0.65212    0.012
 5904.00    0.64364   0.65249    0.012
 5905.00    0.63691   0.65553    0.012
 5906.00    0.59994   0.65898    0.012
 5907.00    0.56829   0.66113    0.012
 5908.00    0.58629   0.66263    0.012
 5909.00    0.60310   0.66290    0.012
 5910.00    0.61187   0.65882    0.012
 5911.00    0.62255   0.65003    0.012
 5912.00    0.64333   0.64164    0.012
 5913.00    0.66318   0.63896    0.012
 5914.00    0.67906   0.64232    0.012
 5915.00    0.67532   0.64866    0.012
 5916.00    0.60301   0.65461    0.012
 5917.00    0.55004   0.65851    0.012
 5918.00    0.55393   0.65978    0.012
 5919.00    0.56919   0.65836    0.012
 5920.00    0.61294   0.65665    0.012
 5921.00    0.65575   0.65748    0.012
 5922.00    0.69653   0.66050    0.012
 5923.00    0.71110   0.66341    0.012
 5924.00    0.67650   0.66404    0.012
 5925.00    0.65831   0.66085    0.012
 5926.00    0.66695   0.65465    0.012
 5927.00    0.67434   0.64936    0.012
 5928.00    0.67993   0.64966    0.012
 5929.00    0.68213   0.65552    0.012
 5930.00    0.68007   0.66004    0.012
 5931.00    0.66476   0.65782    0.012
 5932.00    0.63472   0.65248    0.012
 5933.00    0.59164   0.65141    0.012
 5934.00    0.53577   0.65600    0.012
 5935.00    0.52381   0.66168    0.012
 5936.00    0.54987   0.66475    0.012
 5937.00    0.57863   0.66334    0.012
 5938.00    0.60947   0.65731    0.012
 5939.00    0.62252   0.65114    0.012
 5940.00    0.62366   0.65036    0.012
 5941.00    0.65424   0.65513    0.012
 5942.00    0.70209   0.66181    0.012
 5943.00    0.73077   0.66675    0.012
 5944.00    0.74964   0.66681    0.012
 5945.00    0.72451   0.66105    0.012
 5946.00    0.67987   0.65345    0.011
 5947.00    0.65791   0.65038    0.011
 5948.00    0.64459   0.65242    0.012
 5949.00    0.65472   0.65330    0.012
 5950.00    0.67245   0.65034    0.012
 5951.00    0.64994   0.64866    0.012
 5952.00    0.61654   0.65068    0.012
 5953.00    0.62942   0.65123    0.012
 5954.00    0.65258   0.64774    0.012
 5955.00    0.65312   0.64519    0.012
 5956.00    0.64965   0.64824    0.012
 5957.00    0.64378   0.65570    0.012
 5958.00    0.63759   0.66344    0.012
 5959.00    0.67217   0.66836    0.012
 5960.00    0.71066   0.66974    0.012
 5961.00    0.71979   0.66822    0.012
 5962.00    0.72718   0.66472    0.012
 5963.00    0.69643   0.66111    0.012
 5964.00    0.66500   0.66060    0.012
 5965.00    0.67774   0.66406    0.012
 5966.00    0.68961   0.66859    0.012
 5967.00    0.67912   0.67211    0.012
 5968.00    0.66886   0.67447    0.012
 5969.00    0.66176   0.67537    0.012
 5970.00    0.65772   0.67437    0.011
 5971.00    0.68113   0.67107    0.012
 5972.00    0.70142   0.66472    0.012
 5973.00    0.70122   0.65597    0.012
 5974.00    0.70738   0.64810    0.011
 5975.00    0.74609   0.64465    0.011
 5976.00    0.77261   0.64684    0.011
 5977.00    0.74871   0.65312    0.011
 5978.00    0.72084   0.65918    0.011
 5979.00    0.67940   0.65976    0.011
 5980.00    0.64432   0.65281    0.011
 5981.00    0.62760   0.64233    0.011
 5982.00    0.61767   0.63634    0.011
 5983.00    0.62447   0.63927    0.011
 5984.00    0.63570   0.64684    0.011
 5985.00    0.65637   0.65311    0.011
 5986.00    0.67859   0.65723    0.011
 5987.00    0.70367   0.65953    0.012
 5988.00    0.71864   0.65909    0.012
 5989.00    0.71731   0.65775    0.012
 5990.00    0.73147   0.65972    0.012
 5991.00    0.76752   0.66494    0.012
 5992.00    0.78280   0.66808    0.012
 5993.00    0.77220   0.66534    0.012
 5994.00    0.76355   0.65813    0.012
 5995.00    0.75702   0.65123    0.012
 5996.00    0.73185   0.64891    0.012
 5997.00    0.68864   0.65131    0.012
 5998.00    0.65564   0.65437    0.012
 5999.00    0.63138   0.65407    0.012
 6000.00    0.65133   0.65105    0.012
 6001.00    0.70451   0.64977    0.011
 6002.00    0.71871   0.65094    0.011
 6003.00    0.70715   0.64955    0.012
 6004.00    0.69712   0.64289    0.011
 6005.00    0.68798   0.63540    0.011
 6006.00    0.67659   0.63474    0.011
 6007.00    0.66407   0.64324    0.011
 6008.00    0.62848   0.65293    0.011
 6009.00    0.58283   0.65453    0.011
 6010.00    0.57993   0.64870    0.011
 6011.00    0.59302   0.64343    0.011
 6012.00    0.61428   0.64293    0.011
 6013.00    0.63814   0.64391    0.012
 6014.00    0.62166   0.64329    0.012
 6015.00    0.59449   0.64257    0.012
 6016.00    0.59033   0.64212    0.012
 6017.00    0.59117   0.64009    0.012
 6018.00    0.59782   0.63776    0.012
 6019.00    0.60548   0.63814    0.011
 6020.00    0.63270   0.64107    0.012
 6021.00    0.66247   0.64479    0.012
 6022.00    0.65855   0.64893    0.012
 6023.00    0.65153   0.65319    0.012
 6024.00    0.65245   0.65621    0.012
 6025.00    0.65382   0.65871    0.011
 6026.00    0.64769   0.66214    0.011
 6027.00    0.64138   0.66493    0.011
 6028.00    0.63362   0.66564    0.011
 6029.00    0.62860   0.66608    0.011
 6030.00    0.68712   0.66791    0.012
 6031.00    0.73956   0.66995    0.012
 6032.00    0.71446   0.67070    0.011
 6033.00    0.69154   0.67057    0.011
 6034.00    0.68732   0.67042    0.011
 6035.00    0.68269   0.66994    0.011
 6036.00    0.67534   0.66822    0.011
 6037.00    0.67050   0.66540    0.011
 6038.00    0.67819   0.66309    0.011
 6039.00    0.68578   0.66289    0.011
 6040.00    0.69303   0.66530    0.011
 6041.00    0.69467   0.66951    0.011
 6042.00    0.67751   0.67339    0.011
 6043.00    0.66534   0.67557    0.011
 6044.00    0.66733   0.67625    0.011
 6045.00    0.68293   0.67564    0.011
 6046.00    0.73148   0.67443    0.011
 6047.00    0.75953   0.67416    0.011
 6048.00    0.74473   0.67473    0.011
 6049.00    0.73470   0.67355    0.011
 6050.00    0.73336   0.66954    0.011
 6051.00    0.72933   0.66460    0.011
 6052.00    0.72102   0.66036    0.012
 6053.00    0.70146   0.65683    0.012
 6054.00    0.66619   0.65467    0.011
 6055.00    0.64618   0.65571    0.011
 6056.00    0.64489   0.66000    0.011
 6057.00    0.66696   0.66497    0.012
 6058.00    0.71432   0.66729    0.012
 6059.00    0.75005   0.66517    0.012
 6060.00    0.77467   0.65891    0.012
 6061.00    0.77252   0.65007    0.012
 6062.00    0.74783   0.64196    0.011
 6063.00    0.69654   0.64056    0.011
 6064.00    0.62555   0.64953    0.011
 6065.00    0.59472   0.66343    0.011
 6066.00    0.59001   0.67343    0.011
 6067.00    0.60083   0.67727    0.011
 6068.00    0.62049   0.67812    0.011
 6069.00    0.62916   0.67875    0.011
 6070.00    0.63237   0.67947    0.011
 6071.00    0.64367   0.67951    0.011
 6072.00    0.65843   0.67816    0.011
 6073.00    0.66475   0.67479    0.011
 6074.00    0.66797   0.66902    0.011
 6075.00    0.70110   0.66158    0.011
 6076.00    0.74353   0.65508    0.011
 6077.00    0.75644   0.65188    0.011
 6078.00    0.76169   0.65018    0.011
 6079.00    0.72957   0.64735    0.011
 6080.00    0.68955   0.64552    0.011
 6081.00    0.70789   0.64693    0.011
 6082.00    0.73599   0.64915    0.011
 6083.00    0.71037   0.65032    0.011
 6084.00    0.67797   0.65210    0.011
 6085.00    0.64057   0.65442    0.011
 6086.00    0.60272   0.65382    0.011
 6087.00    0.62176   0.64887    0.011
 6088.00    0.64375   0.64355    0.011
 6089.00    0.66351   0.64206    0.011
 6090.00    0.68301   0.64432    0.011
 6091.00    0.68715   0.64905    0.011
 6092.00    0.69182   0.65525    0.011
 6093.00    0.70793   0.65961    0.011
 6094.00    0.72379   0.65982    0.011
 6095.00    0.73678   0.65877    0.011
 6096.00    0.75171   0.65996    0.011
 6097.00    0.78268   0.66096    0.011
 6098.00    0.80114   0.65465    0.011
 6099.00    0.74209   0.63836    0.011
 6100.00    0.69270   0.62214    0.011
 6101.00    0.69046   0.62068    0.011
 6102.00    0.69738   0.63420    0.011
 6103.00    0.74060   0.64856    0.011
 6104.00    0.77661   0.65442    0.011
 6105.00    0.78890   0.65458    0.011
 6106.00    0.78506   0.65547    0.011
 6107.00    0.73631   0.65785    0.011
 6108.00    0.69454   0.65797    0.011
 6109.00    0.66940   0.65645    0.011
 6110.00    0.66918   0.65811    0.011
 6111.00    0.72020   0.66295    0.011
 6112.00    0.75953   0.66546    0.011
 6113.00    0.77794   0.66273    0.011
 6114.00    0.78292   0.65833    0.011
 6115.00    0.76688   0.65593    0.011
 6116.00    0.76005   0.65281    0.011
 6117.00    0.76588   0.64427    0.011
 6118.00    0.75552   0.63116    0.011
 6119.00    0.72559   0.62012    0.011
 6120.00    0.70679   0.61957    0.011
 6121.00    0.69985   0.63100    0.011
 6122.00    0.67249   0.64417    0.011
 6123.00    0.62591   0.64914    0.011
 6124.00    0.59919   0.64670    0.011
 6125.00    0.58893   0.64294    0.011
 6126.00    0.58545   0.64256    0.011
 6127.00    0.58690   0.64721    0.011
 6128.00    0.60243   0.65447    0.011
 6129.00    0.62698   0.65992    0.011
 6130.00    0.65415   0.66059    0.011
 6131.00    0.68279   0.65429    0.011
 6132.00    0.67732   0.63871    0.011
 6133.00    0.65522   0.61548    0.011
 6134.00    0.64051   0.59485    0.011
 6135.00    0.62892   0.59158    0.011
 6136.00    0.62163   0.60909    0.011
 6137.00    0.61589   0.63159    0.011
 6138.00    0.64053   0.64184    0.011
 6139.00    0.67445   0.64101    0.011
 6140.00    0.71135   0.64233    0.011
 6141.00    0.74901   0.65088    0.011
 6142.00    0.73569   0.65969    0.011
 6143.00    0.71184   0.66235    0.011
 6144.00    0.71155   0.65897    0.011
 6145.00    0.71509   0.65205    0.011
 6146.00    0.74048   0.64393    0.011
 6147.00    0.76852   0.63779    0.011
 6148.00    0.72950   0.63673    0.011
 6149.00    0.68488   0.64067    0.011
 6150.00    0.66661   0.64514    0.011
 6151.00    0.64960   0.64514    0.011
 6152.00    0.67749   0.64095    0.011
 6153.00    0.70531   0.63739    0.011
 6154.00    0.69128   0.63637    0.011
 6155.00    0.67604   0.63525    0.011
 6156.00    0.63720   0.63043    0.011
 6157.00    0.60070   0.61778    0.011
 6158.00    0.59119   0.59577    0.011
 6159.00    0.58432   0.57267    0.011
 6160.00    0.59860   0.56267    0.011
 6161.00    0.61174   0.57087    0.011
 6162.00    0.61796   0.58856    0.011
 6163.00    0.61519   0.60429    0.011
 6164.00    0.56972   0.61279    0.011
 6165.00    0.53657   0.61223    0.011
 6166.00    0.55120   0.60268    0.011
 6167.00    0.57741   0.59259    0.011
 6168.00    0.64099   0.59389    0.011
 6169.00    0.68213   0.60588    0.011
 6170.00    0.66196   0.61703    0.011
 6171.00    0.63747   0.62165    0.011
 6172.00    0.60290   0.62265    0.011
 6173.00    0.58257   0.62257    0.011
 6174.00    0.59107   0.62254    0.011
 6175.00    0.60046   0.62442    0.011
 6176.00    0.61142   0.62779    0.011
 6177.00    0.62098   0.63004    0.011
 6178.00    0.62838   0.63153    0.011
 6179.00    0.63485   0.63414    0.011
 6180.00    0.64005   0.63659    0.011
 6181.00    0.64959   0.63673    0.011
 6182.00    0.66432   0.63389    0.011
 6183.00    0.65671   0.62777    0.011
 6184.00    0.62562   0.61979    0.011
 6185.00    0.58651   0.61327    0.011
 6186.00    0.53996   0.60883    0.011
 6187.00    0.53790   0.60274    0.011
 6188.00    0.57222   0.59329    0.011
 6189.00    0.63004   0.58760    0.011
 6190.00    0.70477   0.59397    0.011
 6191.00    0.74981   0.60871    0.011
 6192.00    0.77610   0.62163    0.011
 6193.00    0.75755   0.62896    0.011
 6194.00    0.71425   0.63185    0.011
 6195.00    0.59238   0.62948    0.012
 6196.00    0.43277   0.62120   -2.000
 6197.00   -0.10274   0.61241   -2.000
 6198.00   -0.79406   0.61126   -2.000
 6199.00   -1.13149   0.61877   -2.000
 6200.00   -1.34348   0.62791   -2.000
 6201.00   -0.63970   0.63267   -2.000
 6202.00    0.33815   0.63336   -2.000
 6203.00    1.12471   0.63324   -2.000
 6204.00    1.86375   0.63368   -2.000
 6205.00    1.85514   0.63389   -2.000
 6206.00    1.69597   0.63289   -2.000
 6207.00    1.32672   0.63007   -2.000
 6208.00    0.92432   0.62519    0.012
 6209.00    0.82133   0.61776    0.012
 6210.00    0.75342   0.60674    0.011
 6211.00    0.73350   0.59403    0.011
 6212.00    0.71738   0.58523    0.011
 6213.00    0.68589   0.58441    0.011
 6214.00    0.65373   0.59022    0.011
 6215.00    0.65739   0.59658    0.011
 6216.00    0.66202   0.59757    0.011
 6217.00    0.69369   0.59413    0.011
 6218.00    0.72284   0.59265    0.010
 6219.00    0.70581   0.59614    0.011
 6220.00    0.68831   0.60126    0.011
 6221.00    0.66577   0.60397    0.011
 6222.00    0.64695   0.60497    0.011
 6223.00    0.65683   0.60683    0.011
 6224.00    0.66802   0.60881    0.011
 6225.00    0.68681   0.60748    0.011
 6226.00    0.70162   0.59961    0.011
 6227.00    0.69795   0.58582    0.011
 6228.00    0.69434   0.57373    0.011
 6229.00    0.69097   0.57211    0.011
 6230.00    0.69339   0.58175    0.011
 6231.00    0.71412   0.59707    0.011
 6232.00    0.73756   0.61156    0.011
 6233.00    0.76827   0.61944    0.011
 6234.00    0.77932   0.61835    0.011
 6235.00    0.74509   0.61056    0.011
 6236.00    0.71621   0.60029    0.011
 6237.00    0.69798   0.59177    0.011
 6238.00    0.68933   0.58784    0.011
 6239.00    0.69730   0.58638    0.011
 6240.00    0.70644   0.58310    0.011
 6241.00    0.71736   0.57957    0.011
 6242.00    0.73056   0.57979    0.011
 6243.00    0.74680   0.58374    0.011
 6244.00    0.72658   0.59092    0.011
 6245.00    0.66347   0.60075    0.011
 6246.00    0.62668   0.60892    0.011
 6247.00    0.61718   0.61066    0.011
 6248.00    0.60966   0.60479    0.011
 6249.00    0.60396   0.59372    0.010
 6250.00    0.59264   0.58330    0.011
 6251.00    0.57681   0.57855    0.011
 6252.00    0.57028   0.57813    0.011
 6253.00    0.57035   0.57636    0.011
 6254.00    0.56699   0.57057    0.011
 6255.00    0.56149   0.56446    0.011
 6256.00    0.57577   0.56470    0.011
 6257.00    0.60082   0.57376    0.011
 6258.00    0.56878   0.58701    0.011
 6259.00    0.50976   0.59946    0.012
 6260.00    0.33523   0.60888    0.012
 6261.00    0.11362   0.61216    0.013
 6262.00    0.11431   0.60850    0.014
 6263.00    0.19237   0.60397    0.014
 6264.00    0.43845   0.60407    0.014
 6265.00    0.73381   0.60632    0.014
 6266.00    0.93327   0.60642    0.013
 6267.00    1.10942   0.60531    0.013
 6268.00    1.05921   0.60618    0.012
 6269.00    0.96455   0.60950    0.011
 6270.00    0.84124   0.61291    0.011
 6271.00    0.71353   0.61419    0.011
 6272.00    0.65502   0.61377    0.011
 6273.00    0.60432   0.61355    0.011
 6274.00    0.58143   0.61382    0.011
 6275.00    0.56064   0.61312    0.011
 6276.00    0.59186   0.60978    0.010
 6277.00    0.62517   0.60398    0.010
 6278.00    0.64200   0.59945    0.010
 6279.00    0.65872   0.60015    0.011
 6280.00    0.67578   0.60557    0.000
 6281.00    0.69092   0.61167    0.000
 6282.00    0.67320   0.61532    0.000
 6283.00    0.65644   0.61752    0.000
 6284.00    0.64972   0.62114    0.000
 6285.00    0.64474   0.62612    0.000
 6286.00    0.65267   0.62934    0.000
 6287.00    0.66286   0.62793    0.000
 6288.00    0.68582   0.62240    0.000
 6289.00    0.70947   0.61632    0.000
 6290.00    0.73627   0.61294    0.000
 6291.00    0.75736   0.61270    0.000
 6292.00    0.75729   0.61229    0.000
 6293.00    0.74965   0.60779    0.000
 6294.00    0.71851   0.60087    0.000
 6295.00    0.69505   0.59747    0.000
 6296.00    0.69183   0.59941    0.000
 6297.00    0.68750   0.60167    0.000
 6298.00    0.68065   0.59959    0.000
 6299.00    0.67431   0.59571    0.000
 6300.00    0.66899   0.59585    0.000
 6301.00    0.67106   0.60061    0.000
 6302.00    0.68578   0.60591    0.000
 6303.00    0.69463   0.61061    0.000
 6304.00    0.69470   0.61692    0.000
 6305.00    0.68915   0.62381    0.000
 6306.00    0.67621   0.62665    0.000
 6307.00    0.67125   0.62320    0.000
 6308.00    0.67556   0.61635    0.000
 6309.00    0.68560   0.61092    0.000
 6310.00    0.70149   0.60857    0.000
 6311.00    0.70688   0.60627    0.000
 6312.00    0.70280   0.60198    0.000
 6313.00    0.68032   0.59800    0.000
 6314.00    0.64321   0.59504    0.000
 6315.00    0.62480   0.59141    0.000
 6316.00    0.61947   0.58997    0.000
 6317.00    0.64130   0.59458    0.000
 6318.00    0.67980   0.60236    0.000
 6319.00    0.67819   0.60813    0.000
 6320.00    0.65510   0.61186    0.000
 6321.00    0.63191   0.61604    0.011
 6322.00    0.60868   0.62015    0.011
 6323.00    0.60470   0.62221    0.011
 6324.00    0.60844   0.62230    0.010
 6325.00    0.58998   0.62243    0.010
 6326.00    0.56395   0.62317    0.010
 6327.00    0.57148   0.62284    0.010
 6328.00    0.58866   0.62210    0.010
 6329.00    0.62085   0.62331    0.010
 6330.00    0.65659   0.62479    0.010
 6331.00    0.66305   0.62092    0.010
 6332.00    0.66391   0.60967    0.010
 6333.00    0.67793   0.59783    0.011
 6334.00    0.69391   0.59428    0.011
 6335.00    0.72604   0.59940    0.011
 6336.00    0.75991   0.60711    0.011
 6337.00    0.76623   0.61385    0.011
 6338.00    0.77058   0.61836    0.011
 6339.00    0.73593   0.61793    0.011
 6340.00    0.69986   0.61161    0.011
 6341.00    0.68560   0.60378    0.011
 6342.00    0.67131   0.60056    0.011
 6343.00    0.65312   0.60306    0.011
 6344.00    0.63434   0.60807    0.011
 6345.00    0.60600   0.61347    0.011
 6346.00    0.57938   0.61861    0.011
 6347.00    0.57009   0.62235    0.011
 6348.00    0.56401   0.62415    0.011
 6349.00    0.58111   0.62402    0.011
 6350.00    0.59893   0.62085    0.011
 6351.00    0.62073   0.61413    0.011
 6352.00    0.63179   0.60703    0.010
 6353.00    0.59543   0.60338    0.010
 6354.00    0.56350   0.60137    0.010
 6355.00    0.54774   0.59621    0.010
 6356.00    0.54839   0.58845    0.010
 6357.00    0.59908   0.58259    0.010
 6358.00    0.65181   0.57943    0.011
 6359.00    0.70984   0.57736    0.011
 6360.00    0.74619   0.57750    0.011
 6361.00    0.73424   0.58187    0.011
 6362.00    0.71731   0.58958    0.011
 6363.00    0.69076   0.59821    0.011
 6364.00    0.66915   0.60656    0.011
 6365.00    0.65585   0.61376    0.011
 6366.00    0.64412   0.61761    0.011
 6367.00    0.63472   0.61740    0.011
 6368.00    0.63874   0.61685    0.011
 6369.00    0.66016   0.61992    0.011
 6370.00    0.66809   0.62545    0.011
 6371.00    0.66061   0.62922    0.011
 6372.00    0.65000   0.62980    0.011
 6373.00    0.63622   0.62898    0.011
 6374.00    0.62367   0.62719    0.011
 6375.00    0.61219   0.62316    0.011
 6376.00    0.62171   0.61797    0.011
 6377.00    0.64768   0.61464    0.011
 6378.00    0.66559   0.61452    0.010
 6379.00    0.67795   0.61672    0.010
 6380.00    0.68660   0.61888    0.010
 6381.00    0.69301   0.61918    0.010
 6382.00    0.69487   0.61895    0.010
 6383.00    0.69434   0.62059    0.010
 6384.00    0.68836   0.62355    0.010
 6385.00    0.67989   0.62561    0.011
 6386.00    0.68078   0.62639    0.011
 6387.00    0.68535   0.62621    0.011
 6388.00    0.68514   0.62302    0.011
 6389.00    0.68331   0.61414    0.011
 6390.00    0.66853   0.60223    0.011
 6391.00    0.65011   0.59632    0.011
 6392.00    0.62246   0.60200    0.011
 6393.00    0.59266   0.61422    0.011
 6394.00    0.55695   0.62327    0.011
 6395.00    0.52014   0.62258    0.011
 6396.00    0.58268   0.61153    0.011
 6397.00    0.65949   0.59822    0.011
 6398.00    0.69730   0.59567    0.011
 6399.00    0.73106   0.60684    0.011
 6400.00    0.76518   0.62146    0.011
 6401.00    0.79933   0.63005    0.011
 6402.00    0.74358   0.63101    0.011
 6403.00    0.68490   0.62638    0.011
 6404.00    0.68543   0.61868    0.011
 6405.00    0.68580   0.61235    0.011
 6406.00    0.68109   0.61161    0.010
 6407.00    0.67655   0.61384    0.010
 6408.00    0.67445   0.61299    0.010
 6409.00    0.67089   0.60980    0.010
 6410.00    0.65323   0.60915    0.010
 6411.00    0.64141   0.61178    0.010
 6412.00    0.67038   0.61558    0.010
 6413.00    0.70152   0.61917    0.011
 6414.00    0.74436   0.62082    0.011
 6415.00    0.76928   0.61845    0.011
 6416.00    0.71679   0.61139    0.011
 6417.00    0.65995   0.60217    0.011
 6418.00    0.58763   0.59701    0.011
 6419.00    0.53241   0.60138    0.011
 6420.00    0.52836   0.61301    0.011
 6421.00    0.54603   0.62326    0.011
 6422.00    0.61899   0.62761    0.011
 6423.00    0.66681   0.62918    0.011
 6424.00    0.65956   0.63119    0.011
 6425.00    0.65236   0.63145    0.011
 6426.00    0.64528   0.62547    0.011
 6427.00    0.63101   0.61313    0.011
 6428.00    0.60482   0.60162    0.011
 6429.00    0.59376   0.59948    0.011
 6430.00    0.60472   0.60701    0.011
 6431.00    0.64128   0.61731    0.011
 6432.00    0.71057   0.62445    0.011
 6433.00    0.74343   0.62636    0.011
 6434.00    0.73525   0.62215    0.011
 6435.00    0.70609   0.61252    0.011
 6436.00    0.65608   0.60397    0.011
 6437.00    0.61539   0.60524    0.011
 6438.00    0.58288   0.61636    0.011
 6439.00    0.59447   0.62851    0.011
 6440.00    0.64012   0.63516    0.011
 6441.00    0.68070   0.63705    0.011
 6442.00    0.71785   0.63777    0.011
 6443.00    0.72182   0.63832    0.011
 6444.00    0.70607   0.63526    0.011
 6445.00    0.70683   0.62331    0.011
 6446.00    0.71616   0.60281    0.011
 6447.00    0.70162   0.58481    0.011
 6448.00    0.67634   0.58216    0.011
 6449.00    0.65619   0.59474    0.011
 6450.00    0.63802   0.61054    0.011
 6451.00    0.63587   0.61853    0.011
 6452.00    0.63899   0.61681    0.011
 6453.00    0.64457   0.61251    0.011
 6454.00    0.65083   0.61402    0.011
 6455.00    0.66497   0.62230    0.011
 6456.00    0.68091   0.63118    0.011
 6457.00    0.67170   0.63372    0.011
 6458.00    0.65794   0.62611    0.011
 6459.00    0.61462   0.61094    0.011
 6460.00    0.56719   0.59882    0.011
 6461.00    0.53559   0.59912    0.010
 6462.00    0.50557   0.60949    0.010
 6463.00    0.52570   0.62098    0.011
 6464.00    0.54899   0.62830    0.011
 6465.00    0.60719   0.63059    0.011
 6466.00    0.66626   0.62834    0.011
 6467.00    0.68666   0.62322    0.011
 6468.00    0.70631   0.61827    0.011
 6469.00    0.70482   0.61675    0.011
 6470.00    0.70176   0.61888    0.011
 6471.00    0.67652   0.62074    0.011
 6472.00    0.65310   0.62002    0.012
 6473.00    0.64658   0.61951    0.012
 6474.00    0.64906   0.62152    0.012
 6475.00    0.71252   0.62389    0.011
 6476.00    0.76791   0.62374    0.011
 6477.00    0.78096   0.61974    0.011
 6478.00    0.77997   0.61135    0.011
 6479.00    0.71969   0.60124    0.011
 6480.00    0.67287   0.59572    0.011
 6481.00    0.67302   0.59831    0.011
 6482.00    0.68168   0.60582    0.011
 6483.00    0.71530   0.61299    0.011
 6484.00    0.73602   0.61750    0.011
 6485.00    0.72447   0.61913    0.011
 6486.00    0.69584   0.61737    0.011
 6487.00    0.63043   0.61227    0.011
 6488.00    0.60277   0.60523    0.011
 6489.00    0.64575   0.59578    0.011
 6490.00    0.68395   0.58053    0.011
 6491.00    0.71434   0.55974    0.011
 6492.00    0.71894   0.54193    0.011
 6493.00    0.68661   0.53603    0.011
 6494.00    0.65559   0.54205    0.011
 6495.00    0.62625   0.55337    0.011
 6496.00    0.60528   0.56459    0.011
 6497.00    0.59361   0.57528    0.011
 6498.00    0.59869   0.58623    0.011
 6499.00    0.62019   0.59605    0.011
 6500.00    0.64496   0.60322    0.011
 6501.00    0.67256   0.60817    0.011
 6502.00    0.67422   0.61197    0.011
 6503.00    0.65614   0.61443    0.011
 6504.00    0.63712   0.61421    0.011
 6505.00    0.61749   0.61143    0.011
 6506.00    0.61859   0.60908    0.011
 6507.00    0.63184   0.60989    0.011
 6508.00    0.66443   0.61292    0.011
 6509.00    0.70688   0.61529    0.011
 6510.00    0.74296   0.61562    0.011
 6511.00    0.77621   0.61378    0.011
 6512.00    0.76442   0.60978    0.011
 6513.00    0.73553   0.60470    0.011
 6514.00    0.67663   0.60017    0.011
 6515.00    0.60805   0.59734    0.011
 6516.00    0.61145   0.59776    0.011
 6517.00    0.63429   0.60248    0.011
 6518.00    0.66158   0.60922    0.011
 6519.00    0.68985   0.61414    0.011
 6520.00    0.71273   0.61616    0.011
 6521.00    0.73467   0.61668    0.011
 6522.00    0.73862   0.61584    0.011
 6523.00    0.74016   0.61243    0.011
 6524.00    0.69258   0.60786    0.011
 6525.00    0.64032   0.60602    0.011
 6526.00    0.67530   0.60812    0.011
 6527.00    0.71545   0.61085    0.011
 6528.00    0.72369   0.61029    0.000
 6529.00    0.73106   0.60635    0.000
 6530.00    0.72603   0.60296    0.000
 6531.00    0.72071   0.60400    0.000
 6532.00    0.70789   0.60886    0.000
 6533.00    0.69536   0.61313    0.000
 6534.00    0.68662   0.61412    0.000
 6535.00    0.68239   0.61396    0.000
 6536.00    0.71836   0.61562    0.000
 6537.00    0.74594   0.61801    0.000
 6538.00    0.71848   0.61755    0.000
 6539.00    0.69263   0.61317    0.000
 6540.00    0.67497   0.60678    0.000
 6541.00    0.65664   0.59986    0.000
 6542.00    0.63552   0.59209    0.000
 6543.00    0.62892   0.58462    0.000
 6544.00    0.67195   0.58151    0.000
 6545.00    0.71125   0.58450    0.000
 6546.00    0.73982   0.58961    0.000
 6547.00    0.76580   0.59144    0.000
 6548.00    0.78542   0.58859    0.000
 6549.00    0.78623   0.58321    0.000
 6550.00    0.74717   0.57677    0.000
 6551.00    0.70897   0.56907    0.000
 6552.00    0.67236   0.56116    0.000
 6553.00    0.65422   0.55589    0.000
 6554.00    0.66584   0.55429    0.000
 6555.00    0.66977   0.55338    0.000
 6556.00    0.66283   0.54809    0.000
 6557.00    0.65902   0.53249    0.000
 6558.00    0.65912   0.50097    0.000
 6559.00    0.70012   0.45832    0.000
 6560.00    0.78593   0.42828    0.000
 6561.00    0.86809   0.43474    0.000
 6562.00    0.94673   0.47330    0.000
 6563.00    0.99480   0.51733    0.000
 6564.00    1.01685   0.54734    0.000
 6565.00    1.00014   0.56079    0.000
 6566.00    0.95436   0.56389    0.000
 6567.00    0.89830   0.56405    0.000
 6568.00    0.83545   0.56480    0.000
 6569.00    0.76100   0.56454    0.000
 6570.00    0.67984   0.56181    0.000
 6571.00    0.64529   0.55922    0.000
 6572.00    0.63419   0.56115    0.000
 6573.00    0.59284   0.56925    0.000
 6574.00    0.53833   0.58039    0.000
 6575.00    0.52224   0.58920    0.000
 6576.00    0.52050   0.59217    0.000
 6577.00    0.57324   0.58978    0.000
 6578.00    0.64324   0.58594    0.000
 6579.00    0.68370   0.58510    0.000
 6580.00    0.71636   0.58822    0.000
 6581.00    0.75286   0.59239    0.000
 6582.00    0.79019   0.59472    0.000
 6583.00    0.83809   0.59556    0.000
 6584.00    0.88781   0.59751    0.000
 6585.00    0.92823   0.60133    0.000
 6586.00    0.96744   0.60467    0.000
 6587.00    0.91276   0.60422    0.000
 6588.00    0.84950   0.59721    0.000
 6589.00    0.76660   0.58362    0.000
 6590.00    0.68262   0.56984    0.000
 6591.00    0.66436   0.56527    0.000
 6592.00    0.64779   0.57201    0.000
 6593.00    0.65905   0.58238    0.000
 6594.00    0.66969   0.58829    0.000
 6595.00    0.66633   0.58912    0.000
 6596.00    0.66353   0.58978    0.000
 6597.00    0.66784   0.59395    0.000
 6598.00    0.67144   0.60015    0.000
 6599.00    0.66897   0.60417    0.000
 6600.00    0.66651   0.60372    0.000
 6601.00    0.66415   0.59969    0.000
 6602.00    0.66480   0.59439    0.000
 6603.00    0.68049   0.58948    0.000
 6604.00    0.68394   0.58488    0.000
 6605.00    0.63798   0.58004    0.000
 6606.00    0.59481   0.57707    0.000
 6607.00    0.56100   0.57988    0.000
 6608.00    0.54714   0.58818    0.000
 6609.00    0.58969   0.59601    0.011
 6610.00    0.60834   0.59892    0.011
 6611.00    0.56922   0.59915    0.011
 6612.00    0.54053   0.60072    0.011
 6613.00    0.53359   0.60327    0.012
 6614.00    0.53854   0.60423    0.012
 6615.00    0.56504   0.60381    0.012
 6616.00    0.59128   0.60412    0.012
 6617.00    0.61712   0.60564    0.012
 6618.00    0.62301   0.60653    0.012
 6619.00    0.60116   0.60442    0.012
 6620.00    0.60586   0.59828    0.012
 6621.00    0.64307   0.59010    0.012
 6622.00    0.65182   0.58455    0.012
 6623.00    0.62984   0.58478    0.012
 6624.00    0.63237   0.58873    0.012
 6625.00    0.65825   0.59192    0.012
 6626.00    0.69328   0.59228    0.012
 6627.00    0.73599   0.59041    0.011
 6628.00    0.74889   0.58696    0.011
 6629.00    0.73975   0.58173    0.012
 6630.00    0.69921   0.57568    0.011
 6631.00    0.63827   0.57234    0.011
 6632.00    0.63495   0.57484    0.011
 6633.00    0.66439   0.58193    0.011
 6634.00    0.64683   0.58893    0.011
 6635.00    0.60600   0.59218    0.011
 6636.00    0.55566   0.59172    0.011
 6637.00    0.50125   0.59047    0.012
 6638.00    0.51679   0.59014    0.012
 6639.00    0.55799   0.58872    0.012
 6640.00    0.59403   0.58464    0.012
 6641.00    0.62847   0.58124    0.012
 6642.00    0.66869   0.58218    0.012
 6643.00    0.71041   0.58576    0.012
 6644.00    0.68536   0.58817    0.012
 6645.00    0.64623   0.58896    0.012
 6646.00    0.67872   0.58963    0.012
 6647.00    0.72315   0.58996    0.012
 6648.00    0.74464   0.58893    0.012
 6649.00    0.76325   0.58707    0.012
 6650.00    0.68948   0.58594    0.023
 6651.00    0.60765   0.58613    0.488
 6652.00    0.68590   0.58686   -1.000
 6653.00    0.77235   0.58713   -1.000
 6654.00    0.77156   0.58693   -1.000
 6655.00    0.76880   0.58678   -1.000
 6656.00    0.73593   0.58621   -1.000
 6657.00    0.70403   0.58422   -1.000
 6658.00    0.69251   0.58039   -1.000
 6659.00    0.68409   0.57486   -1.000
 6660.00    0.71315   0.56917   -1.000
 6661.00    0.73102   0.56644   -1.000
 6662.00    0.65642   0.56789   -1.000
 6663.00    0.58430   0.57095    0.172
 6664.00    0.52751   0.57323    0.021
 6665.00    0.50149   0.57568    0.012
 6666.00    0.62492   0.57993    0.012
 6667.00    0.70551   0.58522    0.012
 6668.00    0.61697   0.58919    0.012
 6669.00    0.54485   0.59073    0.012
 6670.00    0.52666   0.59070    0.012
 6671.00    0.53399   0.59010    0.012
 6672.00    0.61214   0.58773    0.012
 6673.00    0.66289   0.58042    0.012
 6674.00    0.64852   0.56771    0.012
 6675.00    0.63461   0.55611    0.012
 6676.00    0.62166   0.55391    0.012
 6677.00    0.62981   0.56113    0.012
 6678.00    0.67566   0.57018    0.012
 6679.00    0.69786   0.57596    0.012
 6680.00    0.68312   0.57928    0.012
 6681.00    0.66369   0.58189    0.012
 6682.00    0.63784   0.58368    0.012
 6683.00    0.62747   0.58404    0.012
 6684.00    0.63580   0.58319    0.012
 6685.00    0.65743   0.58223    0.012
 6686.00    0.69323   0.58228    0.013
 6687.00    0.70198   0.58333    0.013
 6688.00    0.68531   0.58437    0.013
 6689.00    0.68820   0.58461    0.013
 6690.00    0.70727   0.58385    0.013
 6691.00    0.70351   0.58149    0.013
 6692.00    0.68310   0.57681    0.013
 6693.00    0.65999   0.57096    0.013
 6694.00    0.63515   0.56718    0.012
 6695.00    0.63240   0.56786    0.012
 6696.00    0.64202   0.57250    0.000
 6697.00    0.65939   0.57836    0.000
 6698.00    0.68053   0.58214    0.000
 6699.00    0.67543   0.58184    0.000
 6700.00    0.65927   0.57821    0.000
 6701.00    0.65581   0.57430    0.000
 6702.00    0.65691   0.57314    0.000
 6703.00    0.66292   0.57509    0.000
 6704.00    0.67041   0.57793    0.000
 6705.00    0.66691   0.57941    0.000
 6706.00    0.66064   0.57886    0.000
 6707.00    0.64102   0.57698    0.000
 6708.00    0.61866   0.57508    0.000
 6709.00    0.63985   0.57344    0.000
 6710.00    0.66809   0.57085    0.000
 6711.00    0.59826   0.56627    0.000
 6712.00    0.51657   0.55994    0.000
 6713.00    0.52950   0.55309    0.000
 6714.00    0.55028   0.54840    0.000
 6715.00    0.68549   0.54918    0.000
 6716.00    0.82612   0.55565    0.000
 6717.00    0.77208   0.56338    0.000
 6718.00    0.71461   0.56805    0.000
 6719.00    0.61821   0.56998    0.000
 6720.00    0.53044   0.57172    0.000
 6721.00    0.61097   0.57325    0.000
 6722.00    0.68537   0.57275    0.000
 6723.00    0.68938   0.57056    0.000
 6724.00    0.68834   0.56940    0.000
 6725.00    0.64710   0.57077    0.000
 6726.00    0.61353   0.57361    0.000
 6727.00    0.62594   0.57619    0.000
 6728.00    0.64862   0.57733    0.000
 6729.00    0.71995   0.57658    0.000
 6730.00    0.78153   0.57474    0.000
 6731.00    0.80538   0.57353    0.000
 6732.00    0.80980   0.57385    0.000
 6733.00    0.75162   0.57436    0.000
 6734.00    0.71532   0.57279    0.000
 6735.00    0.73867   0.56901    0.000
 6736.00    0.75595   0.56569    0.000
 6737.00    0.75907   0.56508    0.000
 6738.00    0.73308   0.56603    0.000
 6739.00    0.64829   0.56593    0.000
 6740.00    0.60088   0.56474    0.000
 6741.00    0.61921   0.56456    0.000
 6742.00    0.63404   0.56562    0.000
 6743.00    0.64346   0.56593    0.000
 6744.00    0.62189   0.56453    0.000
 6745.00    0.55840   0.56230    0.000
 6746.00    0.51675   0.56035    0.000
 6747.00    0.50110   0.55940    0.000
 6748.00    0.50217   0.55952    0.000
 6749.00    0.52079   0.55989    0.000
 6750.00    0.57044   0.56026    0.000
 6751.00    0.64883   0.56181    0.000
 6752.00    0.60268   0.56513    0.000
 6753.00    0.45488   0.56947    0.015
 6754.00    0.36628   0.57401    0.015
 6755.00    0.32020   0.57801    0.015
 6756.00    0.33962   0.58063    0.015
 6757.00    0.40034   0.58145    0.016
 6758.00    0.59701   0.58064    0.016
 6759.00    0.86860   0.57911    0.016
 6760.00    0.81579   0.57806    0.017
 6761.00    0.60751   0.57735    0.017
 6762.00    0.68407   0.57525    0.017
 6763.00    0.87846   0.57074    0.017
 6764.00    0.85498   0.56569    0.017
 6765.00    0.75446   0.56319    0.017
 6766.00    0.73616   0.56369    0.016
 6767.00    0.74240   0.56463    0.016
 6768.00    0.73268   0.56480    0.015
 6769.00    0.71900   0.56618    0.015
 6770.00    0.76450   0.57039    0.015
 6771.00    0.82187   0.57609    0.015
 6772.00    0.77486   0.58072    0.015
 6773.00    0.71145   0.58306    0.015
 6774.00    0.75360   0.58368    0.015
 6775.00    0.80805   0.58395    0.015
 6776.00    0.72328   0.58436    0.015
 6777.00    0.62754   0.58356    0.015
 6778.00    0.61363   0.57966    0.015
 6779.00    0.60329   0.57221    0.016
 6780.00    0.62445   0.56303    0.016
 6781.00    0.64893   0.55554    0.016
 6782.00    0.81250   0.55267    0.016
 6783.00    0.96713   0.55492    0.016
 6784.00    0.96012   0.56041    0.016
 6785.00    0.94800   0.56604    0.016
 6786.00    0.87991   0.56942    0.016
 6787.00    0.80770   0.57051    0.015
 6788.00    0.70383   0.57060    0.015
 6789.00    0.61748   0.56972    0.015
 6790.00    0.63320   0.56744    0.015
 6791.00    0.64588   0.56494    0.015
 6792.00    0.64450   0.56392    0.015
 6793.00    0.63820   0.56474    0.017
 6794.00    0.61327   0.56661    0.039
 6795.00    0.59997   0.56859   -1.000
 6796.00    0.62335   0.57023   -1.000
 6797.00    0.63265   0.57175   -1.000
 6798.00    0.60425   0.57325   -1.000
 6799.00    0.60834   0.57402   -1.000
 6800.00    0.68706   0.57340   -1.000
 6801.00    0.68325   0.57205   -1.000
 6802.00    0.51532   0.57107   -1.000
 6803.00    0.43705   0.57046   -1.000
 6804.00    0.51413   0.56990   -1.000
 6805.00    0.57491   0.56961    0.076
 6806.00    0.61096   0.56940    0.022
 6807.00    0.64733   0.56910    0.015
 6808.00    0.68415   0.56931    0.015
 6809.00    0.74033   0.56988    0.015
 6810.00    0.81922   0.56934    0.015
 6811.00    0.79529   0.56723    0.015
 6812.00    0.66495   0.56570    0.015
 6813.00    0.56602   0.56723    0.015
 6814.00    0.49577   0.57095    0.015
 6815.00    0.51062   0.57328    0.015
 6816.00    0.59394   0.57236    0.015
 6817.00    0.65894   0.57019    0.015
 6818.00    0.71098   0.57005    0.015
 6819.00    0.67338   0.57289    0.015
 6820.00    0.58012   0.57675    0.014
 6821.00    0.58324   0.57933    0.015
 6822.00    0.63866   0.57973    0.015
 6823.00    0.65703   0.57784    0.015
 6824.00    0.65793   0.57386    0.015
 6825.00    0.63425   0.56940    0.015
 6826.00    0.60057   0.56737    0.016
 6827.00    0.64418   0.56903    0.016
 6828.00    0.71463   0.57228    0.016
 6829.00    0.61200   0.57430    0.016
 6830.00    0.45873   0.57492    0.016
 6831.00    0.52891   0.57579    0.016
 6832.00    0.65322   0.57709    0.016
 6833.00    0.74105   0.57707    0.015
 6834.00    0.82173   0.57448    0.015
 6835.00    0.74098   0.56955    0.015
 6836.00    0.63561   0.56306    0.015
 6837.00    0.54945   0.55604    0.015
 6838.00    0.46544   0.55049    0.016
 6839.00    0.58976   0.54889    0.016
 6840.00    0.72965   0.55247    0.016
 6841.00    0.71515   0.55966    0.016
 6842.00    0.69452   0.56689    0.015
 6843.00    0.73688   0.57155    0.015
 6844.00    0.77725   0.57357    0.015
 6845.00    0.72157   0.57408    0.015
 6846.00    0.67041   0.57367    0.015
 6847.00    0.69579   0.57271    0.015
 6848.00    0.71439   0.57188    0.015
 6849.00    0.66216   0.57114    0.015
 6850.00    0.61407   0.56904    0.015
 6851.00    0.59683   0.56420    0.015
 6852.00    0.58035   0.55818    0.015
 6853.00    0.56810   0.55475    0.015
 6854.00    0.57719   0.55542    0.015
 6855.00    0.68267   0.55802    0.015
 6856.00    0.73827   0.55938    0.015
 6857.00    0.60919   0.55786    0.015
 6858.00    0.51863   0.55494    0.015
 6859.00    0.54737   0.55486    0.015
 6860.00    0.56629   0.55992    0.015
 6861.00    0.55942   0.56690    0.015
 6862.00    0.58899   0.57034    0.015
 6863.00    0.70091   0.56800    0.015
 6864.00    0.74576   0.56208    0.015
 6865.00    0.65932   0.55714    0.015
 6866.00    0.57012   0.55657    0.015
 6867.00    0.47621   0.55921    0.016
 6868.00    0.44758   0.56084    0.016
 6869.00    0.51651   0.55993    0.016
 6870.00    0.56533   0.55899    0.016
 6871.00    0.58772   0.55994    0.016
 6872.00    0.61466   0.56206    0.016
 6873.00    0.64686   0.56456    0.016
 6874.00    0.63631   0.56772    0.015
 6875.00    0.58215   0.57091    0.015
 6876.00    0.57635   0.57216    0.015
 6877.00    0.61409   0.57016    0.015
 6878.00    0.66586   0.56549    0.015
 6879.00    0.72876   0.56060    0.015
 6880.00    0.74203   0.55860    0.014
 6881.00    0.72068   0.56052    0.014
 6882.00    0.65438   0.56422    0.015
 6883.00    0.56057   0.56737    0.015
 6884.00    0.55156   0.57013    0.015
 6885.00    0.58786   0.57329    0.015
 6886.00    0.62344   0.57634    0.015
 6887.00    0.65869   0.57852    0.015
 6888.00    0.70113   0.57950    0.015
 6889.00    0.74645   0.57905    0.015
 6890.00    0.75840   0.57759    0.015
 6891.00    0.75897   0.57599    0.015
 6892.00    0.69426   0.57457    0.016
 6893.00    0.61084   0.57371    0.015
 6894.00    0.58493   0.57412    0.015
 6895.00    0.57264   0.57528    0.015
 6896.00    0.60530   0.57554    0.015
 6897.00    0.64654   0.57481    0.016
 6898.00    0.67150   0.57510    0.016
 6899.00    0.69405   0.57720    0.015
 6900.00    0.65424   0.57915    0.015
 6901.00    0.60770   0.57932    0.015
 6902.00    0.64782   0.57873    0.015
 6903.00    0.69406   0.57931    0.015
 6904.00    0.71996   0.58124    0.015
 6905.00    0.74512   0.58306    0.015
 6906.00    0.71928   0.58370    0.015
 6907.00    0.69315   0.58290    0.015
 6908.00    0.66326   0.58057    0.015
 6909.00    0.62994   0.57678    0.015
 6910.00    0.54243   0.57223    0.015
 6911.00    0.46468   0.56856    0.015
 6912.00    0.48465   0.56734    0.015
 6913.00    0.50307   0.56838    0.015
 6914.00    0.51038   0.57023    0.015
 6915.00    0.51797   0.57250    0.015
 6916.00    0.52705   0.57552    0.015
 6917.00    0.53180   0.57890    0.015
 6918.00    0.51739   0.58125    0.015
 6919.00    0.51758   0.58083    0.016
 6920.00    0.57065   0.57651    0.015
 6921.00    0.62500   0.56945    0.015
 6922.00    0.68328   0.56332    0.015
 6923.00    0.72450   0.56170    0.015
 6924.00    0.72164   0.56486    0.015
 6925.00    0.72337   0.56988    0.015
 6926.00    0.73527   0.57372    0.015
 6927.00    0.75399   0.57521    0.015
 6928.00    0.78586   0.57438    0.015
 6929.00    0.77202   0.57181    0.015
 6930.00    0.68134   0.56941    0.015
 6931.00    0.60736   0.56953    0.015
 6932.00    0.55799   0.57215    0.015
 6933.00    0.53770   0.57468    0.016
 6934.00    0.55508   0.57558    0.016
 6935.00    0.53462   0.57599    0.016
 6936.00    0.47099   0.57758    0.016
 6937.00    0.48879   0.58006    0.016
 6938.00    0.58854   0.58125    0.016
 6939.00    0.60723   0.57905    0.016
 6940.00    0.55399   0.57342    0.016
 6941.00    0.59694   0.56668    0.016
 6942.00    0.71511   0.56248    0.016
 6943.00    0.75894   0.56353    0.016
 6944.00    0.75167   0.56898    0.015
 6945.00    0.71484   0.57497    0.015
 6946.00    0.66021   0.57801    0.015
 6947.00    0.63683   0.57695    0.015
 6948.00    0.62989   0.57292    0.015
 6949.00    0.61995   0.56848    0.015
 6950.00    0.60865   0.56578    0.015
 6951.00    0.61494   0.56560    0.015
 6952.00    0.62814   0.56800    0.015
 6953.00    0.66622   0.57207    0.015
 6954.00    0.71264   0.57586    0.016
 6955.00    0.72712   0.57797    0.016
 6956.00    0.73262   0.57878    0.016
 6957.00    0.66636   0.57946    0.016
 6958.00    0.58349   0.58061    0.016
 6959.00    0.50001   0.58201    0.016
 6960.00    0.41641   0.58303    0.016
 6961.00    0.46942   0.58294    0.016
 6962.00    0.54199   0.58158    0.016
 6963.00    0.56467   0.58050    0.016
 6964.00    0.58218   0.58180    0.016
 6965.00    0.28896   0.58491    0.015
 6966.00   -0.02496   0.58664    0.000
 6967.00    0.18818   0.58521    0.029
 6968.00    0.41819   0.58264   -1.000
 6969.00    0.37616   0.58202   -1.000
 6970.00    0.33664   0.58315   -1.000
 6971.00    0.37413   0.58265   -1.000
 6972.00    0.41396   0.57813   -1.000
 6973.00    0.48873   0.56994   -1.000
 6974.00    0.56093   0.55937   -1.000
 6975.00    0.60862   0.54934   -1.000
 6976.00    0.64038   0.54535   -1.000
 6977.00    0.56134   0.55093   -1.000
 6978.00    0.51260   0.56294   -1.000
 6979.00    0.62658   0.57499   -1.000
 6980.00    0.70402   0.58325   -1.000
 6981.00    0.62405   0.58740   -1.000
 6982.00    0.55937   0.58857   -1.000
 6983.00    0.54897   0.58792   -1.000
 6984.00    0.56461   0.58586   -1.000
 6985.00    0.65787   0.58243   -1.000
 6986.00    0.73684   0.57872   -1.000
 6987.00    0.77952   0.57712   -1.000
 6988.00    0.79105   0.57896   -1.000
 6989.00    0.73449   0.58247   -1.000
 6990.00    0.67485   0.58458   -1.000
 6991.00    0.60937   0.58427   -1.000
 6992.00    0.57930   0.58314   -1.000
 6993.00    0.60786   0.58276   -1.000
 6994.00    0.65046   0.58228   -1.000
 6995.00    0.71343   0.57957   -1.000
 6996.00    0.70871   0.57454   -1.000
 6997.00    0.61759   0.57044   -1.000
 6998.00    0.54476   0.57054   -1.000
 6999.00    0.49252   0.57368   -1.000
 7000.00    0.50834   0.57546   -1.000
 7001.00    0.59167   0.57371   -1.000
 7002.00    0.36328   0.57067   -1.000
 7003.00   -0.13782   0.56958    0.000
 7004.00   -0.12454   0.57131    0.000
 7005.00    0.28520   0.57466   -1.000
 7006.00    0.52752   0.57774   -1.000
 7007.00    0.65638   0.57908   -1.000
 7008.00    0.62361   0.57883   -1.000
 7009.00    0.49487   0.57853   -1.000
 7010.00    0.56434   0.57801   -1.000
 7011.00    0.73647   0.57427   -1.000
 7012.00    0.75371   0.56575   -1.000
 7013.00    0.70140   0.55695   -1.000
 7014.00    0.72911   0.55557   -1.000
 7015.00    0.78770   0.56376   -1.000
 7016.00    0.76969   0.57562   -1.000
 7017.00    0.72653   0.58392   -1.000
 7018.00    0.64760   0.58567   -1.000
 7019.00    0.55883   0.58132   -1.000
 7020.00    0.66176   0.57350   -1.000
 7021.00    0.80802   0.56688   -1.000
 7022.00    0.58462   0.56545   -1.000
 7023.00    0.29443   0.56893   -1.000
 7024.00    0.41854   0.57383   -1.000
 7025.00    0.60005   0.57768   -1.000
 7026.00    0.77160   0.58037   -1.000
 7027.00    0.94216   0.58220   -1.000
 7028.00    0.73227   0.58280   -1.000
 7029.00    0.49854   0.58213   -1.000
 7030.00    0.47607   0.58120   -1.000
 7031.00    0.45996   0.58128   -1.000
 7032.00    0.53952   0.58234   -1.000
 7033.00    0.61917   0.58210   -1.000
 7034.00    0.70156   0.57805   -1.000
 7035.00    0.77159   0.57217   -1.000
 7036.00    0.66819   0.57134   -1.000
 7037.00    0.56999   0.57936   -1.000
 7038.00    0.51973   0.59174   -1.000
 7039.00    0.48895   0.60080   -1.000
 7040.00    0.58945   0.60273   -1.000
 7041.00    0.67632   0.59897   -1.000
 7042.00    0.69200   0.59424   -1.000
 7043.00    0.67137   0.59322   -1.000
 7044.00    0.49790   0.59690   -1.000
 7045.00    0.43461   0.60216   -1.000
 7046.00    0.75459   0.60498   -1.000
 7047.00    0.93111   0.60284   -1.000
 7048.00    0.68773   0.59489   -1.000
 7049.00    0.51159   0.58190   -1.000
 7050.00    0.50331   0.56729   -2.000
 7051.00    0.54562   0.55610   -2.000
 7052.00    0.69672   0.55169   -2.000
 7053.00    0.79367   0.55336   -2.000
 7054.00    0.78949   0.55688   -2.000
 7055.00    0.81326   0.55728   -2.000
 7056.00    0.88259   0.55288   -2.000
 7057.00    0.84108   0.54679   -2.000
 7058.00    0.64100   0.54356   -2.000
 7059.00    0.54436   0.54476   -2.000
 7060.00    0.57787   0.54848   -2.000
 7061.00    0.71292   0.55185   -2.000
 7062.00    0.96057   0.55217   -2.000
 7063.00    0.05299   0.54812   -2.000
 7064.00   -1.98452   0.54132   -2.000
 7065.00   -1.93242   0.53622   -2.000
 7066.00   -0.07792   0.53708   -2.000
 7067.00    0.73482   0.54420   -2.000
 7068.00    0.75607   0.55323   -2.000
 7069.00    0.71725   0.55945   -2.000
 7070.00    0.63832   0.56179   -2.000
 7071.00    0.76188   0.56182   -2.000
 7072.00    1.00384   0.56109   -2.000
 7073.00    1.02146   0.56057   -2.000
 7074.00    0.92472   0.56100   -2.000
 7075.00    0.89187   0.56254   -2.000
 7076.00    0.88725   0.56476   -2.000
 7077.00    0.82346   0.56671   -2.000
 7078.00    0.73724   0.56640   -2.000
 7079.00    0.72657   0.56131   -2.000
 7080.00    0.74024   0.55112   -2.000
 7081.00    0.74625   0.53955   -2.000
 7082.00    0.75020   0.53179   -2.000
 7083.00    0.76795   0.52936   -2.000
 7084.00    0.78874   0.52890   -2.000
 7085.00    0.59875   0.52697   -2.000
 7086.00    0.37171   0.52379   -2.000
 7087.00    0.58283   0.52147   -2.000
 7088.00    0.85264   0.52110   -2.000
 7089.00    0.75243   0.52197   -2.000
 7090.00    0.61705   0.52279   -2.000
 7091.00    0.45763   0.52324   -2.000
 7092.00    0.29680   0.52379   -2.000
 7093.00    0.44193   0.52492   -2.000
 7094.00    0.59437   0.52706   -2.000
 7095.00    0.71651   0.53040   -2.000
 7096.00    0.83136   0.53410   -2.000
 7097.00    0.76483   0.53627   -2.000
 7098.00    0.71272   0.53567   -2.000
 7099.00    0.85215   0.53339   -2.000
 7100.00    0.96370   0.53226   -2.000
 7101.00    0.82814   0.53381   -2.000
 7102.00    0.73037   0.53631   -2.000
 7103.00    0.87948   0.53687   -2.000
 7104.00    0.97257   0.53521   -2.000
 7105.00    0.78032   0.53331   -2.000
 7106.00    0.39054   0.53175   -2.000
 7107.00   -0.81227   0.52934   -2.000
 7108.00   -1.50894   0.52648   -2.000
 7109.00   -0.48038   0.52575   -2.000
 7110.00    0.29644   0.52833   -2.000
 7111.00    0.34997   0.53247   -2.000
 7112.00    0.38732   0.53589   -2.000
 7113.00    0.38495   0.53783   -2.000
 7114.00    0.33462   0.53843   -2.000
 7115.00    0.18277   0.53792   -2.000
 7116.00    0.10267   0.53675   -2.000
 7117.00    0.15448   0.53522   -2.000
 7118.00    0.23534   0.53347   -2.000
 7119.00    0.36288   0.53206   -2.000
 7120.00    0.40162   0.53159   -2.000
 7121.00    0.31517   0.53085   -2.000
 7122.00    0.31108   0.52778   -2.000
 7123.00    0.40914   0.52298   -2.000
 7124.00    0.33187   0.51937   -2.000
 7125.00    0.06289   0.51771   -2.000
 7126.00   -0.09076   0.51551   -2.000
 7127.00   -0.13321   0.51155   -2.000
 7128.00   -0.08848   0.50866   -2.000
 7129.00    0.03037   0.51024   -2.000
 7130.00    0.08688   0.51590   -2.000
 7131.00    0.09671   0.52238   -2.000
 7132.00    0.01524   0.52711   -2.000
 7133.00   -0.12631   0.52972   -2.000
 7134.00   -0.03491   0.53057   -2.000
 7135.00    0.19068   0.52939   -2.000
 7136.00    0.28210   0.52702   -2.000
 7137.00    0.30619   0.52623   -2.000
 7138.00    0.21917   0.52820   -2.000
 7139.00    0.08391   0.53076   -2.000
 7140.00    0.06894   0.53171   -2.000
 7141.00    0.09879   0.53118   -2.000
 7142.00    0.08543   0.52986   -2.000
 7143.00    0.05842   0.52707   -2.000
 7144.00    0.12499   0.52213   -2.000
 7145.00    0.21623   0.51693   -2.000
 7146.00    0.28224   0.51521   -2.000
 7147.00    0.34281   0.51841   -2.000
 7148.00    0.30044   0.52470   -2.000
 7149.00    0.24048   0.53151   -2.000
 7150.00    0.18745   0.53653   -2.000
 7151.00    0.13532   0.53807   -2.000
 7152.00    0.16113   0.53721   -2.000
 7153.00    0.19401   0.53725   -2.000
 7154.00    0.31659   0.53896   -2.000
 7155.00    0.44407   0.53940   -2.000
 7156.00    0.45471   0.53685   -2.000
 7157.00    0.46158   0.53371   -2.000
 7158.00    0.34771   0.53265   -2.000
 7159.00    0.23069   0.53238   -2.000
 7160.00    0.04227   0.52911   -2.000
 7161.00   -0.14359   0.52238   -2.000
 7162.00   -0.29714   0.51734   -2.000
 7163.00   -0.39330   0.51923   -2.000
 7164.00    0.00024   0.52716   -2.000
 7165.00    0.37086   0.53534   -2.000
 7166.00    0.59623   0.53954   -2.000
 7167.00    0.71729   0.54067   -2.000
 7168.00    0.32038   0.54200   -2.000
 7169.00   -0.00765   0.54459   -2.000
 7170.00   -0.05846   0.54638   -2.000
 7171.00   -0.07042   0.54518   -2.000
 7172.00    0.04744   0.54136   -2.000
 7173.00    0.19794   0.53787   -2.000
 7174.00    0.44055   0.53731   -2.000
 7175.00    0.56931   0.53827   -2.000
 7176.00    0.42348   0.53628   -2.000
 7177.00    0.30293   0.53016   -2.000
 7178.00    0.23499   0.52498   -2.000
 7179.00    0.19882   0.52652   -2.000
 7180.00    0.22018   0.53413   -2.000
 7181.00    0.20901   0.54127   -2.000
 7182.00    0.14638   0.54220   -2.000
 7183.00    0.21728   0.53618   -2.000
 7184.00    0.47371   0.52691   -2.000
 7185.00    0.55893   0.51984   -2.000
 7186.00    0.43479   0.51859   -2.000
 7187.00    0.36489   0.52246   -2.000
 7188.00    0.35345   0.52746   -2.000
 7189.00    0.31599   0.53017   -2.000
 7190.00    0.25379   0.53082   -2.000
 7191.00    0.24598   0.53193   -2.000
 7192.00    0.28375   0.53395   -2.000
 7193.00    0.23788   0.53477   -2.000
 7194.00    0.13027   0.53380   -2.000
 7195.00    0.18859   0.53321   -2.000
 7196.00    0.35449   0.53421   -2.000
 7197.00    0.45160   0.53525   -2.000
 7198.00    0.50969   0.53510   -2.000
 7199.00    0.32588   0.53528   -2.000
 7200.00    0.02260   0.53779   -2.000
 7201.00   -0.10925   0.54109   -2.000
 7202.00   -0.16789   0.54038   -2.000
 7203.00   -0.08924   0.53300   -2.000
 7204.00    0.03963   0.52270   -2.000
 7205.00    0.17125   0.51697   -2.000
 7206.00    0.30371   0.51991   -2.000
 7207.00    0.23343   0.52900   -2.000
 7208.00    0.11082   0.53801   -2.000
 7209.00    0.16487   0.54177   -2.000
 7210.00    0.25608   0.53977   -2.000
 7211.00    0.13546   0.53578   -2.000
 7212.00   -0.02034   0.53392   -2.000
 7213.00   -0.02225   0.53591   -2.000
 7214.00   -0.00493   0.54073   -2.000
 7215.00   -0.03789   0.54541   -2.000
 7216.00   -0.07521   0.54707   -2.000
 7217.00    0.08155   0.54540   -2.000
 7218.00    0.24817   0.54236   -2.000
