###################################################################
## OUTPUT of StarlightChains_v04.for    [Cid@UFSC - 01/Apr/2007] ##
###################################################################

## Some input info
KUG0210-078._33_41.txt                   [arq_obs]
Base.CB07.vall.4m                        [arq_base]
Masks.EmLines.NEW.gm                     [arq_masks]
StCv04.C11.config                        [arq_config]
   66                                    [N_base]
    0                                    [N_YAV_components = # of components with extra extinction!]
    0                                    [i_FitPowerLaw (1/0 = Yes/No)]
-9.99                                    [alpha_PowerLaw]
CCM                                      [red_law_option]
 1.458241                                [q_norm = A(l_norm)/A(V)]

## (Re)Sampling Parameters
 3741.00                                 [l_ini (A)]
 7218.00                                 [l_fin (A)]
    1.00                                 [dl    (A)]     (OBS: dl_cushion =    50.00 A)

## Normalization info
 4020.00                                 [l_norm (A) - for base]
 4010.00                                 [llow_norm (A) - window for f_obs]
 4060.00                                 [lupp_norm (A) - window for f_obs]
1.259338E-17                             [fobs_norm (in input units)]

## S/N
 3691.00                                 [llow_SN (A) - window for S/N]
 7268.00                                 [lupp_SN (A) - window for S/N]
   5.250                                 [S/N in S/N window]
   4.484                                 [S/N in norm. window]
   0.018                                 [S/N_err in S/N window]
   0.015                                 [S/N_err in norm. window]
  1.0000                                 [fscale_chi2]

## etc...
    -2007516                             [idum_orig]
  2429                                   [NOl_eff]
  2423                                   [Nl_eff]
     6    NSIGMA                         [Ntot_cliped & clip_method]
  3098970                                [Nglobal_steps]
   7                                     [N_chains]
  45                                     [NEX0s_base = N_base in EX0s-fits]
 0   1   1        8   2.0   1.462E+03    [Clip-Bug, RC-Crash & Burn-In warning-flags, n_censored_weights, wei_nsig_threshold & wei_limit]
    67     66.930     66.111      0.819  [idt_all, wdt_TotTime, wdt_UsrTime & wdt_SysTime (sec)]

## Synthesis Results - Best model ##

 5.10894E-04                             [chi2/Nl_eff]
    14.85316                             [adev (%)]

   102.50191                             [sum-of-x (%)]
 1.88538E-17                             [Flux_tot (units of input spectrum!)]
 4.05506E-13                             [Mini_tot (???)]
 2.14074E-13                             [Mcor_tot (???)]

  81.46                                  [v0_min  (km/s)]
 248.77                                  [vd_min  (km/s)]
 0.2821                                  [AV_min  (mag)]
 0.0000                                  [YAV_min (mag)]

# j     x_j(%)      Mini_j(%)     Mcor_j(%)     age_j(yr)     Z_j      (L/M)_j    YAV?  Mstars   component_j        a/Fe...       SSP_chi2r SSP_adev(%)   SSP_AV   SSP_x(%)
  1      0.0000     0.0000E+00    0.0000E+00    1.000000E+06  0.00400  1.094E-02    0   1.0000   age020_m42            0.0000     2.3369E-04    20.8867   4.0000    63.0655
  2      1.0648     1.2053E-03    2.2830E-03    3.160000E+06  0.00400  4.007E-02    0   0.9999   age045_m42            0.0000     5.4174E-04    27.5782   4.0000    44.6186
  3      0.0000     0.0000E+00    0.0000E+00    5.010000E+06  0.00400  2.539E-02    0   0.9488   age055_m42            0.0000     4.8786E-04    24.4445   4.0000    52.2045
  4      0.0000     0.0000E+00    0.0000E+00    6.610000E+06  0.00400  2.620E-02    0   0.9220   age061_m42            0.0000     3.6154E-04    28.2709   4.0000    42.9983
  5      0.8437     2.8949E-03    4.8595E-03    1.000000E+07  0.00400  1.322E-02    0   0.8862   age070_m42            0.0000     5.7763E-05    20.5597   2.8137    72.3635
  6      0.5629     3.2387E-03    5.2582E-03    1.445000E+07  0.00400  7.883E-03    0   0.8571   age078_m42            0.0000     1.2977E-04    28.3721   3.9941    43.9835
  7      0.0000     0.0000E+00    0.0000E+00    2.512000E+07  0.00400  5.251E-03    0   0.8174   age090_m42            0.0000     1.1903E-04    28.5842   3.5218    45.5464
  8      0.0000     0.0000E+00    0.0000E+00    4.000000E+07  0.00400  3.649E-03    0   0.7851   age104_m42            0.0000     7.6817E-05    22.6317   2.6895    64.3109
  9      0.9070     1.3280E-02    1.9192E-02    5.500000E+07  0.00400  3.098E-03    0   0.7629   age110_m42            0.0000     1.5095E-05    17.6241   1.9535   105.8538
 10      2.2722     4.6259E-02    6.3151E-02    1.015200E+08  0.00400  2.228E-03    0   0.7207   age116_m42            0.0000     9.0449E-05    23.7412   3.0568    58.2276
 11      0.0000     0.0000E+00    0.0000E+00    2.861200E+08  0.00400  1.093E-03    0   0.6648   age125_m42            0.0000     3.4532E-05    17.9024   1.7955    88.0149
 12      0.0000     0.0000E+00    0.0000E+00    5.088000E+08  0.00400  6.597E-04    0   0.6365   age130_m42            0.0000     4.4684E-05    18.2360   1.9143    82.8661
 13      6.0027     1.2771E+00    1.4026E+00    1.434000E+09  0.00400  2.132E-04    0   0.5798   age139_m42            0.0000     1.6939E-05    16.8584   0.2986   120.7814
 14      7.2673     5.5919E+00    5.6955E+00    4.250000E+09  0.00400  5.895E-05    0   0.5377   age158_m42            0.0000     2.0860E-05    17.0412  -0.1809   119.7438
 15      0.4814     6.2207E-01    6.1416E-01    7.500000E+09  0.00400  3.510E-05    0   0.5212   age171_m42            0.0000     5.5981E-05    19.7552  -0.5441   131.9074
 16      0.0425     9.6207E-02    9.1738E-02    1.300000E+10  0.00400  2.005E-05    0   0.5034   age193_m42            0.0000     1.3045E-04    23.4009  -0.8653   143.7437
 17      3.2260     9.5953E+00    9.0279E+00    1.800000E+10  0.00400  1.525E-05    0   0.4967   age213_m42            0.0000     9.2635E-05    21.7678  -0.8204   137.6594
 18      0.0000     0.0000E+00    0.0000E+00    1.000000E+06  0.00800  1.238E-02    0   1.0000   age020_m52            0.0000     2.0754E-04    20.9197   4.0000    63.0576
 19      0.4010     5.9178E-04    1.1172E-03    3.160000E+06  0.00800  3.074E-02    0   0.9966   age045_m52            0.0000     1.5793E-04    21.6135   4.0000    60.8397
 20      0.6060     1.0303E-03    1.8429E-03    5.010000E+06  0.00800  2.668E-02    0   0.9443   age055_m52            0.0000     2.0062E-04    23.6744   4.0000    54.2204
 21      0.0000     0.0000E+00    0.0000E+00    6.610000E+06  0.00800  2.136E-02    0   0.9177   age061_m52            0.0000     4.1996E-05    20.3691   1.4169   120.2316
 22      0.0000     0.0000E+00    0.0000E+00    1.000000E+07  0.00800  1.215E-02    0   0.8827   age070_m52            0.0000     1.7237E-05    18.2547   2.4515    97.5446
 23      0.6821     3.5494E-03    5.7498E-03    1.445000E+07  0.00800  8.717E-03    0   0.8552   age078_m52            0.0000     3.0173E-05    18.4996   2.7863    85.5351
 24      0.0000     0.0000E+00    0.0000E+00    2.512000E+07  0.00800  5.592E-03    0   0.8162   age090_m52            0.0000     1.7045E-05    18.0434   2.1980    99.7265
 25      0.1125     1.3103E-03    1.9462E-03    4.000000E+07  0.00800  3.896E-03    0   0.7841   age104_m52            0.0000     1.6250E-05    18.0201   1.9778   108.4665
 26      0.0000     0.0000E+00    0.0000E+00    1.015200E+08  0.00800  2.148E-03    0   0.7226   age116_m52            0.0000     2.6865E-05    17.6028   2.2505    90.0652
 27      0.0000     0.0000E+00    0.0000E+00    2.861200E+08  0.00800  9.925E-04    0   0.6683   age125_m52            0.0000     1.4776E-05    16.6503   1.4242   114.3361
 28      1.4432     2.0841E-01    2.4232E-01    9.047900E+08  0.00800  3.141E-04    0   0.6138   age135_m52            0.0000     3.4861E-05    17.9828   0.3963   135.4467
 29      6.9904     1.8446E+00    2.0451E+00    1.434000E+09  0.00800  1.719E-04    0   0.5853   age139_m52            0.0000     1.3319E-04    23.2275  -0.4279   152.9067
 30      2.9369     1.6923E+00    1.7951E+00    2.500000E+09  0.00800  7.872E-05    0   0.5600   age150_m52            0.0000     2.7659E-04    28.3440  -0.8653   165.0473
 31      1.6694     1.7463E+00    1.7949E+00    4.250000E+09  0.00800  4.336E-05    0   0.5426   age158_m52            0.0000     3.2166E-04    29.3210  -0.9098   166.0574
 32      0.3959     5.6854E-01    5.7283E-01    6.250000E+09  0.00800  3.159E-05    0   0.5319   age166_m52            0.0000     4.3613E-04    25.7944  -0.9988   156.8759
 33      0.7046     2.3484E+00    2.2566E+00    1.300000E+10  0.00800  1.361E-05    0   0.5073   age193_m52            0.0000     9.0108E-04    15.5330  -0.9981   121.3175
 34      1.5774     7.2376E+00    6.8411E+00    1.800000E+10  0.00800  9.886E-06    0   0.4990   age213_m52            0.0000     8.9629E-04    14.2849  -0.9988   114.2733
 35      0.2474     7.2677E-04    1.3767E-03    1.000000E+06  0.02000  1.544E-02    0   1.0000   age020_m62            0.0000     1.4850E-04    20.9682   4.0000    63.0736
 36      0.3260     3.9313E-04    7.3410E-04    3.160000E+06  0.02000  3.762E-02    0   0.9858   age045_m62            0.0000     2.8937E-04    21.4716   4.0000    61.4703
 37      1.7397     2.3941E-03    4.2366E-03    5.010000E+06  0.02000  3.296E-02    0   0.9342   age055_m62            0.0000     2.2096E-04    24.5905   4.0000    51.8200
 38      0.4839     1.9019E-03    3.1923E-03    8.710000E+06  0.02000  1.154E-02    0   0.8861   age067_m62            0.0000     3.9767E-04    30.8328   1.1227   153.1363
 39      1.7977     1.0641E-02    1.7077E-02    1.445000E+07  0.02000  7.663E-03    0   0.8472   age078_m62            0.0000     8.5270E-05    22.8350   1.6233   129.6501
 40      0.4524     4.5282E-03    6.9469E-03    2.512000E+07  0.02000  4.532E-03    0   0.8099   age090_m62            0.0000     7.8047E-05    22.6760   1.6238   128.8107
 41      0.4043     6.7098E-03    9.6532E-03    5.500000E+07  0.02000  2.733E-03    0   0.7595   age110_m62            0.0000     4.0062E-05    19.7407   1.7613   120.6664
 42      0.4919     1.6298E-02    2.1565E-02    1.609000E+08  0.02000  1.369E-03    0   0.6985   age120_m62            0.0000     2.4252E-05    18.0104   1.6749   119.3312
 43      0.7750     3.9003E-02    4.9603E-02    2.861200E+08  0.02000  9.013E-04    0   0.6714   age125_m62            0.0000     5.0554E-05    19.3885   1.2726   133.6657
 44      0.4695     4.2358E-02    5.1744E-02    5.088000E+08  0.02000  5.028E-04    0   0.6449   age130_m62            0.0000     5.4289E-05    19.4858   0.8500   141.3130
 45      1.2485     2.3325E-01    2.7300E-01    9.047900E+08  0.02000  2.428E-04    0   0.6179   age135_m62            0.0000     1.1790E-04    22.5722   0.1143   153.7271
 46     15.5047     5.5684E+00    6.2317E+00    1.434000E+09  0.02000  1.263E-04    0   0.5908   age139_m62            0.0000     2.9674E-04    28.4949  -0.5279   170.2115
 47      1.2784     9.6890E-01    1.0412E+00    2.500000E+09  0.02000  5.985E-05    0   0.5673   age150_m62            0.0000     6.7324E-04    32.0083  -0.9957   179.1142
 48      2.7599     3.8273E+00    3.9642E+00    4.250000E+09  0.02000  3.271E-05    0   0.5468   age158_m62            0.0000     1.0108E-03    22.9902  -0.9981   151.6380
 49      4.5989     1.5339E+01    1.5013E+01    1.000000E+10  0.02000  1.360E-05    0   0.5167   age181_m62            0.0000     1.2872E-03    15.6692  -0.9988   125.6802
 50      0.0000     0.0000E+00    0.0000E+00    1.800000E+10  0.02000  7.124E-06    0   0.5013   age213_m62            0.0000     1.2237E-03    13.5661  -1.0000   111.9049
 51      0.0000     0.0000E+00    0.0000E+00    1.000000E+06  0.05000  2.592E-02    0   0.9998   age020_m72            0.0000     6.7784E-05    21.1279   4.0000    62.7732
 52      0.0000     0.0000E+00    0.0000E+00    3.160000E+06  0.05000  4.845E-02    0   0.9577   age045_m72            0.0000     3.8487E-04    22.2761   4.0000    58.3525
 53      0.0000     0.0000E+00    0.0000E+00    5.010000E+06  0.05000  3.072E-02    0   0.9147   age055_m72            0.0000     3.3258E-05    19.1769   2.9753    82.4283
 54      0.0477     1.4882E-04    2.5024E-04    6.610000E+06  0.05000  1.455E-02    0   0.8877   age061_m72            0.0000     2.9908E-04    30.3552   1.2949   146.2730
 55      0.0000     0.0000E+00    0.0000E+00    1.000000E+07  0.05000  9.074E-03    0   0.8524   age070_m72            0.0000     2.1717E-04    26.4782   4.0000    52.1755
 56      0.0000     0.0000E+00    0.0000E+00    2.512000E+07  0.05000  4.250E-03    0   0.7902   age090_m72            0.0000     2.8672E-05    18.6858   2.7863    87.3749
 57      0.9603     1.4110E-02    2.0362E-02    4.000000E+07  0.05000  3.087E-03    0   0.7618   age104_m72            0.0000     1.7332E-05    18.2230   2.3643    98.6134
 58      0.7985     2.1305E-02    2.8637E-02    1.015200E+08  0.05000  1.700E-03    0   0.7096   age116_m72            0.0000     1.5313E-05    17.2569   1.9719   109.0765
 59      0.0000     0.0000E+00    0.0000E+00    2.861200E+08  0.05000  7.384E-04    0   0.6633   age125_m72            0.0000     1.4888E-04    23.9223   0.9002   155.7009
 60      0.9793     1.1631E-01    1.4039E-01    5.088000E+08  0.05000  3.819E-04    0   0.6372   age130_m72            0.0000     2.5441E-04    27.2766   0.2766   171.0001
 61     16.1789     4.3787E+00    5.0678E+00    9.047900E+08  0.05000  1.676E-04    0   0.6110   age135_m72            0.0000     5.5546E-04    35.2010  -0.6393   192.7374
 62      4.0546     2.0812E+00    2.3157E+00    1.434000E+09  0.05000  8.837E-05    0   0.5874   age139_m72            0.0000     9.1739E-04    32.0386  -0.9988   183.0623
 63      0.0000     0.0000E+00    0.0000E+00    2.500000E+09  0.05000  4.233E-05    0   0.5598   age150_m72            0.0000     1.3105E-03    23.0996  -0.9995   154.0650
 64      3.2438     1.0254E+01    1.0195E+01    6.250000E+09  0.05000  1.435E-05    0   0.5249   age166_m72            0.0000     1.5278E-03    14.4717  -0.9981   119.3968
 65      3.4706     2.4171E+01    2.3058E+01    1.300000E+10  0.05000  6.513E-06    0   0.5036   age193_m72            0.0000     1.8384E-03    13.0057  -1.0000   104.3845
 66      0.0000     0.0000E+00    0.0000E+00    1.800000E+10  0.05000  4.527E-06    0   0.4945   age213_m72            0.0000     2.0145E-03    13.3463  -1.0000    95.8007


## Synthesis Results - Average & Chains ##

# j      x_j: min, <> & last-chain-values for 1 ...  7 chains
  1      0.0000      0.0464      0.0163      0.0000      0.1291      0.0000      0.0000      0.4511      0.0000
  2      1.0648      0.4638      0.1392      0.4303      0.0867      0.3936      0.0000      0.0000      0.0000
  3      0.0000      0.1088      0.0000      0.0000      0.0000      0.0262      0.0000      0.0000      0.2845
  4      0.0000      0.1117      0.0000      0.0083      0.1054      0.0000      0.0000      0.0000      0.4033
  5      0.8437      1.2706      1.2484      1.0482      1.3264      0.8326      1.0819      1.7079      1.0938
  6      0.5629      0.3581      0.6335      0.2759      0.2227      0.8144      0.4688      0.3669      0.5770
  7      0.0000      0.3454      0.0647      0.1467      0.0000      0.1622      0.9561      1.0968      0.9802
  8      0.0000      0.6855      0.0000      0.7179      0.9965      0.2693      0.4923      0.3739      0.4060
  9      0.9070      0.6455      0.6769      0.2956      0.7409      0.5579      0.5407      0.7468      0.5537
 10      2.2722      1.4325      0.9470      1.3802      1.4548      1.8553      1.6407      1.3050      1.4700
 11      0.0000      0.1733      0.0000      0.4658      0.0000      0.0000      0.0625      0.7862      0.2880
 12      0.0000      0.2273      0.3611      0.2766      0.1813      0.0471      0.3122      0.2025      0.4234
 13      6.0027      1.7684      1.9225      3.1120      2.2444      4.2709      3.3086      3.2185      2.5371
 14      7.2673      2.0062      4.7235      2.8303      3.3213      2.8287      2.5742      2.4604      3.1420
 15      0.4814      0.7058      0.7324      0.7516      1.0939      0.7624      0.7330      0.5825      0.8942
 16      0.0425      0.2790      1.0077      0.2667      0.6671      0.3295      0.6780      0.0000      0.3239
 17      3.2260      0.3044      0.0536      0.3691      0.3682      1.2048      0.6203      1.0930      0.3124
 18      0.0000      0.1023      0.0000      0.0000      0.0000      0.1893      0.0000      0.0000      0.0000
 19      0.4010      0.4719      0.4128      0.6131      0.0837      0.3779      0.1738      0.6572      0.3030
 20      0.6060      0.2517      0.0000      0.0000      0.5427      0.4211      0.1971      0.0269      0.0000
 21      0.0000      0.1236      0.2788      0.0862      0.1457      0.0000      0.0000      0.2161      0.0470
 22      0.0000      0.1249      0.5404      0.1894      0.0000      0.0000      0.5792      0.0645      0.0000
 23      0.6821      0.3055      0.2387      0.6111      0.1419      0.4914      0.2826      0.0752      0.0000
 24      0.0000      0.0911      0.3189      0.0000      0.0000      0.0679      0.3149      0.2191      0.1327
 25      0.1125      0.2707      0.4291      0.6772      0.0898      0.3470      0.5090      0.0000      0.5571
 26      0.0000      0.1339      0.0000      0.0000      0.2539      0.1883      0.0357      0.0000      0.2180
 27      0.0000      0.1571      0.0082      0.1341      0.3004      0.0000      0.0000      0.0939      0.4122
 28      1.4432      0.8401      0.5348      0.4894      0.9601      1.5138      0.6266      0.4275      0.7335
 29      6.9904      2.3644      2.9295      3.5793      1.1726      3.1969      2.8537      3.1956      2.6894
 30      2.9369      0.8874      0.8541      0.9926      1.3141      0.3564      1.1365      1.2885      0.7791
 31      1.6694      1.2454      1.0541      1.0541      1.8249      1.0671      1.1706      0.5744      0.9072
 32      0.3959      0.3798      0.3871      0.7971      0.3973      0.6191      0.3983      0.8657      0.1532
 33      0.7046      0.8759      0.9588      0.9007      1.0916      0.7540      1.1314      0.8728      0.4945
 34      1.5774      2.4573      2.2778      2.4362      2.2778      2.1379      2.4987      2.2435      2.4874
 35      0.2474      0.5295      0.5635      0.4908      1.0429      0.4744      0.3922      0.6319      0.4405
 36      0.3260      0.4546      0.2490      0.2675      0.5416      0.3100      0.6670      0.5165      0.3992
 37      1.7397      1.9566      1.4485      1.7090      2.1859      1.9271      2.0495      1.6911      1.8199
 38      0.4839      0.6314      0.7763      0.7695      0.6648      0.5140      0.6346      0.9936      0.6190
 39      1.7977      1.3893      1.5346      1.2947      1.5029      1.4830      1.1179      1.3022      1.5342
 40      0.4524      1.3392      1.4874      1.3258      1.2211      1.1778      1.2576      1.3189      1.4903
 41      0.4043      1.0579      1.0856      1.1229      1.2922      0.7779      0.9581      0.4294      0.8396
 42      0.4919      0.9103      0.8180      0.5207      0.3836      0.8170      0.9269      1.1433      0.8473
 43      0.7750      0.4818      0.6504      1.0265      0.6401      0.4229      0.6636      0.3431      0.4547
 44      0.4695      1.4087      2.0706      1.6218      1.3842      1.3962      1.5664      1.5788      1.4442
 45      1.2485      0.5346      0.5939      1.4096      0.7126      1.1420      0.3088      1.1059      0.6927
 46     15.5047     16.8046     18.2212     16.5584     16.5657     16.6940     15.6670     16.2791     17.0328
 47      1.2784      2.5383      2.2839      2.6367      1.6754      2.4865      2.6919      1.1306      2.9640
 48      2.7599      3.1378      2.9952      2.3179      2.8220      2.5702      3.3511      3.1652      2.8115
 49      4.5989      5.6718      5.6010      5.2466      5.4842      5.3424      5.5737      5.5991      5.6182
 50      0.0000      0.2444      0.3088      0.2800      0.3790      0.2435      0.3058      0.3368      0.0803
 51      0.0000      0.1295      0.2321      0.1443      0.0000      0.0000      0.0685      0.0266      0.0000
 52      0.0000      0.1420      0.3044      0.2643      0.0329      0.1537      0.0000      0.0945      0.2739
 53      0.0000      0.2177      0.0000      0.0000      0.0000      0.2999      0.4345      0.2299      0.1832
 54      0.0477      0.7518      1.0529      0.5680      0.9719      0.7752      0.2895      0.3281      0.6366
 55      0.0000      0.1284      0.4348      0.0000      0.0000      0.0000      0.5605      0.0000      0.2141
 56      0.0000      0.2648      0.4353      0.2346      0.2504      0.1751      0.2511      0.0000      0.1347
 57      0.9603      0.8544      0.6454      0.7556      0.7823      0.9423      1.1498      0.7895      0.5614
 58      0.7985      1.4274      1.1371      1.3840      1.4687      0.8669      1.4931      1.5191      1.5217
 59      0.0000      0.1231      0.0000      0.0000      0.3660      0.0000      0.0000      0.0000      0.0000
 60      0.9793      1.3735      1.5203      1.3185      1.8422      1.6011      0.5668      1.1465      1.2410
 61     16.1789     21.9470     19.6825     20.6947     21.0808     20.6404     22.5201     20.7501     21.3718
 62      4.0546      4.7706      4.0908      4.8668      5.4127      4.5600      2.9842      6.4099      4.6175
 63      0.0000      0.3116      0.0000      0.2181      0.2316      0.0671      0.5569      0.0000      0.5711
 64      3.2438      3.9064      3.7688      3.5579      3.4943      3.9353      3.6042      3.5736      3.7490
 65      3.4706      4.6708      4.3483      4.4458      4.3178      4.4465      4.4474      4.5128      4.3320
 66      0.0000      0.6886      0.6067      0.7204      0.5638      0.5158      0.3894      0.4837      0.7900

# j      m_j: min, <> & last-chain-values for 1 ...  7 chains
  1  0.0000E+00  3.1728E-04  1.1301E-04  0.0000E+00  9.0230E-04  0.0000E+00  0.0000E+00  3.1674E-03  0.0000E+00
  2  2.2830E-03  8.6509E-04  2.6416E-04  8.2384E-04  1.6537E-04  7.5640E-04  0.0000E+00  0.0000E+00  0.0000E+00
  3  0.0000E+00  3.0387E-04  0.0000E+00  0.0000E+00  0.0000E+00  7.5427E-05  0.0000E+00  0.0000E+00  8.1781E-04
  4  0.0000E+00  2.9370E-04  0.0000E+00  2.2483E-05  2.8354E-04  0.0000E+00  0.0000E+00  0.0000E+00  1.0919E-03
  5  4.8595E-03  6.3667E-03  6.3636E-03  5.3913E-03  6.7999E-03  4.2985E-03  5.5232E-03  8.7945E-03  5.6408E-03
  6  5.2582E-03  2.9104E-03  5.2372E-03  2.3017E-03  1.8521E-03  6.8198E-03  3.8819E-03  3.0648E-03  4.8261E-03
  7  0.0000E+00  4.0188E-03  7.6643E-04  1.7516E-03  0.0000E+00  1.9440E-03  1.1334E-02  1.3115E-02  1.1739E-02
  8  0.0000E+00  1.1024E-02  0.0000E+00  1.1852E-02  1.6398E-02  4.4621E-03  8.0665E-03  6.1800E-03  6.7211E-03
  9  1.9192E-02  1.1882E-02  1.2676E-02  5.5847E-03  1.3954E-02  1.0580E-02  1.0140E-02  1.4126E-02  1.0490E-02
 10  6.3151E-02  3.4636E-02  2.3295E-02  3.4255E-02  3.5989E-02  4.6220E-02  4.0418E-02  3.2426E-02  3.6582E-02
 11  0.0000E+00  7.8796E-03  0.0000E+00  2.1740E-02  0.0000E+00  0.0000E+00  2.8962E-03  3.6735E-02  1.3476E-02
 12  0.0000E+00  1.6393E-02  2.6493E-02  2.0474E-02  1.3377E-02  3.5018E-03  2.2940E-02  1.5011E-02  3.1429E-02
 13  1.4026E+00  3.5948E-01  3.9757E-01  6.4937E-01  4.6679E-01  8.9449E-01  6.8525E-01  6.7235E-01  5.3081E-01
 14  5.6955E+00  1.3678E+00  3.2762E+00  1.9808E+00  2.3169E+00  1.9871E+00  1.7882E+00  1.7239E+00  2.2048E+00
 15  6.1416E-01  7.8335E-01  8.2700E-01  8.5631E-01  1.2423E+00  8.7188E-01  8.2893E-01  6.6445E-01  1.0216E+00
 16  9.1738E-02  5.2358E-01  1.9240E+00  5.1369E-01  1.2808E+00  6.3717E-01  1.2964E+00  0.0000E+00  6.2559E-01
 17  9.0279E+00  7.4100E-01  1.3278E-01  9.2241E-01  9.1721E-01  3.0220E+00  1.5387E+00  2.7346E+00  7.8290E-01
 18  0.0000E+00  6.1738E-04  0.0000E+00  0.0000E+00  0.0000E+00  1.1778E-03  0.0000E+00  0.0000E+00  0.0000E+00
 19  1.1172E-03  1.1436E-03  1.0176E-03  1.5252E-03  2.0748E-04  9.4359E-04  4.2918E-04  1.6368E-03  7.5563E-04
 20  1.8429E-03  6.6601E-04  0.0000E+00  0.0000E+00  1.4690E-03  1.1477E-03  5.3135E-04  7.3263E-05  0.0000E+00
 21  0.0000E+00  3.9703E-04  9.1092E-04  2.8408E-04  4.7864E-04  0.0000E+00  0.0000E+00  7.1306E-04  1.5549E-04
 22  0.0000E+00  6.7848E-04  2.9856E-03  1.0557E-03  0.0000E+00  0.0000E+00  3.2046E-03  3.5997E-04  0.0000E+00
 23  5.7498E-03  2.2404E-03  1.7811E-03  4.6002E-03  1.0646E-03  3.7128E-03  2.1114E-03  5.6650E-04  0.0000E+00
 24  0.0000E+00  9.9438E-04  3.5393E-03  0.0000E+00  0.0000E+00  7.6297E-04  3.5000E-03  2.4569E-03  1.4901E-03
 25  1.9462E-03  4.0729E-03  6.5668E-03  1.0457E-02  1.3818E-03  5.3780E-03  7.8011E-03  0.0000E+00  8.6255E-03
 26  0.0000E+00  3.3675E-03  0.0000E+00  0.0000E+00  6.5335E-03  4.8787E-03  9.1430E-04  0.0000E+00  5.6425E-03
 27  0.0000E+00  7.9063E-03  4.2086E-04  6.9307E-03  1.5469E-02  0.0000E+00  0.0000E+00  4.8589E-03  2.1354E-02
 28  2.4232E-01  1.2271E-01  7.9463E-02  7.3380E-02  1.4349E-01  2.2782E-01  9.3255E-02  6.4166E-02  1.1027E-01
 29  2.0451E+00  6.0177E-01  7.5848E-01  9.3512E-01  3.0534E-01  8.3830E-01  7.3999E-01  8.3580E-01  7.0449E-01
 30  1.7951E+00  4.7190E-01  4.6204E-01  5.4182E-01  7.1495E-01  1.9527E-01  6.1572E-01  7.0410E-01  4.2637E-01
 31  1.7949E+00  1.1650E+00  1.0031E+00  1.0121E+00  1.7465E+00  1.0284E+00  1.1156E+00  5.5214E-01  8.7343E-01
 32  5.7283E-01  4.7802E-01  4.9567E-01  1.0299E+00  5.1166E-01  8.0284E-01  5.1068E-01  1.1197E+00  1.9845E-01
 33  2.2566E+00  2.4405E+00  2.7177E+00  2.5761E+00  3.1117E+00  2.1644E+00  3.2118E+00  2.4990E+00  1.4180E+00
 34  6.8411E+00  9.2713E+00  8.7427E+00  9.4351E+00  8.7930E+00  8.3105E+00  9.6053E+00  8.6987E+00  9.6590E+00
 35  1.3767E-03  2.5633E-03  2.7753E-03  2.4388E-03  5.1657E-03  2.3663E-03  1.9347E-03  3.1437E-03  2.1951E-03
 36  7.3410E-04  8.9051E-04  4.9614E-04  5.3775E-04  1.0855E-03  6.2567E-04  1.3310E-03  1.0397E-03  8.0481E-04
 37  4.2366E-03  4.1453E-03  3.1219E-03  3.7166E-03  4.7383E-03  4.2066E-03  4.4240E-03  3.6820E-03  3.9684E-03
 38  3.1923E-03  3.6240E-03  4.5327E-03  4.5338E-03  3.9038E-03  3.0396E-03  3.7109E-03  5.8606E-03  3.6566E-03
 39  1.7077E-02  1.1481E-02  1.2902E-02  1.0983E-02  1.2708E-02  1.2627E-02  9.4122E-03  1.1059E-02  1.3049E-02
 40  6.9469E-03  1.7889E-02  2.0212E-02  1.8179E-02  1.6689E-02  1.6210E-02  1.7115E-02  1.8105E-02  2.0489E-02
 41  9.6532E-03  2.1976E-02  2.2941E-02  2.3944E-02  2.7463E-02  1.6649E-02  2.0278E-02  9.1655E-03  1.7951E-02
 42  2.1565E-02  3.4717E-02  3.1735E-02  2.0386E-02  1.4968E-02  3.2104E-02  3.6017E-02  4.4811E-02  3.3260E-02
 43  4.9603E-02  2.6830E-02  3.6842E-02  5.8674E-02  3.6466E-02  2.4260E-02  3.7648E-02  1.9635E-02  2.6059E-02
 44  5.1744E-02  1.3505E-01  2.0195E-01  1.5961E-01  1.3578E-01  1.3792E-01  1.5300E-01  1.5555E-01  1.4251E-01
 45  2.7300E-01  1.0169E-01  1.1493E-01  2.7524E-01  1.3869E-01  2.2383E-01  5.9848E-02  2.1620E-01  1.3563E-01
 46  6.2317E+00  5.8758E+00  6.4813E+00  5.9432E+00  5.9263E+00  6.0140E+00  5.5813E+00  5.8495E+00  6.1297E+00
 47  1.0412E+00  1.7984E+00  1.6462E+00  1.9177E+00  1.2146E+00  1.8151E+00  1.9432E+00  8.2323E-01  2.1614E+00
 48  3.9642E+00  3.9208E+00  3.8074E+00  2.9730E+00  3.6078E+00  3.3088E+00  4.2663E+00  4.0645E+00  3.6158E+00
 49  1.5013E+01  1.6107E+01  1.6181E+01  1.5295E+01  1.5935E+01  1.5632E+01  1.6127E+01  1.6341E+01  1.6421E+01
 50  0.0000E+00  1.2853E+00  1.6524E+00  1.5118E+00  2.0398E+00  1.3195E+00  1.6390E+00  1.8207E+00  4.3468E-01
 51  0.0000E+00  3.7348E-04  6.8071E-04  4.2703E-04  0.0000E+00  0.0000E+00  2.0128E-04  7.8752E-05  0.0000E+00
 52  0.0000E+00  2.0976E-04  4.5755E-04  4.0089E-04  4.9786E-05  2.3405E-04  0.0000E+00  1.4350E-04  4.1645E-04
 53  0.0000E+00  4.8458E-04  0.0000E+00  0.0000E+00  0.0000E+00  6.8770E-04  9.8518E-04  5.2583E-04  4.1972E-04
 54  2.5024E-04  3.4283E-03  4.8849E-03  2.6592E-03  4.5351E-03  3.6425E-03  1.3450E-03  1.5377E-03  2.9879E-03
 55  0.0000E+00  9.0188E-04  3.1057E-03  0.0000E+00  0.0000E+00  0.0000E+00  4.0100E-03  0.0000E+00  1.5473E-03
 56  0.0000E+00  3.6803E-03  6.1543E-03  3.3466E-03  3.5601E-03  2.5078E-03  3.5551E-03  0.0000E+00  1.9266E-03
 57  2.0362E-02  1.5760E-02  1.2111E-02  1.4307E-02  1.4765E-02  1.7910E-02  2.1609E-02  1.4966E-02  1.0659E-02
 58  2.8637E-02  4.4535E-02  3.6092E-02  4.4326E-02  4.6886E-02  2.7868E-02  4.7466E-02  4.8710E-02  4.8865E-02
 59  0.0000E+00  8.2644E-03  0.0000E+00  0.0000E+00  2.5144E-02  0.0000E+00  0.0000E+00  0.0000E+00  0.0000E+00
 60  1.4039E-01  1.7129E-01  1.9289E-01  1.6879E-01  2.3508E-01  2.0574E-01  7.2017E-02  1.4695E-01  1.5930E-01
 61  5.0678E+00  5.9806E+00  5.4563E+00  5.7888E+00  5.8775E+00  5.7950E+00  6.2524E+00  5.8109E+00  5.9940E+00
 62  2.3157E+00  2.3703E+00  2.0677E+00  2.4822E+00  2.7516E+00  2.3343E+00  1.5107E+00  3.2729E+00  2.3613E+00
 63  0.0000E+00  3.0804E-01  0.0000E+00  2.2127E-01  2.3425E-01  6.8339E-02  5.6092E-01  0.0000E+00  5.8107E-01
 64  1.0195E+01  1.0681E+01  1.0483E+01  9.9857E+00  9.7753E+00  1.1086E+01  1.0040E+01  1.0041E+01  1.0550E+01
 65  2.3058E+01  2.6996E+01  2.5567E+01  2.6376E+01  2.5533E+01  2.6479E+01  2.6189E+01  2.6804E+01  2.5769E+01
 66  0.0000E+00  5.6222E+00  5.0398E+00  6.0379E+00  4.7098E+00  4.3395E+00  3.2398E+00  4.0584E+00  6.6391E+00

# AV, chi2 & Mass for <> & i_chain = 1 ...  7 solutions
AV       0.2821      0.2826      0.2778      0.2836      0.2857      0.2834      0.2845      0.2847      0.2853
chi2 5.1089E-04  7.2136E-04  6.6989E-04  6.7569E-04  6.8380E-04  6.5975E-04  6.8117E-04  6.8314E-04  6.8539E-04
Mass 2.1407E-13  2.4626E-13  2.4052E-13  2.4020E-13  2.4169E-13  2.3927E-13  2.4230E-13  2.4030E-13  2.4012E-13
  81.46                                  [v0_min (km/s) before EX0s...]
 248.77                                  [vd_min (km/s) before EX0s...]


## Synthetic spectrum (Best Model) ##l_obs f_obs f_syn wei
 3478    [Nl_obs]
 3741.00    0.87333   0.55012    0.000
 3742.00    1.01029   0.56009    0.000
 3743.00    0.97849   0.56003    0.000
 3744.00    0.83957   0.55101    0.000
 3745.00    0.63823   0.53532    0.035
 3746.00    0.53966   0.51557    0.034
 3747.00    0.49328   0.49574    0.032
 3748.00    0.32497   0.47955    0.031
 3749.00    0.10303   0.46855    0.031
 3750.00    0.40872   0.46660    0.032
 3751.00    0.91360   0.47714    0.033
 3752.00    0.98073   0.49817    0.032
 3753.00    0.90757   0.52347    0.031
 3754.00    0.76338   0.54832    0.030
 3755.00    0.60016   0.57155    0.030
 3756.00    0.67463   0.59039    0.030
 3757.00    0.80127   0.60082    0.030
 3758.00    0.70549   0.60242    0.030
 3759.00    0.57088   0.60012    0.031
 3760.00    0.25910   0.59920    0.043
 3761.00   -0.07620   0.59955    0.000
 3762.00   -0.00414   0.59888    0.000
 3763.00    0.10620   0.59684    0.029
 3764.00    0.47048   0.59389    0.029
 3765.00    0.84940   0.58995    0.029
 3766.00    0.92376   0.58355    0.032
 3767.00    0.98928   0.57363    0.036
 3768.00    0.85881   0.56360    0.034
 3769.00    0.72969   0.55713    0.032
 3770.00    0.63345   0.55394    0.030
 3771.00    0.55396   0.55440    0.028
 3772.00    0.69401   0.56203    0.029
 3773.00    0.81720   0.57754    0.029
 3774.00    0.79240   0.59691    0.028
 3775.00    0.76753   0.61726    0.027
 3776.00    0.74210   0.63902    0.028
 3777.00    0.71522   0.66230    0.028
 3778.00    0.68096   0.68491    0.027
 3779.00    0.64165   0.70494    0.027
 3780.00    0.58165   0.72276    0.027
 3781.00    0.50267   0.73708    0.027
 3782.00    0.35934   0.74514    0.027
 3783.00    0.27685   0.74706    0.027
 3784.00    0.36842   0.74431    0.028
 3785.00    0.44732   0.73655    0.028
 3786.00    0.49529   0.72216    0.028
 3787.00    0.42829   0.70328    0.029
 3788.00    0.11899   0.68470    0.029
 3789.00   -0.03565   0.66701    0.000
 3790.00    0.09301   0.64892    0.028
 3791.00    0.23055   0.63110    0.027
 3792.00    0.38230   0.61394    0.027
 3793.00    0.40303   0.59510    0.027
 3794.00    0.23970   0.57339    0.027
 3795.00    0.24072   0.55171    0.027
 3796.00    0.44490   0.53361    0.027
 3797.00    0.58068   0.52015    0.028
 3798.00    0.64193   0.51214    0.029
 3799.00    0.49901   0.51358    0.029
 3800.00    0.15989   0.52739    0.028
 3801.00    0.06554   0.55074    0.028
 3802.00    0.17860   0.57808    0.028
 3803.00    0.33508   0.60661    0.029
 3804.00    0.52398   0.63541    0.030
 3805.00    0.70698   0.66146    0.030
 3806.00    0.88610   0.68210    0.030
 3807.00    0.81487   0.69732    0.028
 3808.00    0.59998   0.70914    0.027
 3809.00    0.51529   0.71890    0.027
 3810.00    0.49568   0.72528    0.027
 3811.00    0.48983   0.72675    0.028
 3812.00    0.48993   0.72338    0.031
 3813.00    0.69515   0.71610    0.030
 3814.00    0.97643   0.70608    0.029
 3815.00    0.91761   0.69483    0.027
 3816.00    0.75187   0.68343    0.026
 3817.00    0.47287   0.67402    0.026
 3818.00    0.16414   0.66782    0.025
 3819.00    0.14614   0.66166    0.025
 3820.00    0.19041   0.65261    0.024
 3821.00    0.33898   0.64291    0.025
 3822.00    0.50525   0.63601    0.026
 3823.00    0.56671   0.62968    0.027
 3824.00    0.61471   0.61895    0.028
 3825.00    0.41072   0.60428    0.027
 3826.00    0.18410   0.59033    0.025
 3827.00    0.17794   0.57771    0.025
 3828.00    0.18363   0.56330    0.026
 3829.00    0.34641   0.54622    0.027
 3830.00    0.51133   0.52824    0.028
 3831.00    0.59181   0.51006    0.028
 3832.00    0.66723   0.49071    0.029
 3833.00    0.62998   0.47091    0.028
 3834.00    0.60144   0.45398    0.027
 3835.00    0.68107   0.44237    0.028
 3836.00    0.77292   0.43750    0.028
 3837.00    0.96799   0.44066    0.036
 3838.00    1.12732   0.45157    0.046
 3839.00    1.06183   0.46919    0.036
 3840.00    0.99647   0.49278    0.030
 3841.00    0.93177   0.52081    0.029
 3842.00    0.91061   0.55163    0.028
 3843.00    1.06372   0.58338    0.030
 3844.00    1.11168   0.61298    0.032
 3845.00    0.81004   0.63841    0.030
 3846.00    0.58564   0.65934    0.029
 3847.00    0.57809   0.67698    0.000
 3848.00    0.49998   0.69191    0.000
 3849.00    0.25238   0.70245    0.000
 3850.00    0.03568   0.70829    0.000
 3851.00   -0.11695   0.71259    0.000
 3852.00   -0.16130   0.71745    0.000
 3853.00   -0.01036   0.72056    0.000
 3854.00    0.16266   0.71988    0.000
 3855.00    0.37047   0.71661    0.000
 3856.00    0.50048   0.71244    0.000
 3857.00    0.52279   0.70880    0.000
 3858.00    0.52606   0.70667    0.000
 3859.00    0.50613   0.70501    0.000
 3860.00    0.55623   0.70473    0.000
 3861.00    0.68156   0.70910    0.000
 3862.00    0.75359   0.71799    0.000
 3863.00    0.77512   0.72748    0.000
 3864.00    0.71739   0.73513    0.000
 3865.00    0.59345   0.74109    0.000
 3866.00    0.67065   0.74491    0.000
 3867.00    0.89578   0.74558    0.000
 3868.00    1.05511   0.74276    0.000
 3869.00    1.17194   0.73732    0.000
 3870.00    1.01367   0.73048    0.000
 3871.00    0.69995   0.72284    0.000
 3872.00    0.61250   0.71486    0.000
 3873.00    0.63634   0.70741    0.000
 3874.00    0.55486   0.70223    0.000
 3875.00    0.42859   0.69947    0.000
 3876.00    0.32555   0.69691    0.000
 3877.00    0.23098   0.69183    0.000
 3878.00    0.39030   0.68356    0.000
 3879.00    0.62789   0.67433    0.000
 3880.00    0.59785   0.66660    0.000
 3881.00    0.49911   0.65704    0.026
 3882.00    0.56479   0.64150    0.026
 3883.00    0.66486   0.62302    0.026
 3884.00    0.59593   0.60586    0.026
 3885.00    0.49913   0.58769    0.026
 3886.00    0.45072   0.56607    0.026
 3887.00    0.40830   0.54631    0.026
 3888.00    0.37047   0.53414    0.026
 3889.00    0.33303   0.52915    0.026
 3890.00    0.27888   0.53112    0.026
 3891.00    0.22389   0.54245    0.026
 3892.00    0.15032   0.56190    0.026
 3893.00    0.07882   0.58498    0.026
 3894.00    0.16040   0.60829    0.026
 3895.00    0.25302   0.63043    0.025
 3896.00    0.57148   0.65076    0.026
 3897.00    0.86751   0.66964    0.026
 3898.00    0.89823   0.68597    0.025
 3899.00    0.91843   0.69775    0.025
 3900.00    0.85295   0.70689    0.024
 3901.00    0.81821   0.71644    0.024
 3902.00    0.97124   0.72536    0.024
 3903.00    1.08318   0.73091    0.024
 3904.00    0.99735   0.73549    0.022
 3905.00    0.90102   0.74224    0.021
 3906.00    0.76360   0.74972    0.021
 3907.00    0.67510   0.75827    0.021
 3908.00    0.74604   0.77049    0.022
 3909.00    0.76930   0.78468    0.022
 3910.00    0.66108   0.79696    0.022
 3911.00    0.60659   0.80711    0.023
 3912.00    0.67895   0.81578    0.023
 3913.00    0.72262   0.82038    0.024
 3914.00    0.70775   0.81945    0.024
 3915.00    0.60586   0.81505    0.025
 3916.00    0.34940   0.80844    0.025
 3917.00    0.25839   0.79894    0.025
 3918.00    0.42445   0.78797    0.025
 3919.00    0.46709   0.77725    0.025
 3920.00    0.34133   0.76663    0.025
 3921.00    0.20498   0.75587    0.025
 3922.00    0.05591   0.74565    0.025
 3923.00    0.13535   0.73535    0.026
 3924.00    0.45681   0.72283    0.026
 3925.00    0.64376   0.70648    0.026
 3926.00    0.70506   0.68484    0.027
 3927.00    0.67342   0.65769    0.027
 3928.00    0.56526   0.62537    0.027
 3929.00    0.47846   0.58868    0.027
 3930.00    0.40715   0.54982    0.026
 3931.00    0.47010   0.51253    0.027
 3932.00    0.61849   0.48041    0.028
 3933.00    0.52926   0.45606    0.028
 3934.00    0.30780   0.44238    0.027
 3935.00    0.32357   0.44218    0.027
 3936.00    0.45418   0.45566    0.027
 3937.00    0.71134   0.47975    0.027
 3938.00    1.02142   0.51076    0.027
 3939.00    0.74193   0.54602    0.026
 3940.00    0.25153   0.58221    0.026
 3941.00    0.38781   0.61566    0.026
 3942.00    0.71351   0.64496    0.027
 3943.00    0.91323   0.67010    0.027
 3944.00    1.08130   0.69034    0.027
 3945.00    0.90306   0.70724    0.027
 3946.00    0.65420   0.72425    0.026
 3947.00    0.73668   0.74040    0.026
 3948.00    0.87222   0.75189    0.026
 3949.00    1.11476   0.76047    0.027
 3950.00    1.37008   0.77062    0.028
 3951.00    1.06640   0.78052    0.027
 3952.00    0.71719   0.78490    0.026
 3953.00    0.74270   0.78456    0.026
 3954.00    0.78543   0.78478    0.026
 3955.00    0.66421   0.78491    0.025
 3956.00    0.53984   0.77892    0.025
 3957.00    0.36017   0.76612    0.025
 3958.00    0.19588   0.75122    0.025
 3959.00    0.32320   0.73469    0.025
 3960.00    0.44501   0.71186    0.000
 3961.00    0.50493   0.68068    0.000
 3962.00    0.58164   0.64405    0.000
 3963.00    0.79031   0.60522    0.000
 3964.00    0.94606   0.56407    0.000
 3965.00    0.78774   0.52003    0.000
 3966.00    0.60400   0.47613    0.000
 3967.00    0.30088   0.43736    0.000
 3968.00    0.10235   0.40697    0.000
 3969.00    0.30465   0.38699    0.000
 3970.00    0.46535   0.37998    0.000
 3971.00    0.49315   0.38784    0.000
 3972.00    0.57105   0.40983    0.000
 3973.00    0.78469   0.44284    0.000
 3974.00    0.96676   0.48376    0.000
 3975.00    1.07555   0.53038    0.000
 3976.00    1.06181   0.57921    0.000
 3977.00    0.80196   0.62578    0.000
 3978.00    0.61224   0.66801    0.000
 3979.00    0.54522   0.70601    0.000
 3980.00    0.61356   0.73923    0.000
 3981.00    0.88916   0.76630    0.028
 3982.00    1.17886   0.78707    0.028
 3983.00    1.48750   0.80368    0.028
 3984.00    1.55991   0.81872    0.028
 3985.00    1.35258   0.83265    0.028
 3986.00    1.18905   0.84435    0.027
 3987.00    1.07125   0.85453    0.027
 3988.00    1.03021   0.86573    0.027
 3989.00    1.05987   0.87735    0.027
 3990.00    1.01983   0.88608    0.027
 3991.00    0.92321   0.89232    0.027
 3992.00    0.87737   0.89857    0.027
 3993.00    0.86781   0.90350    0.026
 3994.00    0.90900   0.90488    0.026
 3995.00    0.98200   0.90449    0.026
 3996.00    0.95517   0.90525    0.026
 3997.00    0.87363   0.90627    0.026
 3998.00    0.95078   0.90689    0.026
 3999.00    1.10353   0.91011    0.025
 4000.00    1.15070   0.91666    0.026
 4001.00    1.15447   0.92138    0.026
 4002.00    1.19008   0.92242    0.026
 4003.00    1.23686   0.92402    0.026
 4004.00    1.22727   0.92605    0.026
 4005.00    1.20097   0.92372    0.026
 4006.00    1.12364   0.91926    0.026
 4007.00    1.03377   0.92000    0.025
 4008.00    0.98567   0.92565    0.025
 4009.00    0.94587   0.93111    0.025
 4010.00    0.94198   0.93689    0.025
 4011.00    0.94366   0.94571    0.025
 4012.00    0.90700   0.95575    0.024
 4013.00    0.86592   0.96346    0.024
 4014.00    0.89206   0.96891    0.024
 4015.00    0.92340   0.97435    0.024
 4016.00    0.84933   0.98022    0.024
 4017.00    0.77082   0.98390    0.024
 4018.00    1.05186   0.98511    0.025
 4019.00    1.33380   0.98720    0.025
 4020.00    1.51134   0.98973    0.025
 4021.00    1.67011   0.98867    0.026
 4022.00    1.49800   0.98542    0.025
 4023.00    1.32326   0.98372    0.025
 4024.00    1.12032   0.98199    0.025
 4025.00    0.94710   0.97798    0.025
 4026.00    0.99945   0.97368    0.025
 4027.00    1.02506   0.96960    0.025
 4028.00    0.89646   0.96376    0.025
 4029.00    0.79612   0.95568    0.025
 4030.00    0.82535   0.94550    0.025
 4031.00    0.87215   0.93439    0.025
 4032.00    0.98486   0.92610    0.025
 4033.00    1.06122   0.92287    0.025
 4034.00    1.02361   0.92409    0.025
 4035.00    1.00000   0.93041    0.025
 4036.00    1.01364   0.94210    0.025
 4037.00    1.06792   0.95639    0.025
 4038.00    1.21497   0.96990    0.025
 4039.00    1.27422   0.98044    0.026
 4040.00    1.15989   0.98545    0.026
 4041.00    1.05972   0.98299    0.026
 4042.00    0.98395   0.97510    0.026
 4043.00    0.99409   0.96564    0.026
 4044.00    1.13382   0.95494    0.026
 4045.00    1.09793   0.94216    0.026
 4046.00    0.82924   0.93222    0.026
 4047.00    0.84231   0.93141    0.027
 4048.00    1.18435   0.93735    0.027
 4049.00    1.21764   0.94329    0.027
 4050.00    0.93304   0.94960    0.026
 4051.00    0.85965   0.95805    0.026
 4052.00    0.97806   0.96430    0.026
 4053.00    1.04220   0.96503    0.026
 4054.00    1.06290   0.96176    0.026
 4055.00    0.99470   0.95662    0.026
 4056.00    0.86389   0.95143    0.025
 4057.00    0.92265   0.94689    0.026
 4058.00    1.09852   0.94169    0.026
 4059.00    1.24656   0.93611    0.026
 4060.00    1.37960   0.93196    0.026
 4061.00    1.22387   0.92919    0.026
 4062.00    0.93281   0.92580    0.025
 4063.00    1.03726   0.91979    0.025
 4064.00    1.30150   0.91394    0.025
 4065.00    1.11580   0.91393    0.025
 4066.00    0.77496   0.91804    0.025
 4067.00    0.73838   0.91943    0.024
 4068.00    0.79014   0.92000    0.024
 4069.00    1.02664   0.92556    0.025
 4070.00    1.30752   0.93194    0.025
 4071.00    1.40985   0.93135    0.025
 4072.00    1.47758   0.92614    0.025
 4073.00    1.48891   0.92251    0.025
 4074.00    1.49173   0.91901    0.024
 4075.00    1.24135   0.91221    0.024
 4076.00    0.96297   0.90493    0.024
 4077.00    0.94527   0.90092    0.024
 4078.00    0.94665   0.90063    0.024
 4079.00    1.14772   0.90378    0.024
 4080.00    1.35643   0.91001    0.025
 4081.00    1.11827   0.91873    0.024
 4082.00    0.88833   0.92870    0.024
 4083.00    1.06118   0.93792    0.024
 4084.00    1.22164   0.94592    0.024
 4085.00    1.17800   0.95316    0.024
 4086.00    1.13360   0.95896    0.024
 4087.00    1.08141   0.96360    0.024
 4088.00    1.03587   0.96781    0.024
 4089.00    1.03911   0.97004    0.024
 4090.00    1.01703   0.96917    0.024
 4091.00    0.85289   0.96500    0.024
 4092.00    0.73418   0.95563    0.000
 4093.00    0.81871   0.94070    0.000
 4094.00    0.86918   0.92217    0.000
 4095.00    0.79460   0.89939    0.000
 4096.00    0.74157   0.87115    0.000
 4097.00    0.75481   0.84016    0.000
 4098.00    0.76163   0.80874    0.000
 4099.00    0.75168   0.77859    0.000
 4100.00    0.82349   0.75228    0.000
 4101.00    1.07895   0.73109    0.000
 4102.00    1.21834   0.71775    0.000
 4103.00    1.13189   0.71649    0.000
 4104.00    1.03834   0.72582    0.000
 4105.00    0.93275   0.74158    0.000
 4106.00    0.95133   0.76322    0.000
 4107.00    1.15450   0.78911    0.000
 4108.00    1.20758   0.81454    0.000
 4109.00    1.06455   0.83744    0.000
 4110.00    1.08375   0.85814    0.000
 4111.00    1.28968   0.87631    0.000
 4112.00    1.33653   0.89217    0.000
 4113.00    1.22191   0.90684    0.025
 4114.00    1.24698   0.91998    0.025
 4115.00    1.39713   0.92988    0.025
 4116.00    1.38719   0.93734    0.025
 4117.00    1.25093   0.94388    0.025
 4118.00    1.16122   0.94707    0.024
 4119.00    1.10382   0.94602    0.025
 4120.00    1.04408   0.94515    0.025
 4121.00    0.98291   0.94638    0.025
 4122.00    0.88611   0.94659    0.025
 4123.00    0.77039   0.94568    0.025
 4124.00    0.94385   0.94649    0.025
 4125.00    1.25065   0.94798    0.025
 4126.00    1.26129   0.94756    0.025
 4127.00    1.15433   0.94478    0.025
 4128.00    1.15608   0.94043    0.024
 4129.00    1.19461   0.93494    0.024
 4130.00    1.11157   0.92965    0.024
 4131.00    0.99395   0.92507    0.024
 4132.00    0.84590   0.92205    0.024
 4133.00    0.69072   0.92260    0.023
 4134.00    0.83818   0.92697    0.023
 4135.00    1.04277   0.93465    0.024
 4136.00    1.07567   0.94500    0.024
 4137.00    1.08349   0.95587    0.024
 4138.00    0.95386   0.96468    0.024
 4139.00    0.80962   0.97043    0.024
 4140.00    0.89798   0.97136    0.024
 4141.00    1.00244   0.96800    0.024
 4142.00    1.04179   0.96269    0.024
 4143.00    1.07889   0.95451    0.024
 4144.00    1.10856   0.94558    0.024
 4145.00    1.13092   0.94132    0.024
 4146.00    0.91246   0.94057    0.024
 4147.00    0.72004   0.94004    0.023
 4148.00    0.93035   0.94193    0.023
 4149.00    1.11672   0.94585    0.023
 4150.00    1.06719   0.94751    0.023
 4151.00    1.01848   0.94692    0.023
 4152.00    0.97562   0.94656    0.023
 4153.00    0.94195   0.94533    0.023
 4154.00    0.95848   0.94311    0.023
 4155.00    0.97760   0.94277    0.023
 4156.00    1.00807   0.94508    0.023
 4157.00    0.97143   0.94847    0.022
 4158.00    0.69342   0.95328    0.022
 4159.00    0.52794   0.96173    0.022
 4160.00    0.70201   0.97115    0.022
 4161.00    0.87058   0.97841    0.022
 4162.00    1.02500   0.98536    0.022
 4163.00    1.18488   0.99212    0.023
 4164.00    1.35683   0.99476    0.023
 4165.00    1.45736   0.99364    0.023
 4166.00    1.42106   0.99224    0.023
 4167.00    1.27427   0.98811    0.023
 4168.00    0.94280   0.97927    0.023
 4169.00    0.81434   0.96922    0.023
 4170.00    0.98326   0.95934    0.022
 4171.00    1.02159   0.94775    0.022
 4172.00    0.89174   0.93530    0.023
 4173.00    0.86202   0.92452    0.023
 4174.00    0.94593   0.91643    0.023
 4175.00    1.03968   0.91112    0.023
 4176.00    1.14329   0.90907    0.023
 4177.00    1.19239   0.91060    0.023
 4178.00    1.19337   0.91404    0.023
 4179.00    1.19464   0.91894    0.023
 4180.00    1.19615   0.92586    0.023
 4181.00    1.08677   0.93258    0.023
 4182.00    0.90156   0.93799    0.023
 4183.00    0.78854   0.94318    0.023
 4184.00    0.71879   0.94736    0.023
 4185.00    0.81232   0.95062    0.023
 4186.00    0.99125   0.95457    0.023
 4187.00    1.10730   0.95720    0.023
 4188.00    1.19484   0.95797    0.023
 4189.00    1.11490   0.96210    0.023
 4190.00    0.96961   0.96847    0.023
 4191.00    0.98669   0.97100    0.023
 4192.00    1.05769   0.97161    0.023
 4193.00    1.03130   0.97427    0.023
 4194.00    0.97776   0.97476    0.023
 4195.00    0.99715   0.96787    0.023
 4196.00    1.03326   0.95845    0.023
 4197.00    1.00988   0.95138    0.023
 4198.00    0.97556   0.94215    0.023
 4199.00    1.02812   0.93060    0.023
 4200.00    1.09295   0.92477    0.023
 4201.00    0.88885   0.92432    0.023
 4202.00    0.65732   0.92373    0.023
 4203.00    0.77058   0.92712    0.023
 4204.00    0.90630   0.93683    0.023
 4205.00    0.88302   0.94687    0.022
 4206.00    0.85492   0.95621    0.022
 4207.00    0.86295   0.96755    0.022
 4208.00    0.87602   0.97854    0.022
 4209.00    1.03728   0.98663    0.023
 4210.00    1.18806   0.99215    0.023
 4211.00    1.18625   0.99553    0.023
 4212.00    1.18958   0.99647    0.023
 4213.00    1.24138   0.99524    0.023
 4214.00    1.28842   0.99396    0.023
 4215.00    1.30282   0.99277    0.023
 4216.00    1.29529   0.99092    0.023
 4217.00    1.17127   0.99171    0.023
 4218.00    1.04724   0.99528    0.023
 4219.00    0.92323   0.99559    0.023
 4220.00    0.83766   0.99279    0.023
 4221.00    0.88753   0.98942    0.022
 4222.00    0.91561   0.98059    0.022
 4223.00    0.87918   0.96343    0.022
 4224.00    0.86456   0.94394    0.022
 4225.00    0.90499   0.92737    0.022
 4226.00    0.99711   0.91187    0.022
 4227.00    1.20155   0.89948    0.022
 4228.00    1.26420   0.89774    0.022
 4229.00    1.05946   0.90509    0.022
 4230.00    0.93682   0.91385    0.021
 4231.00    0.94937   0.92582    0.021
 4232.00    0.90040   0.94132    0.021
 4233.00    0.76263   0.95112    0.021
 4234.00    0.82196   0.95613    0.021
 4235.00    1.13156   0.96177    0.021
 4236.00    1.26990   0.96350    0.021
 4237.00    1.21665   0.96291    0.020
 4238.00    1.13097   0.96785    0.020
 4239.00    1.01330   0.97393    0.020
 4240.00    0.97983   0.97838    0.020
 4241.00    1.01962   0.98746    0.021
 4242.00    1.06566   0.99810    0.021
 4243.00    1.11649   1.00364    0.021
 4244.00    1.14406   1.00711    0.021
 4245.00    1.15595   1.01089    0.021
 4246.00    1.15443   1.00932    0.022
 4247.00    1.14499   1.00135    0.022
 4248.00    1.13212   0.99358    0.022
 4249.00    1.11748   0.98744    0.022
 4250.00    1.17169   0.97906    0.022
 4251.00    1.25661   0.97000    0.022
 4252.00    1.15297   0.96661    0.022
 4253.00    0.97704   0.96751    0.022
 4254.00    0.93933   0.96650    0.021
 4255.00    0.94668   0.96595    0.021
 4256.00    0.99952   0.96943    0.021
 4257.00    1.06479   0.97245    0.021
 4258.00    1.03405   0.97258    0.021
 4259.00    0.98180   0.97400    0.021
 4260.00    0.89216   0.97852    0.021
 4261.00    0.79584   0.98324    0.022
 4262.00    0.79883   0.98908    0.022
 4263.00    0.81541   0.99836    0.022
 4264.00    0.96229   1.00648    0.022
 4265.00    1.12189   1.01144    0.022
 4266.00    1.28836   1.01553    0.022
 4267.00    1.45525   1.01434    0.021
 4268.00    1.10786   1.00367    0.021
 4269.00    0.74777   0.98928    0.021
 4270.00    0.61798   0.97514    0.021
 4271.00    0.50165   0.95741    0.020
 4272.00    0.74097   0.94000    0.021
 4273.00    0.95676   0.93185    0.021
 4274.00    0.84905   0.93029    0.021
 4275.00    0.76230   0.93051    0.021
 4276.00    0.86595   0.93773    0.022
 4277.00    0.95749   0.95159    0.022
 4278.00    0.96837   0.96374    0.022
 4279.00    0.99722   0.97344    0.022
 4280.00    1.11908   0.98199    0.022
 4281.00    1.17662   0.98693    0.022
 4282.00    0.96566   0.98762   -2.000
 4283.00    0.76822   0.98393   -2.000
 4284.00    0.61749   0.97764   -2.000
 4285.00    0.53445   0.97063   -2.000
 4286.00    0.64822   0.96033   -2.000
 4287.00    0.76851   0.94889   -2.000
 4288.00    0.90497   0.93984   -2.000
 4289.00    1.06342   0.93081   -2.000
 4290.00    1.26888   0.92219   -2.000
 4291.00    1.31885   0.91725   -2.000
 4292.00    1.08013   0.91591   -2.000
 4293.00    0.90328   0.91461   -2.000
 4294.00    0.82679   0.91184   -2.000
 4295.00    0.84909   0.90863   -2.000
 4296.00    1.01193   0.90314   -2.000
 4297.00    1.03905   0.89257   -2.000
 4298.00    0.89632   0.87848    0.022
 4299.00    0.88382   0.86310    0.022
 4300.00    1.01498   0.84639    0.022
 4301.00    0.97513   0.83224    0.022
 4302.00    0.76890   0.82156    0.022
 4303.00    0.67295   0.81122    0.022
 4304.00    0.67161   0.80526    0.022
 4305.00    0.82772   0.80409    0.022
 4306.00    1.10283   0.80258    0.022
 4307.00    1.10579   0.80341    0.022
 4308.00    0.92801   0.80812    0.022
 4309.00    0.91486   0.81444    0.022
 4310.00    0.99742   0.82559    0.022
 4311.00    1.11139   0.84159    0.022
 4312.00    1.24126   0.86059    0.022
 4313.00    1.25103   0.88533    0.022
 4314.00    1.20810   0.91341    0.022
 4315.00    1.15546   0.94059    0.022
 4316.00    1.09917   0.96825    0.022
 4317.00    1.00861   0.99394    0.022
 4318.00    0.90709   1.01135    0.022
 4319.00    0.98100   1.02207    0.022
 4320.00    1.10180   1.02730    0.022
 4321.00    1.10649   1.02243    0.022
 4322.00    1.08578   1.00982    0.022
 4323.00    1.02656   0.99502    0.022
 4324.00    0.96065   0.97863    0.022
 4325.00    0.90859   0.96346    0.022
 4326.00    0.85837   0.95367    0.022
 4327.00    1.08330   0.94968    0.022
 4328.00    1.33394   0.95196    0.022
 4329.00    1.25292   0.95890    0.022
 4330.00    1.15292   0.96684    0.000
 4331.00    1.17905   0.97406    0.000
 4332.00    1.20722   0.97896    0.000
 4333.00    1.13243   0.97722    0.000
 4334.00    1.05382   0.96538    0.000
 4335.00    0.88317   0.94710    0.000
 4336.00    0.73113   0.92464    0.000
 4337.00    0.82132   0.89400    0.000
 4338.00    0.91125   0.86028    0.000
 4339.00    0.99903   0.83372    0.000
 4340.00    1.07045   0.81223    0.000
 4341.00    1.03628   0.79565    0.000
 4342.00    1.01528   0.79462    0.000
 4343.00    1.06073   0.80714    0.000
 4344.00    1.08695   0.82338    0.000
 4345.00    1.03469   0.84686    0.000
 4346.00    0.97437   0.87755    0.000
 4347.00    0.88681   0.90408    0.000
 4348.00    0.86398   0.92426    0.000
 4349.00    1.02581   0.94261    0.000
 4350.00    1.13718   0.95686    0.000
 4351.00    1.12552   0.96406    0.023
 4352.00    1.14429   0.96796    0.023
 4353.00    1.22706   0.97419    0.022
 4354.00    1.27624   0.98230    0.022
 4355.00    1.26402   0.98911    0.022
 4356.00    1.23694   0.99816    0.023
 4357.00    1.18614   1.01211    0.022
 4358.00    1.27996   1.02582    0.022
 4359.00    1.57656   1.03716    0.022
 4360.00    1.60814   1.04949    0.022
 4361.00    1.31275   1.06253    0.022
 4362.00    1.13718   1.07315    0.022
 4363.00    1.09191   1.08098    0.022
 4364.00    1.17461   1.08717    0.022
 4365.00    1.38008   1.09142    0.022
 4366.00    1.42888   1.09204    0.022
 4367.00    1.34514   1.08828    0.022
 4368.00    1.25447   1.08211    0.022
 4369.00    1.15866   1.07552    0.021
 4370.00    1.08251   1.06721    0.021
 4371.00    1.01924   1.05707    0.022
 4372.00    1.02441   1.04862    0.022
 4373.00    1.06878   1.04247    0.022
 4374.00    1.14494   1.03637    0.022
 4375.00    1.23696   1.03170    0.022
 4376.00    1.21112   1.02997    0.022
 4377.00    1.13443   1.02876    0.022
 4378.00    1.19343   1.02647    0.022
 4379.00    1.30265   1.02267    0.022
 4380.00    1.19691   1.01517    0.022
 4381.00    1.02377   1.00367    0.021
 4382.00    0.91362   0.99039    0.021
 4383.00    0.81994   0.97550    0.021
 4384.00    0.96454   0.96071    0.021
 4385.00    1.16002   0.95125    0.021
 4386.00    1.11950   0.94841    0.021
 4387.00    1.03906   0.94971    0.021
 4388.00    1.13033   0.95568    0.021
 4389.00    1.24355   0.96732    0.021
 4390.00    1.22964   0.98085    0.021
 4391.00    1.20438   0.99245    0.021
 4392.00    1.14357   1.00370    0.021
 4393.00    1.08087   1.01567    0.021
 4394.00    1.14928   1.02503    0.021
 4395.00    1.21948   1.03128    0.021
 4396.00    1.22724   1.03780    0.021
 4397.00    1.23360   1.04351    0.021
 4398.00    1.20923   1.04484    0.021
 4399.00    1.18274   1.04438    0.021
 4400.00    1.13002   1.04361    0.021
 4401.00    1.08178   1.03808    0.021
 4402.00    1.07131   1.03042    0.021
 4403.00    1.05388   1.02558    0.021
 4404.00    0.99280   1.01919    0.021
 4405.00    0.96196   1.01195    0.021
 4406.00    1.07981   1.01139    0.021
 4407.00    1.17859   1.01503    0.021
 4408.00    1.20126   1.01793    0.021
 4409.00    1.20190   1.02483    0.021
 4410.00    1.12949   1.03702    0.021
 4411.00    1.05269   1.04647    0.021
 4412.00    0.96358   1.05181    0.021
 4413.00    0.92708   1.05851    0.021
 4414.00    1.01669   1.06320    0.021
 4415.00    1.11936   1.06182    0.021
 4416.00    1.24909   1.06144    0.021
 4417.00    1.32165   1.06441    0.021
 4418.00    1.29131   1.06541    0.021
 4419.00    1.28653   1.06740    0.021
 4420.00    1.32199   1.07317    0.021
 4421.00    1.37622   1.07784    0.021
 4422.00    1.45639   1.08043    0.021
 4423.00    1.45751   1.08306    0.021
 4424.00    1.36251   1.08465    0.021
 4425.00    1.21912   1.08451    0.021
 4426.00    1.02385   1.08375    0.021
 4427.00    0.95880   1.08241    0.021
 4428.00    1.01692   1.08051    0.021
 4429.00    1.03096   1.07901    0.021
 4430.00    1.00825   1.07624    0.021
 4431.00    1.10938   1.07205    0.021
 4432.00    1.30142   1.06950    0.021
 4433.00    1.36285   1.06721    0.021
 4434.00    1.34007   1.06455    0.021
 4435.00    1.24179   1.06463    0.021
 4436.00    1.10093   1.06704    0.021
 4437.00    1.11080   1.07064    0.021
 4438.00    1.19468   1.07517    0.021
 4439.00    1.24879   1.07968    0.022
 4440.00    1.29027   1.08367    0.022
 4441.00    1.25184   1.08583    0.022
 4442.00    1.18438   1.08684    0.021
 4443.00    1.26035   1.08828    0.021
 4444.00    1.38042   1.08921    0.021
 4445.00    1.33123   1.09153    0.021
 4446.00    1.23870   1.09674    0.021
 4447.00    1.25431   1.10070    0.021
 4448.00    1.29246   1.10362    0.021
 4449.00    1.15749   1.10740    0.021
 4450.00    0.99407   1.10689    0.021
 4451.00    1.11128   1.10138    0.021
 4452.00    1.26309   1.09466    0.021
 4453.00    1.20239   1.08492    0.021
 4454.00    1.12361   1.07216    0.020
 4455.00    1.03763   1.05918    0.020
 4456.00    0.95130   1.04689    0.020
 4457.00    1.18225   1.03699    0.020
 4458.00    1.41370   1.02925    0.021
 4459.00    1.36008   1.02319    0.021
 4460.00    1.30300   1.02212    0.021
 4461.00    1.17607   1.02463    0.000
 4462.00    1.06449   1.02698    0.000
 4463.00    1.13336   1.03257    0.000
 4464.00    1.19379   1.04123    0.000
 4465.00    1.18582   1.04776    0.000
 4466.00    1.15647   1.05408    0.000
 4467.00    0.99700   1.06202    0.000
 4468.00    0.88089   1.06875    0.000
 4469.00    0.97285   1.07475    0.000
 4470.00    1.06982   1.08254    0.000
 4471.00    1.18635   1.09226    0.000
 4472.00    1.25559   1.10237    0.000
 4473.00    1.17101   1.11304    0.000
 4474.00    1.15159   1.12483    0.000
 4475.00    1.31144   1.13486    0.000
 4476.00    1.40456   1.14117    0.000
 4477.00    1.34043   1.14496    0.000
 4478.00    1.27750   1.14536    0.000
 4479.00    1.21703   1.14139    0.000
 4480.00    1.19986   1.13597    0.000
 4481.00    1.25945   1.13097    0.000
 4482.00    1.25311   1.12623    0.020
 4483.00    1.14453   1.12394    0.020
 4484.00    1.10516   1.12496    0.020
 4485.00    1.16003   1.12693    0.020
 4486.00    1.23171   1.12946    0.020
 4487.00    1.32354   1.13229    0.021
 4488.00    1.35889   1.13298    0.021
 4489.00    1.33452   1.13152    0.021
 4490.00    1.30547   1.12939    0.021
 4491.00    1.27206   1.12617    0.021
 4492.00    1.23682   1.12266    0.021
 4493.00    1.20010   1.12088    0.021
 4494.00    1.16414   1.12010    0.021
 4495.00    1.12872   1.12070    0.021
 4496.00    1.07692   1.12423    0.020
 4497.00    1.01471   1.12954    0.020
 4498.00    1.05589   1.13622    0.020
 4499.00    1.15450   1.14499    0.020
 4500.00    1.27310   1.15561    0.021
 4501.00    1.40134   1.16660    0.021
 4502.00    1.46033   1.17716    0.021
 4503.00    1.49042   1.18861    0.020
 4504.00    1.43118   1.19902    0.020
 4505.00    1.34004   1.20644    0.020
 4506.00    1.38585   1.21281    0.020
 4507.00    1.47295   1.21718    0.020
 4508.00    1.46133   1.21808    0.020
 4509.00    1.42498   1.21693    0.020
 4510.00    1.44395   1.21424    0.020
 4511.00    1.47416   1.20983    0.020
 4512.00    1.46981   1.20365    0.020
 4513.00    1.45995   1.19713    0.020
 4514.00    1.42826   1.19096    0.020
 4515.00    1.39398   1.18399    0.020
 4516.00    1.25335   1.17813    0.020
 4517.00    1.10412   1.17388    0.020
 4518.00    1.14244   1.16941    0.020
 4519.00    1.18929   1.16596    0.020
 4520.00    1.24308   1.16240    0.020
 4521.00    1.29755   1.15749    0.020
 4522.00    1.38273   1.15170    0.020
 4523.00    1.45773   1.14275    0.020
 4524.00    1.34173   1.13221    0.020
 4525.00    1.22688   1.12071    0.020
 4526.00    1.12475   1.10658    0.020
 4527.00    1.04947   1.09357    0.020
 4528.00    1.18424   1.08219    0.020
 4529.00    1.30708   1.07166    0.020
 4530.00    1.35946   1.06516    0.021
 4531.00    1.36945   1.06171    0.021
 4532.00    1.18108   1.06112    0.020
 4533.00    1.03396   1.06462    0.020
 4534.00    1.04453   1.07059    0.020
 4535.00    1.04268   1.07926    0.021
 4536.00    1.00124   1.08984    0.020
 4537.00    0.97670   1.10154    0.020
 4538.00    0.99783   1.11374    0.021
 4539.00    1.02782   1.12402    0.021
 4540.00    1.07831   1.13323    0.021
 4541.00    1.18343   1.14022    0.020
 4542.00    1.39805   1.14314    0.020
 4543.00    1.52643   1.14457    0.020
 4544.00    1.50425   1.14366    0.020
 4545.00    1.46831   1.13999    0.020
 4546.00    1.41137   1.13597    0.020
 4547.00    1.36545   1.13064    0.020
 4548.00    1.33436   1.12515    0.020
 4549.00    1.31871   1.12031    0.020
 4550.00    1.32132   1.11503    0.000
 4551.00    1.40324   1.11231    0.000
 4552.00    1.56785   1.11106    0.000
 4553.00    1.63785   1.11026    0.000
 4554.00    1.62087   1.11359    0.000
 4555.00    1.52027   1.11881    0.000
 4556.00    1.35188   1.12484    0.000
 4557.00    1.32198   1.13411    0.000
 4558.00    1.39085   1.14367    0.000
 4559.00    1.42787   1.15227    0.000
 4560.00    1.44496   1.16073    0.000
 4561.00    1.30837   1.16658    0.000
 4562.00    1.08773   1.17020    0.000
 4563.00    1.14063   1.17216    0.000
 4564.00    1.32356   1.17225    0.000
 4565.00    1.42459   1.17250    0.000
 4566.00    1.49204   1.17231    0.000
 4567.00    1.52175   1.17287    0.000
 4568.00    1.53822   1.17511    0.000
 4569.00    1.43559   1.17600    0.000
 4570.00    1.29776   1.17803    0.000
 4571.00    1.31049   1.18079    0.000
 4572.00    1.36010   1.18058    0.000
 4573.00    1.32172   1.18151    0.000
 4574.00    1.26589   1.18240    0.000
 4575.00    1.19533   1.17989    0.000
 4576.00    1.12249   1.17782    0.000
 4577.00    1.27661   1.17458    0.000
 4578.00    1.45670   1.16801    0.000
 4579.00    1.29297   1.16147    0.000
 4580.00    1.10284   1.15441    0.000
 4581.00    1.02112   1.14636    0.000
 4582.00    0.94391   1.14045    0.000
 4583.00    1.08678   1.13642    0.000
 4584.00    1.22838   1.13379    0.000
 4585.00    1.23319   1.13467    0.000
 4586.00    1.23989   1.13728    0.000
 4587.00    1.27960   1.14057    0.000
 4588.00    1.31120   1.14553    0.000
 4589.00    1.25614   1.14948    0.000
 4590.00    1.20703   1.15201    0.000
 4591.00    1.20297   1.15414    0.000
 4592.00    1.20276   1.15403    0.000
 4593.00    1.22465   1.15267    0.000
 4594.00    1.23647   1.15166    0.000
 4595.00    1.20227   1.14947    0.000
 4596.00    1.18717   1.14788    0.000
 4597.00    1.24357   1.14788    0.000
 4598.00    1.27971   1.14706    0.000
 4599.00    1.25248   1.14774    0.000
 4600.00    1.22174   1.14966    0.000
 4601.00    1.18165   1.15076    0.000
 4602.00    1.16622   1.15389    0.000
 4603.00    1.20698   1.15785    0.000
 4604.00    1.21885   1.16216    0.000
 4605.00    1.17369   1.16857    0.000
 4606.00    1.15598   1.17564    0.000
 4607.00    1.18546   1.18340    0.000
 4608.00    1.26942   1.19119    0.000
 4609.00    1.43541   1.19857    0.000
 4610.00    1.47699   1.20510    0.000
 4611.00    1.35393   1.20896    0.000
 4612.00    1.25890   1.21223    0.000
 4613.00    1.19653   1.21396    0.000
 4614.00    1.23502   1.21285    0.000
 4615.00    1.37719   1.21315    0.000
 4616.00    1.44124   1.21264    0.000
 4617.00    1.43450   1.21055    0.000
 4618.00    1.42783   1.21142    0.000
 4619.00    1.42122   1.21170    0.000
 4620.00    1.47442   1.21107    0.000
 4621.00    1.56967   1.21311    0.000
 4622.00    1.61262   1.21417    0.000
 4623.00    1.62332   1.21409    0.000
 4624.00    1.48406   1.21532    0.000
 4625.00    1.26402   1.21528    0.000
 4626.00    1.21027   1.21398    0.000
 4627.00    1.23429   1.21295    0.000
 4628.00    1.27607   1.21122    0.000
 4629.00    1.32501   1.20877    0.000
 4630.00    1.35514   1.20614    0.000
 4631.00    1.37879   1.20340    0.000
 4632.00    1.40968   1.19985    0.000
 4633.00    1.44267   1.19563    0.000
 4634.00    1.44053   1.19170    0.000
 4635.00    1.42997   1.18672    0.000
 4636.00    1.33809   1.18157    0.000
 4637.00    1.23050   1.17740    0.000
 4638.00    1.15281   1.17278    0.000
 4639.00    1.07961   1.16931    0.000
 4640.00    1.17397   1.16647    0.000
 4641.00    1.28678   1.16297    0.000
 4642.00    1.28716   1.16062    0.000
 4643.00    1.27937   1.15714    0.000
 4644.00    1.27485   1.15243    0.000
 4645.00    1.27045   1.14887    0.000
 4646.00    1.31588   1.14416    0.000
 4647.00    1.35707   1.14007    0.000
 4648.00    1.23180   1.13899    0.000
 4649.00    1.12392   1.13819    0.000
 4650.00    1.30024   1.13977    0.000
 4651.00    1.45272   1.14428    0.000
 4652.00    1.36122   1.14827    0.000
 4653.00    1.26689   1.15389    0.000
 4654.00    1.15191   1.16011    0.000
 4655.00    1.08324   1.16512    0.000
 4656.00    1.27342   1.17160    0.000
 4657.00    1.42361   1.17740    0.000
 4658.00    1.39534   1.18214    0.000
 4659.00    1.36574   1.18716    0.000
 4660.00    1.33123   1.18956    0.000
 4661.00    1.30627   1.18885    0.000
 4662.00    1.31060   1.18539    0.000
 4663.00    1.31069   1.17834    0.000
 4664.00    1.29970   1.16792    0.000
 4665.00    1.29172   1.15582    0.000
 4666.00    1.29046   1.14387    0.000
 4667.00    1.27398   1.13279    0.000
 4668.00    1.22792   1.12489    0.000
 4669.00    1.20047   1.12137    0.000
 4670.00    1.20449   1.12111    0.000
 4671.00    1.19867   1.12549    0.000
 4672.00    1.17821   1.13311    0.000
 4673.00    1.18607   1.14088    0.000
 4674.00    1.23087   1.14993    0.000
 4675.00    1.23125   1.15814    0.000
 4676.00    1.18058   1.16333    0.000
 4677.00    1.22270   1.16719    0.000
 4678.00    1.35883   1.16898    0.000
 4679.00    1.39522   1.16856    0.000
 4680.00    1.34247   1.16754    0.000
 4681.00    1.24802   1.16632    0.000
 4682.00    1.12071   1.16522    0.000
 4683.00    1.10018   1.16512    0.000
 4684.00    1.15361   1.16603    0.000
 4685.00    1.23954   1.16698    0.000
 4686.00    1.34522   1.16869    0.000
 4687.00    1.34837   1.17087    0.000
 4688.00    1.29716   1.17190    0.000
 4689.00    1.24257   1.17312    0.000
 4690.00    1.18644   1.17471    0.000
 4691.00    1.19644   1.17532    0.000
 4692.00    1.23265   1.17635    0.000
 4693.00    1.16651   1.17749    0.000
 4694.00    1.06580   1.17755    0.000
 4695.00    1.00122   1.17759    0.000
 4696.00    0.94689   1.17630    0.000
 4697.00    1.04260   1.17289    0.000
 4698.00    1.17344   1.16858    0.000
 4699.00    1.16493   1.16313    0.000
 4700.00    1.13022   1.15679    0.000
 4701.00    1.23777   1.14992    0.000
 4702.00    1.36601   1.14394    0.000
 4703.00    1.24872   1.13953    0.000
 4704.00    1.10547   1.13559    0.000
 4705.00    1.09951   1.13330    0.000
 4706.00    1.10298   1.13305    0.000
 4707.00    1.17576   1.13365    0.000
 4708.00    1.25089   1.13551    0.000
 4709.00    1.21358   1.13825    0.000
 4710.00    1.17968   1.14166    0.000
 4711.00    1.26243   1.14694    0.000
 4712.00    1.34671   1.15222    0.000
 4713.00    1.45436   1.15761    0.000
 4714.00    1.53119   1.16521    0.000
 4715.00    1.30585   1.17255    0.000
 4716.00    1.12863   1.18025    0.000
 4717.00    1.29163   1.18913    0.000
 4718.00    1.42563   1.19730    0.000
 4719.00    1.40185   1.20559    0.000
 4720.00    1.36318   1.21261    0.000
 4721.00    1.25958   1.21744    0.000
 4722.00    1.18662   1.22083    0.000
 4723.00    1.22354   1.22143    0.000
 4724.00    1.23505   1.21914    0.000
 4725.00    1.17008   1.21391    0.000
 4726.00    1.14748   1.20651    0.000
 4727.00    1.23344   1.19830    0.000
 4728.00    1.31596   1.18872    0.000
 4729.00    1.39087   1.17963    0.000
 4730.00    1.42855   1.17282    0.000
 4731.00    1.39502   1.16719    0.000
 4732.00    1.33491   1.16441    0.000
 4733.00    1.23045   1.16509    0.000
 4734.00    1.17761   1.16612    0.000
 4735.00    1.20025   1.16949    0.000
 4736.00    1.21702   1.17500    0.000
 4737.00    1.22627   1.17898    0.000
 4738.00    1.24470   1.18429    0.000
 4739.00    1.27356   1.18946    0.000
 4740.00    1.29502   1.19274    0.000
 4741.00    1.30907   1.19820    0.000
 4742.00    1.29325   1.20261    0.000
 4743.00    1.25109   1.20504    0.000
 4744.00    1.23767   1.20952    0.000
 4745.00    1.24658   1.21344    0.000
 4746.00    1.30033   1.21574    0.000
 4747.00    1.38467   1.21798    0.000
 4748.00    1.41108   1.21914    0.000
 4749.00    1.40281   1.21950    0.000
 4750.00    1.34551   1.21873    0.000
 4751.00    1.26262   1.21595    0.000
 4752.00    1.20897   1.21248    0.000
 4753.00    1.16857   1.20888    0.000
 4754.00    1.32953   1.20412    0.000
 4755.00    1.56890   1.19930    0.000
 4756.00    1.51983   1.19513    0.000
 4757.00    1.37519   1.19061    0.000
 4758.00    1.36990   1.18665    0.000
 4759.00    1.40335   1.18234    0.000
 4760.00    1.39075   1.17706    0.000
 4761.00    1.36763   1.17193    0.020
 4762.00    1.33992   1.16613    0.020
 4763.00    1.31137   1.16023    0.020
 4764.00    1.28905   1.15514    0.020
 4765.00    1.26761   1.15108    0.020
 4766.00    1.29605   1.14916    0.020
 4767.00    1.32956   1.14994    0.020
 4768.00    1.42764   1.15265    0.020
 4769.00    1.52989   1.15725    0.021
 4770.00    1.48726   1.16420    0.020
 4771.00    1.44058   1.17153    0.020
 4772.00    1.55710   1.17939    0.020
 4773.00    1.66359   1.18762    0.020
 4774.00    1.47954   1.19399    0.020
 4775.00    1.30877   1.20007    0.020
 4776.00    1.32993   1.20538    0.020
 4777.00    1.34989   1.20841    0.020
 4778.00    1.35848   1.20969    0.020
 4779.00    1.34423   1.20931    0.020
 4780.00    1.17358   1.20789    0.019
 4781.00    1.04023   1.20413    0.019
 4782.00    1.10448   1.19924    0.019
 4783.00    1.18563   1.19465    0.019
 4784.00    1.33871   1.18904    0.019
 4785.00    1.46040   1.18468    0.019
 4786.00    1.47181   1.18102    0.019
 4787.00    1.46515   1.17829    0.019
 4788.00    1.40508   1.17922    0.020
 4789.00    1.36001   1.18023    0.020
 4790.00    1.35269   1.18314    0.020
 4791.00    1.35497   1.18986    0.020
 4792.00    1.37809   1.19563    0.020
 4793.00    1.40415   1.20213    0.020
 4794.00    1.43575   1.20950    0.019
 4795.00    1.38654   1.21454    0.019
 4796.00    1.20455   1.21840    0.020
 4797.00    1.08689   1.22094    0.020
 4798.00    1.06195   1.22119    0.020
 4799.00    1.08431   1.22005    0.020
 4800.00    1.16660   1.21829    0.020
 4801.00    1.21359   1.21614    0.020
 4802.00    1.22114   1.21337    0.020
 4803.00    1.24929   1.21045    0.020
 4804.00    1.29774   1.20864    0.020
 4805.00    1.35513   1.20639    0.020
 4806.00    1.42030   1.20389    0.020
 4807.00    1.44884   1.20233    0.020
 4808.00    1.44937   1.20054    0.020
 4809.00    1.38144   1.20032    0.020
 4810.00    1.26747   1.20102    0.020
 4811.00    1.20202   1.20190    0.020
 4812.00    1.16517   1.20505    0.020
 4813.00    1.19246   1.20884    0.020
 4814.00    1.25271   1.21279    0.020
 4815.00    1.24393   1.21731    0.020
 4816.00    1.20441   1.22131    0.020
 4817.00    1.22819   1.22497    0.020
 4818.00    1.27620   1.22674    0.019
 4819.00    1.36083   1.22711    0.019
 4820.00    1.45737   1.22654    0.019
 4821.00    1.36068   1.22270    0.019
 4822.00    1.21138   1.21826    0.020
 4823.00    1.20322   1.21354    0.020
 4824.00    1.22660   1.20763    0.019
 4825.00    1.11198   1.20319    0.019
 4826.00    0.97277   1.19810    0.019
 4827.00    0.99518   1.19379    0.019
 4828.00    1.03960   1.19284    0.019
 4829.00    1.07420   1.19101    0.019
 4830.00    1.10785   1.18904    0.019
 4831.00    1.06488   1.18863    0.019
 4832.00    1.01726   1.18800    0.019
 4833.00    1.18310   1.18780    0.019
 4834.00    1.35387   1.18701    0.019
 4835.00    1.39378   1.18563    0.019
 4836.00    1.42823   1.18502    0.019
 4837.00    1.32002   1.18367    0.019
 4838.00    1.21383   1.18103    0.019
 4839.00    1.13546   1.17845    0.019
 4840.00    1.07401   1.17629    0.019
 4841.00    1.16558   1.17329    0.019
 4842.00    1.24605   1.17042    0.019
 4843.00    1.25287   1.16825    0.019
 4844.00    1.25777   1.16657    0.019
 4845.00    1.25280   1.16523    0.018
 4846.00    1.21829   1.16202    0.018
 4847.00    1.06080   1.15888    0.018
 4848.00    0.94563   1.15626    0.000
 4849.00    0.97618   1.15048    0.000
 4850.00    1.01277   1.14281    0.000
 4851.00    1.06686   1.13361    0.000
 4852.00    1.10648   1.12152    0.000
 4853.00    1.11026   1.10725    0.000
 4854.00    1.14262   1.08994    0.000
 4855.00    1.23596   1.06969    0.000
 4856.00    1.30901   1.04766    0.000
 4857.00    1.34447   1.02395    0.000
 4858.00    1.32791   0.99853    0.000
 4859.00    1.22712   0.97415    0.000
 4860.00    1.15589   0.95531    0.000
 4861.00    1.12663   0.94064    0.000
 4862.00    1.11838   0.93062    0.000
 4863.00    1.13638   0.92865    0.000
 4864.00    1.08328   0.93252    0.000
 4865.00    0.95189   0.94371    0.000
 4866.00    0.94005   0.96042    0.000
 4867.00    1.04430   0.97743    0.000
 4868.00    1.09161   0.99530    0.000
 4869.00    1.09015   1.01187    0.000
 4870.00    1.06763   1.02640    0.000
 4871.00    1.02922   1.03940    0.000
 4872.00    1.03187   1.05100    0.000
 4873.00    1.06175   1.06149    0.000
 4874.00    1.13136   1.07095    0.000
 4875.00    1.22404   1.08176    0.019
 4876.00    1.26364   1.09350    0.019
 4877.00    1.27638   1.10543    0.019
 4878.00    1.26544   1.11604    0.019
 4879.00    1.24413   1.12464    0.019
 4880.00    1.24383   1.13259    0.019
 4881.00    1.25142   1.13736    0.019
 4882.00    1.21493   1.14010    0.019
 4883.00    1.16439   1.14062    0.019
 4884.00    1.17024   1.13709    0.019
 4885.00    1.19111   1.13364    0.019
 4886.00    1.32290   1.13037    0.019
 4887.00    1.47888   1.12665    0.019
 4888.00    1.43271   1.12390    0.019
 4889.00    1.35149   1.12210    0.019
 4890.00    1.24075   1.12541    0.019
 4891.00    1.12613   1.13187    0.019
 4892.00    1.20457   1.14022    0.020
 4893.00    1.30095   1.15219    0.020
 4894.00    1.29195   1.16394    0.019
 4895.00    1.27698   1.17834    0.019
 4896.00    1.22526   1.19338    0.020
 4897.00    1.17285   1.20369    0.020
 4898.00    1.13591   1.21199    0.020
 4899.00    1.10222   1.21804    0.020
 4900.00    1.14552   1.22044    0.020
 4901.00    1.19470   1.22092    0.020
 4902.00    1.31996   1.21927    0.020
 4903.00    1.42652   1.21652    0.020
 4904.00    1.37052   1.21525    0.020
 4905.00    1.32572   1.21295    0.019
 4906.00    1.35299   1.20931    0.020
 4907.00    1.39114   1.20630    0.020
 4908.00    1.48393   1.20323    0.020
 4909.00    1.53301   1.20050    0.020
 4910.00    1.40416   1.19731    0.020
 4911.00    1.30828   1.19356    0.020
 4912.00    1.32365   1.19031    0.020
 4913.00    1.33016   1.18668    0.020
 4914.00    1.31140   1.18287    0.020
 4915.00    1.26323   1.17851    0.020
 4916.00    1.14352   1.17140    0.020
 4917.00    1.13144   1.16226    0.020
 4918.00    1.34531   1.15246    0.020
 4919.00    1.40014   1.14241    0.020
 4920.00    1.16478   1.13382    0.019
 4921.00    1.06294   1.12650    0.019
 4922.00    1.17405   1.12209    0.019
 4923.00    1.24228   1.12290    0.020
 4924.00    1.25049   1.12930    0.020
 4925.00    1.25855   1.13978    0.019
 4926.00    1.26641   1.15185    0.019
 4927.00    1.21095   1.16469    0.019
 4928.00    1.08675   1.17720    0.019
 4929.00    1.11968   1.18961    0.019
 4930.00    1.30308   1.19857    0.019
 4931.00    1.34126   1.20177    0.019
 4932.00    1.25681   1.20283    0.019
 4933.00    1.26265   1.20128    0.019
 4934.00    1.33561   1.19663    0.019
 4935.00    1.29546   1.19105    0.019
 4936.00    1.18144   1.18326    0.019
 4937.00    1.23378   1.17673    0.019
 4938.00    1.38123   1.17564    0.019
 4939.00    1.49309   1.17626    0.019
 4940.00    1.58725   1.17772    0.000
 4941.00    1.46257   1.18234    0.000
 4942.00    1.24365   1.18948    0.000
 4943.00    1.27776   1.19918    0.000
 4944.00    1.40528   1.20975    0.000
 4945.00    1.38173   1.21858    0.000
 4946.00    1.31092   1.22689    0.000
 4947.00    1.27034   1.23431    0.000
 4948.00    1.23766   1.23903    0.000
 4949.00    1.28692   1.24181    0.000
 4950.00    1.35363   1.24255    0.000
 4951.00    1.30383   1.24078    0.000
 4952.00    1.23439   1.23639    0.000
 4953.00    1.22918   1.22969    0.000
 4954.00    1.23215   1.22180    0.000
 4955.00    1.28195   1.21037    0.000
 4956.00    1.33591   1.19985    0.000
 4957.00    1.26794   1.19260    0.000
 4958.00    1.19354   1.18615    0.000
 4959.00    1.15479   1.18242    0.000
 4960.00    1.11849   1.17820    0.000
 4961.00    1.22085   1.17806    0.000
 4962.00    1.31837   1.18312    0.000
 4963.00    1.31050   1.18565    0.000
 4964.00    1.29720   1.18732    0.000
 4965.00    1.21738   1.18825    0.000
 4966.00    1.14109   1.18881    0.000
 4967.00    1.09437   1.19027    0.000
 4968.00    1.07133   1.18962    0.000
 4969.00    1.19610   1.18982    0.000
 4970.00    1.28194   1.19226    0.000
 4971.00    1.17693   1.19411    0.000
 4972.00    1.08337   1.19743    0.000
 4973.00    1.03537   1.19982    0.000
 4974.00    1.03778   1.20094    0.000
 4975.00    1.20693   1.20154    0.000
 4976.00    1.30779   1.19800    0.000
 4977.00    1.21776   1.19265    0.000
 4978.00    1.13743   1.18495    0.000
 4979.00    1.08027   1.17413    0.000
 4980.00    1.05479   1.16221    0.000
 4981.00    1.09478   1.14929    0.000
 4982.00    1.12655   1.13849    0.000
 4983.00    1.14353   1.13048    0.000
 4984.00    1.17281   1.12477    0.000
 4985.00    1.22142   1.12248    0.000
 4986.00    1.26095   1.12321    0.000
 4987.00    1.28797   1.12794    0.000
 4988.00    1.32158   1.13485    0.000
 4989.00    1.36318   1.14153    0.000
 4990.00    1.34806   1.15013    0.000
 4991.00    1.27223   1.15680    0.000
 4992.00    1.24924   1.16118    0.000
 4993.00    1.27614   1.16587    0.000
 4994.00    1.20980   1.16738    0.000
 4995.00    1.06585   1.16867    0.000
 4996.00    1.04073   1.16831    0.000
 4997.00    1.10271   1.16378    0.000
 4998.00    1.14880   1.15974    0.000
 4999.00    1.18466   1.15386    0.000
 5000.00    1.20000   1.14648    0.000
 5001.00    1.20378   1.13974    0.000
 5002.00    1.18558   1.13132    0.000
 5003.00    1.15661   1.12326    0.000
 5004.00    1.30453   1.11654    0.000
 5005.00    1.52736   1.11130    0.000
 5006.00    1.53760   1.10878    0.000
 5007.00    1.47075   1.10646    0.000
 5008.00    1.35490   1.10392    0.000
 5009.00    1.22402   1.10189    0.000
 5010.00    1.25308   1.09981    0.000
 5011.00    1.32298   1.09874    0.000
 5012.00    1.24449   1.09587    0.000
 5013.00    1.13516   1.09202    0.000
 5014.00    1.05622   1.08902    0.000
 5015.00    0.98226   1.08472    0.000
 5016.00    1.01203   1.08212    0.000
 5017.00    1.05453   1.08150    0.000
 5018.00    1.04315   1.08273    0.000
 5019.00    1.02722   1.08636    0.000
 5020.00    1.12861   1.08918    0.000
 5021.00    1.23572   1.09361    0.000
 5022.00    1.21085   1.10075    0.000
 5023.00    1.18610   1.10785    0.000
 5024.00    1.29339   1.11551    0.000
 5025.00    1.39159   1.12101    0.000
 5026.00    1.30735   1.12740    0.000
 5027.00    1.23044   1.13589    0.000
 5028.00    1.23922   1.14198    0.000
 5029.00    1.24548   1.14818    0.019
 5030.00    1.23140   1.15308    0.019
 5031.00    1.23091   1.15716    0.019
 5032.00    1.31275   1.16135    0.019
 5033.00    1.36490   1.16099    0.019
 5034.00    1.27504   1.15773    0.019
 5035.00    1.19491   1.15426    0.018
 5036.00    1.15264   1.14790    0.018
 5037.00    1.10313   1.13951    0.018
 5038.00    1.03013   1.12943    0.018
 5039.00    0.99392   1.11850    0.018
 5040.00    1.05869   1.11340    0.018
 5041.00    1.13990   1.11107    0.019
 5042.00    1.25979   1.10999    0.018
 5043.00    1.35521   1.11284    0.018
 5044.00    1.40091   1.11716    0.018
 5045.00    1.38454   1.12502    0.018
 5046.00    1.25831   1.13375    0.018
 5047.00    1.26127   1.13996    0.018
 5048.00    1.46420   1.14585    0.018
 5049.00    1.53313   1.14992    0.018
 5050.00    1.41991   1.15246    0.018
 5051.00    1.24240   1.15498    0.018
 5052.00    0.98793   1.15729    0.018
 5053.00    0.95485   1.16123    0.018
 5054.00    1.15541   1.16616    0.018
 5055.00    1.23819   1.17174    0.018
 5056.00    1.21133   1.17906    0.018
 5057.00    1.21511   1.18577    0.018
 5058.00    1.24401   1.19191    0.017
 5059.00    1.32334   1.19702    0.017
 5060.00    1.43908   1.19962    0.018
 5061.00    1.46414   1.20051    0.018
 5062.00    1.43170   1.19774    0.018
 5063.00    1.38109   1.19283    0.018
 5064.00    1.32040   1.18808    0.018
 5065.00    1.21759   1.18121    0.018
 5066.00    1.09447   1.17385    0.018
 5067.00    1.05630   1.16634    0.018
 5068.00    1.05349   1.16008    0.018
 5069.00    1.11279   1.15619    0.018
 5070.00    1.19422   1.15200    0.018
 5071.00    1.24404   1.14922    0.018
 5072.00    1.28437   1.14708    0.018
 5073.00    1.36901   1.14487    0.018
 5074.00    1.46472   1.14256    0.018
 5075.00    1.32748   1.13899    0.018
 5076.00    1.14303   1.13531    0.018
 5077.00    1.21584   1.12961    0.018
 5078.00    1.32953   1.12354    0.018
 5079.00    1.29221   1.11885    0.018
 5080.00    1.23703   1.11495    0.018
 5081.00    1.22119   1.11200    0.018
 5082.00    1.20851   1.10995    0.018
 5083.00    1.17449   1.11119    0.018
 5084.00    1.13951   1.11554    0.018
 5085.00    1.20632   1.12174    0.018
 5086.00    1.27193   1.12901    0.018
 5087.00    1.21765   1.13743    0.018
 5088.00    1.17229   1.14626    0.018
 5089.00    1.29315   1.15437    0.018
 5090.00    1.39591   1.16156    0.018
 5091.00    1.29715   1.16719    0.018
 5092.00    1.21484   1.17092    0.018
 5093.00    1.26068   1.17223    0.018
 5094.00    1.28175   1.17110    0.018
 5095.00    1.15686   1.16809    0.018
 5096.00    1.07978   1.16332    0.019
 5097.00    1.22579   1.15688    0.018
 5098.00    1.31232   1.15104    0.018
 5099.00    1.17217   1.14580    0.018
 5100.00    1.10118   1.14092    0.018
 5101.00    1.25019   1.13705    0.018
 5102.00    1.33672   1.13394    0.018
 5103.00    1.25480   1.13285    0.018
 5104.00    1.18980   1.13292    0.018
 5105.00    1.16389   1.13217    0.018
 5106.00    1.12869   1.13159    0.018
 5107.00    1.07489   1.13151    0.018
 5108.00    1.05064   1.13084    0.018
 5109.00    1.07787   1.13215    0.018
 5110.00    1.16459   1.13415    0.018
 5111.00    1.34208   1.13687    0.018
 5112.00    1.45632   1.14187    0.018
 5113.00    1.48582   1.14663    0.018
 5114.00    1.39095   1.15278    0.019
 5115.00    1.14931   1.15946    0.018
 5116.00    1.06795   1.16414    0.018
 5117.00    1.15335   1.16772    0.019
 5118.00    1.21379   1.16864    0.019
 5119.00    1.25134   1.16684    0.018
 5120.00    1.26947   1.16336    0.018
 5121.00    1.27191   1.15642    0.018
 5122.00    1.23284   1.14786    0.018
 5123.00    1.16420   1.13893    0.017
 5124.00    1.05406   1.12944    0.017
 5125.00    0.91798   1.12101    0.017
 5126.00    0.90149   1.11345    0.017
 5127.00    0.95028   1.10788    0.017
 5128.00    1.03461   1.10531    0.017
 5129.00    1.13580   1.10507    0.018
 5130.00    1.21320   1.10639    0.018
 5131.00    1.28086   1.10905    0.018
 5132.00    1.32405   1.11211    0.018
 5133.00    1.35868   1.11643    0.018
 5134.00    1.26580   1.11997    0.018
 5135.00    1.13534   1.12142    0.018
 5136.00    1.01145   1.12267    0.018
 5137.00    0.88916   1.12120    0.017
 5138.00    0.87555   1.12027    0.017
 5139.00    0.88340   1.11844    0.018
 5140.00    1.02578   1.11355    0.018
 5141.00    1.18891   1.11028    0.018
 5142.00    1.18816   1.10711    0.017
 5143.00    1.16875   1.10460    0.017
 5144.00    1.17119   1.10290    0.017
 5145.00    1.17531   1.10038    0.017
 5146.00    1.16027   1.09932    0.018
 5147.00    1.14444   1.09957    0.018
 5148.00    1.13987   1.09919    0.018
 5149.00    1.13594   1.09910    0.018
 5150.00    1.15446   1.09967    0.018
 5151.00    1.17671   1.10078    0.018
 5152.00    1.26346   1.10307    0.018
 5153.00    1.33881   1.10646    0.018
 5154.00    1.29278   1.11073    0.018
 5155.00    1.24838   1.11601    0.018
 5156.00    1.21623   1.12150    0.018
 5157.00    1.19865   1.12622    0.018
 5158.00    1.26456   1.13065    0.018
 5159.00    1.31392   1.13287    0.019
 5160.00    1.28786   1.13131    0.019
 5161.00    1.25747   1.12654    0.019
 5162.00    1.21092   1.11704    0.018
 5163.00    1.17468   1.10269    0.019
 5164.00    1.17067   1.08411    0.019
 5165.00    1.12384   1.06147    0.019
 5166.00    0.96358   1.03891    0.018
 5167.00    0.87329   1.01728    0.018
 5168.00    0.94208   0.99743    0.018
 5169.00    0.99538   0.97992    0.018
 5170.00    1.01817   0.96494    0.018
 5171.00    1.04198   0.95746    0.018
 5172.00    1.06755   0.95800    0.018
 5173.00    1.10851   0.96431    0.018
 5174.00    1.17263   0.97364    0.019
 5175.00    1.22417   0.98465    0.019
 5176.00    1.25908   0.99763    0.019
 5177.00    1.21376   1.01081    0.018
 5178.00    1.07510   1.02237    0.018
 5179.00    1.06404   1.03033    0.018
 5180.00    1.18389   1.03400    0.018
 5181.00    1.17967   1.03259    0.018
 5182.00    1.06318   1.02924    0.017
 5183.00    1.04710   1.02763    0.017
 5184.00    1.11109   1.02609    0.017
 5185.00    1.12043   1.02613    0.017
 5186.00    1.09144   1.02701    0.017
 5187.00    1.10554   1.03119    0.017
 5188.00    1.14616   1.03996    0.018
 5189.00    1.10822   1.04813    0.017
 5190.00    1.02806   1.05684    0.000
 5191.00    1.08440   1.06520    0.000
 5192.00    1.20446   1.07254    0.000
 5193.00    1.29244   1.07842    0.000
 5194.00    1.36752   1.08309    0.000
 5195.00    1.29152   1.08812    0.000
 5196.00    1.16368   1.09293    0.000
 5197.00    1.10539   1.09791    0.000
 5198.00    1.06719   1.10203    0.000
 5199.00    1.02786   1.10579    0.000
 5200.00    0.98826   1.10760    0.000
 5201.00    1.06917   1.10725    0.000
 5202.00    1.17328   1.10475    0.000
 5203.00    1.11520   1.09934    0.000
 5204.00    1.03287   1.09296    0.000
 5205.00    1.06450   1.08602    0.000
 5206.00    1.10861   1.07844    0.000
 5207.00    1.13847   1.07266    0.000
 5208.00    1.16729   1.06962    0.000
 5209.00    1.25190   1.06962    0.000
 5210.00    1.33859   1.07379    0.000
 5211.00    1.25139   1.07991    0.017
 5212.00    1.16616   1.08908    0.017
 5213.00    1.18237   1.09890    0.018
 5214.00    1.19871   1.10922    0.018
 5215.00    1.21706   1.12036    0.018
 5216.00    1.24135   1.13019    0.018
 5217.00    1.32602   1.13889    0.018
 5218.00    1.38301   1.14468    0.018
 5219.00    1.23856   1.14878    0.018
 5220.00    1.13533   1.15059    0.018
 5221.00    1.26183   1.15002    0.018
 5222.00    1.35996   1.14723    0.018
 5223.00    1.33188   1.14179    0.018
 5224.00    1.28215   1.13486    0.019
 5225.00    1.15335   1.12653    0.018
 5226.00    1.06017   1.12004    0.018
 5227.00    1.07605   1.11489    0.018
 5228.00    1.10349   1.11065    0.018
 5229.00    1.16106   1.10953    0.018
 5230.00    1.22912   1.10995    0.018
 5231.00    1.32065   1.11346    0.018
 5232.00    1.36440   1.11964    0.018
 5233.00    1.31554   1.12700    0.019
 5234.00    1.28273   1.13621    0.019
 5235.00    1.27705   1.14441    0.018
 5236.00    1.26545   1.15255    0.018
 5237.00    1.24509   1.16100    0.018
 5238.00    1.21252   1.16838    0.018
 5239.00    1.16404   1.17648    0.018
 5240.00    1.16904   1.18298    0.018
 5241.00    1.23539   1.18786    0.018
 5242.00    1.23621   1.19134    0.018
 5243.00    1.17074   1.19233    0.018
 5244.00    1.14171   1.19130    0.018
 5245.00    1.14517   1.18780    0.018
 5246.00    1.12013   1.18363    0.018
 5247.00    1.07268   1.17885    0.018
 5248.00    1.16005   1.17272    0.018
 5249.00    1.34061   1.16731    0.017
 5250.00    1.35256   1.16279    0.017
 5251.00    1.26227   1.15931    0.017
 5252.00    1.22616   1.15739    0.017
 5253.00    1.21873   1.15657    0.017
 5254.00    1.22284   1.15853    0.017
 5255.00    1.23226   1.16082    0.017
 5256.00    1.23954   1.16280    0.017
 5257.00    1.24597   1.16415    0.017
 5258.00    1.29881   1.16261    0.017
 5259.00    1.36729   1.15871    0.017
 5260.00    1.29118   1.15076    0.017
 5261.00    1.17414   1.13997    0.017
 5262.00    1.12502   1.12644    0.017
 5263.00    1.09176   1.11031    0.017
 5264.00    1.14275   1.09287    0.017
 5265.00    1.20953   1.07597    0.017
 5266.00    1.22394   1.06079    0.017
 5267.00    1.23077   1.04711    0.018
 5268.00    1.17548   1.03789    0.018
 5269.00    1.11366   1.03425    0.018
 5270.00    1.18231   1.03546    0.018
 5271.00    1.25986   1.03991    0.019
 5272.00    1.24650   1.04821    0.018
 5273.00    1.23009   1.05950    0.018
 5274.00    1.16909   1.07246    0.018
 5275.00    1.11285   1.08779    0.018
 5276.00    1.21068   1.10391    0.018
 5277.00    1.29894   1.11925    0.018
 5278.00    1.24142   1.13168    0.018
 5279.00    1.19732   1.14250    0.018
 5280.00    1.28423   1.15204    0.018
 5281.00    1.34741   1.15986    0.018
 5282.00    1.24342   1.16733    0.018
 5283.00    1.16677   1.17447    0.018
 5284.00    1.23839   1.18111    0.018
 5285.00    1.30964   1.18773    0.018
 5286.00    1.37931   1.19478    0.018
 5287.00    1.44250   1.20226    0.018
 5288.00    1.48250   1.21015    0.018
 5289.00    1.49583   1.21675    0.018
 5290.00    1.42906   1.22227    0.018
 5291.00    1.38981   1.22518    0.018
 5292.00    1.42094   1.22506    0.018
 5293.00    1.41445   1.22203    0.018
 5294.00    1.32522   1.21637    0.018
 5295.00    1.24396   1.20924    0.018
 5296.00    1.17791   1.20099    0.018
 5297.00    1.17262   1.19347    0.018
 5298.00    1.26850   1.18689    0.018
 5299.00    1.32265   1.18190    0.018
 5300.00    1.31588   1.17969    0.018
 5301.00    1.29810   1.18009    0.018
 5302.00    1.26618   1.18361    0.018
 5303.00    1.28372   1.18935    0.018
 5304.00    1.35721   1.19722    0.018
 5305.00    1.33509   1.20590    0.017
 5306.00    1.21763   1.21404    0.017
 5307.00    1.21427   1.22199    0.017
 5308.00    1.31127   1.22892    0.017
 5309.00    1.31960   1.23435    0.017
 5310.00    1.25923   1.23778    0.017
 5311.00    1.22404   1.23928    0.017
 5312.00    1.20602   1.23904    0.017
 5313.00    1.25504   1.23761    0.017
 5314.00    1.34411   1.23495    0.017
 5315.00    1.36011   1.23121    0.017
 5316.00    1.33804   1.22685    0.016
 5317.00    1.37213   1.22164    0.016
 5318.00    1.43160   1.21591    0.017
 5319.00    1.42745   1.20950    0.017
 5320.00    1.39858   1.20241    0.017
 5321.00    1.30638   1.19444    0.017
 5322.00    1.19324   1.18502    0.016
 5323.00    1.25367   1.17574    0.016
 5324.00    1.36221   1.16507    0.016
 5325.00    1.37836   1.15409    0.016
 5326.00    1.37342   1.14322    0.016
 5327.00    1.30642   1.13467    0.017
 5328.00    1.22810   1.12913    0.017
 5329.00    1.20662   1.12566    0.017
 5330.00    1.19311   1.12630    0.016
 5331.00    1.19722   1.12961    0.017
 5332.00    1.20311   1.13581    0.017
 5333.00    1.25662   1.14269    0.017
 5334.00    1.31319   1.15183    0.017
 5335.00    1.29119   1.16153    0.017
 5336.00    1.26703   1.16898    0.017
 5337.00    1.31293   1.17428    0.017
 5338.00    1.35896   1.17710    0.017
 5339.00    1.40863   1.17916    0.017
 5340.00    1.44943   1.18047    0.017
 5341.00    1.36297   1.18033    0.018
 5342.00    1.28576   1.18006    0.018
 5343.00    1.29520   1.18015    0.018
 5344.00    1.31318   1.18043    0.017
 5345.00    1.38952   1.18138    0.017
 5346.00    1.43457   1.18318    0.017
 5347.00    1.31439   1.18704    0.017
 5348.00    1.22507   1.19128    0.017
 5349.00    1.26679   1.19627    0.017
 5350.00    1.29067   1.20227    0.017
 5351.00    1.25206   1.20869    0.017
 5352.00    1.25366   1.21685    0.017
 5353.00    1.37382   1.22526    0.017
 5354.00    1.47296   1.23324    0.017
 5355.00    1.51930   1.24138    0.017
 5356.00    1.47802   1.24851    0.017
 5357.00    1.24710   1.25372    0.017
 5358.00    1.12864   1.25624    0.016
 5359.00    1.22142   1.25657    0.017
 5360.00    1.26910   1.25460    0.017
 5361.00    1.24281   1.24988    0.017
 5362.00    1.26614   1.24341    0.016
 5363.00    1.36083   1.23486    0.016
 5364.00    1.41322   1.22569    0.016
 5365.00    1.41209   1.21546    0.016
 5366.00    1.33111   1.20511    0.016
 5367.00    1.16112   1.19509    0.016
 5368.00    1.15370   1.18626   -2.000
 5369.00    1.30612   1.17977   -2.000
 5370.00    1.41869   1.17494   -2.000
 5371.00    1.49670   1.17382   -2.000
 5372.00    1.50185   1.17453   -2.000
 5373.00    1.45136   1.17784   -2.000
 5374.00    1.37403   1.18311   -2.000
 5375.00    1.27867   1.18926   -2.000
 5376.00    1.24085   1.19659   -2.000
 5377.00    1.23688   1.20405   -2.000
 5378.00    1.24309   1.21143   -2.000
 5379.00    1.25453   1.21649   -2.000
 5380.00    1.29460   1.22028   -2.000
 5381.00    1.34739   1.22217   -2.000
 5382.00    1.33862   1.22264   -2.000
 5383.00    1.30636   1.22251    0.016
 5384.00    1.27338   1.22130    0.016
 5385.00    1.24017   1.21920    0.016
 5386.00    1.27978   1.21632    0.016
 5387.00    1.33916   1.21306    0.016
 5388.00    1.35736   1.20869    0.016
 5389.00    1.36638   1.20395    0.017
 5390.00    1.33785   1.19860    0.017
 5391.00    1.30265   1.19253    0.017
 5392.00    1.35786   1.18573    0.017
 5393.00    1.42534   1.17878    0.017
 5394.00    1.31604   1.17215    0.016
 5395.00    1.18966   1.16572    0.016
 5396.00    1.22407   1.16075    0.017
 5397.00    1.26815   1.15643    0.017
 5398.00    1.25537   1.15303    0.017
 5399.00    1.24144   1.14993    0.017
 5400.00    1.28160   1.14720    0.017
 5401.00    1.31941   1.14423    0.017
 5402.00    1.29639   1.14049    0.016
 5403.00    1.27322   1.13778    0.016
 5404.00    1.24803   1.13506    0.016
 5405.00    1.22597   1.13237    0.016
 5406.00    1.23204   1.13004    0.016
 5407.00    1.23501   1.12929    0.016
 5408.00    1.21745   1.12976    0.016
 5409.00    1.20287   1.13221    0.016
 5410.00    1.20366   1.13686    0.016
 5411.00    1.22620   1.14337    0.016
 5412.00    1.33908   1.15202    0.016
 5413.00    1.41647   1.16130    0.016
 5414.00    1.37192   1.17081    0.016
 5415.00    1.31989   1.17966    0.016
 5416.00    1.24622   1.18809    0.016
 5417.00    1.21107   1.19529    0.016
 5418.00    1.27103   1.20093    0.016
 5419.00    1.31264   1.20468    0.016
 5420.00    1.31521   1.20663    0.016
 5421.00    1.29395   1.20757    0.016
 5422.00    1.22862   1.20708    0.015
 5423.00    1.20409   1.20576    0.015
 5424.00    1.24548   1.20343    0.015
 5425.00    1.27292   1.19999    0.015
 5426.00    1.28058   1.19613    0.015
 5427.00    1.30535   1.19212    0.015
 5428.00    1.35147   1.18748    0.015
 5429.00    1.35618   1.18283    0.016
 5430.00    1.31537   1.17828    0.016
 5431.00    1.28034   1.17449    0.015
 5432.00    1.25092   1.17161    0.015
 5433.00    1.23170   1.17004    0.015
 5434.00    1.22122   1.17020    0.016
 5435.00    1.29410   1.17221    0.016
 5436.00    1.42976   1.17723    0.016
 5437.00    1.41548   1.18304    0.016
 5438.00    1.30200   1.19017    0.016
 5439.00    1.25610   1.19749    0.016
 5440.00    1.24933   1.20391    0.016
 5441.00    1.36053   1.20940    0.016
 5442.00    1.53127   1.21232    0.016
 5443.00    1.53828   1.21332    0.016
 5444.00    1.47373   1.21221    0.016
 5445.00    1.41312   1.20919    0.016
 5446.00    1.35399   1.20525    0.016
 5447.00    1.25984   1.20043    0.016
 5448.00    1.15454   1.19591    0.016
 5449.00    1.14802   1.19162    0.016
 5450.00    1.16774   1.18796    0.016
 5451.00    1.25243   1.18473    0.016
 5452.00    1.35124   1.18231    0.016
 5453.00    1.35949   1.18124    0.016
 5454.00    1.35210   1.18037    0.016
 5455.00    1.32747   1.18023    0.016
 5456.00    1.30059   1.17989    0.016
 5457.00    1.31556   1.17992    0.016
 5458.00    1.33440   1.18000    0.016
 5459.00    1.26161   1.18034    0.016
 5460.00    1.18367   1.18116    0.015
 5461.00    1.17900   1.18218    0.015
 5462.00    1.17663   1.18367    0.015
 5463.00    1.24334   1.18492    0.015
 5464.00    1.30746   1.18626    0.015
 5465.00    1.31080   1.18703    0.015
 5466.00    1.31355   1.18732    0.015
 5467.00    1.30861   1.18734    0.015
 5468.00    1.29957   1.18677    0.015
 5469.00    1.25510   1.18559    0.015
 5470.00    1.21355   1.18375    0.014
 5471.00    1.19068   1.18088    0.014
 5472.00    1.17766   1.17678    0.015
 5473.00    1.21399   1.17199    0.015
 5474.00    1.24424   1.16696    0.015
 5475.00    1.24982   1.16211    0.015
 5476.00    1.27437   1.15773    0.015
 5477.00    1.36282   1.15402    0.015
 5478.00    1.42089   1.15188   -2.000
 5479.00    1.39264   1.15121   -2.000
 5480.00    1.38103   1.15241   -2.000
 5481.00    1.40981   1.15483   -2.000
 5482.00    1.42613   1.15846   -2.000
 5483.00    1.41636   1.16287   -2.000
 5484.00    1.43695   1.16745   -2.000
 5485.00    1.51280   1.17270   -2.000
 5486.00    1.57802   1.17700   -2.000
 5487.00    1.62632   1.18107   -2.000
 5488.00    1.67818   1.18429   -2.000
 5489.00    1.73503   1.18692   -2.000
 5490.00    1.66810   1.18920   -2.000
 5491.00    1.44900   1.19073   -2.000
 5492.00    1.35222   1.19181   -2.000
 5493.00    1.38802   1.19200   -2.000
 5494.00    1.44010   1.19225   -2.000
 5495.00    1.50775   1.19224   -2.000
 5496.00    1.50755   1.19198   -2.000
 5497.00    1.45015   1.19111   -2.000
 5498.00    1.41234   1.18968   -2.000
 5499.00    1.38907   1.18828   -2.000
 5500.00    1.37836   1.18628   -2.000
 5501.00    1.37584   1.18417   -2.000
 5502.00    1.35921   1.18147    0.015
 5503.00    1.33453   1.17902    0.015
 5504.00    1.30960   1.17656    0.015
 5505.00    1.28454   1.17412    0.015
 5506.00    1.33536   1.17210    0.015
 5507.00    1.41879   1.17000    0.015
 5508.00    1.37405   1.16794    0.015
 5509.00    1.28210   1.16646    0.015
 5510.00    1.21621   1.16567    0.015
 5511.00    1.15844   1.16537    0.014
 5512.00    1.22893   1.16577    0.014
 5513.00    1.33280   1.16687    0.014
 5514.00    1.34429   1.16917    0.015
 5515.00    1.33618   1.17254    0.015
 5516.00    1.30088   1.17659    0.015
 5517.00    1.26102   1.18101    0.014
 5518.00    1.29576   1.18594    0.014
 5519.00    1.33996   1.19060    0.014
 5520.00    1.38318   1.19473    0.014
 5521.00    1.42633   1.19791    0.014
 5522.00    1.35683   1.19953    0.014
 5523.00    1.28145   1.19966    0.015
 5524.00    1.23089   1.19803    0.015
 5525.00    1.18163   1.19572    0.015
 5526.00    1.19613   1.19274    0.015
 5527.00    1.21036   1.18927    0.014
 5528.00    1.21857   1.18602    0.015
 5529.00    1.23231   1.18342    0.015
 5530.00    1.31353   1.18180    0.015
 5531.00    1.38756   1.18095    0.015
 5532.00    1.40166   1.18148    0.015
 5533.00    1.40665   1.18271    0.015
 5534.00    1.35499   1.18472    0.015
 5535.00    1.31168   1.18729    0.015
 5536.00    1.30922   1.19040    0.015
 5537.00    1.31837   1.19396    0.015
 5538.00    1.37362   1.19700    0.015
 5539.00    1.38957   1.19989    0.017
 5540.00    1.27582   1.20258    0.041
 5541.00    1.19230   1.20524   -1.000
 5542.00    1.19304   1.20743   -1.000
 5543.00    1.19805   1.20964   -1.000
 5544.00    1.21327   1.21186   -1.000
 5545.00    1.23222   1.21363   -1.000
 5546.00    1.25889   1.21548   -1.000
 5547.00    1.28968   1.21725    0.081
 5548.00    1.32785   1.21885    0.021
 5549.00    1.37426   1.22017    0.015
 5550.00    1.43359   1.22104    0.015
 5551.00    1.42571   1.22170    0.015
 5552.00    1.32527   1.22188    0.015
 5553.00    1.24626   1.22137    0.014
 5554.00    1.19320   1.22021    0.014
 5555.00    1.16104   1.21876    0.014
 5556.00    1.15121   1.21665    0.014
 5557.00    1.16703   1.21420    0.014
 5558.00    1.20702   1.21147    0.014
 5559.00    1.25304   1.20841    0.014
 5560.00    1.30407   1.20540    0.014
 5561.00    1.32465   1.20203    0.014
 5562.00    1.32295   1.19872    0.014
 5563.00    1.29278   1.19531    0.014
 5564.00    1.24433   1.19200    0.014
 5565.00    1.23930   1.18866    0.014
 5566.00    1.25868   1.18563    0.014
 5567.00    1.33015   1.18327    0.014
 5568.00    1.42708   1.18098    0.014
 5569.00    1.48852   1.17952    0.014
 5570.00    1.53498   1.17875    0.014
 5571.00    1.44955   1.17885    0.014
 5572.00    1.31642   1.17936    0.014
 5573.00    1.28431   1.18063    0.014
 5574.00    1.28313   1.18237    0.014
 5575.00    1.36115   1.18436    0.014
 5576.00    1.45934   1.18652    0.015
 5577.00    1.42413   1.18836    0.015
 5578.00    1.36129   1.18984    0.015
 5579.00    1.37222   1.19044    0.015
 5580.00    1.39519   1.18989    0.015
 5581.00    1.33824   1.18814    0.015
 5582.00    1.27152   1.18487    0.015
 5583.00    1.18973   1.17995    0.015
 5584.00    1.10667   1.17416    0.015
 5585.00    1.12817   1.16730    0.015
 5586.00    1.15472   1.16023    0.015
 5587.00    1.13398   1.15339    0.015
 5588.00    1.11420   1.14715    0.015
 5589.00    1.19334   1.14221    0.015
 5590.00    1.26620   1.13878    0.015
 5591.00    1.21417   1.13721    0.015
 5592.00    1.17529   1.13721    0.015
 5593.00    1.28895   1.13857    0.015
 5594.00    1.39158   1.14061    0.015
 5595.00    1.40550   1.14333    0.015
 5596.00    1.41241   1.14624    0.015
 5597.00    1.37696   1.14878    0.015
 5598.00    1.34499   1.15134    0.015
 5599.00    1.32958   1.15335    0.015
 5600.00    1.31121   1.15588    0.015
 5601.00    1.28134   1.15844    0.015
 5602.00    1.26351   1.16195    0.014
 5603.00    1.28459   1.16630    0.014
 5604.00    1.28831   1.17160    0.014
 5605.00    1.24447   1.17778    0.014
 5606.00    1.20909   1.18429    0.014
 5607.00    1.19355   1.19092    0.014
 5608.00    1.20320   1.19664    0.014
 5609.00    1.26397   1.20129    0.014
 5610.00    1.28363   1.20400    0.014
 5611.00    1.23070   1.20473    0.014
 5612.00    1.20638   1.20361    0.014
 5613.00    1.22626   1.20080    0.014
 5614.00    1.23880   1.19660    0.014
 5615.00    1.24137   1.19152    0.014
 5616.00    1.22546   1.18627    0.014
 5617.00    1.18746   1.18146    0.014
 5618.00    1.17887   1.17723    0.014
 5619.00    1.20124   1.17410    0.014
 5620.00    1.23516   1.17179    0.014
 5621.00    1.27982   1.17064    0.014
 5622.00    1.28519   1.17028    0.014
 5623.00    1.25837   1.17074    0.015
 5624.00    1.31529   1.17180    0.015
 5625.00    1.43259   1.17354    0.015
 5626.00    1.40451   1.17598    0.015
 5627.00    1.28443   1.17871    0.014
 5628.00    1.23642   1.18171    0.014
 5629.00    1.22827   1.18486    0.014
 5630.00    1.24323   1.18793    0.014
 5631.00    1.26930   1.19055    0.014
 5632.00    1.26670   1.19243    0.014
 5633.00    1.25219   1.19336    0.014
 5634.00    1.20655   1.19333    0.014
 5635.00    1.14985   1.19240    0.014
 5636.00    1.18151   1.19068    0.014
 5637.00    1.23968   1.18824    0.014
 5638.00    1.25433   1.18570    0.014
 5639.00    1.25815   1.18328    0.014
 5640.00    1.28354   1.18120    0.014
 5641.00    1.31329   1.17984    0.013
 5642.00    1.28926   1.17914    0.013
 5643.00    1.25670   1.17930    0.013
 5644.00    1.24452   1.18006    0.013
 5645.00    1.23474   1.18150    0.013
 5646.00    1.23635   1.18318    0.014
 5647.00    1.23886   1.18509    0.014
 5648.00    1.30061   1.18677    0.014
 5649.00    1.36499   1.18801    0.014
 5650.00    1.38782   1.18866    0.013
 5651.00    1.40956   1.18835    0.013
 5652.00    1.40121   1.18711    0.014
 5653.00    1.39182   1.18477    0.014
 5654.00    1.36310   1.18162    0.014
 5655.00    1.33220   1.17756    0.014
 5656.00    1.27719   1.17304    0.014
 5657.00    1.22655   1.16831    0.014
 5658.00    1.20984   1.16392    0.014
 5659.00    1.19654   1.16013    0.014
 5660.00    1.20324   1.15742    0.014
 5661.00    1.20688   1.15581    0.014
 5662.00    1.19633   1.15557    0.014
 5663.00    1.19726   1.15651    0.014
 5664.00    1.24188   1.15868    0.014
 5665.00    1.27824   1.16177    0.014
 5666.00    1.28842   1.16561    0.014
 5667.00    1.29573   1.16988    0.014
 5668.00    1.29534   1.17448    0.014
 5669.00    1.28594   1.17933    0.014
 5670.00    1.25576   1.18414    0.014
 5671.00    1.24054   1.18894    0.014
 5672.00    1.25517   1.19343    0.014
 5673.00    1.29585   1.19769    0.014
 5674.00    1.38181   1.20130    0.014
 5675.00    1.41141   1.20432    0.014
 5676.00    1.35518   1.20613    0.014
 5677.00    1.30054   1.20710    0.014
 5678.00    1.24802   1.20683    0.014
 5679.00    1.24626   1.20564    0.014
 5680.00    1.30429   1.20329    0.014
 5681.00    1.30342   1.20026    0.014
 5682.00    1.24138   1.19673    0.014
 5683.00    1.20828   1.19308    0.013
 5684.00    1.20168   1.18976    0.013
 5685.00    1.23846   1.18681    0.013
 5686.00    1.31025   1.18493    0.013
 5687.00    1.35308   1.18376    0.014
 5688.00    1.37532   1.18386    0.014
 5689.00    1.37237   1.18477    0.014
 5690.00    1.35371   1.18664    0.014
 5691.00    1.33090   1.18900    0.014
 5692.00    1.30583   1.19146    0.014
 5693.00    1.29803   1.19389    0.014
 5694.00    1.29840   1.19560    0.014
 5695.00    1.31281   1.19663    0.014
 5696.00    1.33295   1.19645    0.014
 5697.00    1.30208   1.19530    0.014
 5698.00    1.25343   1.19296    0.014
 5699.00    1.29386   1.18967    0.014
 5700.00    1.36050   1.18556    0.015
 5701.00    1.42150   1.18083    0.015
 5702.00    1.48114   1.17578    0.015
 5703.00    1.46651   1.17041    0.015
 5704.00    1.43726   1.16524    0.014
 5705.00    1.37490   1.16015    0.014
 5706.00    1.30745   1.15554    0.014
 5707.00    1.24969   1.15163    0.014
 5708.00    1.19303   1.14863    0.014
 5709.00    1.23725   1.14683    0.014
 5710.00    1.28912   1.14643    0.014
 5711.00    1.29559   1.14778    0.014
 5712.00    1.30022   1.15067    0.014
 5713.00    1.35148   1.15535    0.014
 5714.00    1.40204   1.16137    0.013
 5715.00    1.40876   1.16859    0.014
 5716.00    1.41526   1.17644    0.014
 5717.00    1.41796   1.18461    0.013
 5718.00    1.41985   1.19263    0.013
 5719.00    1.41317   1.20012    0.013
 5720.00    1.40813   1.20683    0.013
 5721.00    1.41534   1.21245    0.013
 5722.00    1.41668   1.21703    0.013
 5723.00    1.38442   1.22027    0.013
 5724.00    1.35546   1.22249    0.013
 5725.00    1.34146   1.22353    0.013
 5726.00    1.33582   1.22378    0.013
 5727.00    1.36130   1.22333    0.013
 5728.00    1.38713   1.22250    0.013
 5729.00    1.41408   1.22149    0.013
 5730.00    1.42618   1.22050    0.014
 5731.00    1.39909   1.21978    0.014
 5732.00    1.37361   1.21928    0.014
 5733.00    1.35178   1.21922    0.014
 5734.00    1.33943   1.21937    0.014
 5735.00    1.34569   1.21980    0.014
 5736.00    1.34136   1.22032    0.014
 5737.00    1.31886   1.22085    0.014
 5738.00    1.31447   1.22136    0.014
 5739.00    1.33725   1.22164    0.014
 5740.00    1.34531   1.22183    0.000
 5741.00    1.33397   1.22174    0.000
 5742.00    1.32339   1.22153    0.000
 5743.00    1.31369   1.22109    0.000
 5744.00    1.31108   1.22046    0.000
 5745.00    1.31571   1.21960    0.000
 5746.00    1.34117   1.21843    0.000
 5747.00    1.38543   1.21708    0.000
 5748.00    1.41339   1.21540    0.000
 5749.00    1.42837   1.21361    0.000
 5750.00    1.39139   1.21161    0.000
 5751.00    1.31803   1.20964    0.000
 5752.00    1.29184   1.20775    0.000
 5753.00    1.29464   1.20607    0.000
 5754.00    1.35542   1.20476    0.000
 5755.00    1.44730   1.20372    0.000
 5756.00    1.49985   1.20322    0.000
 5757.00    1.53408   1.20289    0.000
 5758.00    1.51268   1.20299    0.000
 5759.00    1.46895   1.20312    0.000
 5760.00    1.38545   1.20361    0.000
 5761.00    1.28833   1.20415    0.000
 5762.00    1.28295   1.20510    0.000
 5763.00    1.30401   1.20628    0.000
 5764.00    1.37772   1.20786    0.000
 5765.00    1.46397   1.20976    0.000
 5766.00    1.49636   1.21185    0.000
 5767.00    1.51842   1.21408    0.000
 5768.00    1.44843   1.21609    0.000
 5769.00    1.36473   1.21785    0.000
 5770.00    1.39084   1.21891    0.000
 5771.00    1.42892   1.21934    0.000
 5772.00    1.43513   1.21887    0.000
 5773.00    1.43906   1.21757    0.000
 5774.00    1.39155   1.21541    0.000
 5775.00    1.34214   1.21239    0.000
 5776.00    1.36371   1.20861    0.000
 5777.00    1.38363   1.20402    0.000
 5778.00    1.33417   1.19890    0.000
 5779.00    1.28971   1.19325    0.000
 5780.00    1.32582   1.18748    0.000
 5781.00    1.35976   1.18179    0.000
 5782.00    1.37178   1.17660    0.000
 5783.00    1.38578   1.17226    0.000
 5784.00    1.41403   1.16911    0.000
 5785.00    1.43937   1.16739    0.000
 5786.00    1.44855   1.16716    0.000
 5787.00    1.45954   1.16847    0.000
 5788.00    1.47854   1.17107    0.000
 5789.00    1.47917   1.17477    0.000
 5790.00    1.41290   1.17926    0.000
 5791.00    1.36704   1.18418   -2.000
 5792.00    1.38348   1.18932   -2.000
 5793.00    1.40440   1.19437   -2.000
 5794.00    1.43695   1.19921   -2.000
 5795.00    1.45274   1.20373   -2.000
 5796.00    1.43111   1.20783   -2.000
 5797.00    1.41411   1.21158   -2.000
 5798.00    1.40609   1.21483   -2.000
 5799.00    1.38707   1.21774   -2.000
 5800.00    1.34950   1.22010   -2.000
 5801.00    1.31011   1.22206   -2.000
 5802.00    1.26804   1.22346   -2.000
 5803.00    1.27093   1.22444   -2.000
 5804.00    1.33224   1.22492   -2.000
 5805.00    1.36665   1.22506   -2.000
 5806.00    1.37024   1.22490   -2.000
 5807.00    1.38222   1.22458   -2.000
 5808.00    1.40268   1.22418   -2.000
 5809.00    1.43135   1.22377   -2.000
 5810.00    1.46731   1.22344   -2.000
 5811.00    1.45297   1.22317    0.000
 5812.00    1.39915   1.22301    0.000
 5813.00    1.38375   1.22296    0.000
 5814.00    1.39487   1.22308    0.000
 5815.00    1.42166   1.22339    0.000
 5816.00    1.45795   1.22398    0.000
 5817.00    1.47298   1.22487    0.000
 5818.00    1.47680   1.22610    0.000
 5819.00    1.49416   1.22764    0.000
 5820.00    1.51773   1.22943    0.000
 5821.00    1.53491   1.23139    0.000
 5822.00    1.54957   1.23335    0.000
 5823.00    1.53300   1.23528    0.000
 5824.00    1.50594   1.23697    0.000
 5825.00    1.47219   1.23846    0.000
 5826.00    1.43654   1.23959    0.000
 5827.00    1.38082   1.24044    0.000
 5828.00    1.32043   1.24094    0.000
 5829.00    1.30575   1.24115    0.000
 5830.00    1.29961   1.24109    0.000
 5831.00    1.31885   1.24078    0.000
 5832.00    1.34175   1.24030    0.000
 5833.00    1.33996   1.23970    0.000
 5834.00    1.33558   1.23907    0.000
 5835.00    1.34552   1.23847    0.000
 5836.00    1.35643   1.23797    0.000
 5837.00    1.36923   1.23764    0.000
 5838.00    1.38209   1.23743    0.000
 5839.00    1.36696   1.23735    0.000
 5840.00    1.35226   1.23727    0.000
 5841.00    1.35172   1.23709    0.000
 5842.00    1.35157   1.23666    0.000
 5843.00    1.35717   1.23581    0.000
 5844.00    1.36068   1.23443    0.000
 5845.00    1.34382   1.23238    0.000
 5846.00    1.32639   1.22969    0.000
 5847.00    1.30490   1.22626    0.000
 5848.00    1.29185   1.22224    0.000
 5849.00    1.32440   1.21763    0.000
 5850.00    1.35756   1.21261    0.000
 5851.00    1.39336   1.20726    0.000
 5852.00    1.41846   1.20179    0.000
 5853.00    1.40534   1.19639    0.000
 5854.00    1.39283   1.19121    0.000
 5855.00    1.38212   1.18656    0.000
 5856.00    1.37727   1.18249    0.000
 5857.00    1.38738   1.17938    0.000
 5858.00    1.37999   1.17712    0.000
 5859.00    1.33418   1.17608    0.000
 5860.00    1.31642   1.17597    0.000
 5861.00    1.35207   1.17696    0.000
 5862.00    1.38262   1.17872    0.000
 5863.00    1.40469   1.18122    0.000
 5864.00    1.41118   1.18418    0.000
 5865.00    1.39497   1.18741    0.000
 5866.00    1.39031   1.19077    0.000
 5867.00    1.40047   1.19402    0.000
 5868.00    1.40681   1.19712    0.000
 5869.00    1.40884   1.19985    0.000
 5870.00    1.41151   1.20220    0.000
 5871.00    1.41482   1.20398    0.000
 5872.00    1.40830   1.20516    0.000
 5873.00    1.39316   1.20564    0.000
 5874.00    1.37937   1.20536    0.000
 5875.00    1.36661   1.20433    0.000
 5876.00    1.36610   1.20244    0.000
 5877.00    1.37392   1.19975    0.000
 5878.00    1.34177   1.19616    0.000
 5879.00    1.28581   1.19168    0.000
 5880.00    1.28999   1.18614    0.000
 5881.00    1.32543   1.17941    0.000
 5882.00    1.33302   1.17129    0.000
 5883.00    1.32805   1.16159    0.000
 5884.00    1.29348   1.15015    0.000
 5885.00    1.24743   1.13694    0.000
 5886.00    1.20229   1.12209    0.000
 5887.00    1.15745   1.10597    0.000
 5888.00    1.10096   1.08914    0.000
 5889.00    1.04123   1.07240    0.000
 5890.00    1.07236   1.05656    0.000
 5891.00    1.12415   1.04265    0.000
 5892.00    1.19330   1.03142    0.000
 5893.00    1.26560   1.02356    0.000
 5894.00    1.26115   1.01947    0.000
 5895.00    1.24597   1.01942    0.000
 5896.00    1.22366   1.02323    0.000
 5897.00    1.20064   1.03070    0.000
 5898.00    1.20544   1.04120    0.000
 5899.00    1.21201   1.05414    0.000
 5900.00    1.24199   1.06869    0.000
 5901.00    1.27271   1.08412    0.013
 5902.00    1.32331   1.09960    0.013
 5903.00    1.37191   1.11446    0.013
 5904.00    1.36388   1.12813    0.013
 5905.00    1.35531   1.14021    0.013
 5906.00    1.33917   1.15041    0.013
 5907.00    1.32262   1.15873    0.013
 5908.00    1.30224   1.16513    0.013
 5909.00    1.28622   1.16987    0.013
 5910.00    1.29984   1.17302    0.013
 5911.00    1.30825   1.17501    0.013
 5912.00    1.28921   1.17593    0.013
 5913.00    1.26894   1.17629    0.013
 5914.00    1.24344   1.17614    0.013
 5915.00    1.22697   1.17598    0.013
 5916.00    1.24211   1.17581    0.013
 5917.00    1.24368   1.17599    0.013
 5918.00    1.20534   1.17646    0.013
 5919.00    1.18428   1.17735    0.013
 5920.00    1.20656   1.17853    0.013
 5921.00    1.23512   1.17994    0.013
 5922.00    1.27724   1.18141    0.013
 5923.00    1.29859   1.18280    0.013
 5924.00    1.28100   1.18400    0.013
 5925.00    1.27679   1.18490    0.013
 5926.00    1.29446   1.18544    0.012
 5927.00    1.30303   1.18568    0.012
 5928.00    1.29852   1.18560    0.012
 5929.00    1.27549   1.18538    0.012
 5930.00    1.22910   1.18502    0.012
 5931.00    1.22000   1.18473    0.012
 5932.00    1.25240   1.18451    0.012
 5933.00    1.28117   1.18450    0.013
 5934.00    1.30635   1.18467    0.012
 5935.00    1.31878   1.18504    0.013
 5936.00    1.32017   1.18556    0.013
 5937.00    1.33915   1.18617    0.013
 5938.00    1.37152   1.18681    0.013
 5939.00    1.33474   1.18738    0.013
 5940.00    1.25159   1.18787    0.013
 5941.00    1.19480   1.18818    0.013
 5942.00    1.15347   1.18836    0.013
 5943.00    1.18596   1.18832    0.013
 5944.00    1.25622   1.18812    0.013
 5945.00    1.29320   1.18768    0.013
 5946.00    1.31542   1.18709    0.013
 5947.00    1.30371   1.18629    0.013
 5948.00    1.27908   1.18537    0.013
 5949.00    1.27794   1.18432    0.013
 5950.00    1.28440   1.18328    0.013
 5951.00    1.28825   1.18225    0.013
 5952.00    1.29140   1.18142    0.013
 5953.00    1.27328   1.18079    0.013
 5954.00    1.25042   1.18056    0.013
 5955.00    1.27395   1.18068    0.013
 5956.00    1.30568   1.18132    0.013
 5957.00    1.33748   1.18237    0.012
 5958.00    1.36928   1.18393    0.012
 5959.00    1.37359   1.18582    0.012
 5960.00    1.37526   1.18807    0.012
 5961.00    1.38136   1.19047    0.012
 5962.00    1.38772   1.19299    0.012
 5963.00    1.35765   1.19544    0.012
 5964.00    1.32655   1.19778    0.012
 5965.00    1.27983   1.19992    0.012
 5966.00    1.23537   1.20177    0.012
 5967.00    1.24845   1.20333    0.012
 5968.00    1.26371   1.20449    0.012
 5969.00    1.30841   1.20531    0.013
 5970.00    1.35045   1.20561    0.013
 5971.00    1.36876   1.20548    0.013
 5972.00    1.37902   1.20476    0.013
 5973.00    1.33628   1.20357    0.013
 5974.00    1.29712   1.20183    0.013
 5975.00    1.27628   1.19970    0.013
 5976.00    1.25570   1.19722    0.013
 5977.00    1.23619   1.19455    0.013
 5978.00    1.23255   1.19184    0.013
 5979.00    1.28325   1.18917    0.013
 5980.00    1.32520   1.18671    0.013
 5981.00    1.34192   1.18447    0.013
 5982.00    1.34801   1.18260    0.013
 5983.00    1.32791   1.18108    0.013
 5984.00    1.29822   1.18005    0.013
 5985.00    1.24813   1.17946    0.012
 5986.00    1.20982   1.17942    0.012
 5987.00    1.19327   1.17984    0.012
 5988.00    1.20020   1.18079    0.012
 5989.00    1.24502   1.18208    0.012
 5990.00    1.28912   1.18369    0.012
 5991.00    1.33221   1.18539    0.012
 5992.00    1.35062   1.18707    0.012
 5993.00    1.33828   1.18853    0.012
 5994.00    1.32124   1.18967    0.012
 5995.00    1.29905   1.19036    0.012
 5996.00    1.27606   1.19056    0.012
 5997.00    1.25229   1.19028    0.012
 5998.00    1.22977   1.18952    0.012
 5999.00    1.20831   1.18840    0.012
 6000.00    1.21332   1.18692    0.013
 6001.00    1.23822   1.18525    0.013
 6002.00    1.26418   1.18339    0.013
 6003.00    1.29084   1.18151    0.012
 6004.00    1.30363   1.17959    0.012
 6005.00    1.30841   1.17777    0.013
 6006.00    1.30525   1.17605    0.013
 6007.00    1.29808   1.17454    0.013
 6008.00    1.29079   1.17321    0.013
 6009.00    1.28344   1.17215    0.013
 6010.00    1.29256   1.17128    0.013
 6011.00    1.30783   1.17063    0.013
 6012.00    1.32211   1.17009    0.013
 6013.00    1.33607   1.16965    0.013
 6014.00    1.30242   1.16923    0.013
 6015.00    1.25613   1.16880    0.013
 6016.00    1.22381   1.16836    0.012
 6017.00    1.19452   1.16795    0.012
 6018.00    1.23746   1.16761    0.012
 6019.00    1.29284   1.16747    0.012
 6020.00    1.31693   1.16760    0.012
 6021.00    1.33693   1.16817    0.012
 6022.00    1.29817   1.16918    0.012
 6023.00    1.25400   1.17081    0.012
 6024.00    1.26642   1.17296    0.012
 6025.00    1.28198   1.17572    0.012
 6026.00    1.32062   1.17893    0.012
 6027.00    1.35913   1.18254    0.012
 6028.00    1.33410   1.18640    0.012
 6029.00    1.31031   1.19033    0.012
 6030.00    1.31508   1.19425    0.012
 6031.00    1.32003   1.19793    0.012
 6032.00    1.32714   1.20135    0.013
 6033.00    1.33328   1.20431    0.013
 6034.00    1.33105   1.20688    0.012
 6035.00    1.33224   1.20891    0.012
 6036.00    1.35520   1.21053    0.013
 6037.00    1.37373   1.21170    0.013
 6038.00    1.37009   1.21256    0.013
 6039.00    1.36277   1.21317    0.013
 6040.00    1.34057   1.21362    0.012
 6041.00    1.32470   1.21406    0.012
 6042.00    1.33007   1.21448    0.012
 6043.00    1.32409   1.21502    0.013
 6044.00    1.28594   1.21557    0.012
 6045.00    1.26864   1.21623    0.012
 6046.00    1.30185   1.21679    0.012
 6047.00    1.34282   1.21728    0.012
 6048.00    1.40002   1.21752    0.012
 6049.00    1.42720   1.21746    0.012
 6050.00    1.39984   1.21705    0.012
 6051.00    1.36542   1.21622    0.012
 6052.00    1.31978   1.21506    0.012
 6053.00    1.29059   1.21353    0.012
 6054.00    1.28435   1.21183    0.012
 6055.00    1.27960   1.20997    0.012
 6056.00    1.27667   1.20809    0.012
 6057.00    1.28420   1.20628    0.012
 6058.00    1.30303   1.20457    0.012
 6059.00    1.31538   1.20307    0.012
 6060.00    1.32155   1.20172    0.012
 6061.00    1.31735   1.20066    0.012
 6062.00    1.30443   1.19983    0.012
 6063.00    1.29481   1.19937    0.012
 6064.00    1.28763   1.19933    0.012
 6065.00    1.26147   1.19978    0.012
 6066.00    1.22295   1.20080    0.012
 6067.00    1.19896   1.20232    0.012
 6068.00    1.18325   1.20436    0.012
 6069.00    1.21815   1.20669    0.012
 6070.00    1.27816   1.20915    0.013
 6071.00    1.30968   1.21150    0.012
 6072.00    1.32900   1.21341    0.012
 6073.00    1.34264   1.21475    0.012
 6074.00    1.35419   1.21519    0.012
 6075.00    1.36628   1.21482    0.012
 6076.00    1.37854   1.21343    0.012
 6077.00    1.36450   1.21133    0.012
 6078.00    1.34363   1.20847    0.012
 6079.00    1.33731   1.20525    0.012
 6080.00    1.33408   1.20176    0.012
 6081.00    1.34815   1.19834    0.012
 6082.00    1.36513   1.19511    0.012
 6083.00    1.34019   1.19223    0.012
 6084.00    1.30997   1.18985    0.012
 6085.00    1.30642   1.18791    0.012
 6086.00    1.30520   1.18653    0.012
 6087.00    1.33564   1.18552    0.012
 6088.00    1.36771   1.18501    0.012
 6089.00    1.36375   1.18474    0.012
 6090.00    1.35863   1.18485    0.012
 6091.00    1.31680   1.18510    0.012
 6092.00    1.27876   1.18557    0.012
 6093.00    1.32159   1.18606    0.012
 6094.00    1.36162   1.18654    0.012
 6095.00    1.36771   1.18689    0.012
 6096.00    1.36596   1.18696    0.013
 6097.00    1.29920   1.18672    0.013
 6098.00    1.24511   1.18602    0.012
 6099.00    1.26965   1.18498    0.012
 6100.00    1.28940   1.18354    0.012
 6101.00    1.28578   1.18198    0.012
 6102.00    1.27463   1.18042    0.012
 6103.00    1.23365   1.17913    0.012
 6104.00    1.21310   1.17833    0.012
 6105.00    1.25979   1.17812    0.013
 6106.00    1.31281   1.17869    0.014
 6107.00    1.38348   1.17985    0.014
 6108.00    1.43369   1.18170    0.014
 6109.00    1.43522   1.18383    0.014
 6110.00    1.42577   1.18620    0.014
 6111.00    1.39372   1.18839    0.013
 6112.00    1.35737   1.19027    0.012
 6113.00    1.31329   1.19157    0.012
 6114.00    1.28005   1.19216    0.012
 6115.00    1.26379   1.19196    0.012
 6116.00    1.24727   1.19091    0.012
 6117.00    1.23039   1.18912    0.012
 6118.00    1.20499   1.18666    0.012
 6119.00    1.16929   1.18381    0.012
 6120.00    1.15780   1.18069    0.012
 6121.00    1.17212   1.17769    0.012
 6122.00    1.20480   1.17494    0.012
 6123.00    1.25476   1.17278    0.012
 6124.00    1.29640   1.17120    0.012
 6125.00    1.33116   1.17036    0.013
 6126.00    1.34669   1.17009    0.013
 6127.00    1.34818   1.17029    0.012
 6128.00    1.33339   1.17068    0.012
 6129.00    1.30816   1.17097    0.012
 6130.00    1.28579   1.17091    0.012
 6131.00    1.26502   1.17022    0.012
 6132.00    1.26606   1.16883    0.012
 6133.00    1.27775   1.16665    0.012
 6134.00    1.27031   1.16390    0.012
 6135.00    1.25481   1.16071    0.012
 6136.00    1.24688   1.15755    0.012
 6137.00    1.24168   1.15467    0.012
 6138.00    1.26990   1.15262    0.012
 6139.00    1.30832   1.15143    0.012
 6140.00    1.28087   1.15158    0.012
 6141.00    1.23668   1.15273    0.012
 6142.00    1.22655   1.15507    0.012
 6143.00    1.22346   1.15809    0.012
 6144.00    1.24302   1.16163    0.012
 6145.00    1.26626   1.16521    0.012
 6146.00    1.26759   1.16851    0.012
 6147.00    1.26626   1.17133    0.012
 6148.00    1.27574   1.17332    0.012
 6149.00    1.28613   1.17461    0.012
 6150.00    1.29792   1.17483    0.012
 6151.00    1.30977   1.17437    0.012
 6152.00    1.31856   1.17278    0.012
 6153.00    1.32685   1.17054    0.012
 6154.00    1.30802   1.16716    0.012
 6155.00    1.28875   1.16310    0.012
 6156.00    1.26092   1.15793    0.012
 6157.00    1.23343   1.15206    0.012
 6158.00    1.20998   1.14534    0.012
 6159.00    1.18919   1.13813    0.012
 6160.00    1.18960   1.13066    0.012
 6161.00    1.19054   1.12327    0.012
 6162.00    1.19472   1.11642    0.012
 6163.00    1.19995   1.11037    0.012
 6164.00    1.21021   1.10553    0.012
 6165.00    1.22177   1.10206    0.012
 6166.00    1.23838   1.10005    0.012
 6167.00    1.25469   1.09954    0.012
 6168.00    1.27002   1.10033    0.012
 6169.00    1.27746   1.10237    0.011
 6170.00    1.26333   1.10532    0.011
 6171.00    1.25147   1.10907    0.012
 6172.00    1.24490   1.11335    0.012
 6173.00    1.24382   1.11796    0.012
 6174.00    1.25386   1.12283    0.012
 6175.00    1.25365   1.12764    0.012
 6176.00    1.23538   1.13249    0.012
 6177.00    1.23382   1.13694    0.012
 6178.00    1.25803   1.14115    0.012
 6179.00    1.27921   1.14473    0.012
 6180.00    1.29632   1.14776    0.012
 6181.00    1.30664   1.14998    0.012
 6182.00    1.30887   1.15136    0.012
 6183.00    1.29920   1.15188    0.012
 6184.00    1.27703   1.15138    0.012
 6185.00    1.27631   1.15016    0.012
 6186.00    1.29550   1.14804    0.012
 6187.00    1.30284   1.14553    0.012
 6188.00    1.30049   1.14255    0.012
 6189.00    1.27842   1.13967    0.012
 6190.00    1.24217   1.13695    0.012
 6191.00    1.23546   1.13483    0.012
 6192.00    1.24742   1.13339    0.012
 6193.00    1.25123   1.13283    0.012
 6194.00    1.25054   1.13312    0.012
 6195.00    1.25938   1.13424    0.012
 6196.00    1.27279   1.13599   -2.000
 6197.00    1.38404   1.13830   -2.000
 6198.00    1.53586   1.14084   -2.000
 6199.00    1.59897   1.14359   -2.000
 6200.00    1.63063   1.14626   -2.000
 6201.00    1.50273   1.14886   -2.000
 6202.00    1.32709   1.15119   -2.000
 6203.00    1.21429   1.15325   -2.000
 6204.00    1.11710   1.15487   -2.000
 6205.00    1.12121   1.15599   -2.000
 6206.00    1.14571   1.15648   -2.000
 6207.00    1.15740   1.15620   -2.000
 6208.00    1.16707   1.15509    0.012
 6209.00    1.17921   1.15303    0.012
 6210.00    1.19164   1.15013    0.012
 6211.00    1.20165   1.14634    0.012
 6212.00    1.21146   1.14200    0.012
 6213.00    1.19796   1.13714    0.012
 6214.00    1.18343   1.13224    0.012
 6215.00    1.21185   1.12736    0.011
 6216.00    1.24103   1.12299    0.011
 6217.00    1.28382   1.11913    0.011
 6218.00    1.32466   1.11612    0.011
 6219.00    1.32997   1.11383    0.011
 6220.00    1.33494   1.11239    0.011
 6221.00    1.33621   1.11155    0.011
 6222.00    1.33768   1.11127    0.011
 6223.00    1.34063   1.11124    0.012
 6224.00    1.33844   1.11132    0.012
 6225.00    1.30614   1.11135    0.012
 6226.00    1.28083   1.11112    0.012
 6227.00    1.28798   1.11074    0.012
 6228.00    1.29256   1.11004    0.012
 6229.00    1.28746   1.10925    0.012
 6230.00    1.28163   1.10839    0.012
 6231.00    1.27352   1.10759    0.012
 6232.00    1.27031   1.10710    0.012
 6233.00    1.28027   1.10669    0.012
 6234.00    1.28221   1.10674    0.012
 6235.00    1.26573   1.10666    0.012
 6236.00    1.24873   1.10689    0.012
 6237.00    1.23070   1.10672    0.012
 6238.00    1.21754   1.10653    0.012
 6239.00    1.21282   1.10583    0.012
 6240.00    1.21445   1.10487    0.012
 6241.00    1.22571   1.10357    0.011
 6242.00    1.22106   1.10212    0.011
 6243.00    1.19516   1.10062    0.011
 6244.00    1.18053   1.09922    0.011
 6245.00    1.17917   1.09798    0.011
 6246.00    1.19095   1.09700    0.011
 6247.00    1.21638   1.09613    0.011
 6248.00    1.24018   1.09548    0.011
 6249.00    1.26250   1.09473    0.011
 6250.00    1.27340   1.09391    0.011
 6251.00    1.27510   1.09287    0.011
 6252.00    1.26570   1.09152    0.011
 6253.00    1.24843   1.09008    0.011
 6254.00    1.22475   1.08836    0.012
 6255.00    1.19708   1.08710    0.012
 6256.00    1.17418   1.08585    0.012
 6257.00    1.15387   1.08553    0.012
 6258.00    1.19779   1.08573    0.012
 6259.00    1.27205   1.08704    0.013
 6260.00    1.33918   1.08913    0.013
 6261.00    1.40340   1.09211    0.014
 6262.00    1.40214   1.09583    0.015
 6263.00    1.37809   1.09991    0.015
 6264.00    1.30561   1.10449    0.015
 6265.00    1.21893   1.10881    0.015
 6266.00    1.13361   1.11319    0.014
 6267.00    1.04861   1.11698    0.013
 6268.00    1.06721   1.12057    0.012
 6269.00    1.10614   1.12351    0.012
 6270.00    1.14870   1.12611    0.011
 6271.00    1.19180   1.12818    0.011
 6272.00    1.18015   1.12981    0.011
 6273.00    1.16233   1.13109    0.011
 6274.00    1.15253   1.13197    0.011
 6275.00    1.14333   1.13260    0.011
 6276.00    1.16051   1.13291    0.011
 6277.00    1.17876   1.13314    0.011
 6278.00    1.20147   1.13314    0.011
 6279.00    1.22421   1.13324    0.011
 6280.00    1.24716   1.13334    0.000
 6281.00    1.27020   1.13378    0.000
 6282.00    1.29478   1.13438    0.000
 6283.00    1.31909   1.13539    0.000
 6284.00    1.34062   1.13665    0.000
 6285.00    1.35658   1.13813    0.000
 6286.00    1.33101   1.13977    0.000
 6287.00    1.30463   1.14127    0.000
 6288.00    1.27365   1.14262    0.000
 6289.00    1.24513   1.14350    0.000
 6290.00    1.22771   1.14396    0.000
 6291.00    1.21329   1.14371    0.000
 6292.00    1.20994   1.14288    0.000
 6293.00    1.21395   1.14139    0.000
 6294.00    1.24077   1.13934    0.000
 6295.00    1.26223   1.13698    0.000
 6296.00    1.26955   1.13433    0.000
 6297.00    1.27519   1.13173    0.000
 6298.00    1.27702   1.12922    0.000
 6299.00    1.27733   1.12711    0.000
 6300.00    1.27464   1.12552    0.000
 6301.00    1.27844   1.12456    0.000
 6302.00    1.29334   1.12429    0.000
 6303.00    1.29595   1.12470    0.000
 6304.00    1.28015   1.12565    0.000
 6305.00    1.26407   1.12704    0.000
 6306.00    1.24763   1.12877    0.000
 6307.00    1.25270   1.13054    0.000
 6308.00    1.28270   1.13211    0.000
 6309.00    1.30564   1.13326    0.000
 6310.00    1.32136   1.13383    0.000
 6311.00    1.32702   1.13391    0.000
 6312.00    1.32360   1.13329    0.000
 6313.00    1.30773   1.13212    0.000
 6314.00    1.28196   1.13046    0.000
 6315.00    1.24772   1.12874    0.000
 6316.00    1.20756   1.12699    0.000
 6317.00    1.18112   1.12556    0.000
 6318.00    1.16308   1.12456    0.000
 6319.00    1.14669   1.12436    0.000
 6320.00    1.13117   1.12484    0.000
 6321.00    1.12687   1.12627 1461.574
 6322.00    1.12777   1.12823 1461.574
 6323.00    1.16931   1.13079    0.030
 6324.00    1.22714   1.13377    0.013
 6325.00    1.25387   1.13692    0.011
 6326.00    1.26998   1.13994    0.011
 6327.00    1.26238   1.14258    0.011
 6328.00    1.24795   1.14499    0.011
 6329.00    1.23016   1.14653    0.011
 6330.00    1.21157   1.14744    0.011
 6331.00    1.21932   1.14761    0.011
 6332.00    1.23211   1.14712    0.011
 6333.00    1.23025   1.14613    0.011
 6334.00    1.22622   1.14455    0.011
 6335.00    1.21507   1.14289    0.012
 6336.00    1.20314   1.14100    0.012
 6337.00    1.23205   1.13930    0.012
 6338.00    1.26386   1.13783    0.012
 6339.00    1.30058   1.13654    0.011
 6340.00    1.33748   1.13589    0.011
 6341.00    1.33935   1.13533    0.011
 6342.00    1.34055   1.13542    0.012
 6343.00    1.32256   1.13564    0.012
 6344.00    1.30337   1.13635    0.012
 6345.00    1.26517   1.13727    0.011
 6346.00    1.22661   1.13829    0.011
 6347.00    1.18441   1.13937    0.011
 6348.00    1.14770   1.14017    0.011
 6349.00    1.15055   1.14095    0.011
 6350.00    1.15780   1.14116    0.011
 6351.00    1.18941   1.14109    0.011
 6352.00    1.21600   1.14036    0.011
 6353.00    1.22040   1.13905    0.011
 6354.00    1.21934   1.13706    0.011
 6355.00    1.19846   1.13440    0.011
 6356.00    1.18213   1.13122    0.011
 6357.00    1.17963   1.12768    0.011
 6358.00    1.19011   1.12406    0.012
 6359.00    1.23420   1.12051    0.012
 6360.00    1.26810   1.11747    0.012
 6361.00    1.27927   1.11502    0.012
 6362.00    1.28543   1.11357    0.012
 6363.00    1.28189   1.11313    0.012
 6364.00    1.28403   1.11372    0.012
 6365.00    1.29575   1.11540    0.012
 6366.00    1.30011   1.11807    0.012
 6367.00    1.29365   1.12153    0.012
 6368.00    1.29232   1.12560    0.012
 6369.00    1.29767   1.13003    0.011
 6370.00    1.29059   1.13464    0.011
 6371.00    1.26928   1.13905    0.011
 6372.00    1.24565   1.14322    0.011
 6373.00    1.21967   1.14678    0.011
 6374.00    1.21766   1.14985    0.011
 6375.00    1.23696   1.15218    0.011
 6376.00    1.24555   1.15386    0.011
 6377.00    1.24575   1.15497    0.011
 6378.00    1.24700   1.15559    0.011
 6379.00    1.24897   1.15584    0.011
 6380.00    1.24319   1.15570    0.011
 6381.00    1.23273   1.15537    0.011
 6382.00    1.20018   1.15491    0.011
 6383.00    1.15600   1.15443    0.011
 6384.00    1.14417   1.15391    0.011
 6385.00    1.14714   1.15339    0.011
 6386.00    1.14183   1.15288    0.011
 6387.00    1.13325   1.15228    0.012
 6388.00    1.12963   1.15150    0.011
 6389.00    1.12767   1.15059    0.011
 6390.00    1.15395   1.14934    0.011
 6391.00    1.18817   1.14799    0.011
 6392.00    1.20143   1.14654    0.011
 6393.00    1.20982   1.14501    0.011
 6394.00    1.21945   1.14354    0.011
 6395.00    1.22932   1.14215    0.011
 6396.00    1.23185   1.14110    0.011
 6397.00    1.23334   1.14031    0.011
 6398.00    1.23669   1.13983    0.011
 6399.00    1.24024   1.13975    0.011
 6400.00    1.22963   1.13995    0.011
 6401.00    1.21807   1.14095    0.011
 6402.00    1.19269   1.14170    0.011
 6403.00    1.16686   1.14277    0.011
 6404.00    1.18021   1.14351    0.011
 6405.00    1.19293   1.14427    0.011
 6406.00    1.18573   1.14460    0.011
 6407.00    1.17811   1.14518    0.012
 6408.00    1.16428   1.14568    0.011
 6409.00    1.15390   1.14553    0.011
 6410.00    1.17675   1.14522    0.011
 6411.00    1.19601   1.14466    0.012
 6412.00    1.19013   1.14403    0.011
 6413.00    1.18319   1.14337    0.011
 6414.00    1.17050   1.14282    0.011
 6415.00    1.16306   1.14250    0.011
 6416.00    1.17826   1.14254    0.011
 6417.00    1.19106   1.14221    0.011
 6418.00    1.19528   1.14242    0.011
 6419.00    1.20100   1.14287    0.011
 6420.00    1.21121   1.14362    0.011
 6421.00    1.21630   1.14437    0.011
 6422.00    1.20835   1.14552    0.011
 6423.00    1.21308   1.14674    0.011
 6424.00    1.24557   1.14797    0.011
 6425.00    1.27763   1.14933    0.011
 6426.00    1.30885   1.15027    0.011
 6427.00    1.32254   1.15137    0.011
 6428.00    1.30714   1.15204    0.011
 6429.00    1.28414   1.15268    0.011
 6430.00    1.25010   1.15257    0.011
 6431.00    1.22161   1.15223    0.011
 6432.00    1.20021   1.15182    0.011
 6433.00    1.19817   1.15134    0.011
 6434.00    1.21793   1.15103    0.011
 6435.00    1.23398   1.15069    0.012
 6436.00    1.24634   1.15080    0.012
 6437.00    1.26233   1.15109    0.011
 6438.00    1.28150   1.15210    0.011
 6439.00    1.29979   1.15327    0.011
 6440.00    1.31740   1.15445    0.011
 6441.00    1.32037   1.15564    0.011
 6442.00    1.31339   1.15668    0.011
 6443.00    1.30496   1.15745    0.011
 6444.00    1.29566   1.15786    0.011
 6445.00    1.28806   1.15776    0.011
 6446.00    1.28133   1.15738    0.011
 6447.00    1.27989   1.15649    0.011
 6448.00    1.28084   1.15487    0.011
 6449.00    1.28532   1.15287    0.011
 6450.00    1.29116   1.15072    0.011
 6451.00    1.27599   1.14865    0.011
 6452.00    1.25390   1.14680    0.011
 6453.00    1.25261   1.14530    0.011
 6454.00    1.25707   1.14410    0.011
 6455.00    1.26707   1.14376    0.011
 6456.00    1.27832   1.14364    0.011
 6457.00    1.29018   1.14451    0.011
 6458.00    1.30215   1.14530    0.012
 6459.00    1.27161   1.14616    0.012
 6460.00    1.23515   1.14670    0.012
 6461.00    1.20545   1.14745    0.012
 6462.00    1.17643   1.14789    0.012
 6463.00    1.19726   1.14876    0.011
 6464.00    1.22123   1.14945    0.011
 6465.00    1.22444   1.15014    0.011
 6466.00    1.22707   1.15070    0.011
 6467.00    1.23434   1.15123    0.011
 6468.00    1.24259   1.15225    0.011
 6469.00    1.27820   1.15285    0.011
 6470.00    1.31195   1.15423    0.011
 6471.00    1.31943   1.15484    0.011
 6472.00    1.32255   1.15550    0.011
 6473.00    1.28527   1.15551    0.011
 6474.00    1.25268   1.15550    0.011
 6475.00    1.25185   1.15511    0.011
 6476.00    1.25022   1.15444    0.011
 6477.00    1.24439   1.15382    0.011
 6478.00    1.23542   1.15265    0.011
 6479.00    1.21320   1.15161    0.011
 6480.00    1.19978   1.15008    0.011
 6481.00    1.21703   1.14856    0.011
 6482.00    1.22771   1.14668    0.011
 6483.00    1.21916   1.14483    0.011
 6484.00    1.20876   1.14256    0.011
 6485.00    1.19376   1.13983    0.011
 6486.00    1.19263   1.13667    0.011
 6487.00    1.22138   1.13299    0.011
 6488.00    1.23745   1.12875    0.011
 6489.00    1.22980   1.12388    0.011
 6490.00    1.21580   1.11825    0.011
 6491.00    1.19143   1.11208    0.011
 6492.00    1.15869   1.10526    0.011
 6493.00    1.11398   1.09859    0.011
 6494.00    1.09853   1.09193    0.011
 6495.00    1.11996   1.08638    0.011
 6496.00    1.13757   1.08177    0.011
 6497.00    1.15092   1.07895    0.011
 6498.00    1.15414   1.07775    0.011
 6499.00    1.14742   1.07851    0.011
 6500.00    1.15166   1.08154    0.011
 6501.00    1.16536   1.08587    0.011
 6502.00    1.17873   1.09230    0.011
 6503.00    1.19185   1.09886    0.011
 6504.00    1.21969   1.10629    0.011
 6505.00    1.25738   1.11337    0.011
 6506.00    1.26273   1.11999    0.011
 6507.00    1.24915   1.12599    0.011
 6508.00    1.23885   1.13090    0.011
 6509.00    1.23024   1.13485    0.011
 6510.00    1.21257   1.13776    0.011
 6511.00    1.19089   1.13971    0.011
 6512.00    1.19226   1.14074    0.011
 6513.00    1.20239   1.14116    0.011
 6514.00    1.21494   1.14104    0.011
 6515.00    1.22827   1.14069    0.011
 6516.00    1.23841   1.14005    0.010
 6517.00    1.24769   1.13949    0.010
 6518.00    1.28219   1.13892    0.010
 6519.00    1.32228   1.13854    0.011
 6520.00    1.33690   1.13840    0.011
 6521.00    1.34702   1.13860    0.011
 6522.00    1.30231   1.13906    0.011
 6523.00    1.25023   1.13960    0.011
 6524.00    1.21440   1.14051    0.011
 6525.00    1.18012   1.14115    0.011
 6526.00    1.19050   1.14185    0.011
 6527.00    1.20351   1.14226    0.011
 6528.00    1.22563   1.14257    0.000
 6529.00    1.24796   1.14274    0.000
 6530.00    1.26827   1.14273    0.000
 6531.00    1.28887   1.14263    0.000
 6532.00    1.31692   1.14268    0.000
 6533.00    1.34273   1.14274    0.000
 6534.00    1.33872   1.14280    0.000
 6535.00    1.33284   1.14278    0.000
 6536.00    1.31042   1.14256    0.000
 6537.00    1.29063   1.14220    0.000
 6538.00    1.28811   1.14166    0.000
 6539.00    1.28713   1.14079    0.000
 6540.00    1.29403   1.13959    0.000
 6541.00    1.30111   1.13769    0.000
 6542.00    1.30894   1.13539    0.000
 6543.00    1.32309   1.13250    0.000
 6544.00    1.35884   1.12920    0.000
 6545.00    1.39365   1.12530    0.000
 6546.00    1.42579   1.12095    0.000
 6547.00    1.43572   1.11627    0.000
 6548.00    1.39102   1.11112    0.000
 6549.00    1.33686   1.10579    0.000
 6550.00    1.26263   1.09970    0.000
 6551.00    1.20370   1.09347    0.000
 6552.00    1.17295   1.08655    0.000
 6553.00    1.16635   1.07862    0.000
 6554.00    1.19862   1.06968    0.000
 6555.00    1.24268   1.05930    0.000
 6556.00    1.30340   1.04801    0.000
 6557.00    1.39020   1.03633    0.000
 6558.00    1.50941   1.02400    0.000
 6559.00    1.60753   1.01178    0.000
 6560.00    1.68256   0.99993    0.000
 6561.00    1.69300   0.98962    0.000
 6562.00    1.64106   0.98072    0.000
 6563.00    1.54470   0.97424    0.000
 6564.00    1.41050   0.97038    0.000
 6565.00    1.30465   0.96929    0.000
 6566.00    1.22006   0.97077    0.000
 6567.00    1.19380   0.97502    0.000
 6568.00    1.20598   0.98381    0.000
 6569.00    1.20836   0.99438    0.000
 6570.00    1.20508   1.00563    0.000
 6571.00    1.20523   1.01734    0.000
 6572.00    1.20711   1.02849    0.000
 6573.00    1.21616   1.03912    0.000
 6574.00    1.22833   1.04904    0.000
 6575.00    1.25153   1.05843    0.000
 6576.00    1.27883   1.06677    0.000
 6577.00    1.33846   1.07413    0.000
 6578.00    1.40831   1.08094    0.000
 6579.00    1.47651   1.08675    0.000
 6580.00    1.54428   1.09244    0.000
 6581.00    1.56544   1.09720    0.000
 6582.00    1.57652   1.10136    0.000
 6583.00    1.53730   1.10461    0.000
 6584.00    1.48945   1.10717    0.000
 6585.00    1.42793   1.10896    0.000
 6586.00    1.36462   1.11019    0.000
 6587.00    1.30696   1.11118    0.000
 6588.00    1.24982   1.11136    0.000
 6589.00    1.22452   1.11121    0.000
 6590.00    1.20099   1.11041    0.000
 6591.00    1.20334   1.10945    0.000
 6592.00    1.20633   1.10864    0.000
 6593.00    1.21737   1.10757    0.000
 6594.00    1.22874   1.10694    0.000
 6595.00    1.24765   1.10628    0.000
 6596.00    1.26523   1.10599    0.000
 6597.00    1.26599   1.10589    0.000
 6598.00    1.26673   1.10676    0.000
 6599.00    1.26723   1.10842    0.000
 6600.00    1.26513   1.10980    0.000
 6601.00    1.24641   1.11121    0.000
 6602.00    1.22570   1.11221    0.000
 6603.00    1.19508   1.11331    0.000
 6604.00    1.17215   1.11434    0.000
 6605.00    1.18021   1.11510    0.000
 6606.00    1.19004   1.11543    0.000
 6607.00    1.20581   1.11554    0.000
 6608.00    1.21616   1.11580    0.000
 6609.00    1.21119   1.11597    0.011
 6610.00    1.21751   1.11669    0.011
 6611.00    1.25116   1.11742    0.011
 6612.00    1.27817   1.11864    0.010
 6613.00    1.29136   1.11990    0.010
 6614.00    1.29612   1.12171    0.011
 6615.00    1.28559   1.12391    0.011
 6616.00    1.27404   1.12557    0.011
 6617.00    1.26084   1.12703    0.011
 6618.00    1.25482   1.12794    0.011
 6619.00    1.25879   1.12915    0.011
 6620.00    1.25004   1.12954    0.011
 6621.00    1.22570   1.12949    0.011
 6622.00    1.20176   1.12887    0.011
 6623.00    1.17824   1.12798    0.011
 6624.00    1.17355   1.12669    0.011
 6625.00    1.18680   1.12498    0.011
 6626.00    1.20386   1.12305    0.011
 6627.00    1.22410   1.12069    0.011
 6628.00    1.22610   1.11855    0.011
 6629.00    1.21460   1.11620    0.010
 6630.00    1.19804   1.11465    0.011
 6631.00    1.17819   1.11293    0.011
 6632.00    1.16866   1.11138    0.011
 6633.00    1.16501   1.11007    0.011
 6634.00    1.16409   1.10907    0.010
 6635.00    1.16454   1.10843    0.010
 6636.00    1.16706   1.10781    0.011
 6637.00    1.17048   1.10762    0.011
 6638.00    1.16522   1.10756    0.011
 6639.00    1.15678   1.10828    0.011
 6640.00    1.15023   1.10891    0.011
 6641.00    1.14426   1.10955    0.011
 6642.00    1.15972   1.11009    0.011
 6643.00    1.18072   1.11046    0.011
 6644.00    1.20068   1.11087    0.011
 6645.00    1.22042   1.11130    0.011
 6646.00    1.23640   1.11185    0.011
 6647.00    1.25176   1.11180    0.011
 6648.00    1.27416   1.11209    0.011
 6649.00    1.29745   1.11267    0.011
 6650.00    1.27438   1.11307    0.011
 6651.00    1.24727   1.11321    0.011
 6652.00    1.24881   1.11314    0.011
 6653.00    1.25182   1.11314    0.011
 6654.00    1.26358   1.11272    0.010
 6655.00    1.27495   1.11215    0.010
 6656.00    1.24806   1.11107    0.011
 6657.00    1.22082   1.11011    0.011
 6658.00    1.18631   1.10873    0.011
 6659.00    1.15488   1.10734    0.010
 6660.00    1.16054   1.10581    0.011
 6661.00    1.16791   1.10406    0.011
 6662.00    1.18947   1.10273    0.011
 6663.00    1.20689   1.10121    0.011
 6664.00    1.19876   1.10024    0.011
 6665.00    1.18965   1.09922    0.011
 6666.00    1.17578   1.09891    0.011
 6667.00    1.16406   1.09861    0.011
 6668.00    1.16080   1.09890    0.011
 6669.00    1.16026   1.09980    0.011
 6670.00    1.16866   1.10026    0.011
 6671.00    1.17755   1.10077    0.011
 6672.00    1.18781   1.10113    0.011
 6673.00    1.18991   1.10142    0.011
 6674.00    1.17263   1.10141    0.010
 6675.00    1.16768   1.10109    0.010
 6676.00    1.18802   1.10039    0.010
 6677.00    1.20325   1.09964    0.010
 6678.00    1.20934   1.09883    0.010
 6679.00    1.21417   1.09810    0.011
 6680.00    1.21701   1.09748    0.011
 6681.00    1.21230   1.09702    0.011
 6682.00    1.19722   1.09690    0.011
 6683.00    1.17942   1.09762    0.011
 6684.00    1.15833   1.09904    0.011
 6685.00    1.14903   1.09997    0.011
 6686.00    1.15228   1.10123    0.011
 6687.00    1.14714   1.10234    0.011
 6688.00    1.13413   1.10337    0.011
 6689.00    1.14302   1.10411    0.011
 6690.00    1.17005   1.10447    0.011
 6691.00    1.19879   1.10464    0.011
 6692.00    1.22878   1.10442    0.011
 6693.00    1.22557   1.10421    0.011
 6694.00    1.20111   1.10361    0.010
 6695.00    1.18169   1.10297    0.010
 6696.00    1.16509   1.10202    0.000
 6697.00    1.17242   1.10117    0.000
 6698.00    1.19139   1.10019    0.000
 6699.00    1.20727   1.09942    0.000
 6700.00    1.22185   1.09861    0.000
 6701.00    1.23420   1.09810    0.000
 6702.00    1.24576   1.09800    0.000
 6703.00    1.24163   1.09754    0.000
 6704.00    1.23272   1.09749    0.000
 6705.00    1.20395   1.09691    0.000
 6706.00    1.17015   1.09632    0.000
 6707.00    1.16328   1.09547    0.000
 6708.00    1.16195   1.09436    0.000
 6709.00    1.19545   1.09324    0.000
 6710.00    1.23459   1.09170    0.000
 6711.00    1.26943   1.09012    0.000
 6712.00    1.30375   1.08803    0.000
 6713.00    1.32618   1.08604    0.000
 6714.00    1.34762   1.08401    0.000
 6715.00    1.35202   1.08186    0.000
 6716.00    1.35561   1.08028    0.000
 6717.00    1.35340   1.07857    0.000
 6718.00    1.35042   1.07756    0.000
 6719.00    1.30842   1.07686    0.000
 6720.00    1.26601   1.07668    0.000
 6721.00    1.21549   1.07714    0.000
 6722.00    1.17000   1.07797    0.000
 6723.00    1.18208   1.07973    0.000
 6724.00    1.19680   1.08129    0.000
 6725.00    1.23253   1.08306    0.000
 6726.00    1.26732   1.08467    0.000
 6727.00    1.29652   1.08641    0.000
 6728.00    1.32099   1.08795    0.000
 6729.00    1.32305   1.08925    0.000
 6730.00    1.31675   1.09028    0.000
 6731.00    1.27812   1.09116    0.000
 6732.00    1.24044   1.09190    0.000
 6733.00    1.20583   1.09213    0.000
 6734.00    1.17956   1.09214    0.000
 6735.00    1.17603   1.09172    0.000
 6736.00    1.17711   1.09120    0.000
 6737.00    1.18896   1.09028    0.000
 6738.00    1.19685   1.08933    0.000
 6739.00    1.19675   1.08818    0.000
 6740.00    1.19842   1.08701    0.000
 6741.00    1.20317   1.08563    0.000
 6742.00    1.20585   1.08423    0.000
 6743.00    1.20533   1.08287    0.000
 6744.00    1.19799   1.08172    0.000
 6745.00    1.18145   1.08055    0.000
 6746.00    1.15111   1.07955    0.000
 6747.00    1.10436   1.07870    0.000
 6748.00    1.08493   1.07797    0.000
 6749.00    1.09417   1.07788    0.000
 6750.00    1.10425   1.07754    0.000
 6751.00    1.11512   1.07786    0.000
 6752.00    1.15681   1.07824    0.000
 6753.00    1.22366   1.07923    0.012
 6754.00    1.25894   1.08050    0.012
 6755.00    1.27155   1.08184    0.012
 6756.00    1.22999   1.08390    0.012
 6757.00    1.15427   1.08533    0.012
 6758.00    1.10844   1.08748    0.012
 6759.00    1.07910   1.08916    0.012
 6760.00    1.13705   1.09068    0.012
 6761.00    1.23684   1.09194    0.012
 6762.00    1.30146   1.09269    0.012
 6763.00    1.35154   1.09330    0.013
 6764.00    1.34939   1.09328    0.013
 6765.00    1.32877   1.09329    0.013
 6766.00    1.35297   1.09267    0.013
 6767.00    1.39055   1.09229    0.012
 6768.00    1.41243   1.09181    0.012
 6769.00    1.43042   1.09139    0.012
 6770.00    1.39693   1.09115    0.012
 6771.00    1.35312   1.09118    0.012
 6772.00    1.33068   1.09158    0.012
 6773.00    1.31160   1.09218    0.012
 6774.00    1.30801   1.09317    0.012
 6775.00    1.30622   1.09384    0.012
 6776.00    1.24989   1.09480    0.011
 6777.00    1.18926   1.09543    0.011
 6778.00    1.21772   1.09584    0.012
 6779.00    1.25007   1.09575    0.012
 6780.00    1.24444   1.09531    0.012
 6781.00    1.23747   1.09464    0.012
 6782.00    1.18586   1.09345    0.011
 6783.00    1.13628   1.09231    0.011
 6784.00    1.12339   1.09070    0.011
 6785.00    1.11247   1.08909    0.011
 6786.00    1.12319   1.08751    0.011
 6787.00    1.13738   1.08621    0.012
 6788.00    1.17818   1.08513    0.012
 6789.00    1.22115   1.08443    0.012
 6790.00    1.27673   1.08427    0.012
 6791.00    1.31498   1.08406    0.012
 6792.00    1.27310   1.08431    0.012
 6793.00    1.24430   1.08450    0.012
 6794.00    1.26492   1.08483    0.012
 6795.00    1.27506   1.08526    0.012
 6796.00    1.25212   1.08576    0.012
 6797.00    1.23855   1.08637    0.011
 6798.00    1.25012   1.08683    0.011
 6799.00    1.27012   1.08753    0.011
 6800.00    1.30952   1.08811    0.011
 6801.00    1.34222   1.08863    0.011
 6802.00    1.36160   1.08908    0.011
 6803.00    1.36154   1.08945    0.011
 6804.00    1.32776   1.08973    0.011
 6805.00    1.28791   1.08982    0.011
 6806.00    1.23884   1.08980    0.011
 6807.00    1.19641   1.08981    0.011
 6808.00    1.16283   1.08960    0.011
 6809.00    1.15502   1.08937    0.011
 6810.00    1.17744   1.08921    0.011
 6811.00    1.19862   1.08900    0.012
 6812.00    1.21850   1.08894    0.012
 6813.00    1.22556   1.08896    0.012
 6814.00    1.22091   1.08889    0.012
 6815.00    1.21607   1.08898    0.012
 6816.00    1.21107   1.08928    0.012
 6817.00    1.18835   1.08959    0.012
 6818.00    1.15308   1.09011    0.011
 6819.00    1.17215   1.09072    0.011
 6820.00    1.22498   1.09138    0.011
 6821.00    1.24392   1.09212    0.011
 6822.00    1.24446   1.09254    0.011
 6823.00    1.23999   1.09294    0.011
 6824.00    1.23315   1.09341    0.011
 6825.00    1.22913   1.09383    0.011
 6826.00    1.22625   1.09431    0.011
 6827.00    1.22617   1.09438    0.011
 6828.00    1.22706   1.09440    0.011
 6829.00    1.25564   1.09414    0.011
 6830.00    1.29234   1.09367    0.011
 6831.00    1.29385   1.09316    0.012
 6832.00    1.28684   1.09235    0.012
 6833.00    1.25833   1.09168    0.012
 6834.00    1.22561   1.09057    0.012
 6835.00    1.23453   1.08932    0.012
 6836.00    1.24980   1.08769    0.012
 6837.00    1.30773   1.08601    0.012
 6838.00    1.37046   1.08437    0.012
 6839.00    1.31194   1.08268    0.012
 6840.00    1.24435   1.08125    0.012
 6841.00    1.17613   1.07969    0.012
 6842.00    1.10788   1.07864    0.011
 6843.00    1.11737   1.07765    0.011
 6844.00    1.12990   1.07722    0.011
 6845.00    1.24195   1.07722    0.011
 6846.00    1.34304   1.07764    0.011
 6847.00    1.25895   1.07844    0.011
 6848.00    1.18090   1.07917    0.011
 6849.00    1.16589   1.07979    0.011
 6850.00    1.15521   1.07997    0.011
 6851.00    1.17668   1.08016    0.011
 6852.00    1.19585   1.08010    0.011
 6853.00    1.20201   1.07973    0.011
 6854.00    1.21180   1.07921    0.011
 6855.00    1.23796   1.07846    0.011
 6856.00    1.25817   1.07729    0.012
 6857.00    1.25639   1.07598    0.012
 6858.00    1.23880   1.07504    0.012
 6859.00    1.17223   1.07427    0.011
 6860.00    1.13428   1.07360    0.011
 6861.00    1.17161   1.07332    0.011
 6862.00    1.20791   1.07296    0.011
 6863.00    1.24187   1.07257    0.011
 6864.00    1.25861   1.07269    0.011
 6865.00    1.24167   1.07293    0.011
 6866.00    1.23079   1.07333    0.011
 6867.00    1.23027   1.07368    0.011
 6868.00    1.22076   1.07415    0.011
 6869.00    1.19780   1.07443    0.011
 6870.00    1.18253   1.07442    0.011
 6871.00    1.17735   1.07486    0.011
 6872.00    1.18462   1.07522    0.011
 6873.00    1.20631   1.07592    0.011
 6874.00    1.20431   1.07647    0.011
 6875.00    1.17815   1.07714    0.011
 6876.00    1.16062   1.07764    0.011
 6877.00    1.15086   1.07802    0.011
 6878.00    1.15470   1.07869    0.011
 6879.00    1.16934   1.07940    0.011
 6880.00    1.17888   1.08036    0.011
 6881.00    1.18487   1.08098    0.011
 6882.00    1.18469   1.08189    0.011
 6883.00    1.18074   1.08252    0.011
 6884.00    1.17990   1.08331    0.011
 6885.00    1.18071   1.08428    0.011
 6886.00    1.16690   1.08556    0.011
 6887.00    1.14631   1.08694    0.011
 6888.00    1.13826   1.08823    0.011
 6889.00    1.13524   1.08996    0.011
 6890.00    1.13688   1.09126    0.011
 6891.00    1.14012   1.09265    0.011
 6892.00    1.14780   1.09400    0.011
 6893.00    1.15676   1.09528    0.011
 6894.00    1.16467   1.09627    0.011
 6895.00    1.17233   1.09700    0.011
 6896.00    1.16483   1.09786    0.011
 6897.00    1.15444   1.09828    0.011
 6898.00    1.16866   1.09884    0.011
 6899.00    1.18652   1.09927    0.011
 6900.00    1.17589   1.09972    0.011
 6901.00    1.16218   1.10013    0.011
 6902.00    1.15099   1.10058    0.011
 6903.00    1.13998   1.10101    0.011
 6904.00    1.16231   1.10137    0.011
 6905.00    1.18585   1.10184    0.011
 6906.00    1.14955   1.10196    0.011
 6907.00    1.11393   1.10211    0.011
 6908.00    1.10880   1.10189    0.011
 6909.00    1.10478   1.10159    0.011
 6910.00    1.11824   1.10116    0.011
 6911.00    1.13022   1.10053    0.011
 6912.00    1.12737   1.09973    0.011
 6913.00    1.12484   1.09878    0.011
 6914.00    1.12466   1.09784    0.011
 6915.00    1.12794   1.09690    0.011
 6916.00    1.15039   1.09586    0.011
 6917.00    1.16320   1.09526    0.011
 6918.00    1.13355   1.09472    0.011
 6919.00    1.10626   1.09396    0.011
 6920.00    1.08752   1.09372    0.011
 6921.00    1.08121   1.09327    0.011
 6922.00    1.11265   1.09337    0.011
 6923.00    1.13583   1.09337    0.011
 6924.00    1.13766   1.09335    0.011
 6925.00    1.14395   1.09343    0.011
 6926.00    1.16011   1.09310    0.011
 6927.00    1.17189   1.09320    0.011
 6928.00    1.17524   1.09291    0.011
 6929.00    1.15140   1.09335    0.011
 6930.00    1.08187   1.09389    0.011
 6931.00    1.04985   1.09428    0.011
 6932.00    1.07307   1.09487    0.011
 6933.00    1.10993   1.09506    0.011
 6934.00    1.16447   1.09563    0.011
 6935.00    1.19702   1.09583    0.012
 6936.00    1.20450   1.09646    0.012
 6937.00    1.20711   1.09702    0.012
 6938.00    1.20482   1.09729    0.012
 6939.00    1.19676   1.09755    0.012
 6940.00    1.18359   1.09717    0.011
 6941.00    1.18591   1.09719    0.011
 6942.00    1.20035   1.09697    0.011
 6943.00    1.19469   1.09681    0.011
 6944.00    1.17521   1.09653    0.011
 6945.00    1.16496   1.09601    0.011
 6946.00    1.16028   1.09540    0.011
 6947.00    1.14231   1.09460    0.011
 6948.00    1.11734   1.09435    0.011
 6949.00    1.14383   1.09423    0.011
 6950.00    1.19379   1.09431    0.011
 6951.00    1.26786   1.09464    0.012
 6952.00    1.35139   1.09497    0.012
 6953.00    1.34482   1.09508    0.012
 6954.00    1.30810   1.09558    0.012
 6955.00    1.22781   1.09620    0.012
 6956.00    1.13528   1.09713    0.012
 6957.00    1.09200   1.09828    0.012
 6958.00    1.06012   1.09954    0.012
 6959.00    1.12680   1.10092    0.012
 6960.00    1.21178   1.10194    0.011
 6961.00    1.21268   1.10315    0.012
 6962.00    1.20155   1.10419    0.012
 6963.00    1.16390   1.10537    0.011
 6964.00    1.12350   1.10636    0.011
 6965.00    1.12961   1.10711    0.011
 6966.00    1.13883   1.10751    0.011
 6967.00    1.15633   1.10758    0.011
 6968.00    1.17407   1.10746    0.011
 6969.00    1.13405   1.10696    0.011
 6970.00    1.09597   1.10631    0.011
 6971.00    1.11754   1.10502    0.011
 6972.00    1.13775   1.10352    0.011
 6973.00    1.13766   1.10115    0.011
 6974.00    1.13648   1.09888    0.012
 6975.00    1.12484   1.09704    0.012
 6976.00    1.11758   1.09498    0.012
 6977.00    1.14086   1.09338    0.012
 6978.00    1.16137   1.09181    0.012
 6979.00    1.16705   1.09072    0.012
 6980.00    1.16884   1.08981    0.012
 6981.00    1.15390   1.08960    0.012
 6982.00    1.14650   1.09074    0.012
 6983.00    1.16590   1.09215    0.011
 6984.00    1.17962   1.09397    0.011
 6985.00    1.17641   1.09609    0.011
 6986.00    1.15954   1.09805    0.011
 6987.00    1.10791   1.10005    0.011
 6988.00    1.06912   1.10187    0.011
 6989.00    1.05836   1.10361    0.011
 6990.00    1.06934   1.10510    0.011
 6991.00    1.12155   1.10601    0.011
 6992.00    1.15681   1.10682    0.011
 6993.00    1.16401   1.10722    0.012
 6994.00    1.14865   1.10718    0.012
 6995.00    1.10055   1.10687    0.012
 6996.00    1.08171   1.10619    0.012
 6997.00    1.10022   1.10552    0.012
 6998.00    1.11405   1.10464    0.012
 6999.00    1.12265   1.10355    0.012
 7000.00    1.11278   1.10249    0.012
 7001.00    1.08460   1.10105    0.012
 7002.00    1.07959   1.09980    0.011
 7003.00    1.09487   1.09884    0.011
 7004.00    1.09721   1.09815    0.011
 7005.00    1.08959   1.09755    0.011
 7006.00    1.11043   1.09663    0.011
 7007.00    1.15055   1.09605    0.011
 7008.00    1.16941   1.09549    0.011
 7009.00    1.17564   1.09519    0.011
 7010.00    1.17604   1.09495    0.011
 7011.00    1.17342   1.09444    0.012
 7012.00    1.12512   1.09402    0.012
 7013.00    1.05631   1.09340    0.012
 7014.00    1.04264   1.09301    0.012
 7015.00    1.05026   1.09292    0.012
 7016.00    1.07629   1.09274    0.012
 7017.00    1.10837   1.09241    0.012
 7018.00    1.11797   1.09156    0.012
 7019.00    1.12140   1.09127    0.012
 7020.00    1.13663   1.09173    0.012
 7021.00    1.15453   1.09235    0.012
 7022.00    1.20666   1.09324    0.012
 7023.00    1.26498   1.09405    0.012
 7024.00    1.22181   1.09468    0.012
 7025.00    1.16457   1.09501    0.012
 7026.00    1.18360   1.09575    0.012
 7027.00    1.21020   1.09697    0.012
 7028.00    1.21888   1.09846    0.012
 7029.00    1.22644   1.09971    0.012
 7030.00    1.20646   1.10097    0.012
 7031.00    1.18571   1.10235    0.012
 7032.00    1.16516   1.10341    0.012
 7033.00    1.14550   1.10451    0.012
 7034.00    1.15045   1.10572    0.012
 7035.00    1.15781   1.10727    0.012
 7036.00    1.19916   1.10890    0.012
 7037.00    1.22996   1.11071    0.012
 7038.00    1.16348   1.11286    0.012
 7039.00    1.11267   1.11473    0.012
 7040.00    1.16752   1.11607    0.012
 7041.00    1.21112   1.11795    0.012
 7042.00    1.19591   1.12032    0.012
 7043.00    1.18283   1.12261    0.012
 7044.00    1.17867   1.12462    0.012
 7045.00    1.18126   1.12606    0.012
 7046.00    1.20732   1.12674    0.012
 7047.00    1.23657   1.12616    0.012
 7048.00    1.27518   1.12542    0.012
 7049.00    1.28094   1.12431    0.012
 7050.00    1.20471   1.12235   -2.000
 7051.00    1.15764   1.11979   -2.000
 7052.00    1.17327   1.11631   -2.000
 7053.00    1.16771   1.11246   -2.000
 7054.00    1.12259   1.10771   -2.000
 7055.00    1.12640   1.10270   -2.000
 7056.00    1.21000   1.09816   -2.000
 7057.00    1.24136   1.09358   -2.000
 7058.00    1.19798   1.08963   -2.000
 7059.00    1.20635   1.08607   -2.000
 7060.00    1.27982   1.08275   -2.000
 7061.00    1.32168   1.07948   -2.000
 7062.00    1.32848   1.07639   -2.000
 7063.00    1.33761   1.07404   -2.000
 7064.00    1.34904   1.07252   -2.000
 7065.00    1.37088   1.07145   -2.000
 7066.00    1.40172   1.07107   -2.000
 7067.00    1.38596   1.07099   -2.000
 7068.00    1.33480   1.07064   -2.000
 7069.00    1.33042   1.07077   -2.000
 7070.00    1.35727   1.07101   -2.000
 7071.00    1.35860   1.07198   -2.000
 7072.00    1.34498   1.07341   -2.000
 7073.00    1.35221   1.07482   -2.000
 7074.00    1.37005   1.07601   -2.000
 7075.00    1.37094   1.07679   -2.000
 7076.00    1.36433   1.07745   -2.000
 7077.00    1.33519   1.07751   -2.000
 7078.00    1.29751   1.07722   -2.000
 7079.00    1.27352   1.07632   -2.000
 7080.00    1.25395   1.07483   -2.000
 7081.00    1.23039   1.07258   -2.000
 7082.00    1.20574   1.06965   -2.000
 7083.00    1.18338   1.06654   -2.000
 7084.00    1.16153   1.06258   -2.000
 7085.00    1.19973   1.05806   -2.000
 7086.00    1.24847   1.05334   -2.000
 7087.00    1.27375   1.04878   -2.000
 7088.00    1.29588   1.04488   -2.000
 7089.00    1.24299   1.04127   -2.000
 7090.00    1.18297   1.03763   -2.000
 7091.00    1.14516   1.03484   -2.000
 7092.00    1.10866   1.03211   -2.000
 7093.00    1.17154   1.03011   -2.000
 7094.00    1.23644   1.02959   -2.000
 7095.00    1.24154   1.02893   -2.000
 7096.00    1.24643   1.02964   -2.000
 7097.00    1.24603   1.02974   -2.000
 7098.00    1.23989   1.03056   -2.000
 7099.00    1.15741   1.03189   -2.000
 7100.00    1.07747   1.03286   -2.000
 7101.00    1.02009   1.03515   -2.000
 7102.00    0.97444   1.03619   -2.000
 7103.00    1.00546   1.03769   -2.000
 7104.00    1.03332   1.03864   -2.000
 7105.00    1.04512   1.03930   -2.000
 7106.00    1.05614   1.04038   -2.000
 7107.00    1.06394   1.04088   -2.000
 7108.00    1.07078   1.04152   -2.000
 7109.00    1.07436   1.04151   -2.000
 7110.00    1.09443   1.04159   -2.000
 7111.00    1.16183   1.04187   -2.000
 7112.00    1.20604   1.04165   -2.000
 7113.00    1.19334   1.04166   -2.000
 7114.00    1.17359   1.04177   -2.000
 7115.00    1.13894   1.04189   -2.000
 7116.00    1.12530   1.04205   -2.000
 7117.00    1.15029   1.04174   -2.000
 7118.00    1.18907   1.04205   -2.000
 7119.00    1.25004   1.04166   -2.000
 7120.00    1.27998   1.04102   -2.000
 7121.00    1.26618   1.04052   -2.000
 7122.00    1.26163   1.03948   -2.000
 7123.00    1.26857   1.03867   -2.000
 7124.00    1.26301   1.03698   -2.000
 7125.00    1.24380   1.03567   -2.000
 7126.00    1.23436   1.03443   -2.000
 7127.00    1.23433   1.03255   -2.000
 7128.00    1.19259   1.03090   -2.000
 7129.00    1.11539   1.02960   -2.000
 7130.00    1.05690   1.02883   -2.000
 7131.00    1.01244   1.02818   -2.000
 7132.00    1.07657   1.02762   -2.000
 7133.00    1.21214   1.02735   -2.000
 7134.00    1.18246   1.02789   -2.000
 7135.00    1.05761   1.02842   -2.000
 7136.00    1.09229   1.02956   -2.000
 7137.00    1.20703   1.03074   -2.000
 7138.00    1.15733   1.03162   -2.000
 7139.00    1.03622   1.03287   -2.000
 7140.00    1.09183   1.03351   -2.000
 7141.00    1.21326   1.03441   -2.000
 7142.00    1.20710   1.03499   -2.000
 7143.00    1.16064   1.03558   -2.000
 7144.00    1.11525   1.03594   -2.000
 7145.00    1.07015   1.03555   -2.000
 7146.00    1.01196   1.03591   -2.000
 7147.00    0.95095   1.03613   -2.000
 7148.00    1.00367   1.03643   -2.000
 7149.00    1.07582   1.03685   -2.000
 7150.00    1.09032   1.03674   -2.000
 7151.00    1.09737   1.03772   -2.000
 7152.00    1.26432   1.03902   -2.000
 7153.00    1.44579   1.04009   -2.000
 7154.00    1.31560   1.04173   -2.000
 7155.00    1.16835   1.04280   -2.000
 7156.00    1.14488   1.04389   -2.000
 7157.00    1.12355   1.04443   -2.000
 7158.00    1.06100   1.04505   -2.000
 7159.00    1.01090   1.04636   -2.000
 7160.00    1.24350   1.04616   -2.000
 7161.00    1.45570   1.04586   -2.000
 7162.00    1.41112   1.04535   -2.000
 7163.00    1.36078   1.04516   -2.000
 7164.00    1.26142   1.04547   -2.000
 7165.00    1.16465   1.04517   -2.000
 7166.00    1.08425   1.04484   -2.000
 7167.00    1.03520   1.04445   -2.000
 7168.00    1.14179   1.04521   -2.000
 7169.00    1.23134   1.04651   -2.000
 7170.00    1.25229   1.04766   -2.000
 7171.00    1.25021   1.04849   -2.000
 7172.00    1.17119   1.04901   -2.000
 7173.00    1.10718   1.04974   -2.000
 7174.00    1.08549   1.05055   -2.000
 7175.00    1.08405   1.05142   -2.000
 7176.00    1.13146   1.05157   -2.000
 7177.00    1.18339   1.05089   -2.000
 7178.00    1.24473   1.04978   -2.000
 7179.00    1.26032   1.04887   -2.000
 7180.00    1.19310   1.04872   -2.000
 7181.00    1.12777   1.04772   -2.000
 7182.00    1.06544   1.04573   -2.000
 7183.00    1.05982   1.04376   -2.000
 7184.00    1.13302   1.04187   -2.000
 7185.00    1.16107   1.04130   -2.000
 7186.00    1.13394   1.04053   -2.000
 7187.00    1.14597   1.03938   -2.000
 7188.00    1.20024   1.03862   -2.000
 7189.00    1.21283   1.03687   -2.000
 7190.00    1.18579   1.03632   -2.000
 7191.00    1.16251   1.03634   -2.000
 7192.00    1.14236   1.03661   -2.000
 7193.00    1.13002   1.03763   -2.000
 7194.00    1.12343   1.03742   -2.000
 7195.00    1.14731   1.03791   -2.000
 7196.00    1.19095   1.03850   -2.000
 7197.00    1.16522   1.03930   -2.000
 7198.00    1.10013   1.04045   -2.000
 7199.00    1.07648   1.04042   -2.000
 7200.00    1.07329   1.04140   -2.000
 7201.00    1.16210   1.04218   -2.000
 7202.00    1.29020   1.04225   -2.000
 7203.00    1.26595   1.04235   -2.000
 7204.00    1.18596   1.04137   -2.000
 7205.00    1.03178   1.04165   -2.000
 7206.00    0.85461   1.04215   -2.000
 7207.00    0.88406   1.04231   -2.000
 7208.00    0.96683   1.04268   -2.000
 7209.00    1.00506   1.04160   -2.000
 7210.00    1.03392   1.04190   -2.000
 7211.00    1.07240   1.04270   -2.000
 7212.00    1.11248   1.04385   -2.000
 7213.00    1.11392   1.04582   -2.000
 7214.00    1.11054   1.04669   -2.000
 7215.00    1.13951   1.04793   -2.000
 7216.00    1.17129   1.04897   -2.000
 7217.00    1.09287   1.05057   -2.000
 7218.00    1.00886   1.05251   -2.000
