###################################################################
## OUTPUT of StarlightChains_v04.for    [Cid@UFSC - 01/Apr/2007] ##
###################################################################

## Some input info
KUG0210-078._48_39.txt                   [arq_obs]
Base.CB07.vall.4m                        [arq_base]
Masks.EmLines.NEW.gm                     [arq_masks]
StCv04.C11.config                        [arq_config]
   66                                    [N_base]
    0                                    [N_YAV_components = # of components with extra extinction!]
    0                                    [i_FitPowerLaw (1/0 = Yes/No)]
-9.99                                    [alpha_PowerLaw]
CCM                                      [red_law_option]
 1.458241                                [q_norm = A(l_norm)/A(V)]

## (Re)Sampling Parameters
 3741.00                                 [l_ini (A)]
 7218.00                                 [l_fin (A)]
    1.00                                 [dl    (A)]     (OBS: dl_cushion =    50.00 A)

## Normalization info
 4020.00                                 [l_norm (A) - for base]
 4010.00                                 [llow_norm (A) - window for f_obs]
 4060.00                                 [lupp_norm (A) - window for f_obs]
8.415439E-18                             [fobs_norm (in input units)]

## S/N
 3691.00                                 [llow_SN (A) - window for S/N]
 7268.00                                 [lupp_SN (A) - window for S/N]
   3.161                                 [S/N in S/N window]
   4.615                                 [S/N in norm. window]
   0.006                                 [S/N_err in S/N window]
   0.009                                 [S/N_err in norm. window]
  1.0000                                 [fscale_chi2]

## etc...
    -2007928                             [idum_orig]
  2402                                   [NOl_eff]
  2384                                   [Nl_eff]
    18    NSIGMA                         [Ntot_cliped & clip_method]
  1075480                                [Nglobal_steps]
   7                                     [N_chains]
  44                                     [NEX0s_base = N_base in EX0s-fits]
 0   0   1       18   2.0   1.491E+03    [Clip-Bug, RC-Crash & Burn-In warning-flags, n_censored_weights, wei_nsig_threshold & wei_limit]
    28     28.078     27.580      0.498  [idt_all, wdt_TotTime, wdt_UsrTime & wdt_SysTime (sec)]

## Synthesis Results - Best model ##

 8.74502E-06                             [chi2/Nl_eff]
    33.12325                             [adev (%)]

    96.57558                             [sum-of-x (%)]
 3.38528E-18                             [Flux_tot (units of input spectrum!)]
 4.14088E-14                             [Mini_tot (???)]
 2.28555E-14                             [Mcor_tot (???)]

-150.13                                  [v0_min  (km/s)]
   0.02                                  [vd_min  (km/s)]
-0.6521                                  [AV_min  (mag)]
 0.0000                                  [YAV_min (mag)]

# j     x_j(%)      Mini_j(%)     Mcor_j(%)     age_j(yr)     Z_j      (L/M)_j    YAV?  Mstars   component_j        a/Fe...       SSP_chi2r SSP_adev(%)   SSP_AV   SSP_x(%)
  1      0.0000     0.0000E+00    0.0000E+00    1.000000E+06  0.00400  1.094E-02    0   1.0000   age020_m42            0.0000     1.0252E-05    36.0456   2.4693    79.3215
  2      0.0000     0.0000E+00    0.0000E+00    3.160000E+06  0.00400  4.007E-02    0   0.9999   age045_m42            0.0000     9.5765E-06    35.2087   1.6924    85.9847
  3      0.0000     0.0000E+00    0.0000E+00    5.010000E+06  0.00400  2.539E-02    0   0.9488   age055_m42            0.0000     9.8022E-06    35.6306   2.0377    83.3460
  4      0.0007     2.3826E-06    3.9801E-06    6.610000E+06  0.00400  2.620E-02    0   0.9220   age061_m42            0.0000     9.5681E-06    35.2047   1.6252    86.0008
  5      0.0000     0.0000E+00    0.0000E+00    1.000000E+07  0.00400  1.322E-02    0   0.8862   age070_m42            0.0000     9.7015E-06    36.2942   1.4169    86.1274
  6      0.0000     0.0000E+00    0.0000E+00    1.445000E+07  0.00400  7.883E-03    0   0.8571   age078_m42            0.0000     9.8293E-06    36.3672   1.7421    83.9934
  7      0.0000     2.1533E-07    3.1890E-07    2.512000E+07  0.00400  5.251E-03    0   0.8174   age090_m42            0.0000     9.6676E-06    36.4034   1.2949    86.4564
  8      1.7543     4.0696E-02    5.7887E-02    4.000000E+07  0.00400  3.649E-03    0   0.7851   age104_m42            0.0000     9.5265E-06    36.0980   1.0504    87.5934
  9      0.0000     0.0000E+00    0.0000E+00    5.500000E+07  0.00400  3.098E-03    0   0.7629   age110_m42            0.0000     9.4400E-06    35.4491   1.1665    88.4959
 10      0.5684     2.1596E-02    2.8199E-02    1.015200E+08  0.00400  2.228E-03    0   0.7207   age116_m42            0.0000     9.4385E-06    35.0338   1.1611    89.2039
 11      7.4178     5.7450E-01    6.9196E-01    2.861200E+08  0.00400  1.093E-03    0   0.6648   age125_m42            0.0000     9.3766E-06    35.2362   0.6036    91.4435
 12      0.0000     0.0000E+00    0.0000E+00    5.088000E+08  0.00400  6.597E-04    0   0.6365   age130_m42            0.0000     9.3019E-06    34.5087   0.5490    93.3583
 13      0.0000     0.0000E+00    0.0000E+00    1.434000E+09  0.00400  2.132E-04    0   0.5798   age139_m42            0.0000     8.9265E-06    33.6345  -0.4590    96.1193
 14      0.0000     0.0000E+00    0.0000E+00    4.250000E+09  0.00400  5.895E-05    0   0.5377   age158_m42            0.0000     8.8368E-06    33.1947  -0.9361    93.2238
 15      0.0000     0.0000E+00    0.0000E+00    7.500000E+09  0.00400  3.510E-05    0   0.5212   age171_m42            0.0000     8.9414E-06    33.1101  -1.0000    90.7791
 16      0.0000     0.0000E+00    0.0000E+00    1.300000E+10  0.00400  2.005E-05    0   0.5034   age193_m42            0.0000     9.2612E-06    34.2553  -1.0000    87.5320
 17      0.0000     0.0000E+00    0.0000E+00    1.800000E+10  0.00400  1.525E-05    0   0.4967   age213_m42            0.0000     9.2964E-06    34.5772  -1.0000    86.7272
 18      0.0000     0.0000E+00    0.0000E+00    1.000000E+06  0.00800  1.238E-02    0   1.0000   age020_m52            0.0000     1.0244E-05    36.0583   2.4620    79.5535
 19      0.0000     0.0000E+00    0.0000E+00    3.160000E+06  0.00800  3.074E-02    0   0.9966   age045_m52            0.0000     1.0140E-05    35.9620   2.3798    80.4602
 20      0.0053     1.6939E-05    2.8980E-05    5.010000E+06  0.00800  2.668E-02    0   0.9443   age055_m52            0.0000     9.8814E-06    35.7675   2.1286    82.4321
 21      0.0000     0.0000E+00    0.0000E+00    6.610000E+06  0.00800  2.136E-02    0   0.9177   age061_m52            0.0000     9.5502E-06    36.0470   0.9098    87.3106
 22      0.9396     6.5464E-03    1.0469E-02    1.000000E+07  0.00800  1.215E-02    0   0.8827   age070_m52            0.0000     9.8080E-06    36.8228   1.6170    85.4694
 23      0.0000     0.0000E+00    0.0000E+00    1.445000E+07  0.00800  8.717E-03    0   0.8552   age078_m52            0.0000     9.7531E-06    36.3356   1.7065    85.2171
 24      0.0000     0.0000E+00    0.0000E+00    2.512000E+07  0.00800  5.592E-03    0   0.8162   age090_m52            0.0000     9.6155E-06    36.4728   1.3579    87.5172
 25      0.0001     1.6390E-06    2.3284E-06    4.000000E+07  0.00800  3.896E-03    0   0.7841   age104_m52            0.0000     9.4661E-06    36.0007   1.2461    88.7635
 26      0.0000     0.0000E+00    0.0000E+00    1.015200E+08  0.00800  2.148E-03    0   0.7226   age116_m52            0.0000     9.3870E-06    35.2132   1.1478    89.4300
 27      0.0000     0.0000E+00    0.0000E+00    2.861200E+08  0.00800  9.925E-04    0   0.6683   age125_m52            0.0000     9.3008E-06    34.5322   0.6202    94.0464
 28      0.0000     0.0000E+00    0.0000E+00    9.047900E+08  0.00800  3.141E-04    0   0.6138   age135_m52            0.0000     8.8602E-06    33.2527  -0.2683   100.3234
 29      3.1594     1.5558E+00    1.6498E+00    1.434000E+09  0.00800  1.719E-04    0   0.5853   age139_m52            0.0000     8.7613E-06    33.3230  -0.8429    97.9699
 30      0.0000     0.0000E+00    0.0000E+00    2.500000E+09  0.00800  7.872E-05    0   0.5600   age150_m52            0.0000     8.8753E-06    32.9096  -1.0000    93.9171
 31      0.0000     0.0000E+00    0.0000E+00    4.250000E+09  0.00800  4.336E-05    0   0.5426   age158_m52            0.0000     8.9376E-06    32.9370  -1.0000    92.7560
 32     24.2753     6.5050E+01    6.2688E+01    6.250000E+09  0.00800  3.159E-05    0   0.5319   age166_m52            0.0000     9.4154E-06    34.3134  -1.0000    89.2992
 33      0.0000     0.0000E+00    0.0000E+00    1.300000E+10  0.00800  1.361E-05    0   0.5073   age193_m52            0.0000     1.1507E-05    40.7212  -1.0000    79.2905
 34      0.0000     0.0000E+00    0.0000E+00    1.800000E+10  0.00800  9.886E-06    0   0.4990   age213_m52            0.0000     1.2468E-05    41.8901  -1.0000    76.5072
 35      0.0000     0.0000E+00    0.0000E+00    1.000000E+06  0.02000  1.544E-02    0   1.0000   age020_m62            0.0000     1.0268E-05    36.0866   2.4597    79.7177
 36      0.1776     3.9968E-04    7.1384E-04    3.160000E+06  0.02000  3.762E-02    0   0.9858   age045_m62            0.0000     1.0188E-05    36.0303   2.3894    80.6936
 37      0.0000     0.0000E+00    0.0000E+00    5.010000E+06  0.02000  3.296E-02    0   0.9342   age055_m62            0.0000     9.7008E-06    35.3763   1.9787    84.7938
 38      0.0000     0.0000E+00    0.0000E+00    8.710000E+06  0.02000  1.154E-02    0   0.8861   age067_m62            0.0000     1.0477E-05    40.2382   1.1967    84.7678
 39      0.0000     0.0000E+00    0.0000E+00    1.445000E+07  0.02000  7.663E-03    0   0.8472   age078_m62            0.0000     9.8397E-06    37.6886   1.2963    86.6304
 40      0.1208     2.2569E-03    3.3117E-03    2.512000E+07  0.02000  4.532E-03    0   0.8099   age090_m62            0.0000     9.8615E-06    37.8802   1.2963    86.1806
 41      0.5319     1.6474E-02    2.2669E-02    5.500000E+07  0.02000  2.733E-03    0   0.7595   age110_m62            0.0000     9.5531E-06    36.0904   1.2351    87.8902
 42      0.4566     2.8231E-02    3.5727E-02    1.609000E+08  0.02000  1.369E-03    0   0.6985   age120_m62            0.0000     9.4652E-06    35.0225   1.0168    91.6448
 43      0.0000     0.0000E+00    0.0000E+00    2.861200E+08  0.02000  9.013E-04    0   0.6714   age125_m62            0.0000     9.4198E-06    34.3449   0.7258    95.3374
 44     10.4639     1.7617E+00    2.0584E+00    5.088000E+08  0.02000  5.028E-04    0   0.6449   age130_m62            0.0000     9.1264E-06    33.3582   0.2608   100.2279
 45      0.0000     0.0000E+00    0.0000E+00    9.047900E+08  0.02000  2.428E-04    0   0.6179   age135_m62            0.0000     8.7482E-06    32.9023  -0.3638   100.5317
 46     41.0594     2.7520E+01    2.9457E+01    1.434000E+09  0.02000  1.263E-04    0   0.5908   age139_m62            0.0000     8.6987E-06    32.8035  -0.8132    99.1174
 47      0.1432     2.0249E-01    2.0812E-01    2.500000E+09  0.02000  5.985E-05    0   0.5673   age150_m62            0.0000     8.9848E-06    32.6396  -1.0000    94.9620
 48      0.2526     6.5374E-01    6.4764E-01    4.250000E+09  0.02000  3.271E-05    0   0.5468   age158_m62            0.0000     9.9976E-06    35.1315  -1.0000    88.5341
 49      0.2183     1.3590E+00    1.2722E+00    1.000000E+10  0.02000  1.360E-05    0   0.5167   age181_m62            0.0000     1.2069E-05    39.5332  -1.0000    80.7641
 50      0.0000     0.0000E+00    0.0000E+00    1.800000E+10  0.02000  7.124E-06    0   0.5013   age213_m62            0.0000     1.3843E-05    42.1393  -1.0000    75.3063
 51      0.6532     2.1332E-03    3.8642E-03    1.000000E+06  0.05000  2.592E-02    0   0.9998   age020_m72            0.0000     1.0338E-05    36.1832   2.4574    79.6262
 52      0.0000     0.0000E+00    0.0000E+00    3.160000E+06  0.05000  4.845E-02    0   0.9577   age045_m72            0.0000     9.9541E-06    35.7217   2.2550    82.1719
 53      0.0232     6.3811E-05    1.0575E-04    5.010000E+06  0.05000  3.072E-02    0   0.9147   age055_m72            0.0000     9.9668E-06    37.1240   1.8477    84.0630
 54      0.0013     7.4117E-06    1.1920E-05    6.610000E+06  0.05000  1.455E-02    0   0.8877   age061_m72            0.0000     1.0919E-05    42.1588   1.2743    84.4128
 55      0.0000     0.0000E+00    0.0000E+00    1.000000E+07  0.05000  9.074E-03    0   0.8524   age070_m72            0.0000     1.0040E-05    37.5403   2.0171    83.9037
 56      0.0025     4.9315E-05    7.0602E-05    2.512000E+07  0.05000  4.250E-03    0   0.7902   age090_m72            0.0000     9.7673E-06    36.9954   1.7156    85.6640
 57      0.0000     0.0000E+00    0.0000E+00    4.000000E+07  0.05000  3.087E-03    0   0.7618   age104_m72            0.0000     9.7284E-06    37.0445   1.4917    86.9480
 58      4.2797     2.1311E-01    2.7398E-01    1.015200E+08  0.05000  1.700E-03    0   0.7096   age116_m72            0.0000     9.5321E-06    35.5527   1.1862    90.5977
 59      0.0000     0.0000E+00    0.0000E+00    2.861200E+08  0.05000  7.384E-04    0   0.6633   age125_m72            0.0000     9.3125E-06    33.8320   0.5507    97.7922
 60      0.0110     2.4391E-03    2.8159E-03    5.088000E+08  0.05000  3.819E-04    0   0.6372   age130_m72            0.0000     8.9079E-06    33.1264  -0.0152   101.3544
 61      0.0000     0.0000E+00    0.0000E+00    9.047900E+08  0.05000  1.676E-04    0   0.6110   age135_m72            0.0000     8.7196E-06    32.9299  -0.7797   101.1966
 62      0.0000     0.0000E+00    0.0000E+00    1.434000E+09  0.05000  8.837E-05    0   0.5874   age139_m72            0.0000     8.9702E-06    32.5812  -1.0000    96.4944
 63      0.0075     1.4919E-02    1.5132E-02    2.500000E+09  0.05000  4.233E-05    0   0.5598   age150_m72            0.0000     1.0104E-05    35.0740  -1.0000    89.3770
 64      0.0000     0.0000E+00    0.0000E+00    6.250000E+09  0.05000  1.435E-05    0   0.5249   age166_m72            0.0000     1.2727E-05    41.0281  -1.0000    78.2795
 65      0.0000     0.0000E+00    0.0000E+00    1.300000E+10  0.05000  6.513E-06    0   0.5036   age193_m72            0.0000     1.5300E-05    44.3623  -1.0000    72.2799
 66      0.0521     9.7378E-01    8.7243E-01    1.800000E+10  0.05000  4.527E-06    0   0.4945   age213_m72            0.0000     1.6983E-05    46.0834  -1.0000    68.1766


## Synthesis Results - Average & Chains ##

# j      x_j: min, <> & last-chain-values for 1 ...  7 chains
  1      0.0000      0.7443      1.5795      0.4199      2.5501      2.9378      0.3732      0.4866      1.6698
  2      0.0000      0.8634      0.0000      2.2798      0.7719      0.0000      2.0463      1.2884      4.9107
  3      0.0000      0.5481      0.0000      0.6200      1.0939      0.0000      0.0000      2.5053      0.7259
  4      0.0007      0.9218      0.0000      4.1693      3.4420      0.4922      1.3168      0.0000      0.4380
  5      0.0000      0.8748      0.8409      0.2427      0.6080      2.2246      1.7217      4.9002      0.1428
  6      0.0000      0.8441      2.3415      0.0000      2.9706      2.0440      1.2532      1.7524      2.0320
  7      0.0000      0.7370      0.0000      5.3679      1.7137      2.2571      0.2096      0.6406      0.7108
  8      1.7543      0.6450      0.0690      4.9740      0.0206      1.3842      0.0000      1.3719      1.1870
  9      0.0000      0.5796      2.5114      1.2001      0.0000      1.3328      0.5266      0.0000      0.0000
 10      0.5684      0.9116      1.0815      3.2757      1.8530      2.2914      0.6683      0.1611      1.0311
 11      7.4178      0.6135      2.9806      1.2294      3.9987      1.7375      1.2306      1.9318      1.2289
 12      0.0000      0.7159      0.3168      0.0000      0.0000      0.0000      0.0737      1.7875      0.9360
 13      0.0000      0.6624      1.5639      0.1161      1.1394      0.7837      0.0000      0.6849      1.2547
 14      0.0000      0.8753      0.5563      0.0000      0.0275      0.0265      2.2742      0.1888      1.5244
 15      0.0000      0.6799      0.7612      0.2334      0.2971      0.6114      0.0000      2.5525      0.5959
 16      0.0000      0.9838      1.3296      0.0000      5.2879      0.0000      3.2278      0.9488      0.0050
 17      0.0000      1.0424      1.0369      3.0688      0.3926      1.3219      1.0249      3.6312      1.3826
 18      0.0000      0.7958      3.8637      1.0006      1.1611      0.0739      1.5054      3.7614      0.6789
 19      0.0000      0.7460      2.0462      1.7605      3.0013      0.0244      1.4160      0.8076      0.2459
 20      0.0053      0.6693      3.6325      1.1799      0.0681      0.8832      0.9460      1.0471      2.0874
 21      0.0000      0.6066      0.6586      0.0927      0.4605      0.2791      0.1443      0.1033      0.7372
 22      0.9396      0.5802      1.7112      2.7093      0.9222      0.0000      1.6255      0.0000      0.0000
 23      0.0000      0.8353      1.0095      1.0325      3.1705      0.6012      2.0903      0.1443      1.4093
 24      0.0000      0.7522      0.0000      0.0000      1.6505      0.9269      0.0000      1.3360      1.8444
 25      0.0001      0.7910      1.3651      1.3437      2.6471      1.1052      3.1338      0.0000      7.0380
 26      0.0000      0.5061      0.0000      0.2623      2.8494      2.3612      0.0000      0.0000      1.9301
 27      0.0000      0.7367      3.9842      0.7663      0.4864      0.7895      2.6374      0.2588      1.0483
 28      0.0000      0.7821      0.8806      3.4281      0.7805      1.1246      1.1035      0.8537      0.3964
 29      3.1594      0.7845      2.0671      1.5094      1.4350      1.3082      2.4717      0.5157      2.0581
 30      0.0000      0.6416      0.0161      0.1481      0.0000      0.7982      1.6956      3.2379      0.4825
 31      0.0000      0.7959      0.9047      0.8175      1.1028      2.9584      1.3090      1.2961      0.4118
 32     24.2753      0.7323      0.8165      0.8916      0.1336      2.6444      1.2566      1.4432      1.7248
 33      0.0000      1.1252      1.7130      0.0000      3.0932      0.3824      4.2903      0.0858      0.8634
 34      0.0000      1.0597      0.0000      0.0000      0.2789      3.5216      0.0000      0.9135      5.9449
 35      0.0000      0.8104      2.5315      0.5356      1.3238      1.7570      0.5009      2.5527      0.5881
 36      0.1776      0.9509      3.6951      1.5582      0.0000      1.1739      2.5572      3.9427      0.0000
 37      0.0000      0.7379      0.0000      0.8245      3.0389      0.4914      1.1484      0.1173      0.7678
 38      0.0000      0.9425      1.6057      3.6997      1.7757      1.6213      2.4047      0.0000      0.2300
 39      0.0000      0.9209      0.0000      0.5513      2.3450      2.8679      1.1935      0.8994      0.0000
 40      0.1208      0.8443      0.0000      2.7284      0.6976      0.0000      0.0099      0.8145      3.5418
 41      0.5319      1.0201      0.8483      1.5678      0.0000      2.6913      5.3822      0.0000      1.5502
 42      0.4566      0.8846      0.0000      1.7055      0.0000      1.3214      0.3453      3.0779      1.9843
 43      0.0000      0.8070      0.0000      0.0000      1.3687      0.5614      1.8873      0.8980      0.0000
 44     10.4639      1.1532      2.4104      1.1402      0.6918      1.7573      0.8270      1.9719      2.5089
 45      0.0000      0.7725      0.0000      0.0000      0.0000      0.8797      2.3676      0.0000      0.7386
 46     41.0594      1.0985      1.7702      3.7467      1.7997      1.6655      1.9641      5.1767      0.0000
 47      0.1432      1.0666      0.8281      4.5045      1.4300      0.4195      1.4136      0.4108      0.6068
 48      0.2526      0.8469      1.5659      2.7659      0.6883      1.5048      0.0000      0.0000      1.5756
 49      0.2183      0.8348      0.0000      0.5795      0.0000      0.5234      0.1428      0.8448      0.0000
 50      0.0000      0.7420      4.3767      0.0000      3.4873      0.0000      0.4959      0.2547      0.7827
 51      0.6532      0.8517      1.6767      0.4736      0.5820      0.0000      3.6331      1.5235      0.0000
 52      0.0000      0.7375      0.8787      0.9187      0.5760      1.9341      0.0000      2.5922      0.0000
 53      0.0232      0.9110      1.0653      0.6488      1.3539      0.0000      2.0440      1.4448      1.3752
 54      0.0013      0.9905      3.1263      1.5163      1.7178      1.7631      0.0000      0.1598      0.5824
 55      0.0000      0.7649      3.6347      0.5890      0.0357      0.9619      0.0000      2.6568      0.0000
 56      0.0025      0.7315      0.7454      0.5266      0.0477      1.4358      1.6799      2.2223      6.3638
 57      0.0000      0.4539      0.0000      0.0000      2.1677      0.0000      2.1602      0.7594      1.0979
 58      4.2797      0.7881      2.2750      2.0387      1.6395      0.5051      1.3286      2.6748      0.0000
 59      0.0000      0.8598      0.0000      0.0000      2.2818      3.0260      0.0000      0.0000      0.2172
 60      0.0110      8.1858      3.8452      7.7971      2.0848      6.4462      5.8039      5.8558      4.6825
 61      0.0000      0.5817      0.0000      0.0000      0.5564      0.8657      0.2546      0.0000      0.0000
 62      0.0000      0.7913      0.1519      0.0000      1.9801      2.3107      2.0421      4.5374      1.4035
 63      0.0075      0.7699      0.0000      1.3134      0.5146      0.0000      0.1045      0.0000      0.9188
 64      0.0000      0.9424      3.3482      0.2812      2.4487      0.9979      0.5165      0.5497      0.6329
 65      0.0000      3.5892      3.2122      1.3540      2.0926      2.6057      0.0000      0.0000      4.2867
 66      0.0521     35.6758     12.7583     10.2928      9.0018     15.9949     14.3277     11.6642     12.2499

# j      m_j: min, <> & last-chain-values for 1 ...  7 chains
  1  0.0000E+00  1.4892E-03  6.2219E-03  2.4754E-03  1.2553E-02  1.1064E-02  1.6688E-03  2.5796E-03  6.7140E-03
  2  0.0000E+00  4.7161E-04  0.0000E+00  3.6691E-03  1.0373E-03  0.0000E+00  2.4976E-03  1.8644E-03  5.3903E-03
  3  0.0000E+00  4.4828E-04  0.0000E+00  1.4942E-03  2.2014E-03  0.0000E+00  0.0000E+00  5.4293E-03  1.1932E-03
  4  3.9801E-06  7.1005E-04  0.0000E+00  9.4627E-03  6.5228E-03  7.1367E-04  2.2665E-03  0.0000E+00  6.7800E-04
  5  0.0000E+00  1.2835E-03  2.4294E-03  1.0492E-03  2.1947E-03  6.1438E-03  5.6453E-03  1.9050E-02  4.2103E-04
  6  0.0000E+00  2.0089E-03  1.0971E-02  0.0000E+00  1.7393E-02  9.1560E-03  6.6646E-03  1.1049E-02  9.7183E-03
  7  3.1890E-07  2.5111E-03  0.0000E+00  5.3892E-02  1.4365E-02  1.4476E-02  1.5959E-03  5.7830E-03  4.8668E-03
  8  5.7887E-02  3.0376E-03  6.4011E-04  6.9021E-02  2.3896E-04  1.2270E-02  0.0000E+00  1.7118E-02  1.1234E-02
  9  0.0000E+00  3.1244E-03  2.6651E-02  1.9059E-02  0.0000E+00  1.3522E-02  6.3432E-03  0.0000E+00  0.0000E+00
 10  2.8199E-02  6.4542E-03  1.5075E-02  6.8339E-02  3.2279E-02  3.0537E-02  1.0573E-02  3.0217E-03  1.4671E-02
 11  6.9196E-01  8.1673E-03  7.8127E-02  4.8226E-02  1.3097E-01  4.3540E-02  3.6612E-02  6.8142E-02  3.2878E-02
 12  0.0000E+00  1.5119E-02  1.3174E-02  0.0000E+00  0.0000E+00  0.0000E+00  3.4773E-03  1.0001E-01  3.9725E-02
 13  0.0000E+00  3.9430E-02  1.8328E-01  2.0370E-02  1.6686E-01  8.7807E-02  0.0000E+00  1.0802E-01  1.5010E-01
 14  0.0000E+00  1.7476E-01  2.1868E-01  0.0000E+00  1.3518E-02  9.9689E-03  1.0146E+00  9.9881E-02  6.1161E-01
 15  0.0000E+00  2.2097E-01  4.8710E-01  2.2354E-01  2.3756E-01  3.7403E-01  0.0000E+00  2.1981E+00  3.8924E-01
 16  0.0000E+00  5.4066E-01  1.4386E+00  0.0000E+00  7.1496E+00  0.0000E+00  3.9640E+00  1.3815E+00  5.5640E-03
 17  0.0000E+00  7.4315E-01  1.4554E+00  6.4465E+00  6.8855E-01  1.7739E+00  1.6328E+00  6.8588E+00  1.9809E+00
 18  0.0000E+00  1.4070E-03  1.3449E-02  5.2126E-03  5.0506E-03  2.4592E-04  5.9480E-03  1.7620E-02  2.4123E-03
 19  0.0000E+00  5.2940E-04  2.8588E-03  3.6811E-03  5.2399E-03  3.2649E-05  2.2454E-03  1.5184E-03  3.5068E-04
 20  2.8980E-05  5.1855E-04  5.5405E-03  2.6933E-03  1.2973E-04  1.2878E-03  1.6377E-03  2.1492E-03  3.2499E-03
 21  0.0000E+00  5.7044E-04  1.2194E-03  2.5698E-04  1.0654E-03  4.9411E-04  3.0335E-04  2.5726E-04  1.3931E-03
 22  1.0469E-02  9.2268E-04  5.3574E-03  1.2694E-02  3.6080E-03  0.0000E+00  5.7762E-03  0.0000E+00  0.0000E+00
 23  0.0000E+00  1.7937E-03  4.2680E-03  6.5332E-03  1.6751E-02  2.4300E-03  1.0031E-02  8.2106E-04  6.0817E-03
 24  0.0000E+00  2.4030E-03  0.0000E+00  0.0000E+00  1.2973E-02  5.5737E-03  0.0000E+00  1.1308E-02  1.1842E-02
 25  2.3284E-06  3.4846E-03  1.1840E-02  1.7441E-02  2.8689E-02  9.1643E-03  3.0849E-02  0.0000E+00  6.2306E-02
 26  0.0000E+00  3.7264E-03  0.0000E+00  5.6901E-03  5.1620E-02  3.2726E-02  0.0000E+00  0.0000E+00  2.8561E-02
 27  0.0000E+00  1.0858E-02  1.1561E-01  3.3277E-02  1.7636E-02  2.1902E-02  8.6864E-02  1.0106E-02  3.1048E-02
 28  0.0000E+00  3.3455E-02  7.4159E-02  4.3205E-01  8.2139E-02  9.0544E-02  1.0548E-01  9.6747E-02  3.4075E-02
 29  1.6498E+00  5.8469E-02  3.0331E-01  3.3147E-01  2.6312E-01  1.8352E-01  4.1165E-01  1.0182E-01  3.0824E-01
 30  0.0000E+00  9.9907E-02  4.9306E-03  6.7955E-02  0.0000E+00  2.3395E-01  5.9002E-01  1.3358E+00  1.5097E-01
 31  0.0000E+00  2.1802E-01  4.8788E-01  6.5981E-01  7.4318E-01  1.5252E+00  8.0122E-01  9.4060E-01  2.2667E-01
 32  6.2688E+01  2.6988E-01  5.9246E-01  9.6820E-01  1.2114E-01  1.8344E+00  1.0350E+00  1.4092E+00  1.2775E+00
 33  0.0000E+00  9.1804E-01  2.7516E+00  0.0000E+00  6.2088E+00  5.8720E-01  7.8220E+00  1.8551E-01  1.4155E+00
 34  0.0000E+00  1.1708E+00  0.0000E+00  0.0000E+00  7.5821E-01  7.3235E+00  0.0000E+00  2.6739E+00  1.3199E+01
 35  0.0000E+00  1.1488E-03  7.0657E-03  2.2373E-03  4.6171E-03  4.6882E-03  1.5869E-03  9.5881E-03  1.6753E-03
 36  7.1384E-04  5.4541E-04  4.1727E-03  2.6334E-03  0.0000E+00  1.2673E-03  3.2777E-03  5.9916E-03  0.0000E+00
 37  0.0000E+00  4.5780E-04  0.0000E+00  1.5071E-03  4.6384E-03  5.7380E-04  1.5921E-03  1.9288E-04  9.5727E-04
 38  0.0000E+00  1.5841E-03  5.3132E-03  1.8322E-02  7.3425E-03  5.1288E-03  9.0317E-03  0.0000E+00  7.7675E-04
 39  0.0000E+00  2.2286E-03  0.0000E+00  3.9306E-03  1.3961E-02  1.3063E-02  6.4544E-03  5.7663E-03  0.0000E+00
 40  3.3117E-03  3.3026E-03  0.0000E+00  3.1447E-02  6.7133E-03  0.0000E+00  8.6861E-05  8.4409E-03  2.7841E-02
 41  2.2669E-02  6.2051E-03  1.0160E-02  2.8099E-02  0.0000E+00  3.0813E-02  7.3161E-02  0.0000E+00  1.8950E-02
 42  3.5727E-02  9.8790E-03  0.0000E+00  5.6124E-02  0.0000E+00  2.7777E-02  8.6184E-03  9.1074E-02  4.4535E-02
 43  0.0000E+00  1.3159E-02  0.0000E+00  0.0000E+00  5.4905E-02  1.7230E-02  6.8767E-02  3.8793E-02  0.0000E+00
 44  2.0584E+00  3.2375E-02  1.3323E-01  9.4323E-02  4.7786E-02  9.2860E-02  5.1883E-02  1.4667E-01  1.4155E-01
 45  0.0000E+00  4.3033E-02  0.0000E+00  0.0000E+00  0.0000E+00  9.2233E-02  2.9472E-01  0.0000E+00  8.2680E-02
 46  2.9457E+01  1.1247E-01  3.5684E-01  1.1303E+00  4.5335E-01  3.2098E-01  4.4940E-01  1.4043E+00  0.0000E+00
 47  2.0812E-01  2.2129E-01  3.3827E-01  2.7537E+00  7.2993E-01  1.6384E-01  6.5539E-01  2.2582E-01  2.5302E-01
 48  6.4764E-01  3.0987E-01  1.1281E+00  2.9820E+00  6.1958E-01  1.0364E+00  0.0000E+00  0.0000E+00  1.1586E+00
 49  1.2722E+00  6.9419E-01  0.0000E+00  1.4198E+00  0.0000E+00  8.1923E-01  2.6545E-01  1.8614E+00  0.0000E+00
 50  0.0000E+00  1.1429E+00  1.3272E+01  0.0000E+00  1.3215E+01  0.0000E+00  1.7068E+00  1.0392E+00  2.4226E+00
 51  3.8642E-03  7.1909E-04  2.7871E-03  1.1781E-03  1.2088E-03  0.0000E+00  6.8546E-03  3.4080E-03  0.0000E+00
 52  0.0000E+00  3.1907E-04  7.4855E-04  1.1712E-03  6.1313E-04  1.5751E-03  0.0000E+00  2.9715E-03  0.0000E+00
 53  1.0575E-04  5.9373E-04  1.3670E-03  1.2460E-03  2.1709E-03  0.0000E+00  2.9770E-03  2.4947E-03  1.8012E-03
 54  1.1920E-05  1.3227E-03  8.2196E-03  5.9665E-03  5.6437E-03  4.4317E-03  0.0000E+00  5.6535E-04  1.5631E-03
 55  0.0000E+00  1.5728E-03  1.4714E-02  3.5686E-03  1.8072E-04  3.7227E-03  0.0000E+00  1.4473E-02  0.0000E+00
 56  7.0602E-05  2.9770E-03  5.9722E-03  6.3149E-03  4.7757E-04  1.0998E-02  1.5278E-02  2.3962E-02  5.2047E-02
 57  0.0000E+00  2.4516E-03  0.0000E+00  0.0000E+00  2.8808E-02  0.0000E+00  2.6076E-02  1.0868E-02  1.1918E-02
 58  2.7398E-01  7.2003E-03  4.0923E-02  5.4883E-02  3.6853E-02  8.6862E-03  2.7126E-02  6.4748E-02  0.0000E+00
 59  0.0000E+00  1.6905E-02  0.0000E+00  0.0000E+00  1.1038E-01  1.1199E-01  0.0000E+00  0.0000E+00  8.5818E-03
 60  2.8159E-03  2.9895E-01  2.7648E-01  8.3903E-01  1.8732E-01  4.4312E-01  4.7367E-01  5.6661E-01  3.4366E-01
 61  0.0000E+00  4.6417E-02  0.0000E+00  0.0000E+00  1.0923E-01  1.3002E-01  4.5399E-02  0.0000E+00  0.0000E+00
 62  0.0000E+00  1.1514E-01  4.3512E-02  0.0000E+00  7.0880E-01  6.3278E-01  6.6396E-01  1.7491E+00  4.1037E-01
 63  1.5132E-02  2.2285E-01  0.0000E+00  1.1202E+00  3.6646E-01  0.0000E+00  6.7585E-02  0.0000E+00  5.3447E-01
 64  0.0000E+00  7.5456E-01  5.2779E+00  6.6330E-01  4.8234E+00  1.5038E+00  9.2418E-01  1.1661E+00  1.0183E+00
 65  0.0000E+00  6.0746E+00  1.0704E+01  6.7524E+00  8.7135E+00  8.3009E+00  0.0000E+00  0.0000E+00  1.4580E+01
 66  8.7243E-01  8.5300E+01  6.0058E+01  7.2512E+01  5.2952E+01  7.1983E+01  7.6553E+01  7.3890E+01  5.8860E+01

# AV, chi2 & Mass for <> & i_chain = 1 ...  7 solutions
AV      -0.6521      0.7547      0.6613      0.6378      0.5910      0.5873      0.5434      0.7885      0.6208
chi2 8.7450E-06  6.6124E-05  2.3319E-05  1.6458E-05  1.8112E-05  2.4150E-05  1.9160E-05  2.2046E-05  2.2916E-05
Mass 2.2856E-14  1.0594E-12  4.7467E-13  3.0730E-13  3.4561E-13  4.4950E-13  3.5695E-13  4.1841E-13  4.4043E-13
-150.13                                  [v0_min (km/s) before EX0s...]
   0.02                                  [vd_min (km/s) before EX0s...]


## Synthetic spectrum (Best Model) ##l_obs f_obs f_syn wei
 3478    [Nl_obs]
 3741.00    1.43019   0.58255    0.000
 3742.00    1.05133   0.55421    0.000
 3743.00    0.15517   0.52387    0.000
 3744.00    0.07647   0.48887    0.000
 3745.00    0.47405   0.46144    0.026
 3746.00    0.43582   0.40584    0.026
 3747.00    0.17628   0.34435    0.026
 3748.00    0.04596   0.34860    0.026
 3749.00   -0.02752   0.42253    0.000
 3750.00    0.22164   0.50563    0.027
 3751.00    0.59261   0.56752    0.026
 3752.00    0.60677   0.62834    0.026
 3753.00    0.50658   0.67873    0.025
 3754.00    0.53054   0.67926    0.025
 3755.00    0.58777   0.61668    0.024
 3756.00    0.64920   0.54834    0.024
 3757.00    0.71156   0.53989    0.023
 3758.00    0.48311   0.57362    0.023
 3759.00    0.20390   0.60367    0.023
 3760.00   -0.16816   0.62229    0.000
 3761.00   -0.55255   0.62310    0.000
 3762.00   -0.42180   0.61612    0.000
 3763.00   -0.24263   0.61458    0.000
 3764.00   -0.15366   0.58402    0.000
 3765.00   -0.06990   0.53612    0.000
 3766.00   -0.34045   0.51226    0.000
 3767.00   -0.61290   0.49150    0.000
 3768.00   -0.09604   0.45737    0.000
 3769.00    0.41701   0.46197    0.023
 3770.00    0.83731   0.52267    0.022
 3771.00    1.19070   0.58340    0.022
 3772.00    0.66718   0.60965    0.022
 3773.00    0.25634   0.62195    0.021
 3774.00    0.83473   0.64402    0.022
 3775.00    1.36707   0.67350    0.022
 3776.00    1.60076   0.69511    0.023
 3777.00    1.71886   0.72311    0.024
 3778.00    1.25185   0.75749    0.023
 3779.00    0.81757   0.77064    0.023
 3780.00    0.51720   0.76662    0.023
 3781.00    0.32781   0.77356    0.023
 3782.00    0.51487   0.78798    0.023
 3783.00    0.66376   0.76058    0.023
 3784.00    0.70346   0.69346    0.023
 3785.00    0.75388   0.65317    0.022
 3786.00    0.83051   0.64127    0.022
 3787.00    0.74896   0.62902    0.022
 3788.00    0.33402   0.62432    0.022
 3789.00    0.21715   0.63410    0.022
 3790.00    0.64624   0.62901    0.022
 3791.00    0.59360   0.59035    0.022
 3792.00   -0.23015   0.53944    0.000
 3793.00   -0.58934   0.49974    0.000
 3794.00   -0.29597   0.46326    0.000
 3795.00    0.25019   0.41177    0.020
 3796.00    1.10880   0.37905    0.020
 3797.00    1.27869   0.41153    0.020
 3798.00    0.69820   0.49172    0.020
 3799.00    0.05284   0.56497    0.021
 3800.00   -0.65487   0.61976    0.000
 3801.00   -1.08874   0.67178    0.000
 3802.00   -1.29055   0.70182    0.000
 3803.00   -0.87052   0.70247    0.000
 3804.00    0.01355   0.68448    0.022
 3805.00    0.33031   0.67638    0.021
 3806.00    0.27516   0.70609    0.021
 3807.00    0.28538   0.75424    0.021
 3808.00    0.33310   0.78686    0.021
 3809.00    0.23908   0.78899    0.020
 3810.00    0.07421   0.75482    0.020
 3811.00   -0.05601   0.69968    0.000
 3812.00   -0.17126   0.66075    0.000
 3813.00    0.19779   0.64719    0.021
 3814.00    0.74644   0.66077    0.021
 3815.00    0.71421   0.70289    0.020
 3816.00    0.49939   0.72453    0.020
 3817.00    0.48486   0.68694    0.021
 3818.00    0.52287   0.62964    0.023
 3819.00    0.75353   0.62948    0.021
 3820.00    1.02546   0.67496    0.020
 3821.00    0.43195   0.68272    0.020
 3822.00   -0.30843   0.63122    0.000
 3823.00    0.14424   0.58238    0.020
 3824.00    0.75000   0.56668    0.020
 3825.00    0.82404   0.56246    0.020
 3826.00    0.85035   0.55414    0.019
 3827.00    0.51705   0.54646    0.019
 3828.00    0.16443   0.54197    0.020
 3829.00    0.13601   0.51437    0.020
 3830.00    0.11405   0.45258    0.020
 3831.00    0.08948   0.39577    0.020
 3832.00    0.07818   0.36035    0.020
 3833.00    0.36167   0.34831    0.020
 3834.00    0.60417   0.37429    0.020
 3835.00    0.33705   0.40968    0.020
 3836.00    0.16664   0.42948    0.020
 3837.00    0.81366   0.45344    0.021
 3838.00    1.41114   0.48636    0.021
 3839.00    1.69699   0.53465    0.021
 3840.00    1.79942   0.59935    0.021
 3841.00    0.99682   0.64817    0.021
 3842.00    0.39451   0.67286    0.020
 3843.00    0.59403   0.68229    0.020
 3844.00    0.68625   0.69250    0.020
 3845.00    0.42179   0.72021    0.020
 3846.00    0.29302   0.73960    0.021
 3847.00    0.54532   0.72161    0.000
 3848.00    0.59620   0.70622    0.000
 3849.00    0.16333   0.73369    0.000
 3850.00   -0.01822   0.76640    0.000
 3851.00    0.32147   0.77035    0.000
 3852.00    0.59799   0.75517    0.000
 3853.00    0.76060   0.73229    0.000
 3854.00    0.93551   0.71777    0.000
 3855.00    1.12981   0.72457    0.000
 3856.00    1.26240   0.71204    0.000
 3857.00    1.30955   0.67609    0.000
 3858.00    1.14377   0.67516    0.000
 3859.00    0.71855   0.72086    0.000
 3860.00    0.40855   0.76893    0.000
 3861.00    0.22232   0.79015    0.000
 3862.00    0.13844   0.79013    0.000
 3863.00    0.15153   0.77602    0.000
 3864.00    0.16227   0.76443    0.000
 3865.00    0.17104   0.76770    0.000
 3866.00    0.32086   0.77779    0.000
 3867.00    0.57443   0.77725    0.000
 3868.00    0.67306   0.75264    0.000
 3869.00    0.67160   0.70788    0.000
 3870.00    0.61765   0.66356    0.000
 3871.00    0.53404   0.66123    0.000
 3872.00    0.55838   0.70777    0.000
 3873.00    0.63582   0.75140    0.000
 3874.00    0.65478   0.74976    0.000
 3875.00    0.64886   0.70014    0.000
 3876.00    0.39164   0.64063    0.000
 3877.00    0.04287   0.64313    0.000
 3878.00    0.03319   0.68074    0.000
 3879.00    0.12804   0.67056    0.000
 3880.00    0.36332   0.62650    0.000
 3881.00    0.63464   0.61003    0.020
 3882.00    0.63915   0.60995    0.019
 3883.00    0.58788   0.56663    0.019
 3884.00    0.10987   0.49303    0.019
 3885.00   -0.43850   0.44106    0.000
 3886.00    0.12321   0.40604    0.019
 3887.00    0.82240   0.39322    0.019
 3888.00    0.39823   0.43936    0.019
 3889.00   -0.12208   0.51942    0.000
 3890.00    0.20614   0.58456    0.019
 3891.00    0.57665   0.61649    0.019
 3892.00    0.26401   0.62699    0.019
 3893.00   -0.05565   0.63203    0.000
 3894.00   -0.10635   0.65328    0.000
 3895.00   -0.14782   0.68736    0.000
 3896.00   -0.00069   0.69488    0.000
 3897.00    0.14749   0.68597    0.018
 3898.00    0.30812   0.70054    0.018
 3899.00    0.42904   0.74129    0.017
 3900.00    0.22639   0.75306    0.017
 3901.00    0.05113   0.73322    0.016
 3902.00    0.04310   0.72523    0.016
 3903.00    0.07418   0.70856    0.016
 3904.00    0.29343   0.69523    0.016
 3905.00    0.43808   0.73065    0.016
 3906.00    0.29061   0.78435    0.015
 3907.00    0.19367   0.81727    0.015
 3908.00    0.26143   0.83040    0.016
 3909.00    0.32544   0.84122    0.016
 3910.00    0.37913   0.84286    0.017
 3911.00    0.47725   0.82248    0.017
 3912.00    0.68031   0.80689    0.018
 3913.00    0.85135   0.80912    0.018
 3914.00    0.95701   0.79862    0.018
 3915.00    0.92691   0.78459    0.019
 3916.00    0.65567   0.77435    0.019
 3917.00    0.44518   0.75637    0.019
 3918.00    0.32909   0.73497    0.019
 3919.00    0.42368   0.72634    0.019
 3920.00    0.80574   0.73810    0.019
 3921.00    0.95557   0.75328    0.019
 3922.00    0.82647   0.75984    0.019
 3923.00    0.69997   0.73966    0.019
 3924.00    0.57622   0.70050    0.019
 3925.00    0.51830   0.65765    0.020
 3926.00    0.52188   0.60294    0.020
 3927.00    0.39312   0.54381    0.019
 3928.00    0.15536   0.48668    0.019
 3929.00    0.35556   0.42804    0.019
 3930.00    0.87324   0.36440    0.019
 3931.00    0.93340   0.30991    0.019
 3932.00    0.70240   0.30018    0.019
 3933.00    0.46060   0.34619    0.019
 3934.00    0.21279   0.42256    0.019
 3935.00    0.05988   0.49735    0.019
 3936.00   -0.04710   0.56343    0.000
 3937.00   -0.14368   0.62509    0.000
 3938.00   -0.23592   0.66893    0.000
 3939.00   -0.09597   0.68533    0.000
 3940.00    0.12703   0.68773    0.018
 3941.00    0.47233   0.67742    0.018
 3942.00    0.85460   0.67223    0.018
 3943.00    1.08331   0.71032    0.018
 3944.00    1.27345   0.76238    0.018
 3945.00    1.22356   0.76452    0.018
 3946.00    1.12472   0.74000    0.018
 3947.00    0.98239   0.74378    0.018
 3948.00    0.83308   0.77263    0.018
 3949.00    0.70993   0.78480    0.018
 3950.00    0.58990   0.76504    0.018
 3951.00    0.50938   0.75868    0.018
 3952.00    0.43209   0.78768    0.018
 3953.00    0.65225   0.78603    0.018
 3954.00    0.88607   0.73790    0.019
 3955.00    0.91128   0.71403    0.019
 3956.00    0.93172   0.73420    0.019
 3957.00    0.84206   0.75137    0.019
 3958.00    0.75916   0.71910    0.018
 3959.00    0.80428   0.63898    0.019
 3960.00    0.82772   0.57367    0.000
 3961.00    0.60694   0.54604    0.000
 3962.00    0.43768   0.51643    0.000
 3963.00    0.67351   0.46125    0.000
 3964.00    0.85823   0.38147    0.000
 3965.00    0.73975   0.29563    0.000
 3966.00    0.65643   0.23166    0.000
 3967.00    0.73817   0.21225    0.000
 3968.00    0.82535   0.24333    0.000
 3969.00    0.93336   0.31105    0.000
 3970.00    0.87720   0.38674    0.000
 3971.00    0.29630   0.45028    0.000
 3972.00    0.03930   0.50907    0.000
 3973.00    0.65950   0.57028    0.000
 3974.00    1.09695   0.61646    0.000
 3975.00    1.11004   0.65244    0.000
 3976.00    1.13384   0.69875    0.000
 3977.00    1.17913   0.74759    0.000
 3978.00    1.21705   0.77976    0.000
 3979.00    1.24209   0.77801    0.000
 3980.00    1.06851   0.76140    0.000
 3981.00    0.59084   0.76286    0.019
 3982.00    0.57089   0.78063    0.019
 3983.00    1.16650   0.80161    0.019
 3984.00    1.32851   0.81132    0.019
 3985.00    0.97704   0.82271    0.018
 3986.00    0.72503   0.85041    0.018
 3987.00    0.57688   0.85502    0.018
 3988.00    0.60788   0.84231    0.018
 3989.00    0.80387   0.85655    0.018
 3990.00    0.97681   0.88405    0.018
 3991.00    1.13105   0.89760    0.017
 3992.00    1.23802   0.88674    0.017
 3993.00    1.31121   0.86412    0.017
 3994.00    1.09637   0.83877    0.017
 3995.00    0.70094   0.81398    0.017
 3996.00    0.71804   0.81909    0.017
 3997.00    0.96122   0.86845    0.017
 3998.00    1.21379   0.91167    0.017
 3999.00    1.47083   0.91664    0.017
 4000.00    1.18957   0.91872    0.017
 4001.00    0.68704   0.92523    0.017
 4002.00    0.32210   0.88667    0.017
 4003.00    0.00547   0.81145    0.017
 4004.00    0.01244   0.79379    0.017
 4005.00    0.11529   0.84767    0.017
 4006.00    0.26319   0.89943    0.017
 4007.00    0.42216   0.91437    0.017
 4008.00    0.47395   0.91561    0.017
 4009.00    0.50444   0.91805    0.017
 4010.00    0.90628   0.91529    0.018
 4011.00    1.36581   0.91598    0.018
 4012.00    1.00000   0.91900    0.018
 4013.00    0.53929   0.93206    0.018
 4014.00    0.51856   0.93710    0.018
 4015.00    0.53185   0.91787    0.018
 4016.00    1.01438   0.91833    0.018
 4017.00    1.51667   0.95254    0.018
 4018.00    1.51922   0.96551    0.018
 4019.00    1.50854   0.94627    0.018
 4020.00    1.11823   0.92953    0.018
 4021.00    0.75066   0.92007    0.018
 4022.00    0.78386   0.89807    0.018
 4023.00    0.82813   0.89264    0.018
 4024.00    0.99132   0.92618    0.018
 4025.00    1.13349   0.96002    0.018
 4026.00    1.11609   0.96733    0.018
 4027.00    1.07983   0.93979    0.018
 4028.00    0.93479   0.87131    0.018
 4029.00    0.81060   0.81695    0.018
 4030.00    0.78202   0.80813    0.017
 4031.00    0.71804   0.81660    0.017
 4032.00    0.52129   0.83758    0.017
 4033.00    0.46975   0.87234    0.017
 4034.00    0.87349   0.92099    0.017
 4035.00    1.16195   0.97199    0.017
 4036.00    1.14372   0.99347    0.017
 4037.00    1.00788   0.97971    0.017
 4038.00    0.60346   0.94552    0.017
 4039.00    0.44599   0.92952    0.017
 4040.00    0.77674   0.94665    0.017
 4041.00    1.06828   0.94164    0.017
 4042.00    1.29227   0.86778    0.017
 4043.00    1.23406   0.77543    0.017
 4044.00    0.75014   0.76380    0.017
 4045.00    0.54923   0.85094    0.017
 4046.00    0.72348   0.92395    0.017
 4047.00    0.90863   0.94120    0.017
 4048.00    1.10649   0.95076    0.017
 4049.00    1.12725   0.95355    0.017
 4050.00    0.96565   0.93086    0.017
 4051.00    0.92154   0.90241    0.017
 4052.00    0.98413   0.88054    0.017
 4053.00    1.03707   0.87125    0.017
 4054.00    1.08229   0.87498    0.017
 4055.00    1.23486   0.86201    0.017
 4056.00    1.46303   0.84730    0.017
 4057.00    1.52240   0.87467    0.017
 4058.00    1.47750   0.92066    0.017
 4059.00    1.55635   0.92885    0.017
 4060.00    1.70197   0.87457    0.017
 4061.00    1.41209   0.79794    0.017
 4062.00    0.91810   0.78697    0.017
 4063.00    0.74267   0.84363    0.017
 4064.00    0.69594   0.86840    0.017
 4065.00    0.73744   0.85761    0.017
 4066.00    0.80935   0.88379    0.017
 4067.00    0.95227   0.93024    0.017
 4068.00    1.11580   0.91720    0.017
 4069.00    1.12320   0.84920    0.017
 4070.00    1.09309   0.82316    0.018
 4071.00    1.04003   0.86999    0.018
 4072.00    0.98252   0.90330    0.018
 4073.00    1.06288   0.87570    0.018
 4074.00    1.16402   0.80627    0.017
 4075.00    0.98443   0.74616    0.017
 4076.00    0.77379   0.75187    0.017
 4077.00    1.11373   0.81238    0.017
 4078.00    1.49400   0.87890    0.017
 4079.00    1.59717   0.92268    0.017
 4080.00    1.68974   0.91881    0.017
 4081.00    1.36941   0.87988    0.017
 4082.00    1.06217   0.84816    0.017
 4083.00    1.33399   0.83937    0.017
 4084.00    1.56816   0.85620    0.017
 4085.00    1.18167   0.89171    0.017
 4086.00    0.83404   0.92189    0.017
 4087.00    0.88629   0.92309    0.017
 4088.00    0.92619   0.90263    0.017
 4089.00    0.87537   0.87769    0.016
 4090.00    0.85815   0.85419    0.016
 4091.00    1.02947   0.84727    0.016
 4092.00    1.19413   0.84126    0.000
 4093.00    1.32898   0.79731    0.000
 4094.00    1.30540   0.74270    0.000
 4095.00    0.69998   0.71154    0.000
 4096.00    0.34687   0.69020    0.000
 4097.00    0.76972   0.65396    0.000
 4098.00    1.09174   0.58150    0.000
 4099.00    1.15021   0.49564    0.000
 4100.00    1.14327   0.47913    0.000
 4101.00    0.98947   0.55018    0.000
 4102.00    0.99526   0.63468    0.000
 4103.00    1.31164   0.69790    0.000
 4104.00    1.33895   0.74458    0.000
 4105.00    0.87580   0.76981    0.000
 4106.00    0.66849   0.77948    0.000
 4107.00    0.84147   0.77980    0.000
 4108.00    0.95625   0.77941    0.000
 4109.00    0.99499   0.79068    0.000
 4110.00    0.90327   0.81214    0.000
 4111.00    0.66138   0.84028    0.000
 4112.00    0.69663   0.86501    0.000
 4113.00    1.01321   0.88275    0.016
 4114.00    1.10419   0.89712    0.016
 4115.00    0.99319   0.88927    0.016
 4116.00    0.89166   0.85200    0.016
 4117.00    0.79760   0.82784    0.016
 4118.00    0.65769   0.84350    0.023
 4119.00    0.48596   0.85932    0.084
 4120.00    0.66300   0.85363   -1.000
 4121.00    1.05225   0.85405   -1.000
 4122.00    1.10493   0.87750   -1.000
 4123.00    0.97879   0.89873   -1.000
 4124.00    0.83411   0.88970   -1.000
 4125.00    0.68089   0.86147   -1.000
 4126.00    0.87525   0.84081   -1.000
 4127.00    1.20763   0.84577   -1.000
 4128.00    1.05870   0.85083   -1.000
 4129.00    0.74686   0.83130   -1.000
 4130.00    0.63556   0.79969    0.040
 4131.00    0.58131   0.79509    0.018
 4132.00    0.70502   0.82024    0.016
 4133.00    0.87051   0.86385    0.016
 4134.00    1.07392   0.90370    0.016
 4135.00    1.28448   0.91283    0.016
 4136.00    1.36232   0.92245    0.016
 4137.00    1.42077   0.94126    0.016
 4138.00    1.30831   0.94297    0.016
 4139.00    1.17769   0.91800    0.016
 4140.00    1.11869   0.85449    0.016
 4141.00    1.06463   0.78373    0.016
 4142.00    1.05735   0.77930    0.016
 4143.00    1.05168   0.84022    0.016
 4144.00    1.22056   0.88862    0.016
 4145.00    1.37595   0.89956    0.016
 4146.00    1.07361   0.89208    0.016
 4147.00    0.76549   0.87373    0.016
 4148.00    0.36778   0.86313    0.016
 4149.00    0.05516   0.86926    0.015
 4150.00    0.58141   0.87125    0.016
 4151.00    1.05923   0.85887    0.016
 4152.00    1.19317   0.83878    0.016
 4153.00    1.27173   0.83221    0.016
 4154.00    1.04790   0.83572    0.016
 4155.00    0.91607   0.84494    0.016
 4156.00    1.18637   0.87154    0.016
 4157.00    1.35030   0.89597    0.015
 4158.00    1.13166   0.90031    0.015
 4159.00    0.97213   0.89717    0.015
 4160.00    0.99098   0.91275    0.015
 4161.00    1.02014   0.92925    0.015
 4162.00    1.07580   0.92411    0.015
 4163.00    1.16935   0.91487    0.015
 4164.00    1.34659   0.89850    0.015
 4165.00    1.39901   0.87280    0.015
 4166.00    1.21235   0.87224    0.015
 4167.00    1.06681   0.89715    0.015
 4168.00    0.99001   0.89593    0.015
 4169.00    0.97689   0.84744    0.015
 4170.00    1.05705   0.78260    0.015
 4171.00    1.05132   0.75822    0.015
 4172.00    0.93496   0.78650    0.015
 4173.00    0.81688   0.82553    0.015
 4174.00    0.69685   0.83823    0.015
 4175.00    0.75396   0.82199    0.015
 4176.00    0.98836   0.81140    0.016
 4177.00    1.05686   0.83629    0.016
 4178.00    0.97891   0.86913    0.015
 4179.00    0.99130   0.86506    0.015
 4180.00    1.07396   0.84182    0.015
 4181.00    1.18594   0.84322    0.015
 4182.00    1.31796   0.86570    0.016
 4183.00    1.36134   0.88903    0.016
 4184.00    1.35159   0.87638    0.016
 4185.00    1.17674   0.83052    0.016
 4186.00    0.91554   0.82581    0.016
 4187.00    0.75385   0.86687    0.016
 4188.00    0.63728   0.88753    0.015
 4189.00    0.67621   0.87855    0.015
 4190.00    0.77580   0.89152    0.015
 4191.00    0.81804   0.92737    0.015
 4192.00    0.84122   0.92454    0.015
 4193.00    0.70859   0.87867    0.015
 4194.00    0.53254   0.83960    0.016
 4195.00    0.76860   0.81887    0.016
 4196.00    1.09921   0.79433    0.016
 4197.00    1.04915   0.79530    0.016
 4198.00    0.92914   0.82290    0.016
 4199.00    1.09218   0.82180    0.015
 4200.00    1.29524   0.80800    0.015
 4201.00    1.34488   0.82255    0.015
 4202.00    1.37888   0.84275    0.015
 4203.00    1.35040   0.85474    0.015
 4204.00    1.31784   0.87600    0.015
 4205.00    0.80047   0.89693    0.015
 4206.00    0.26954   0.90641    0.015
 4207.00    0.59464   0.89753    0.015
 4208.00    0.91191   0.88699    0.015
 4209.00    0.99913   0.89796    0.015
 4210.00    1.06955   0.91726    0.015
 4211.00    0.89524   0.91414    0.015
 4212.00    0.74762   0.87700    0.015
 4213.00    0.85231   0.82162    0.015
 4214.00    0.93878   0.81061    0.015
 4215.00    0.89995   0.86313    0.015
 4216.00    0.86248   0.91028    0.014
 4217.00    0.83225   0.92331    0.015
 4218.00    0.81917   0.92977    0.015
 4219.00    0.87937   0.93515    0.014
 4220.00    0.87214   0.91321    0.014
 4221.00    0.62733   0.86909    0.014
 4222.00    0.46789   0.81387    0.014
 4223.00    0.56128   0.74010    0.014
 4224.00    0.64853   0.66550    0.014
 4225.00    0.72031   0.66151    0.014
 4226.00    0.75732   0.75860    0.014
 4227.00    0.71881   0.86083    0.014
 4228.00    0.79499   0.90649    0.014
 4229.00    1.08745   0.91689    0.014
 4230.00    1.25633   0.88825    0.014
 4231.00    1.22177   0.84377    0.014
 4232.00    1.02045   0.83660    0.014
 4233.00    0.57840   0.83981    0.013
 4234.00    0.40697   0.82644    0.013
 4235.00    0.57911   0.83131    0.013
 4236.00    0.74355   0.84155    0.013
 4237.00    0.89939   0.84069    0.013
 4238.00    0.93065   0.85668    0.013
 4239.00    0.83897   0.88796    0.013
 4240.00    0.71369   0.89917    0.013
 4241.00    0.55915   0.90248    0.013
 4242.00    0.63094   0.92440    0.013
 4243.00    0.87624   0.92667    0.014
 4244.00    1.02646   0.88862    0.014
 4245.00    1.11262   0.85036    0.014
 4246.00    1.15236   0.84205    0.014
 4247.00    1.16471   0.83555    0.015
 4248.00    1.04124   0.81380    0.015
 4249.00    0.84785   0.82392    0.014
 4250.00    0.74429   0.86534    0.015
 4251.00    0.68081   0.87117    0.015
 4252.00    0.81593   0.83997    0.015
 4253.00    1.02721   0.83405    0.015
 4254.00    1.17251   0.87111    0.015
 4255.00    1.29630   0.90035    0.015
 4256.00    1.13149   0.87738    0.015
 4257.00    0.88789   0.82571    0.014
 4258.00    0.89159   0.78633    0.015
 4259.00    0.95070   0.79377    0.015
 4260.00    1.14016   0.85212    0.015
 4261.00    1.35293   0.90974    0.015
 4262.00    1.34435   0.93408    0.015
 4263.00    1.30549   0.94144    0.015
 4264.00    1.04214   0.93826    0.015
 4265.00    0.75686   0.91172    0.015
 4266.00    0.72647   0.87928    0.015
 4267.00    0.71166   0.85568    0.015
 4268.00    0.74497   0.81337    0.015
 4269.00    0.77902   0.75015    0.014
 4270.00    0.70180   0.73065    0.014
 4271.00    0.62986   0.76329    0.015
 4272.00    0.69746   0.77896    0.015
 4273.00    0.76050   0.79023    0.014
 4274.00    0.76082   0.83840    0.015
 4275.00    0.77292   0.88979    0.015
 4276.00    0.89198   0.90955    0.015
 4277.00    0.98050   0.89393    0.015
 4278.00    0.86562   0.86039    0.015
 4279.00    0.78024   0.84388    0.015
 4280.00    0.84756   0.84277    0.015
 4281.00    0.92766   0.84852    0.015
 4282.00    1.06108   0.85515   -2.000
 4283.00    1.17388   0.84107   -2.000
 4284.00    1.21550   0.82562   -2.000
 4285.00    1.20033   0.81982   -2.000
 4286.00    1.02011   0.79416   -2.000
 4287.00    0.85899   0.73872   -2.000
 4288.00    0.74525   0.71102   -2.000
 4289.00    0.70270   0.75260   -2.000
 4290.00    0.81237   0.81749   -2.000
 4291.00    0.90304   0.84299   -2.000
 4292.00    0.95842   0.82320   -2.000
 4293.00    0.97206   0.80979   -2.000
 4294.00    0.91801   0.80803   -2.000
 4295.00    0.82634   0.78843   -2.000
 4296.00    0.68117   0.74185   -2.000
 4297.00    0.64815   0.67827   -2.000
 4298.00    0.75551   0.65012    0.014
 4299.00    0.90707   0.66914    0.014
 4300.00    1.10739   0.68348    0.014
 4301.00    1.07972   0.69461    0.014
 4302.00    0.83023   0.71941    0.014
 4303.00    0.73423   0.72537    0.014
 4304.00    0.76991   0.70820    0.014
 4305.00    0.74913   0.67686    0.014
 4306.00    0.68568   0.64640    0.014
 4307.00    0.63333   0.65674    0.014
 4308.00    0.58836   0.70114    0.014
 4309.00    0.69109   0.74176    0.014
 4310.00    0.87972   0.75980    0.014
 4311.00    0.88795   0.76203    0.014
 4312.00    0.80475   0.76866    0.013
 4313.00    0.80552   0.81377    0.013
 4314.00    0.84313   0.89239    0.013
 4315.00    0.85725   0.93812    0.013
 4316.00    0.86252   0.93428    0.013
 4317.00    0.87254   0.91372    0.013
 4318.00    0.88408   0.88904    0.013
 4319.00    0.95181   0.86771    0.013
 4320.00    1.03456   0.85753    0.014
 4321.00    0.93428   0.81868    0.013
 4322.00    0.79396   0.74310    0.013
 4323.00    0.67019   0.67618    0.013
 4324.00    0.54930   0.67771    0.013
 4325.00    0.58080   0.75793    0.013
 4326.00    0.63246   0.84078    0.013
 4327.00    0.60975   0.86364    0.013
 4328.00    0.58009   0.83942    0.013
 4329.00    0.70044   0.82171    0.014
 4330.00    0.82938   0.82658    0.000
 4331.00    0.87324   0.82772    0.000
 4332.00    0.91566   0.82365    0.000
 4333.00    1.01918   0.81477    0.000
 4334.00    1.11400   0.76677    0.000
 4335.00    0.99965   0.67212    0.000
 4336.00    0.88217   0.58420    0.000
 4337.00    0.72372   0.52072    0.000
 4338.00    0.56462   0.47591    0.000
 4339.00    0.39984   0.50374    0.000
 4340.00    0.26503   0.59697    0.000
 4341.00    0.32372   0.66634    0.000
 4342.00    0.41171   0.70138    0.000
 4343.00    0.64748   0.74409    0.000
 4344.00    0.85744   0.77869    0.000
 4345.00    0.96202   0.79496    0.000
 4346.00    1.02253   0.82333    0.000
 4347.00    0.93392   0.85015    0.000
 4348.00    0.87511   0.82170    0.000
 4349.00    0.90133   0.74586    0.000
 4350.00    0.92477   0.71205    0.000
 4351.00    0.94145   0.75563    0.014
 4352.00    1.01327   0.80986    0.014
 4353.00    1.20107   0.83891    0.014
 4354.00    1.34350   0.86501    0.017
 4355.00    1.40295   0.87935    0.045
 4356.00    1.28720   0.85958   -1.000
 4357.00    0.89151   0.83553   -1.000
 4358.00    0.75609   0.85180   -1.000
 4359.00    0.98560   0.89085   -1.000
 4360.00    1.21523   0.91126   -1.000
 4361.00    1.44502   0.91523   -1.000
 4362.00    1.60609   0.92993   -1.000
 4363.00    1.69244   0.94446   -1.000
 4364.00    1.47920   0.92259    0.054
 4365.00    0.97855   0.87427    0.018
 4366.00    0.84343   0.84898    0.014
 4367.00    1.01749   0.85678    0.014
 4368.00    1.05032   0.86899    0.014
 4369.00    0.97793   0.87971    0.014
 4370.00    1.04322   0.88193    0.014
 4371.00    1.19860   0.85205    0.014
 4372.00    1.02881   0.79864    0.014
 4373.00    0.67278   0.77962    0.014
 4374.00    0.60896   0.82172    0.014
 4375.00    0.69090   0.88335    0.014
 4376.00    0.79511   0.91334    0.014
 4377.00    0.90892   0.90668    0.014
 4378.00    0.73561   0.89136    0.014
 4379.00    0.45606   0.86987    0.014
 4380.00    0.53942   0.80234    0.014
 4381.00    0.73658   0.69835    0.014
 4382.00    0.85878   0.65173    0.014
 4383.00    0.96137   0.70521    0.014
 4384.00    0.79755   0.79148    0.014
 4385.00    0.57683   0.83421    0.014
 4386.00    0.86345   0.83731    0.014
 4387.00    1.23586   0.83191    0.014
 4388.00    1.13300   0.82575    0.014
 4389.00    0.96941   0.83353    0.014
 4390.00    0.79063   0.85768    0.014
 4391.00    0.61049   0.86209    0.014
 4392.00    0.81641   0.83416    0.014
 4393.00    1.04290   0.82254    0.014
 4394.00    0.82999   0.86382    0.014
 4395.00    0.61121   0.91130    0.014
 4396.00    0.61450   0.90851    0.014
 4397.00    0.62124   0.86622    0.014
 4398.00    0.70366   0.82379    0.014
 4399.00    0.78606   0.82846    0.014
 4400.00    0.86811   0.86884    0.014
 4401.00    0.93986   0.85985    0.014
 4402.00    0.92506   0.79412    0.014
 4403.00    0.92161   0.76996    0.014
 4404.00    0.98929   0.80857    0.014
 4405.00    1.01153   0.82799    0.014
 4406.00    0.81027   0.81800    0.014
 4407.00    0.68116   0.83818    0.014
 4408.00    0.84006   0.88643    0.014
 4409.00    0.93837   0.92051    0.013
 4410.00    0.83570   0.93539    0.014
 4411.00    0.74551   0.92147    0.014
 4412.00    0.69028   0.85968    0.013
 4413.00    0.69348   0.79862    0.013
 4414.00    0.83675   0.79807    0.014
 4415.00    0.93946   0.83192    0.014
 4416.00    0.95825   0.87287    0.014
 4417.00    0.99778   0.91735    0.013
 4418.00    1.07462   0.93349    0.014
 4419.00    0.98880   0.90663    0.014
 4420.00    0.64691   0.86775    0.013
 4421.00    0.52640   0.85948    0.013
 4422.00    0.71182   0.87809    0.013
 4423.00    0.81228   0.88537    0.013
 4424.00    0.80939   0.87800    0.013
 4425.00    0.82341   0.87722    0.013
 4426.00    0.85555   0.88837    0.013
 4427.00    0.88143   0.88599    0.013
 4428.00    0.90139   0.86342    0.014
 4429.00    0.82004   0.86427    0.014
 4430.00    0.65421   0.88107    0.013
 4431.00    0.70070   0.86469    0.013
 4432.00    0.90308   0.82076    0.013
 4433.00    0.95256   0.79513    0.013
 4434.00    0.90348   0.82225    0.013
 4435.00    0.79125   0.88319    0.013
 4436.00    0.64342   0.93025    0.013
 4437.00    0.64906   0.94385    0.013
 4438.00    0.73005   0.92001    0.014
 4439.00    0.82362   0.86842    0.014
 4440.00    0.92253   0.81776    0.014
 4441.00    0.95803   0.80055    0.014
 4442.00    0.97048   0.83512    0.013
 4443.00    0.91853   0.89488    0.013
 4444.00    0.84678   0.92258    0.013
 4445.00    0.75050   0.91347    0.013
 4446.00    0.64795   0.91119    0.013
 4447.00    0.76345   0.90906    0.013
 4448.00    0.92440   0.89170    0.013
 4449.00    0.82253   0.88981    0.013
 4450.00    0.67747   0.89836    0.013
 4451.00    0.63032   0.87684    0.013
 4452.00    0.59524   0.82372    0.013
 4453.00    0.53188   0.78532    0.013
 4454.00    0.46610   0.79572    0.013
 4455.00    0.46394   0.81979    0.013
 4456.00    0.46492   0.82073    0.013
 4457.00    0.74658   0.81408    0.013
 4458.00    1.02809   0.80996    0.013
 4459.00    1.02013   0.79706    0.013
 4460.00    1.00638   0.80190    0.013
 4461.00    0.87531   0.84284    0.000
 4462.00    0.76187   0.87174    0.000
 4463.00    0.85568   0.87087    0.000
 4464.00    0.93368   0.86524    0.000
 4465.00    0.88351   0.85795    0.000
 4466.00    0.82207   0.84166    0.000
 4467.00    0.69201   0.82660    0.000
 4468.00    0.59006   0.83448    0.000
 4469.00    0.62292   0.86080    0.000
 4470.00    0.66521   0.89115    0.000
 4471.00    0.74433   0.91963    0.000
 4472.00    0.82125   0.93282    0.000
 4473.00    0.89100   0.92752    0.000
 4474.00    0.96515   0.92945    0.000
 4475.00    1.05136   0.94740    0.000
 4476.00    1.02236   0.94571    0.000
 4477.00    0.72187   0.90127    0.000
 4478.00    0.53955   0.83441    0.000
 4479.00    0.59790   0.79144    0.000
 4480.00    0.74939   0.80609    0.000
 4481.00    1.06600   0.86255    0.000
 4482.00    1.21430   0.91463    0.013
 4483.00    1.10155   0.94140    0.013
 4484.00    0.99925   0.94780    0.013
 4485.00    0.91120   0.92808    0.013
 4486.00    0.89384   0.88371    0.013
 4487.00    0.96126   0.84544    0.013
 4488.00    0.99923   0.84377    0.013
 4489.00    1.00606   0.87468    0.013
 4490.00    1.00696   0.90437    0.013
 4491.00    1.00233   0.89897    0.013
 4492.00    0.93977   0.86540    0.013
 4493.00    0.82959   0.84805    0.013
 4494.00    0.81102   0.85938    0.013
 4495.00    0.85872   0.88756    0.013
 4496.00    0.82940   0.91818    0.013
 4497.00    0.75114   0.92919    0.013
 4498.00    0.75379   0.91183    0.013
 4499.00    0.80137   0.88978    0.013
 4500.00    0.75244   0.90782    0.013
 4501.00    0.65688   0.95655    0.013
 4502.00    0.61666   0.98377    0.013
 4503.00    0.59954   0.97948    0.013
 4504.00    0.67926   0.96052    0.013
 4505.00    0.79355   0.93833    0.013
 4506.00    0.73980   0.92843    0.013
 4507.00    0.63540   0.93900    0.013
 4508.00    0.62209   0.95600    0.013
 4509.00    0.63160   0.95574    0.013
 4510.00    0.69401   0.93552    0.013
 4511.00    0.76718   0.91233    0.013
 4512.00    0.89502   0.89549    0.013
 4513.00    1.03158   0.89358    0.013
 4514.00    0.82910   0.90267    0.013
 4515.00    0.58633   0.90022    0.013
 4516.00    0.69902   0.89299    0.013
 4517.00    0.84048   0.90327    0.013
 4518.00    0.87826   0.92082    0.013
 4519.00    0.91133   0.92348    0.013
 4520.00    0.90849   0.89955    0.013
 4521.00    0.90352   0.87793    0.013
 4522.00    0.81211   0.87614    0.013
 4523.00    0.72015   0.86343    0.013
 4524.00    0.61779   0.83668    0.013
 4525.00    0.53585   0.81104    0.013
 4526.00    0.68286   0.79330    0.013
 4527.00    0.82161   0.79334    0.013
 4528.00    0.89574   0.81147    0.013
 4529.00    0.94503   0.83300    0.013
 4530.00    0.84744   0.84405    0.013
 4531.00    0.77614   0.82420    0.013
 4532.00    0.82792   0.79285    0.013
 4533.00    0.90531   0.79532    0.013
 4534.00    1.08061   0.84505    0.013
 4535.00    1.19107   0.90964    0.013
 4536.00    1.09479   0.93333    0.013
 4537.00    0.95659   0.91251    0.013
 4538.00    0.70513   0.88360    0.013
 4539.00    0.59793   0.87418    0.013
 4540.00    0.82504   0.89068    0.013
 4541.00    0.86555   0.90236    0.013
 4542.00    0.53204   0.88609    0.013
 4543.00    0.41808   0.86944    0.013
 4544.00    0.68742   0.87393    0.013
 4545.00    0.83707   0.87458    0.013
 4546.00    0.80379   0.84922    0.013
 4547.00    0.75425   0.81699    0.013
 4548.00    0.68289   0.82678    0.013
 4549.00    0.66941   0.86323    0.013
 4550.00    0.72438   0.86845    0.000
 4551.00    0.82001   0.84579    0.000
 4552.00    0.95805   0.82316    0.000
 4553.00    1.00147   0.82107    0.000
 4554.00    0.95790   0.85152    0.000
 4555.00    0.95055   0.89274    0.000
 4556.00    0.97256   0.91220    0.000
 4557.00    0.86339   0.91660    0.000
 4558.00    0.66066   0.92181    0.000
 4559.00    0.60930   0.92611    0.000
 4560.00    0.65268   0.91521    0.000
 4561.00    0.61506   0.88085    0.000
 4562.00    0.53315   0.84966    0.000
 4563.00    0.64441   0.84957    0.000
 4564.00    0.84750   0.87926    0.000
 4565.00    0.77027   0.91637    0.000
 4566.00    0.57809   0.93369    0.000
 4567.00    0.63432   0.92804    0.000
 4568.00    0.77759   0.90138    0.000
 4569.00    0.79050   0.86324    0.000
 4570.00    0.76489   0.86274    0.000
 4571.00    0.81072   0.90383    0.000
 4572.00    0.87405   0.92417    0.000
 4573.00    0.75882   0.91612    0.000
 4574.00    0.60819   0.91209    0.000
 4575.00    0.77678   0.91123    0.000
 4576.00    0.99480   0.89625    0.000
 4577.00    0.95643   0.86570    0.000
 4578.00    0.88872   0.83981    0.000
 4579.00    0.86193   0.83665    0.000
 4580.00    0.83829   0.84515    0.000
 4581.00    0.83177   0.84485    0.000
 4582.00    0.82597   0.84313    0.000
 4583.00    1.04237   0.84872    0.000
 4584.00    1.24732   0.85750    0.000
 4585.00    0.87780   0.87552    0.000
 4586.00    0.54344   0.89652    0.000
 4587.00    0.82370   0.90611    0.000
 4588.00    1.05382   0.89608    0.000
 4589.00    0.74753   0.87199    0.000
 4590.00    0.49118   0.85577    0.000
 4591.00    0.61239   0.85849    0.000
 4592.00    0.70420   0.86353    0.000
 4593.00    0.62704   0.86071    0.000
 4594.00    0.56756   0.86140    0.000
 4595.00    0.58893   0.86789    0.000
 4596.00    0.62502   0.87530    0.000
 4597.00    0.71620   0.87602    0.000
 4598.00    0.77858   0.86301    0.000
 4599.00    0.75090   0.85868    0.000
 4600.00    0.77227   0.86961    0.000
 4601.00    0.92385   0.87561    0.000
 4602.00    0.99264   0.87304    0.000
 4603.00    0.87279   0.86880    0.000
 4604.00    0.80432   0.87728    0.000
 4605.00    0.83726   0.90120    0.000
 4606.00    0.84169   0.92930    0.000
 4607.00    0.79711   0.94289    0.000
 4608.00    0.80295   0.93095    0.000
 4609.00    0.88470   0.91026    0.000
 4610.00    0.99789   0.89753    0.000
 4611.00    1.15270   0.89348    0.000
 4612.00    1.09655   0.90134    0.000
 4613.00    0.79455   0.90889    0.000
 4614.00    0.63917   0.90496    0.000
 4615.00    0.63447   0.90395    0.000
 4616.00    0.66168   0.89627    0.000
 4617.00    0.71782   0.88292    0.000
 4618.00    0.76544   0.89243    0.000
 4619.00    0.80626   0.91344    0.000
 4620.00    0.78916   0.91828    0.000
 4621.00    0.73134   0.91612    0.000
 4622.00    0.78699   0.91307    0.000
 4623.00    0.91259   0.90318    0.000
 4624.00    0.79106   0.89898    0.000
 4625.00    0.53644   0.90253    0.000
 4626.00    0.54036   0.89496    0.000
 4627.00    0.66520   0.88251    0.000
 4628.00    0.76051   0.89271    0.000
 4629.00    0.84392   0.91292    0.000
 4630.00    0.82420   0.90670    0.000
 4631.00    0.76900   0.88154    0.000
 4632.00    0.91203   0.87073    0.000
 4633.00    1.11246   0.87526    0.000
 4634.00    1.01005   0.87462    0.000
 4635.00    0.83510   0.86306    0.000
 4636.00    0.90663   0.85359    0.000
 4637.00    1.02576   0.85283    0.000
 4638.00    0.86906   0.86085    0.000
 4639.00    0.67096   0.88079    0.000
 4640.00    0.84780   0.89278    0.000
 4641.00    1.06590   0.88422    0.000
 4642.00    1.00633   0.86873    0.000
 4643.00    0.92657   0.84532    0.000
 4644.00    0.85391   0.81372    0.000
 4645.00    0.78151   0.80023    0.000
 4646.00    0.67986   0.81456    0.000
 4647.00    0.58185   0.84248    0.000
 4648.00    0.62394   0.86728    0.000
 4649.00    0.67297   0.88036    0.000
 4650.00    0.83531   0.88565    0.000
 4651.00    0.98190   0.87977    0.000
 4652.00    0.96731   0.85638    0.000
 4653.00    0.94739   0.83686    0.000
 4654.00    0.88848   0.83763    0.000
 4655.00    0.85167   0.86053    0.000
 4656.00    0.93846   0.90072    0.000
 4657.00    0.99228   0.93129    0.000
 4658.00    0.89904   0.93261    0.000
 4659.00    0.79634   0.91028    0.000
 4660.00    0.65897   0.88221    0.000
 4661.00    0.54444   0.86421    0.000
 4662.00    0.49992   0.85961    0.000
 4663.00    0.49091   0.84462    0.000
 4664.00    0.57446   0.79935    0.000
 4665.00    0.60911   0.75818    0.000
 4666.00    0.53415   0.76356    0.000
 4667.00    0.53320   0.80216    0.000
 4668.00    0.67597   0.84062    0.000
 4669.00    0.75653   0.86511    0.000
 4670.00    0.73172   0.86813    0.000
 4671.00    0.76197   0.86032    0.000
 4672.00    0.87392   0.86202    0.000
 4673.00    0.93206   0.87861    0.000
 4674.00    0.92003   0.89529    0.000
 4675.00    0.88955   0.88933    0.000
 4676.00    0.83788   0.86402    0.000
 4677.00    0.82942   0.84307    0.000
 4678.00    0.86473   0.83435    0.000
 4679.00    0.93211   0.83327    0.000
 4680.00    1.02814   0.84420    0.000
 4681.00    0.94304   0.86439    0.000
 4682.00    0.71527   0.87557    0.000
 4683.00    0.58652   0.87426    0.000
 4684.00    0.52636   0.86962    0.000
 4685.00    0.63942   0.86319    0.000
 4686.00    0.85768   0.86037    0.000
 4687.00    0.91944   0.86157    0.000
 4688.00    0.89823   0.85601    0.000
 4689.00    0.85115   0.84886    0.000
 4690.00    0.79217   0.85428    0.000
 4691.00    0.72104   0.86585    0.000
 4692.00    0.64510   0.87796    0.000
 4693.00    0.65946   0.89179    0.000
 4694.00    0.70431   0.89456    0.000
 4695.00    0.73161   0.87275    0.000
 4696.00    0.75393   0.83937    0.000
 4697.00    0.76496   0.82565    0.000
 4698.00    0.77333   0.83164    0.000
 4699.00    0.72111   0.82836    0.000
 4700.00    0.65748   0.81188    0.000
 4701.00    0.75829   0.80755    0.000
 4702.00    0.88302   0.82809    0.000
 4703.00    0.84445   0.84739    0.000
 4704.00    0.78861   0.84130    0.000
 4705.00    0.52609   0.82026    0.000
 4706.00    0.24937   0.80739    0.000
 4707.00    0.35108   0.81291    0.000
 4708.00    0.46565   0.83751    0.000
 4709.00    0.77037   0.86470    0.000
 4710.00    1.06216   0.86879    0.000
 4711.00    0.92407   0.84971    0.000
 4712.00    0.80038   0.83038    0.000
 4713.00    0.89772   0.83678    0.000
 4714.00    0.96809   0.86419    0.000
 4715.00    0.77391   0.88392    0.000
 4716.00    0.61794   0.89149    0.000
 4717.00    0.73217   0.90004    0.000
 4718.00    0.82577   0.90441    0.000
 4719.00    0.80719   0.89650    0.000
 4720.00    0.75820   0.88653    0.000
 4721.00    0.57662   0.88998    0.000
 4722.00    0.47016   0.90365    0.000
 4723.00    0.63315   0.90647    0.000
 4724.00    0.76879   0.88084    0.000
 4725.00    0.82210   0.83714    0.000
 4726.00    0.86011   0.81029    0.000
 4727.00    0.85888   0.80989    0.000
 4728.00    0.85638   0.81607    0.000
 4729.00    0.85108   0.82438    0.000
 4730.00    0.80148   0.84065    0.000
 4731.00    0.66720   0.85537    0.000
 4732.00    0.58507   0.86388    0.000
 4733.00    0.58995   0.86162    0.000
 4734.00    0.61123   0.84458    0.000
 4735.00    0.65648   0.84256    0.000
 4736.00    0.73254   0.86487    0.000
 4737.00    0.84821   0.87480    0.000
 4738.00    0.89315   0.86317    0.000
 4739.00    0.85798   0.85639    0.000
 4740.00    0.81742   0.86576    0.000
 4741.00    0.77147   0.87600    0.000
 4742.00    0.73008   0.87302    0.000
 4743.00    0.69271   0.86999    0.000
 4744.00    0.62587   0.87874    0.000
 4745.00    0.53614   0.88507    0.000
 4746.00    0.54804   0.88254    0.000
 4747.00    0.62930   0.88286    0.000
 4748.00    0.84261   0.88539    0.000
 4749.00    1.13493   0.87846    0.000
 4750.00    1.17158   0.86399    0.000
 4751.00    1.07476   0.85172    0.000
 4752.00    0.91704   0.84357    0.000
 4753.00    0.73175   0.84045    0.000
 4754.00    0.73714   0.84142    0.000
 4755.00    0.81679   0.84740    0.000
 4756.00    0.81964   0.85727    0.000
 4757.00    0.79705   0.86651    0.000
 4758.00    0.82056   0.86367    0.000
 4759.00    0.85688   0.83992    0.000
 4760.00    0.97748   0.81258    0.000
 4761.00    1.11736   0.80163    0.012
 4762.00    0.81934   0.79732    0.012
 4763.00    0.44112   0.79097    0.012
 4764.00    0.40201   0.79455    0.012
 4765.00    0.41067   0.81311    0.012
 4766.00    0.72386   0.83650    0.012
 4767.00    1.06795   0.85471    0.012
 4768.00    0.99292   0.85472    0.012
 4769.00    0.89079   0.83776    0.012
 4770.00    0.83730   0.83162    0.012
 4771.00    0.78541   0.84880    0.012
 4772.00    0.79534   0.86972    0.012
 4773.00    0.80857   0.87411    0.012
 4774.00    0.91752   0.87103    0.012
 4775.00    1.00420   0.87380    0.012
 4776.00    0.76895   0.87129    0.012
 4777.00    0.56886   0.85995    0.012
 4778.00    0.69952   0.85474    0.012
 4779.00    0.79250   0.85367    0.012
 4780.00    0.62747   0.84154    0.012
 4781.00    0.48700   0.82888    0.011
 4782.00    0.47666   0.83248    0.011
 4783.00    0.50596   0.83259    0.011
 4784.00    0.70410   0.82017    0.011
 4785.00    0.84810   0.81967    0.011
 4786.00    0.80186   0.82523    0.011
 4787.00    0.75156   0.82288    0.011
 4788.00    0.68929   0.82739    0.011
 4789.00    0.66545   0.83880    0.011
 4790.00    0.73838   0.85163    0.012
 4791.00    0.77341   0.87206    0.012
 4792.00    0.72625   0.89126    0.012
 4793.00    0.71227   0.89477    0.012
 4794.00    0.76075   0.88287    0.012
 4795.00    0.76739   0.86275    0.012
 4796.00    0.70528   0.84030    0.011
 4797.00    0.63600   0.82649    0.011
 4798.00    0.55638   0.83218    0.012
 4799.00    0.48510   0.85358    0.012
 4800.00    0.42441   0.87166    0.012
 4801.00    0.51743   0.86957    0.011
 4802.00    0.78214   0.84974    0.011
 4803.00    0.91642   0.83362    0.012
 4804.00    0.92223   0.83170    0.012
 4805.00    0.85473   0.82928    0.012
 4806.00    0.72356   0.82744    0.012
 4807.00    0.66563   0.83506    0.012
 4808.00    0.66374   0.84272    0.011
 4809.00    0.68757   0.84395    0.011
 4810.00    0.72869   0.84394    0.011
 4811.00    0.79788   0.84668    0.011
 4812.00    0.88362   0.85172    0.012
 4813.00    0.87048   0.85765    0.012
 4814.00    0.80652   0.86442    0.012
 4815.00    0.73472   0.87042    0.012
 4816.00    0.65943   0.87496    0.011
 4817.00    0.67032   0.87696    0.011
 4818.00    0.71418   0.87330    0.012
 4819.00    0.90488   0.86201    0.012
 4820.00    1.14334   0.83433    0.012
 4821.00    1.13583   0.80138    0.012
 4822.00    1.06136   0.79980    0.012
 4823.00    1.02295   0.82775    0.012
 4824.00    0.99259   0.84725    0.011
 4825.00    0.84243   0.84427    0.011
 4826.00    0.67092   0.83254    0.012
 4827.00    0.73089   0.82855    0.011
 4828.00    0.82239   0.82798    0.011
 4829.00    0.73314   0.81766    0.011
 4830.00    0.62634   0.81148    0.011
 4831.00    0.71317   0.82381    0.011
 4832.00    0.81175   0.83715    0.011
 4833.00    0.84038   0.83713    0.011
 4834.00    0.86630   0.83360    0.011
 4835.00    0.73744   0.83158    0.011
 4836.00    0.61023   0.81913    0.011
 4837.00    0.52609   0.80013    0.011
 4838.00    0.45798   0.79466    0.011
 4839.00    0.60867   0.80170    0.011
 4840.00    0.74975   0.80174    0.011
 4841.00    0.80403   0.79765    0.011
 4842.00    0.84227   0.80798    0.011
 4843.00    0.77408   0.82315    0.011
 4844.00    0.73108   0.82071    0.011
 4845.00    0.81808   0.79803    0.011
 4846.00    0.86782   0.77569    0.011
 4847.00    0.76240   0.77654    0.011
 4848.00    0.69483   0.78976    0.000
 4849.00    0.75757   0.79035    0.000
 4850.00    0.77239   0.78113    0.000
 4851.00    0.64821   0.76291    0.000
 4852.00    0.57302   0.72532    0.000
 4853.00    0.61909   0.69099    0.000
 4854.00    0.73767   0.68794    0.000
 4855.00    1.01097   0.69352    0.000
 4856.00    1.16074   0.66690    0.000
 4857.00    1.08160   0.59812    0.000
 4858.00    1.04809   0.51339    0.000
 4859.00    1.08843   0.47730    0.000
 4860.00    1.06838   0.52562    0.000
 4861.00    0.96257   0.60126    0.000
 4862.00    0.90908   0.65000    0.000
 4863.00    0.92096   0.68340    0.000
 4864.00    0.89586   0.71127    0.000
 4865.00    0.83003   0.72874    0.000
 4866.00    0.82167   0.73965    0.000
 4867.00    0.86913   0.73929    0.000
 4868.00    0.86013   0.71282    0.000
 4869.00    0.80277   0.68387    0.000
 4870.00    0.72406   0.69377    0.000
 4871.00    0.62923   0.72949    0.000
 4872.00    0.58844   0.75227    0.000
 4873.00    0.58346   0.75886    0.000
 4874.00    0.71261   0.76528    0.000
 4875.00    0.91960   0.77474    0.011
 4876.00    0.89983   0.79148    0.011
 4877.00    0.76536   0.81269    0.011
 4878.00    0.70130   0.81126    0.011
 4879.00    0.66808   0.79113    0.011
 4880.00    0.56220   0.78452    0.011
 4881.00    0.42900   0.78757    0.011
 4882.00    0.50086   0.77734    0.011
 4883.00    0.63811   0.75966    0.012
 4884.00    0.79876   0.75498    0.012
 4885.00    0.96565   0.76484    0.012
 4886.00    0.84970   0.77182    0.012
 4887.00    0.67204   0.75967    0.012
 4888.00    0.65942   0.73170    0.012
 4889.00    0.67541   0.72544    0.011
 4890.00    0.68373   0.76573    0.012
 4891.00    0.69103   0.81768    0.012
 4892.00    0.71909   0.85087    0.012
 4893.00    0.74907   0.86574    0.012
 4894.00    0.84367   0.86749    0.012
 4895.00    0.94194   0.86305    0.012
 4896.00    0.90018   0.84883    0.012
 4897.00    0.85437   0.82529    0.012
 4898.00    0.71486   0.81588    0.012
 4899.00    0.58069   0.82286    0.012
 4900.00    0.57328   0.81888    0.012
 4901.00    0.56939   0.80742    0.012
 4902.00    0.61096   0.81647    0.012
 4903.00    0.65498   0.84235    0.012
 4904.00    0.72030   0.85564    0.012
 4905.00    0.77794   0.84417    0.012
 4906.00    0.78619   0.81767    0.012
 4907.00    0.79636   0.78755    0.012
 4908.00    0.81618   0.77027    0.012
 4909.00    0.81240   0.78048    0.012
 4910.00    0.71257   0.80493    0.012
 4911.00    0.65432   0.82347    0.012
 4912.00    0.73635   0.83810    0.012
 4913.00    0.75260   0.84955    0.012
 4914.00    0.58156   0.84119    0.012
 4915.00    0.52328   0.80281    0.012
 4916.00    0.73936   0.74766    0.012
 4917.00    0.84737   0.70420    0.012
 4918.00    0.72852   0.69580    0.012
 4919.00    0.68171   0.72416    0.012
 4920.00    0.76636   0.75686    0.012
 4921.00    0.75658   0.76274    0.012
 4922.00    0.59621   0.76120    0.012
 4923.00    0.51350   0.78338    0.012
 4924.00    0.53945   0.81524    0.012
 4925.00    0.56841   0.83285    0.012
 4926.00    0.60108   0.84415    0.012
 4927.00    0.58512   0.85350    0.012
 4928.00    0.51638   0.85373    0.012
 4929.00    0.57597   0.84341    0.012
 4930.00    0.75844   0.81355    0.012
 4931.00    0.80518   0.77747    0.012
 4932.00    0.73732   0.77607    0.012
 4933.00    0.66703   0.80072    0.012
 4934.00    0.59493   0.80178    0.012
 4935.00    0.60219   0.76984    0.012
 4936.00    0.66127   0.73992    0.011
 4937.00    0.70411   0.74799    0.012
 4938.00    0.73766   0.78961    0.012
 4939.00    0.87858   0.82413    0.012
 4940.00    1.07294   0.83773    0.000
 4941.00    0.90661   0.84553    0.000
 4942.00    0.58496   0.84349    0.000
 4943.00    0.60440   0.82923    0.000
 4944.00    0.74977   0.82431    0.000
 4945.00    0.85927   0.83596    0.000
 4946.00    0.95755   0.84657    0.000
 4947.00    0.89025   0.84955    0.000
 4948.00    0.77975   0.85208    0.000
 4949.00    0.78929   0.85074    0.000
 4950.00    0.82440   0.83946    0.000
 4951.00    0.82043   0.82818    0.000
 4952.00    0.80987   0.82318    0.000
 4953.00    0.88487   0.80523    0.000
 4954.00    0.97075   0.75262    0.000
 4955.00    0.98584   0.70493    0.000
 4956.00    0.99465   0.72648    0.000
 4957.00    0.85591   0.78944    0.000
 4958.00    0.70938   0.82501    0.000
 4959.00    0.74112   0.82712    0.000
 4960.00    0.77421   0.82481    0.000
 4961.00    0.64610   0.82398    0.000
 4962.00    0.53398   0.80868    0.000
 4963.00    0.76985   0.78477    0.000
 4964.00    0.98425   0.77425    0.000
 4965.00    0.93507   0.77597    0.000
 4966.00    0.88147   0.77960    0.000
 4967.00    0.79083   0.78401    0.000
 4968.00    0.69173   0.79126    0.000
 4969.00    0.53978   0.80351    0.000
 4970.00    0.43579   0.81495    0.000
 4971.00    0.56702   0.82310    0.000
 4972.00    0.67382   0.82877    0.000
 4973.00    0.68334   0.82691    0.000
 4974.00    0.71244   0.81838    0.000
 4975.00    0.80632   0.80294    0.000
 4976.00    0.88975   0.78519    0.000
 4977.00    0.94400   0.77606    0.000
 4978.00    0.95292   0.76477    0.000
 4979.00    0.85340   0.73379    0.000
 4980.00    0.73027   0.69881    0.000
 4981.00    0.55836   0.69023    0.000
 4982.00    0.49856   0.70836    0.000
 4983.00    0.64019   0.73657    0.000
 4984.00    0.74537   0.76985    0.000
 4985.00    0.79329   0.79588    0.000
 4986.00    0.80185   0.79921    0.000
 4987.00    0.75610   0.78656    0.000
 4988.00    0.69767   0.77300    0.000
 4989.00    0.62383   0.77221    0.000
 4990.00    0.60315   0.77954    0.000
 4991.00    0.63936   0.77894    0.000
 4992.00    0.70905   0.78179    0.000
 4993.00    0.81035   0.79405    0.000
 4994.00    0.87652   0.79957    0.000
 4995.00    0.91345   0.79467    0.000
 4996.00    0.90364   0.77837    0.000
 4997.00    0.85957   0.75379    0.000
 4998.00    0.83991   0.73728    0.000
 4999.00    0.83596   0.73510    0.000
 5000.00    0.84934   0.74257    0.000
 5001.00    0.87248   0.74884    0.000
 5002.00    0.94687   0.73618    0.000
 5003.00    1.04636   0.70815    0.000
 5004.00    1.08833   0.70028    0.000
 5005.00    1.10594   0.73001    0.000
 5006.00    0.99052   0.76622    0.000
 5007.00    0.82687   0.77768    0.000
 5008.00    0.82310   0.76627    0.000
 5009.00    0.86839   0.74037    0.000
 5010.00    0.88026   0.71015    0.000
 5011.00    0.88361   0.69123    0.000
 5012.00    0.76816   0.69413    0.000
 5013.00    0.62804   0.71426    0.000
 5014.00    0.72836   0.72343    0.000
 5015.00    0.86803   0.70955    0.000
 5016.00    0.82801   0.70315    0.000
 5017.00    0.76595   0.72141    0.000
 5018.00    0.78768   0.73851    0.000
 5019.00    0.81650   0.73521    0.000
 5020.00    0.77035   0.73147    0.000
 5021.00    0.72053   0.74584    0.000
 5022.00    0.76988   0.76297    0.000
 5023.00    0.81643   0.76623    0.000
 5024.00    0.59906   0.75285    0.000
 5025.00    0.39988   0.73849    0.000
 5026.00    0.56557   0.74686    0.000
 5027.00    0.72328   0.76560    0.000
 5028.00    0.78768   0.77489    0.000
 5029.00    0.85832   0.78543    0.011
 5030.00    0.97921   0.80310    0.011
 5031.00    1.06672   0.80907    0.012
 5032.00    0.95190   0.78532    0.012
 5033.00    0.85732   0.74812    0.012
 5034.00    0.85952   0.73630    0.012
 5035.00    0.80999   0.74461    0.011
 5036.00    0.55892   0.73493    0.011
 5037.00    0.43536   0.69895    0.011
 5038.00    0.72538   0.65804    0.011
 5039.00    0.93521   0.65389    0.011
 5040.00    0.92487   0.70140    0.011
 5041.00    0.87661   0.75598    0.011
 5042.00    0.73913   0.78877    0.011
 5043.00    0.66846   0.80819    0.011
 5044.00    0.73360   0.80935    0.011
 5045.00    0.78026   0.78318    0.011
 5046.00    0.79422   0.74784    0.011
 5047.00    0.82486   0.72976    0.011
 5048.00    0.88130   0.72773    0.011
 5049.00    0.81247   0.72984    0.011
 5050.00    0.57333   0.74240    0.011
 5051.00    0.42419   0.76598    0.011
 5052.00    0.38278   0.78398    0.011
 5053.00    0.48737   0.78831    0.011
 5054.00    0.74604   0.78739    0.011
 5055.00    0.87071   0.79087    0.011
 5056.00    0.87064   0.79605    0.011
 5057.00    0.85453   0.79938    0.011
 5058.00    0.82526   0.80582    0.011
 5059.00    0.77912   0.81277    0.011
 5060.00    0.72081   0.80662    0.011
 5061.00    0.74658   0.77638    0.011
 5062.00    0.82566   0.73898    0.011
 5063.00    0.76025   0.73004    0.011
 5064.00    0.61472   0.74374    0.011
 5065.00    0.58384   0.74734    0.011
 5066.00    0.60824   0.74528    0.011
 5067.00    0.64723   0.75693    0.011
 5068.00    0.69230   0.76563    0.011
 5069.00    0.75470   0.75222    0.011
 5070.00    0.82328   0.74147    0.010
 5071.00    0.80320   0.75035    0.011
 5072.00    0.75645   0.75630    0.011
 5073.00    0.65835   0.75340    0.011
 5074.00    0.54741   0.75764    0.011
 5075.00    0.61263   0.75722    0.011
 5076.00    0.71354   0.72514    0.011
 5077.00    0.80017   0.68345    0.011
 5078.00    0.88454   0.67788    0.011
 5079.00    0.81217   0.70141    0.011
 5080.00    0.72126   0.71715    0.010
 5081.00    0.60310   0.72342    0.010
 5082.00    0.48275   0.73882    0.010
 5083.00    0.53545   0.75638    0.010
 5084.00    0.59594   0.76045    0.010
 5085.00    0.71030   0.75771    0.010
 5086.00    0.82055   0.76156    0.010
 5087.00    0.69353   0.76729    0.010
 5088.00    0.57695   0.76826    0.010
 5089.00    0.65448   0.77317    0.010
 5090.00    0.72466   0.78519    0.010
 5091.00    0.71304   0.79232    0.010
 5092.00    0.71387   0.78630    0.010
 5093.00    0.81169   0.76943    0.010
 5094.00    0.88805   0.74609    0.010
 5095.00    0.83794   0.71867    0.010
 5096.00    0.77232   0.69479    0.011
 5097.00    0.63429   0.69595    0.010
 5098.00    0.55558   0.72576    0.010
 5099.00    0.70294   0.75522    0.010
 5100.00    0.80505   0.76310    0.010
 5101.00    0.76323   0.75613    0.010
 5102.00    0.71203   0.74939    0.010
 5103.00    0.63554   0.74401    0.010
 5104.00    0.58341   0.73068    0.010
 5105.00    0.58758   0.71767    0.011
 5106.00    0.58814   0.71650    0.011
 5107.00    0.58148   0.71618    0.011
 5108.00    0.57166   0.72059    0.011
 5109.00    0.55634   0.73859    0.011
 5110.00    0.56918   0.75395    0.011
 5111.00    0.62495   0.76024    0.011
 5112.00    0.64236   0.76335    0.011
 5113.00    0.60836   0.76691    0.011
 5114.00    0.69348   0.77644    0.011
 5115.00    0.91915   0.78601    0.011
 5116.00    1.04534   0.78496    0.011
 5117.00    1.06801   0.77419    0.012
 5118.00    1.01499   0.75862    0.011
 5119.00    0.89253   0.74160    0.011
 5120.00    0.84973   0.71997    0.011
 5121.00    0.87138   0.69891    0.011
 5122.00    0.77115   0.69411    0.011
 5123.00    0.58416   0.70288    0.011
 5124.00    0.56122   0.70926    0.011
 5125.00    0.64075   0.70870    0.011
 5126.00    0.68735   0.70495    0.011
 5127.00    0.71598   0.70567    0.011
 5128.00    0.80896   0.71725    0.011
 5129.00    0.93249   0.73001    0.011
 5130.00    0.75072   0.73370    0.011
 5131.00    0.44401   0.73641    0.011
 5132.00    0.64816   0.74918    0.011
 5133.00    1.03091   0.75529    0.011
 5134.00    0.99838   0.73919    0.011
 5135.00    0.84343   0.71680    0.011
 5136.00    0.77518   0.69879    0.011
 5137.00    0.72813   0.69863    0.011
 5138.00    0.74615   0.71568    0.011
 5139.00    0.77702   0.71220    0.011
 5140.00    0.80870   0.69564    0.011
 5141.00    0.84050   0.70485    0.011
 5142.00    0.75436   0.72133    0.011
 5143.00    0.65480   0.71652    0.011
 5144.00    0.74824   0.70332    0.011
 5145.00    0.85640   0.70058    0.011
 5146.00    0.68580   0.71197    0.011
 5147.00    0.50372   0.72142    0.010
 5148.00    0.67861   0.71431    0.011
 5149.00    0.85032   0.70269    0.011
 5150.00    0.76440   0.69755    0.011
 5151.00    0.68867   0.69529    0.011
 5152.00    0.78959   0.70171    0.011
 5153.00    0.88627   0.72080    0.011
 5154.00    0.93795   0.74395    0.011
 5155.00    0.97717   0.75916    0.011
 5156.00    0.92263   0.76128    0.011
 5157.00    0.87367   0.76030    0.011
 5158.00    0.85670   0.75885    0.011
 5159.00    0.84183   0.74659    0.011
 5160.00    0.83659   0.73378    0.010
 5161.00    0.83501   0.72767    0.010
 5162.00    0.84713   0.70552    0.010
 5163.00    0.83017   0.65317    0.010
 5164.00    0.72248   0.58701    0.010
 5165.00    0.63391   0.54679    0.010
 5166.00    0.59600   0.56174    0.010
 5167.00    0.56486   0.61102    0.010
 5168.00    0.54916   0.62887    0.011
 5169.00    0.55688   0.58447    0.011
 5170.00    0.61072   0.54505    0.010
 5171.00    0.58503   0.58094    0.010
 5172.00    0.42284   0.65662    0.010
 5173.00    0.35092   0.70344    0.010
 5174.00    0.41467   0.71724    0.010
 5175.00    0.49529   0.72359    0.010
 5176.00    0.59823   0.72639    0.010
 5177.00    0.62924   0.72016    0.010
 5178.00    0.57658   0.70409    0.011
 5179.00    0.61468   0.66401    0.011
 5180.00    0.74589   0.59116    0.010
 5181.00    0.72821   0.53961    0.010
 5182.00    0.57581   0.57097    0.010
 5183.00    0.57385   0.64851    0.010
 5184.00    0.69188   0.70017    0.010
 5185.00    0.65744   0.70984    0.010
 5186.00    0.51603   0.70971    0.010
 5187.00    0.56009   0.72168    0.010
 5188.00    0.71830   0.71294    0.011
 5189.00    0.70159   0.67303    0.011
 5190.00    0.59086   0.65501    0.000
 5191.00    0.57714   0.67371    0.000
 5192.00    0.60869   0.68618    0.000
 5193.00    0.59263   0.68585    0.000
 5194.00    0.55740   0.69400    0.000
 5195.00    0.56798   0.70781    0.000
 5196.00    0.59428   0.72227    0.000
 5197.00    0.67361   0.73458    0.000
 5198.00    0.76828   0.73713    0.000
 5199.00    0.75272   0.73003    0.000
 5200.00    0.71084   0.72103    0.000
 5201.00    0.68386   0.70206    0.000
 5202.00    0.65976   0.66714    0.000
 5203.00    0.66549   0.64278    0.000
 5204.00    0.67567   0.64302    0.000
 5205.00    0.63432   0.64159    0.000
 5206.00    0.58733   0.63750    0.000
 5207.00    0.62821   0.65369    0.000
 5208.00    0.67544   0.68367    0.000
 5209.00    0.64997   0.71503    0.000
 5210.00    0.62178   0.74092    0.000
 5211.00    0.64482   0.74786    0.011
 5212.00    0.66865   0.72882    0.011
 5213.00    0.71264   0.70271    0.011
 5214.00    0.74681   0.69579    0.010
 5215.00    0.62188   0.71196    0.011
 5216.00    0.50499   0.73586    0.011
 5217.00    0.46991   0.75207    0.011
 5218.00    0.45486   0.75957    0.010
 5219.00    0.58552   0.76016    0.011
 5220.00    0.69476   0.74950    0.011
 5221.00    0.68462   0.72623    0.011
 5222.00    0.68552   0.69227    0.010
 5223.00    0.73549   0.64868    0.010
 5224.00    0.78610   0.61657    0.010
 5225.00    0.83903   0.63498    0.010
 5226.00    0.84544   0.68806    0.010
 5227.00    0.70949   0.72536    0.010
 5228.00    0.63376   0.74025    0.010
 5229.00    0.71472   0.73377    0.010
 5230.00    0.76820   0.70681    0.010
 5231.00    0.76022   0.68785    0.010
 5232.00    0.74406   0.69247    0.010
 5233.00    0.71206   0.71439    0.010
 5234.00    0.73220   0.73995    0.010
 5235.00    0.84048   0.75423    0.010
 5236.00    0.83694   0.75563    0.010
 5237.00    0.66781   0.75322    0.010
 5238.00    0.59311   0.75434    0.010
 5239.00    0.64135   0.75356    0.010
 5240.00    0.71423   0.74911    0.010
 5241.00    0.81536   0.75415    0.010
 5242.00    0.86092   0.76505    0.010
 5243.00    0.85027   0.75414    0.010
 5244.00    0.82204   0.72299    0.010
 5245.00    0.77811   0.70852    0.010
 5246.00    0.75657   0.71295    0.010
 5247.00    0.75264   0.70669    0.010
 5248.00    0.74603   0.69816    0.010
 5249.00    0.73756   0.70866    0.010
 5250.00    0.69339   0.72456    0.010
 5251.00    0.62757   0.72353    0.011
 5252.00    0.56617   0.71020    0.011
 5253.00    0.50713   0.71485    0.010
 5254.00    0.52604   0.74323    0.010
 5255.00    0.58074   0.76835    0.011
 5256.00    0.63733   0.77552    0.011
 5257.00    0.69467   0.76556    0.011
 5258.00    0.67913   0.73994    0.011
 5259.00    0.63905   0.70275    0.011
 5260.00    0.62671   0.66586    0.011
 5261.00    0.62222   0.63764    0.011
 5262.00    0.76115   0.61705    0.011
 5263.00    0.93356   0.61046    0.011
 5264.00    0.87812   0.63375    0.011
 5265.00    0.77995   0.65731    0.011
 5266.00    0.72398   0.62905    0.011
 5267.00    0.67413   0.58695    0.011
 5268.00    0.72937   0.60604    0.011
 5269.00    0.79566   0.66264    0.011
 5270.00    0.90222   0.69375    0.011
 5271.00    1.01153   0.69460    0.011
 5272.00    0.72458   0.68302    0.011
 5273.00    0.42434   0.68051    0.011
 5274.00    0.52455   0.70967    0.011
 5275.00    0.62430   0.74840    0.011
 5276.00    0.69526   0.76148    0.011
 5277.00    0.76345   0.74804    0.011
 5278.00    0.78974   0.72708    0.011
 5279.00    0.80231   0.70967    0.011
 5280.00    0.68112   0.69366    0.011
 5281.00    0.57620   0.68552    0.011
 5282.00    0.58584   0.70714    0.011
 5283.00    0.61447   0.74905    0.010
 5284.00    0.74605   0.77457    0.010
 5285.00    0.85106   0.77379    0.011
 5286.00    0.84060   0.76784    0.011
 5287.00    0.83083   0.77202    0.011
 5288.00    0.82357   0.77864    0.011
 5289.00    0.83754   0.77571    0.010
 5290.00    0.91527   0.76573    0.011
 5291.00    0.95816   0.76057    0.011
 5292.00    0.91194   0.75667    0.010
 5293.00    0.86192   0.73713    0.010
 5294.00    0.80355   0.69926    0.010
 5295.00    0.74110   0.67026    0.010
 5296.00    0.67084   0.67925    0.010
 5297.00    0.68057   0.70849    0.010
 5298.00    0.82348   0.72061    0.010
 5299.00    0.91307   0.71883    0.010
 5300.00    0.92486   0.72834    0.010
 5301.00    0.85949   0.75181    0.010
 5302.00    0.69508   0.77043    0.010
 5303.00    0.68065   0.77032    0.010
 5304.00    0.83579   0.75703    0.010
 5305.00    0.83996   0.75046    0.010
 5306.00    0.69357   0.75960    0.010
 5307.00    0.62051   0.77121    0.010
 5308.00    0.61195   0.77351    0.010
 5309.00    0.67117   0.76838    0.010
 5310.00    0.78291   0.76073    0.010
 5311.00    0.75059   0.75564    0.010
 5312.00    0.62012   0.75073    0.010
 5313.00    0.56272   0.73548    0.010
 5314.00    0.54894   0.72177    0.010
 5315.00    0.58975   0.72825    0.010
 5316.00    0.65900   0.74179    0.010
 5317.00    0.76553   0.74666    0.010
 5318.00    0.88890   0.74600    0.010
 5319.00    0.95420   0.74271    0.010
 5320.00    0.99694   0.72976    0.011
 5321.00    0.85107   0.70754    0.010
 5322.00    0.64284   0.69869    0.010
 5323.00    0.53712   0.70271    0.010
 5324.00    0.45982   0.67959    0.010
 5325.00    0.60795   0.62252    0.010
 5326.00    0.80749   0.60099    0.010
 5327.00    0.76045   0.64618    0.011
 5328.00    0.66839   0.70322    0.011
 5329.00    0.70182   0.72502    0.011
 5330.00    0.75286   0.72322    0.011
 5331.00    0.73115   0.72994    0.011
 5332.00    0.70211   0.74442    0.011
 5333.00    0.62459   0.74682    0.011
 5334.00    0.54395   0.73857    0.011
 5335.00    0.66124   0.73346    0.011
 5336.00    0.78393   0.72296    0.011
 5337.00    0.70188   0.69527    0.011
 5338.00    0.62282   0.67834    0.011
 5339.00    0.62919   0.69619    0.010
 5340.00    0.64064   0.72419    0.010
 5341.00    0.72493   0.73739    0.010
 5342.00    0.79905   0.73277    0.010
 5343.00    0.77791   0.72229    0.010
 5344.00    0.76091   0.72125    0.010
 5345.00    0.77202   0.71807    0.010
 5346.00    0.78812   0.70587    0.010
 5347.00    0.83052   0.70618    0.010
 5348.00    0.84033   0.72776    0.010
 5349.00    0.71179   0.74744    0.010
 5350.00    0.62394   0.75166    0.010
 5351.00    0.67877   0.75560    0.010
 5352.00    0.74615   0.76789    0.010
 5353.00    0.85050   0.77681    0.010
 5354.00    0.89252   0.77848    0.010
 5355.00    0.77788   0.77828    0.010
 5356.00    0.69792   0.77801    0.010
 5357.00    0.69298   0.77421    0.010
 5358.00    0.71777   0.76161    0.010
 5359.00    0.79837   0.74322    0.010
 5360.00    0.83552   0.73185    0.010
 5361.00    0.80138   0.72642    0.010
 5362.00    0.67349   0.71857    0.010
 5363.00    0.41077   0.71592    0.010
 5364.00    0.35463   0.71879    0.010
 5365.00    0.55982   0.71919    0.010
 5366.00    0.68024   0.70837    0.010
 5367.00    0.70613   0.68007    0.010
 5368.00    0.73313   0.65167   -2.000
 5369.00    0.76121   0.65627   -2.000
 5370.00    0.82358   0.69559   -2.000
 5371.00    0.91569   0.73400   -2.000
 5372.00    0.92718   0.75403   -2.000
 5373.00    0.87708   0.75675   -2.000
 5374.00    0.88668   0.75010   -2.000
 5375.00    0.93635   0.74849   -2.000
 5376.00    0.90221   0.74957   -2.000
 5377.00    0.81878   0.74202   -2.000
 5378.00    0.71501   0.73174   -2.000
 5379.00    0.60080   0.72640   -2.000
 5380.00    0.61125   0.72093   -2.000
 5381.00    0.67709   0.72239   -2.000
 5382.00    0.74796   0.73507   -2.000
 5383.00    0.82076   0.74432    0.011
 5384.00    0.84694   0.74406    0.011
 5385.00    0.85798   0.73906    0.011
 5386.00    0.82622   0.72780    0.011
 5387.00    0.78285   0.71420    0.010
 5388.00    0.75520   0.70660    0.010
 5389.00    0.73106   0.70393    0.010
 5390.00    0.69598   0.70213    0.010
 5391.00    0.65895   0.70234    0.010
 5392.00    0.67457   0.70344    0.010
 5393.00    0.69734   0.68928    0.010
 5394.00    0.70181   0.66359    0.010
 5395.00    0.70452   0.66469    0.010
 5396.00    0.68459   0.69162    0.010
 5397.00    0.66330   0.70736    0.010
 5398.00    0.61869   0.71069    0.010
 5399.00    0.57379   0.71714    0.010
 5400.00    0.58311   0.71088    0.010
 5401.00    0.59423   0.67927    0.010
 5402.00    0.65178   0.64400    0.010
 5403.00    0.71438   0.63338    0.010
 5404.00    0.84552   0.65427    0.010
 5405.00    0.95855   0.68007    0.010
 5406.00    0.90854   0.68058    0.010
 5407.00    0.84781   0.66685    0.009
 5408.00    0.71616   0.67361    0.009
 5409.00    0.61680   0.70148    0.010
 5410.00    0.68351   0.72183    0.010
 5411.00    0.75564   0.72140    0.010
 5412.00    0.85023   0.71486    0.010
 5413.00    0.88454   0.72221    0.010
 5414.00    0.71185   0.73740    0.010
 5415.00    0.59285   0.74144    0.009
 5416.00    0.62923   0.73341    0.009
 5417.00    0.69899   0.72256    0.009
 5418.00    0.85121   0.71857    0.010
 5419.00    0.92811   0.72489    0.010
 5420.00    0.84468   0.72137    0.009
 5421.00    0.75824   0.70149    0.009
 5422.00    0.66622   0.69645    0.010
 5423.00    0.66371   0.71784    0.010
 5424.00    0.80581   0.74158    0.010
 5425.00    0.86791   0.73559    0.010
 5426.00    0.81662   0.69472    0.010
 5427.00    0.77222   0.66715    0.010
 5428.00    0.73644   0.68358    0.010
 5429.00    0.69999   0.70129    0.010
 5430.00    0.66281   0.69259    0.010
 5431.00    0.73746   0.67497    0.010
 5432.00    0.92054   0.66749    0.010
 5433.00    0.92353   0.67600    0.010
 5434.00    0.77255   0.69612    0.010
 5435.00    0.70624   0.72146    0.010
 5436.00    0.70370   0.74226    0.010
 5437.00    0.71197   0.75242    0.010
 5438.00    0.72740   0.75445    0.010
 5439.00    0.75769   0.75439    0.010
 5440.00    0.79659   0.75384    0.010
 5441.00    0.74180   0.74317    0.010
 5442.00    0.63971   0.71516    0.010
 5443.00    0.67191   0.67468    0.010
 5444.00    0.76280   0.65052    0.010
 5445.00    0.72256   0.66799    0.010
 5446.00    0.63316   0.70328    0.010
 5447.00    0.59658   0.72411    0.010
 5448.00    0.57681   0.72877    0.010
 5449.00    0.59475   0.72608    0.010
 5450.00    0.62273   0.71892    0.009
 5451.00    0.57643   0.69874    0.009
 5452.00    0.51399   0.66514    0.009
 5453.00    0.50897   0.65163    0.009
 5454.00    0.51388   0.67815    0.009
 5455.00    0.62350   0.71381    0.009
 5456.00    0.74686   0.72986    0.009
 5457.00    0.74080   0.72651    0.009
 5458.00    0.72279   0.71478    0.009
 5459.00    0.59668   0.69695    0.009
 5460.00    0.46449   0.67834    0.009
 5461.00    0.59839   0.68056    0.009
 5462.00    0.73746   0.69916    0.009
 5463.00    0.79525   0.70774    0.009
 5464.00    0.85152   0.70863    0.009
 5465.00    0.87219   0.71459    0.009
 5466.00    0.88927   0.71669    0.009
 5467.00    0.86013   0.70909    0.009
 5468.00    0.82421   0.70419    0.009
 5469.00    0.72962   0.70346    0.009
 5470.00    0.65165   0.69491    0.009
 5471.00    0.68027   0.68723    0.009
 5472.00    0.70588   0.68196    0.009
 5473.00    0.71638   0.65775    0.009
 5474.00    0.72828   0.63602    0.009
 5475.00    0.74589   0.65422    0.009
 5476.00    0.75518   0.68841    0.009
 5477.00    0.73652   0.69664    0.010
 5478.00    0.72349   0.67917   -2.000
 5479.00    0.72644   0.67060   -2.000
 5480.00    0.77748   0.68256   -2.000
 5481.00    0.94531   0.70262   -2.000
 5482.00    0.98331   0.71961   -2.000
 5483.00    0.74935   0.71994   -2.000
 5484.00    0.80565   0.70128   -2.000
 5485.00    1.39056   0.68772   -2.000
 5486.00    1.72949   0.69307   -2.000
 5487.00    1.67690   0.70098   -2.000
 5488.00    1.85515   0.70594   -2.000
 5489.00    2.35588   0.71029   -2.000
 5490.00    2.37014   0.70521   -2.000
 5491.00    1.78633   0.69985   -2.000
 5492.00    1.20027   0.70510   -2.000
 5493.00    0.61176   0.70596   -2.000
 5494.00    0.34230   0.69242   -2.000
 5495.00    0.37783   0.68921   -2.000
 5496.00    0.48070   0.70605   -2.000
 5497.00    0.64035   0.71332   -2.000
 5498.00    0.67687   0.69726   -2.000
 5499.00    0.62203   0.68110   -2.000
 5500.00    0.61752   0.68184   -2.000
 5501.00    0.64582   0.69138   -2.000
 5502.00    0.63042   0.69221    0.009
 5503.00    0.59007   0.67774    0.009
 5504.00    0.55815   0.67188    0.009
 5505.00    0.53041   0.68611    0.009
 5506.00    0.57638   0.69748    0.009
 5507.00    0.65402   0.69655    0.009
 5508.00    0.63106   0.68808    0.009
 5509.00    0.57104   0.67270    0.009
 5510.00    0.56958   0.66264    0.009
 5511.00    0.58640   0.66623    0.009
 5512.00    0.62496   0.67705    0.009
 5513.00    0.66918   0.68735    0.009
 5514.00    0.68365   0.69640    0.009
 5515.00    0.69179   0.70925    0.009
 5516.00    0.69497   0.71981    0.009
 5517.00    0.69732   0.72008    0.009
 5518.00    0.61278   0.71586    0.009
 5519.00    0.51723   0.71337    0.009
 5520.00    0.54682   0.71350    0.009
 5521.00    0.58745   0.71312    0.009
 5522.00    0.58974   0.70605    0.009
 5523.00    0.59004   0.69219    0.009
 5524.00    0.61106   0.67258    0.009
 5525.00    0.63296   0.65433    0.009
 5526.00    0.69244   0.65821    0.009
 5527.00    0.75108   0.68330    0.009
 5528.00    0.79149   0.70217    0.009
 5529.00    0.82968   0.70489    0.009
 5530.00    0.84080   0.70030    0.009
 5531.00    0.84334   0.69148    0.009
 5532.00    0.77433   0.68149    0.009
 5533.00    0.71433   0.68488    0.009
 5534.00    0.71039   0.69538    0.009
 5535.00    0.72400   0.69902    0.009
 5536.00    0.82338   0.70327    0.009
 5537.00    0.87697   0.71280    0.009
 5538.00    0.74872   0.71954    0.009
 5539.00    0.63796   0.71496    0.009
 5540.00    0.58496   0.70146    0.009
 5541.00    0.56559   0.69435    0.009
 5542.00    0.64005   0.69562    0.009
 5543.00    0.68808   0.69591    0.009
 5544.00    0.67302   0.70005    0.009
 5545.00    0.66922   0.71175    0.009
 5546.00    0.68865   0.72060    0.009
 5547.00    0.69201   0.72294    0.009
 5548.00    0.66655   0.72210    0.009
 5549.00    0.67202   0.71767    0.009
 5550.00    0.72599   0.70784    0.009
 5551.00    0.74207   0.69701    0.009
 5552.00    0.70597   0.69496    0.009
 5553.00    0.70370   0.70047    0.009
 5554.00    0.74243   0.70248    0.009
 5555.00    0.76317   0.70083    0.009
 5556.00    0.76468   0.70219    0.009
 5557.00    0.75989   0.70290    0.009
 5558.00    0.74917   0.70009    0.009
 5559.00    0.71415   0.69243    0.008
 5560.00    0.65894   0.68404    0.008
 5561.00    0.62102   0.68359    0.008
 5562.00    0.59574   0.68294    0.008
 5563.00    0.61714   0.67752    0.008
 5564.00    0.66850   0.67711    0.008
 5565.00    0.68106   0.68011    0.008
 5566.00    0.67182   0.67705    0.008
 5567.00    0.67747   0.67749    0.008
 5568.00    0.69039   0.68682    0.008
 5569.00    0.67695   0.68090    0.009
 5570.00    0.65237   0.66858    0.009
 5571.00    0.64185   0.67762    0.009
 5572.00    0.63641   0.69049    0.009
 5573.00    0.67336   0.68920    0.009
 5574.00    0.72328   0.69109    0.009
 5575.00    0.77031   0.69565    0.009
 5576.00    0.81659   0.69831    0.009
 5577.00    0.81446   0.70122    0.009
 5578.00    0.80230   0.69793    0.009
 5579.00    0.81872   0.69059    0.009
 5580.00    0.83980   0.69069    0.009
 5581.00    0.82872   0.69266    0.009
 5582.00    0.81371   0.68480    0.009
 5583.00    0.73145   0.66274    0.009
 5584.00    0.64355   0.63594    0.009
 5585.00    0.60400   0.62104    0.009
 5586.00    0.56679   0.62229    0.009
 5587.00    0.54476   0.63678    0.009
 5588.00    0.52512   0.65549    0.009
 5589.00    0.63379   0.66513    0.009
 5590.00    0.73671   0.66357    0.009
 5591.00    0.72535   0.65651    0.009
 5592.00    0.71779   0.66333    0.009
 5593.00    0.75438   0.68567    0.009
 5594.00    0.79224   0.69059    0.009
 5595.00    0.84033   0.66962    0.009
 5596.00    0.87500   0.65590    0.009
 5597.00    0.82857   0.65606    0.009
 5598.00    0.78386   0.65045    0.009
 5599.00    0.74726   0.63937    0.009
 5600.00    0.71569   0.63941    0.009
 5601.00    0.70364   0.66116    0.009
 5602.00    0.68135   0.68904    0.009
 5603.00    0.62593   0.70548    0.009
 5604.00    0.59368   0.71039    0.009
 5605.00    0.62491   0.70954    0.009
 5606.00    0.64677   0.70760    0.008
 5607.00    0.64667   0.70594    0.008
 5608.00    0.66541   0.70767    0.008
 5609.00    0.72239   0.71215    0.008
 5610.00    0.74460   0.71040    0.008
 5611.00    0.70541   0.68568    0.008
 5612.00    0.67906   0.64327    0.009
 5613.00    0.67254   0.62819    0.009
 5614.00    0.68530   0.65060    0.009
 5615.00    0.72420   0.67083    0.009
 5616.00    0.76216   0.67316    0.009
 5617.00    0.79897   0.67286    0.009
 5618.00    0.79702   0.68111    0.009
 5619.00    0.75421   0.69035    0.009
 5620.00    0.73713   0.68375    0.009
 5621.00    0.74397   0.65795    0.009
 5622.00    0.72018   0.64251    0.009
 5623.00    0.67131   0.65326    0.009
 5624.00    0.69897   0.66962    0.009
 5625.00    0.78181   0.67862    0.009
 5626.00    0.72955   0.68813    0.009
 5627.00    0.59180   0.69752    0.009
 5628.00    0.55406   0.70153    0.009
 5629.00    0.57166   0.69978    0.009
 5630.00    0.65142   0.69381    0.009
 5631.00    0.76107   0.68704    0.009
 5632.00    0.76338   0.68158    0.008
 5633.00    0.72109   0.67358    0.008
 5634.00    0.59777   0.66378    0.008
 5635.00    0.44565   0.66174    0.008
 5636.00    0.45911   0.66901    0.008
 5637.00    0.52225   0.67080    0.008
 5638.00    0.56996   0.66228    0.008
 5639.00    0.61383   0.66027    0.008
 5640.00    0.62377   0.66741    0.008
 5641.00    0.62686   0.67219    0.008
 5642.00    0.63359   0.67508    0.008
 5643.00    0.64090   0.67880    0.008
 5644.00    0.65300   0.68283    0.008
 5645.00    0.66567   0.68351    0.008
 5646.00    0.68998   0.67902    0.008
 5647.00    0.71523   0.67559    0.008
 5648.00    0.65985   0.67970    0.008
 5649.00    0.60088   0.68782    0.008
 5650.00    0.62472   0.68956    0.008
 5651.00    0.65009   0.67843    0.008
 5652.00    0.70435   0.66691    0.008
 5653.00    0.75295   0.66894    0.008
 5654.00    0.69756   0.66022    0.008
 5655.00    0.64794   0.62864    0.008
 5656.00    0.66225   0.61783    0.008
 5657.00    0.68163   0.64247    0.009
 5658.00    0.74034   0.65841    0.009
 5659.00    0.79291   0.64976    0.009
 5660.00    0.80944   0.64561    0.008
 5661.00    0.82050   0.65983    0.008
 5662.00    0.80606   0.67555    0.008
 5663.00    0.76403   0.67739    0.009
 5664.00    0.61705   0.66763    0.009
 5665.00    0.51489   0.65983    0.009
 5666.00    0.55489   0.66031    0.009
 5667.00    0.59498   0.66441    0.009
 5668.00    0.63529   0.67076    0.008
 5669.00    0.66434   0.68097    0.008
 5670.00    0.66740   0.69281    0.008
 5671.00    0.68704   0.69541    0.008
 5672.00    0.73980   0.68914    0.008
 5673.00    0.80651   0.68807    0.008
 5674.00    0.89748   0.69364    0.008
 5675.00    0.95950   0.69186    0.008
 5676.00    0.97743   0.68496    0.008
 5677.00    0.94107   0.68264    0.009
 5678.00    0.83210   0.67964    0.008
 5679.00    0.73415   0.66570    0.008
 5680.00    0.64919   0.65517    0.008
 5681.00    0.59997   0.65903    0.008
 5682.00    0.58787   0.66696    0.008
 5683.00    0.62586   0.66526    0.008
 5684.00    0.70976   0.65523    0.008
 5685.00    0.75459   0.64866    0.008
 5686.00    0.76786   0.65480    0.008
 5687.00    0.74890   0.66806    0.008
 5688.00    0.70703   0.67823    0.008
 5689.00    0.70664   0.68604    0.008
 5690.00    0.73210   0.68941    0.008
 5691.00    0.73198   0.68558    0.008
 5692.00    0.71793   0.68265    0.008
 5693.00    0.70227   0.68434    0.008
 5694.00    0.68585   0.68288    0.008
 5695.00    0.63606   0.67201    0.008
 5696.00    0.57266   0.66454    0.008
 5697.00    0.63573   0.66141    0.008
 5698.00    0.74292   0.65235    0.009
 5699.00    0.75359   0.64693    0.009
 5700.00    0.73588   0.65451    0.008
 5701.00    0.68528   0.66557    0.008
 5702.00    0.62666   0.66523    0.008
 5703.00    0.62508   0.65183    0.008
 5704.00    0.63473   0.64040    0.008
 5705.00    0.64359   0.63016    0.008
 5706.00    0.65233   0.61998    0.008
 5707.00    0.65404   0.62130    0.008
 5708.00    0.65497   0.62546    0.008
 5709.00    0.62803   0.62964    0.008
 5710.00    0.59897   0.64751    0.008
 5711.00    0.63816   0.66549    0.008
 5712.00    0.68011   0.67191    0.008
 5713.00    0.78320   0.67634    0.008
 5714.00    0.88305   0.67804    0.008
 5715.00    0.82945   0.67682    0.008
 5716.00    0.77879   0.68049    0.008
 5717.00    0.77867   0.68575    0.008
 5718.00    0.76984   0.68966    0.008
 5719.00    0.66888   0.69469    0.008
 5720.00    0.58315   0.69762    0.008
 5721.00    0.61158   0.69677    0.008
 5722.00    0.64467   0.69335    0.008
 5723.00    0.70430   0.68404    0.008
 5724.00    0.75122   0.67205    0.008
 5725.00    0.74036   0.67195    0.008
 5726.00    0.73898   0.68213    0.008
 5727.00    0.77290   0.68425    0.008
 5728.00    0.78861   0.67325    0.008
 5729.00    0.74761   0.66727    0.008
 5730.00    0.71443   0.67656    0.008
 5731.00    0.70188   0.68733    0.008
 5732.00    0.68462   0.69089    0.008
 5733.00    0.65666   0.68827    0.008
 5734.00    0.65009   0.68402    0.008
 5735.00    0.68556   0.68213    0.008
 5736.00    0.70984   0.68121    0.008
 5737.00    0.71498   0.68120    0.008
 5738.00    0.69997   0.68117    0.008
 5739.00    0.65475   0.67832    0.008
 5740.00    0.65250   0.67561    0.000
 5741.00    0.70688   0.68012    0.000
 5742.00    0.70534   0.68904    0.000
 5743.00    0.63887   0.69206    0.000
 5744.00    0.62873   0.68088    0.000
 5745.00    0.67628   0.66681    0.000
 5746.00    0.69198   0.66940    0.000
 5747.00    0.67889   0.68325    0.000
 5748.00    0.64212   0.68683    0.000
 5749.00    0.58650   0.67264    0.000
 5750.00    0.58912   0.65137    0.000
 5751.00    0.63252   0.64150    0.000
 5752.00    0.70221   0.65328    0.000
 5753.00    0.78805   0.67405    0.000
 5754.00    0.80898   0.68717    0.000
 5755.00    0.79508   0.69040    0.000
 5756.00    0.74497   0.68399    0.000
 5757.00    0.67800   0.67212    0.000
 5758.00    0.67506   0.65910    0.000
 5759.00    0.69783   0.64607    0.000
 5760.00    0.71089   0.64345    0.000
 5761.00    0.72064   0.66100    0.000
 5762.00    0.73727   0.68006    0.000
 5763.00    0.75589   0.68704    0.000
 5764.00    0.77835   0.68842    0.000
 5765.00    0.80172   0.68780    0.000
 5766.00    0.79419   0.68491    0.000
 5767.00    0.78073   0.68248    0.000
 5768.00    0.79777   0.67905    0.000
 5769.00    0.81936   0.67382    0.000
 5770.00    0.87349   0.67206    0.000
 5771.00    0.93117   0.66991    0.000
 5772.00    0.81413   0.66787    0.000
 5773.00    0.68457   0.67225    0.000
 5774.00    0.64273   0.67813    0.000
 5775.00    0.60413   0.67940    0.000
 5776.00    0.68341   0.67276    0.000
 5777.00    0.76037   0.65433    0.000
 5778.00    0.73656   0.63267    0.000
 5779.00    0.71469   0.62592    0.000
 5780.00    0.72388   0.63288    0.000
 5781.00    0.73343   0.63375    0.000
 5782.00    0.74655   0.62643    0.000
 5783.00    0.75503   0.63136    0.000
 5784.00    0.72989   0.64893    0.000
 5785.00    0.72026   0.66139    0.000
 5786.00    0.79669   0.66741    0.000
 5787.00    0.85548   0.66315    0.000
 5788.00    0.83601   0.65357    0.000
 5789.00    0.81553   0.65622    0.000
 5790.00    0.79137   0.66546    0.000
 5791.00    0.76600   0.67399   -2.000
 5792.00    0.73694   0.68155   -2.000
 5793.00    0.72284   0.68000   -2.000
 5794.00    0.74761   0.66678   -2.000
 5795.00    0.75983   0.65743   -2.000
 5796.00    0.74406   0.66742   -2.000
 5797.00    0.70782   0.68348   -2.000
 5798.00    0.63199   0.69116   -2.000
 5799.00    0.58484   0.69376   -2.000
 5800.00    0.58605   0.68809   -2.000
 5801.00    0.61263   0.67279   -2.000
 5802.00    0.67672   0.66304   -2.000
 5803.00    0.72840   0.66334   -2.000
 5804.00    0.76394   0.66843   -2.000
 5805.00    0.80048   0.67223   -2.000
 5806.00    0.83816   0.67330   -2.000
 5807.00    0.85686   0.67611   -2.000
 5808.00    0.85639   0.67944   -2.000
 5809.00    0.78675   0.68001   -2.000
 5810.00    0.65550   0.67839   -2.000
 5811.00    0.60477   0.67374    0.000
 5812.00    0.61723   0.66398    0.000
 5813.00    0.63810   0.65423    0.000
 5814.00    0.66477   0.65801    0.000
 5815.00    0.65475   0.67294    0.000
 5816.00    0.62252   0.68299    0.000
 5817.00    0.61963   0.68568    0.000
 5818.00    0.63225   0.68523    0.000
 5819.00    0.69497   0.68238    0.000
 5820.00    0.78065   0.67922    0.000
 5821.00    0.77049   0.67878    0.000
 5822.00    0.72251   0.68166    0.000
 5823.00    0.73244   0.68219    0.000
 5824.00    0.76183   0.68077    0.000
 5825.00    0.74031   0.68087    0.000
 5826.00    0.70441   0.68351    0.000
 5827.00    0.70787   0.68447    0.000
 5828.00    0.72050   0.68214    0.000
 5829.00    0.78869   0.68078    0.000
 5830.00    0.86726   0.67972    0.000
 5831.00    0.81592   0.67486    0.000
 5832.00    0.74584   0.67123    0.000
 5833.00    0.74818   0.67540    0.000
 5834.00    0.75810   0.67815    0.000
 5835.00    0.75302   0.67310    0.000
 5836.00    0.74692   0.67150    0.000
 5837.00    0.73195   0.67770    0.000
 5838.00    0.71669   0.68399    0.000
 5839.00    0.68326   0.68686    0.000
 5840.00    0.65029   0.68663    0.000
 5841.00    0.63223   0.68384    0.000
 5842.00    0.61736   0.67858    0.000
 5843.00    0.65077   0.67123    0.000
 5844.00    0.68326   0.66337    0.000
 5845.00    0.70679   0.66063    0.000
 5846.00    0.72213   0.66358    0.000
 5847.00    0.68008   0.66649    0.000
 5848.00    0.63963   0.66370    0.000
 5849.00    0.60777   0.65306    0.000
 5850.00    0.58144   0.63980    0.000
 5851.00    0.57906   0.63855    0.000
 5852.00    0.58002   0.64730    0.000
 5853.00    0.59292   0.64419    0.000
 5854.00    0.60803   0.62598    0.000
 5855.00    0.62979   0.61681    0.000
 5856.00    0.66804   0.62753    0.000
 5857.00    0.74836   0.64274    0.000
 5858.00    0.80448   0.65140    0.000
 5859.00    0.80747   0.64892    0.000
 5860.00    0.79861   0.64716    0.000
 5861.00    0.76720   0.65399    0.000
 5862.00    0.73132   0.65774    0.000
 5863.00    0.68805   0.65165    0.000
 5864.00    0.65405   0.64585    0.000
 5865.00    0.63356   0.65136    0.000
 5866.00    0.64045   0.66102    0.000
 5867.00    0.68242   0.66689    0.000
 5868.00    0.73368   0.66760    0.000
 5869.00    0.79543   0.66338    0.000
 5870.00    0.82409   0.65880    0.000
 5871.00    0.81980   0.65975    0.000
 5872.00    0.82504   0.66171    0.000
 5873.00    0.83867   0.65865    0.000
 5874.00    0.82842   0.65502    0.000
 5875.00    0.79971   0.65317    0.000
 5876.00    0.78372   0.64777    0.000
 5877.00    0.77636   0.64020    0.000
 5878.00    0.78558   0.64053    0.000
 5879.00    0.80468   0.64633    0.000
 5880.00    0.81415   0.64478    0.000
 5881.00    0.81861   0.63914    0.000
 5882.00    0.76687   0.64040    0.000
 5883.00    0.68978   0.64418    0.000
 5884.00    0.65763   0.63725    0.000
 5885.00    0.64290   0.60397    0.000
 5886.00    0.64196   0.53330    0.000
 5887.00    0.64559   0.47840    0.000
 5888.00    0.63284   0.50134    0.000
 5889.00    0.61557   0.55685    0.000
 5890.00    0.65252   0.58688    0.000
 5891.00    0.70181   0.58711    0.000
 5892.00    0.65829   0.54755    0.000
 5893.00    0.59789   0.50808    0.000
 5894.00    0.54849   0.53284    0.000
 5895.00    0.50063   0.58297    0.000
 5896.00    0.55000   0.60654    0.000
 5897.00    0.60914   0.61829    0.000
 5898.00    0.67639   0.63139    0.000
 5899.00    0.74416   0.63813    0.000
 5900.00    0.74774   0.64102    0.000
 5901.00    0.74948   0.64241    0.008
 5902.00    0.77064   0.63864    0.008
 5903.00    0.79024   0.63524    0.008
 5904.00    0.76584   0.63926    0.007
 5905.00    0.74232   0.64513    0.007
 5906.00    0.73142   0.64635    0.007
 5907.00    0.72133   0.64549    0.007
 5908.00    0.71885   0.64889    0.007
 5909.00    0.71734   0.65016    0.008
 5910.00    0.72242   0.63908    0.008
 5911.00    0.72017   0.62306    0.008
 5912.00    0.67935   0.61903    0.007
 5913.00    0.64722   0.62375    0.007
 5914.00    0.65181   0.63181    0.008
 5915.00    0.65862   0.63821    0.008
 5916.00    0.67321   0.64158    0.008
 5917.00    0.67351   0.64621    0.008
 5918.00    0.63178   0.64559    0.008
 5919.00    0.60477   0.63988    0.008
 5920.00    0.61465   0.63945    0.008
 5921.00    0.62500   0.64361    0.008
 5922.00    0.63637   0.64736    0.008
 5923.00    0.64833   0.65021    0.008
 5924.00    0.66140   0.64881    0.008
 5925.00    0.68702   0.64171    0.008
 5926.00    0.73316   0.63177    0.008
 5927.00    0.75558   0.62504    0.008
 5928.00    0.74392   0.63262    0.007
 5929.00    0.72333   0.64563    0.007
 5930.00    0.69144   0.64676    0.007
 5931.00    0.66680   0.63590    0.007
 5932.00    0.65023   0.63081    0.007
 5933.00    0.64771   0.63892    0.007
 5934.00    0.65899   0.64647    0.007
 5935.00    0.68728   0.64953    0.007
 5936.00    0.73028   0.65126    0.007
 5937.00    0.75148   0.64550    0.007
 5938.00    0.75606   0.63310    0.007
 5939.00    0.72058   0.63000    0.007
 5940.00    0.65823   0.63554    0.007
 5941.00    0.61847   0.64139    0.007
 5942.00    0.59195   0.64694    0.007
 5943.00    0.57308   0.65033    0.007
 5944.00    0.55811   0.64581    0.007
 5945.00    0.56721   0.63229    0.007
 5946.00    0.58697   0.62333    0.007
 5947.00    0.60212   0.63086    0.007
 5948.00    0.61552   0.64059    0.007
 5949.00    0.62696   0.63456    0.007
 5950.00    0.63776   0.62540    0.008
 5951.00    0.59007   0.63203    0.007
 5952.00    0.52653   0.64023    0.007
 5953.00    0.53631   0.63467    0.007
 5954.00    0.56237   0.62612    0.007
 5955.00    0.58783   0.62726    0.008
 5956.00    0.61318   0.63437    0.008
 5957.00    0.63989   0.64303    0.008
 5958.00    0.66677   0.64912    0.007
 5959.00    0.66661   0.65156    0.007
 5960.00    0.66385   0.65079    0.007
 5961.00    0.66958   0.64845    0.007
 5962.00    0.67582   0.64251    0.007
 5963.00    0.66244   0.63785    0.007
 5964.00    0.64858   0.64181    0.007
 5965.00    0.63892   0.64728    0.007
 5966.00    0.62907   0.65021    0.007
 5967.00    0.61459   0.65262    0.007
 5968.00    0.59964   0.65487    0.007
 5969.00    0.57843   0.65424    0.007
 5970.00    0.55922   0.65288    0.007
 5971.00    0.55788   0.64898    0.007
 5972.00    0.55838   0.63964    0.007
 5973.00    0.57095   0.62875    0.007
 5974.00    0.59150   0.62352    0.007
 5975.00    0.65298   0.62473    0.007
 5976.00    0.70123   0.63144    0.007
 5977.00    0.69468   0.64156    0.007
 5978.00    0.68461   0.64674    0.007
 5979.00    0.66242   0.64263    0.007
 5980.00    0.65602   0.62837    0.007
 5981.00    0.69518   0.61203    0.007
 5982.00    0.72514   0.61247    0.007
 5983.00    0.73241   0.62503    0.007
 5984.00    0.72107   0.63112    0.007
 5985.00    0.67017   0.63350    0.007
 5986.00    0.63521   0.63908    0.007
 5987.00    0.62966   0.64087    0.007
 5988.00    0.63515   0.63434    0.007
 5989.00    0.65843   0.63211    0.007
 5990.00    0.67161   0.64208    0.008
 5991.00    0.67052   0.65084    0.007
 5992.00    0.68286   0.65012    0.007
 5993.00    0.71192   0.64203    0.007
 5994.00    0.71845   0.63060    0.007
 5995.00    0.70025   0.62554    0.007
 5996.00    0.69159   0.62978    0.007
 5997.00    0.69216   0.63628    0.007
 5998.00    0.70462   0.63908    0.007
 5999.00    0.72725   0.63196    0.007
 6000.00    0.71339   0.62528    0.007
 6001.00    0.67211   0.62987    0.007
 6002.00    0.63284   0.63471    0.007
 6003.00    0.59491   0.63026    0.007
 6004.00    0.57551   0.61780    0.007
 6005.00    0.56682   0.60532    0.007
 6006.00    0.57605   0.61279    0.007
 6007.00    0.59430   0.63272    0.007
 6008.00    0.60686   0.64084    0.007
 6009.00    0.61694   0.63180    0.007
 6010.00    0.67264   0.61970    0.007
 6011.00    0.74541   0.62023    0.007
 6012.00    0.75025   0.62761    0.007
 6013.00    0.73352   0.62458    0.008
 6014.00    0.67303   0.62073    0.008
 6015.00    0.60093   0.62565    0.008
 6016.00    0.58866   0.62395    0.007
 6017.00    0.58937   0.61385    0.007
 6018.00    0.58816   0.61074    0.007
 6019.00    0.58663   0.61609    0.007
 6020.00    0.55743   0.62010    0.007
 6021.00    0.52461   0.62053    0.007
 6022.00    0.52501   0.62690    0.007
 6023.00    0.52847   0.63187    0.007
 6024.00    0.57059   0.62950    0.007
 6025.00    0.61487   0.63324    0.007
 6026.00    0.65251   0.63986    0.007
 6027.00    0.68926   0.64061    0.007
 6028.00    0.65236   0.63908    0.007
 6029.00    0.61524   0.64151    0.007
 6030.00    0.57318   0.64567    0.007
 6031.00    0.53508   0.64575    0.007
 6032.00    0.54736   0.64402    0.007
 6033.00    0.56356   0.64340    0.007
 6034.00    0.61356   0.64457    0.007
 6035.00    0.65944   0.64476    0.007
 6036.00    0.67908   0.64125    0.007
 6037.00    0.69475   0.63754    0.007
 6038.00    0.69058   0.63563    0.007
 6039.00    0.68248   0.63472    0.007
 6040.00    0.65854   0.63954    0.007
 6041.00    0.63186   0.64573    0.007
 6042.00    0.59595   0.64666    0.007
 6043.00    0.57416   0.64682    0.007
 6044.00    0.59238   0.64761    0.007
 6045.00    0.60875   0.64733    0.007
 6046.00    0.62066   0.64610    0.007
 6047.00    0.63160   0.64769    0.007
 6048.00    0.64053   0.64863    0.007
 6049.00    0.64941   0.64445    0.007
 6050.00    0.65818   0.63780    0.007
 6051.00    0.66705   0.63451    0.007
 6052.00    0.67607   0.63194    0.007
 6053.00    0.67060   0.62713    0.007
 6054.00    0.64495   0.62758    0.007
 6055.00    0.63000   0.63279    0.007
 6056.00    0.62819   0.63979    0.007
 6057.00    0.63685   0.64408    0.007
 6058.00    0.65682   0.64328    0.007
 6059.00    0.67658   0.63805    0.007
 6060.00    0.69614   0.63112    0.007
 6061.00    0.70776   0.62088    0.007
 6062.00    0.71270   0.60709    0.007
 6063.00    0.69538   0.61063    0.007
 6064.00    0.66157   0.63137    0.007
 6065.00    0.65115   0.64511    0.007
 6066.00    0.65594   0.64860    0.007
 6067.00    0.66471   0.64889    0.007
 6068.00    0.67575   0.64900    0.007
 6069.00    0.68683   0.64932    0.007
 6070.00    0.69794   0.64934    0.007
 6071.00    0.72711   0.64925    0.007
 6072.00    0.76403   0.64841    0.007
 6073.00    0.73594   0.64470    0.007
 6074.00    0.68394   0.63752    0.007
 6075.00    0.66069   0.62493    0.007
 6076.00    0.64637   0.61955    0.007
 6077.00    0.63832   0.62538    0.007
 6078.00    0.63189   0.62533    0.007
 6079.00    0.64407   0.61908    0.007
 6080.00    0.66018   0.61965    0.007
 6081.00    0.68907   0.62356    0.007
 6082.00    0.72008   0.62162    0.007
 6083.00    0.70682   0.62124    0.007
 6084.00    0.68797   0.62646    0.007
 6085.00    0.66722   0.63106    0.007
 6086.00    0.64631   0.62663    0.007
 6087.00    0.66522   0.61710    0.007
 6088.00    0.68620   0.61532    0.007
 6089.00    0.71071   0.61766    0.007
 6090.00    0.73478   0.61899    0.007
 6091.00    0.72255   0.62518    0.007
 6092.00    0.71056   0.63487    0.007
 6093.00    0.70347   0.63556    0.007
 6094.00    0.69463   0.63032    0.007
 6095.00    0.66463   0.63061    0.007
 6096.00    0.63587   0.63622    0.007
 6097.00    0.61734   0.63888    0.007
 6098.00    0.60188   0.62519    0.007
 6099.00    0.60534   0.59119    0.007
 6100.00    0.60834   0.57434    0.007
 6101.00    0.60908   0.59756    0.007
 6102.00    0.62920   0.62386    0.007
 6103.00    0.72603   0.63105    0.007
 6104.00    0.78995   0.62674    0.007
 6105.00    0.74550   0.62338    0.007
 6106.00    0.69475   0.62939    0.007
 6107.00    0.62647   0.63320    0.007
 6108.00    0.58239   0.62718    0.007
 6109.00    0.59596   0.62477    0.007
 6110.00    0.59878   0.63116    0.007
 6111.00    0.57946   0.63728    0.007
 6112.00    0.56527   0.63540    0.007
 6113.00    0.56026   0.62681    0.007
 6114.00    0.58153   0.62587    0.007
 6115.00    0.64393   0.63131    0.007
 6116.00    0.67540   0.62684    0.007
 6117.00    0.66436   0.61477    0.007
 6118.00    0.65988   0.59811    0.007
 6119.00    0.66334   0.58267    0.007
 6120.00    0.65212   0.59280    0.007
 6121.00    0.62523   0.61623    0.007
 6122.00    0.61523   0.62282    0.007
 6123.00    0.62112   0.61901    0.007
 6124.00    0.63042   0.61520    0.007
 6125.00    0.64255   0.61188    0.007
 6126.00    0.64651   0.61445    0.007
 6127.00    0.64450   0.62339    0.007
 6128.00    0.64721   0.62969    0.007
 6129.00    0.65295   0.63043    0.007
 6130.00    0.63843   0.63080    0.007
 6131.00    0.61256   0.62503    0.007
 6132.00    0.60858   0.60548    0.007
 6133.00    0.61529   0.57190    0.007
 6134.00    0.63202   0.54582    0.007
 6135.00    0.65297   0.56186    0.007
 6136.00    0.65955   0.60212    0.007
 6137.00    0.66094   0.61947    0.007
 6138.00    0.65707   0.60507    0.007
 6139.00    0.65161   0.59451    0.007
 6140.00    0.65491   0.60943    0.007
 6141.00    0.66045   0.62770    0.007
 6142.00    0.67623   0.63211    0.007
 6143.00    0.69412   0.62940    0.007
 6144.00    0.71375   0.62311    0.007
 6145.00    0.73367   0.61243    0.007
 6146.00    0.73499   0.60444    0.007
 6147.00    0.73406   0.60350    0.007
 6148.00    0.73686   0.60954    0.007
 6149.00    0.73998   0.61765    0.007
 6150.00    0.73234   0.62143    0.007
 6151.00    0.72419   0.61455    0.007
 6152.00    0.68744   0.60668    0.007
 6153.00    0.65008   0.60800    0.007
 6154.00    0.60196   0.60937    0.007
 6155.00    0.55661   0.60755    0.007
 6156.00    0.56577   0.60501    0.007
 6157.00    0.57596   0.59006    0.007
 6158.00    0.59805   0.55628    0.007
 6159.00    0.61820   0.53017    0.007
 6160.00    0.62278   0.53457    0.007
 6161.00    0.62668   0.55781    0.007
 6162.00    0.62656   0.57671    0.007
 6163.00    0.62797   0.58469    0.007
 6164.00    0.63666   0.59123    0.007
 6165.00    0.63812   0.58617    0.007
 6166.00    0.61160   0.56233    0.007
 6167.00    0.59042   0.55261    0.007
 6168.00    0.58654   0.57327    0.007
 6169.00    0.58688   0.59335    0.007
 6170.00    0.59879   0.59465    0.007
 6171.00    0.58960   0.59365    0.007
 6172.00    0.53104   0.59450    0.007
 6173.00    0.48076   0.59225    0.007
 6174.00    0.44723   0.59261    0.007
 6175.00    0.42976   0.59999    0.007
 6176.00    0.44062   0.60375    0.007
 6177.00    0.44337   0.60065    0.007
 6178.00    0.43363   0.60352    0.007
 6179.00    0.43344   0.60978    0.007
 6180.00    0.44619   0.61043    0.007
 6181.00    0.47241   0.60846    0.007
 6182.00    0.51470   0.60570    0.007
 6183.00    0.55517   0.59708    0.007
 6184.00    0.59372   0.58913    0.007
 6185.00    0.62488   0.58707    0.007
 6186.00    0.64920   0.58740    0.007
 6187.00    0.66726   0.57833    0.007
 6188.00    0.68022   0.55821    0.007
 6189.00    0.66494   0.55784    0.007
 6190.00    0.62934   0.58140    0.007
 6191.00    0.59531   0.59696    0.007
 6192.00    0.56229   0.60082    0.007
 6193.00    0.58422   0.60485    0.007
 6194.00    0.63648   0.60843    0.007
 6195.00    0.81828   0.60322    0.007
 6196.00    1.06227   0.58801   -2.000
 6197.00    1.40871   0.57952   -2.000
 6198.00    1.79761   0.58833   -2.000
 6199.00    1.90552   0.60210   -2.000
 6200.00    1.91383   0.60819   -2.000
 6201.00    1.56521   0.60736   -2.000
 6202.00    1.10978   0.60621   -2.000
 6203.00    0.74105   0.60817   -2.000
 6204.00    0.39385   0.60936   -2.000
 6205.00    0.35741   0.60885   -2.000
 6206.00    0.38355   0.60728   -2.000
 6207.00    0.47032   0.60327   -2.000
 6208.00    0.56666   0.59930    0.007
 6209.00    0.59489   0.59332    0.007
 6210.00    0.61514   0.57811    0.007
 6211.00    0.61794   0.56426    0.007
 6212.00    0.61935   0.56053    0.007
 6213.00    0.62529   0.56627    0.007
 6214.00    0.63142   0.57877    0.007
 6215.00    0.64524   0.58315    0.007
 6216.00    0.65910   0.57382    0.007
 6217.00    0.67122   0.56709    0.007
 6218.00    0.67862   0.57196    0.007
 6219.00    0.59975   0.58099    0.007
 6220.00    0.52640   0.58487    0.007
 6221.00    0.51390   0.58304    0.007
 6222.00    0.50338   0.58391    0.007
 6223.00    0.50817   0.58724    0.007
 6224.00    0.51399   0.58837    0.007
 6225.00    0.52582   0.58618    0.007
 6226.00    0.54080   0.57342    0.007
 6227.00    0.57038   0.55203    0.007
 6228.00    0.59215   0.54296    0.007
 6229.00    0.58431   0.55324    0.007
 6230.00    0.57595   0.56761    0.007
 6231.00    0.56591   0.58399    0.007
 6232.00    0.56178   0.59622    0.007
 6233.00    0.57354   0.59575    0.007
 6234.00    0.58410   0.58640    0.007
 6235.00    0.59193   0.57594    0.007
 6236.00    0.59614   0.56767    0.007
 6237.00    0.59314   0.56356    0.007
 6238.00    0.58480   0.56809    0.007
 6239.00    0.56719   0.56863    0.007
 6240.00    0.54401   0.55832    0.007
 6241.00    0.51239   0.55499    0.007
 6242.00    0.50800   0.55656    0.007
 6243.00    0.53995   0.55573    0.007
 6244.00    0.58052   0.56305    0.007
 6245.00    0.63123   0.57725    0.007
 6246.00    0.66021   0.58581    0.007
 6247.00    0.66665   0.58592    0.007
 6248.00    0.66419   0.57637    0.007
 6249.00    0.65360   0.55868    0.007
 6250.00    0.64178   0.54845    0.007
 6251.00    0.62897   0.55029    0.007
 6252.00    0.62342   0.55453    0.007
 6253.00    0.62302   0.55232    0.007
 6254.00    0.60307   0.54493    0.007
 6255.00    0.57096   0.53998    0.007
 6256.00    0.56402   0.54665    0.007
 6257.00    0.57078   0.56178    0.007
 6258.00    0.63639   0.57041    0.007
 6259.00    0.72981   0.57869    0.007
 6260.00    0.84576   0.58810    0.008
 6261.00    0.97088   0.58445    0.008
 6262.00    0.94487   0.57367    0.009
 6263.00    0.86626   0.57440    0.009
 6264.00    0.74560   0.58285    0.009
 6265.00    0.61262   0.58349    0.008
 6266.00    0.54108   0.57860    0.008
 6267.00    0.48447   0.57659    0.007
 6268.00    0.48503   0.57923    0.007
 6269.00    0.49682   0.58433    0.007
 6270.00    0.52295   0.58723    0.007
 6271.00    0.55127   0.58583    0.007
 6272.00    0.58383   0.58533    0.007
 6273.00    0.61687   0.58636    0.007
 6274.00    0.61857   0.58528    0.007
 6275.00    0.61790   0.58231    0.007
 6276.00    0.59930   0.57527    0.007
 6277.00    0.57997   0.56644    0.007
 6278.00    0.59375   0.56698    0.007
 6279.00    0.60795   0.57501    0.007
 6280.00    0.62974   0.58297    0.000
 6281.00    0.65021   0.58838    0.000
 6282.00    0.64819   0.58807    0.000
 6283.00    0.64593   0.58949    0.000
 6284.00    0.64120   0.59536    0.000
 6285.00    0.63408   0.59954    0.000
 6286.00    0.60905   0.59889    0.000
 6287.00    0.59191   0.59153    0.000
 6288.00    0.61967   0.58427    0.000
 6289.00    0.63980   0.58135    0.000
 6290.00    0.62537   0.58167    0.000
 6291.00    0.60787   0.58542    0.000
 6292.00    0.57898   0.58474    0.000
 6293.00    0.55346   0.57500    0.000
 6294.00    0.53838   0.56617    0.000
 6295.00    0.53764   0.56728    0.000
 6296.00    0.57470   0.57394    0.000
 6297.00    0.61025   0.57316    0.000
 6298.00    0.64240   0.56253    0.000
 6299.00    0.65379   0.55756    0.000
 6300.00    0.62445   0.56667    0.000
 6301.00    0.60656   0.57768    0.000
 6302.00    0.60827   0.58042    0.000
 6303.00    0.61215   0.58300    0.000
 6304.00    0.61929   0.59124    0.000
 6305.00    0.61659   0.59641    0.000
 6306.00    0.60094   0.59324    0.000
 6307.00    0.58685   0.58578    0.000
 6308.00    0.57458   0.58024    0.000
 6309.00    0.56704   0.58077    0.000
 6310.00    0.56434   0.58233    0.000
 6311.00    0.56254   0.57437    0.000
 6312.00    0.56157   0.56456    0.000
 6313.00    0.55083   0.56631    0.000
 6314.00    0.53234   0.56590    0.000
 6315.00    0.53149   0.55648    0.000
 6316.00    0.54299   0.55834    0.000
 6317.00    0.56176   0.57144    0.000
 6318.00    0.58497   0.57819    0.000
 6319.00    0.59965   0.57720    0.000
 6320.00    0.60976   0.58009    0.000
 6321.00    0.59466   0.58810    0.006
 6322.00    0.56783   0.59215    0.006
 6323.00    0.55040   0.59140    0.006
 6324.00    0.53674   0.58893    0.007
 6325.00    0.53816   0.58994    0.006
 6326.00    0.54474   0.59127    0.006
 6327.00    0.55976   0.58699    0.007
 6328.00    0.57721   0.58653    0.007
 6329.00    0.57338   0.59251    0.007
 6330.00    0.56450   0.59583    0.007
 6331.00    0.56245   0.58617    0.007
 6332.00    0.56172   0.56673    0.007
 6333.00    0.56942   0.55642    0.007
 6334.00    0.57837   0.56278    0.007
 6335.00    0.57650   0.57267    0.007
 6336.00    0.57346   0.57801    0.007
 6337.00    0.58781   0.58589    0.007
 6338.00    0.60339   0.59172    0.006
 6339.00    0.61265   0.58688    0.007
 6340.00    0.62169   0.57564    0.007
 6341.00    0.57246   0.56833    0.007
 6342.00    0.52466   0.57109    0.006
 6343.00    0.53476   0.57537    0.006
 6344.00    0.54436   0.57715    0.006
 6345.00    0.54593   0.58330    0.006
 6346.00    0.54328   0.59030    0.007
 6347.00    0.49812   0.59207    0.006
 6348.00    0.46285   0.59206    0.006
 6349.00    0.49898   0.59126    0.006
 6350.00    0.53571   0.58624    0.006
 6351.00    0.57579   0.57633    0.006
 6352.00    0.60364   0.57058    0.006
 6353.00    0.57742   0.57420    0.006
 6354.00    0.55607   0.57365    0.006
 6355.00    0.55236   0.56285    0.007
 6356.00    0.56668   0.55541    0.007
 6357.00    0.63591   0.55594    0.007
 6358.00    0.69888   0.55419    0.007
 6359.00    0.74560   0.54968    0.007
 6360.00    0.76927   0.55097    0.007
 6361.00    0.74160   0.55842    0.007
 6362.00    0.70559   0.56639    0.007
 6363.00    0.65347   0.57261    0.007
 6364.00    0.62715   0.57929    0.007
 6365.00    0.64429   0.58484    0.007
 6366.00    0.65054   0.58388    0.007
 6367.00    0.64074   0.57854    0.007
 6368.00    0.60218   0.57809    0.007
 6369.00    0.52630   0.58530    0.007
 6370.00    0.49427   0.59216    0.007
 6371.00    0.51233   0.59306    0.007
 6372.00    0.53979   0.59167    0.007
 6373.00    0.57672   0.59112    0.006
 6374.00    0.60200   0.58848    0.006
 6375.00    0.61693   0.58186    0.006
 6376.00    0.61989   0.57690    0.006
 6377.00    0.61348   0.57604    0.006
 6378.00    0.59856   0.57741    0.007
 6379.00    0.57778   0.58137    0.006
 6380.00    0.54303   0.58346    0.006
 6381.00    0.49985   0.58046    0.007
 6382.00    0.47237   0.57985    0.007
 6383.00    0.45316   0.58367    0.007
 6384.00    0.46321   0.58691    0.007
 6385.00    0.48663   0.58722    0.007
 6386.00    0.52377   0.58690    0.007
 6387.00    0.56630   0.58675    0.007
 6388.00    0.59538   0.58243    0.007
 6389.00    0.61996   0.56849    0.007
 6390.00    0.61883   0.55272    0.006
 6391.00    0.61048   0.55432    0.006
 6392.00    0.57719   0.57174    0.006
 6393.00    0.53812   0.58549    0.006
 6394.00    0.49845   0.58964    0.007
 6395.00    0.45868   0.58264    0.007
 6396.00    0.44995   0.56127    0.007
 6397.00    0.44568   0.54577    0.007
 6398.00    0.48281   0.55940    0.007
 6399.00    0.52425   0.58229    0.006
 6400.00    0.54520   0.59212    0.007
 6401.00    0.56476   0.59387    0.007
 6402.00    0.57086   0.59073    0.007
 6403.00    0.57652   0.58279    0.007
 6404.00    0.55394   0.57115    0.007
 6405.00    0.53211   0.56648    0.007
 6406.00    0.53356   0.57514    0.007
 6407.00    0.53649   0.57885    0.007
 6408.00    0.56139   0.56890    0.007
 6409.00    0.58317   0.56510    0.007
 6410.00    0.57479   0.57151    0.007
 6411.00    0.56437   0.57546    0.007
 6412.00    0.53977   0.57687    0.007
 6413.00    0.52504   0.57949    0.007
 6414.00    0.56349   0.57981    0.007
 6415.00    0.59328   0.57701    0.007
 6416.00    0.58564   0.56832    0.006
 6417.00    0.57263   0.55585    0.006
 6418.00    0.54056   0.55340    0.006
 6419.00    0.51594   0.56775    0.006
 6420.00    0.51357   0.58500    0.006
 6421.00    0.51565   0.58977    0.006
 6422.00    0.52905   0.58781    0.006
 6423.00    0.53587   0.58928    0.006
 6424.00    0.52824   0.59263    0.006
 6425.00    0.53207   0.59123    0.006
 6426.00    0.55766   0.58042    0.006
 6427.00    0.58605   0.56258    0.007
 6428.00    0.61907   0.55357    0.007
 6429.00    0.63042   0.56161    0.007
 6430.00    0.61026   0.57418    0.007
 6431.00    0.58866   0.58302    0.007
 6432.00    0.56522   0.58830    0.007
 6433.00    0.56478   0.58919    0.007
 6434.00    0.59026   0.58127    0.007
 6435.00    0.58761   0.56320    0.007
 6436.00    0.55700   0.55349    0.007
 6437.00    0.55342   0.56715    0.007
 6438.00    0.57354   0.58670    0.007
 6439.00    0.59968   0.59418    0.007
 6440.00    0.63048   0.59479    0.007
 6441.00    0.64093   0.59462    0.007
 6442.00    0.63758   0.59575    0.007
 6443.00    0.62475   0.59681    0.006
 6444.00    0.60628   0.59233    0.006
 6445.00    0.59812   0.57520    0.006
 6446.00    0.59531   0.54763    0.006
 6447.00    0.59560   0.53549    0.006
 6448.00    0.59730   0.55176    0.007
 6449.00    0.58127   0.57344    0.007
 6450.00    0.55839   0.58410    0.007
 6451.00    0.52262   0.58108    0.007
 6452.00    0.48262   0.56777    0.006
 6453.00    0.45312   0.55989    0.006
 6454.00    0.42650   0.56885    0.006
 6455.00    0.44045   0.58422    0.006
 6456.00    0.46358   0.59305    0.007
 6457.00    0.46109   0.59126    0.007
 6458.00    0.45395   0.57446    0.007
 6459.00    0.46551   0.54910    0.007
 6460.00    0.47966   0.54366    0.007
 6461.00    0.51512   0.56198    0.007
 6462.00    0.55271   0.57795    0.007
 6463.00    0.54840   0.58485    0.007
 6464.00    0.54145   0.58749    0.007
 6465.00    0.56243   0.58578    0.007
 6466.00    0.58411   0.58019    0.007
 6467.00    0.57470   0.57460    0.006
 6468.00    0.56483   0.56943    0.006
 6469.00    0.54189   0.57007    0.006
 6470.00    0.52449   0.57615    0.006
 6471.00    0.58529   0.57512    0.006
 6472.00    0.63931   0.57022    0.007
 6473.00    0.63049   0.57268    0.006
 6474.00    0.61611   0.57919    0.006
 6475.00    0.56414   0.58074    0.006
 6476.00    0.52519   0.57931    0.006
 6477.00    0.55453   0.57423    0.006
 6478.00    0.58096   0.56121    0.006
 6479.00    0.59513   0.54910    0.006
 6480.00    0.60733   0.55047    0.007
 6481.00    0.61263   0.56110    0.007
 6482.00    0.61570   0.56933    0.007
 6483.00    0.61219   0.57308    0.006
 6484.00    0.60875   0.57479    0.006
 6485.00    0.60548   0.57459    0.006
 6486.00    0.60456   0.57087    0.006
 6487.00    0.60873   0.56417    0.006
 6488.00    0.60958   0.55815    0.006
 6489.00    0.60427   0.54970    0.007
 6490.00    0.58490   0.52926    0.007
 6491.00    0.54257   0.50241    0.007
 6492.00    0.51430   0.48976    0.006
 6493.00    0.50616   0.49486    0.006
 6494.00    0.51564   0.50866    0.006
 6495.00    0.54730   0.52306    0.006
 6496.00    0.57501   0.53150    0.006
 6497.00    0.59832   0.54164    0.006
 6498.00    0.61462   0.55324    0.006
 6499.00    0.62407   0.56042    0.006
 6500.00    0.62136   0.56434    0.006
 6501.00    0.60815   0.56693    0.006
 6502.00    0.59139   0.56986    0.006
 6503.00    0.57191   0.57177    0.006
 6504.00    0.58420   0.56919    0.006
 6505.00    0.61774   0.56435    0.006
 6506.00    0.61373   0.56369    0.006
 6507.00    0.58771   0.56775    0.006
 6508.00    0.52857   0.57039    0.007
 6509.00    0.45250   0.56996    0.007
 6510.00    0.41231   0.56851    0.006
 6511.00    0.38801   0.56425    0.006
 6512.00    0.39823   0.55647    0.006
 6513.00    0.42159   0.55036    0.006
 6514.00    0.43963   0.54814    0.006
 6515.00    0.45595   0.54759    0.006
 6516.00    0.48615   0.55187    0.006
 6517.00    0.52010   0.56147    0.006
 6518.00    0.54432   0.56805    0.006
 6519.00    0.56638   0.56851    0.006
 6520.00    0.57132   0.56788    0.006
 6521.00    0.57324   0.56915    0.006
 6522.00    0.56602   0.56743    0.006
 6523.00    0.55758   0.56009    0.006
 6524.00    0.53361   0.55529    0.006
 6525.00    0.50815   0.55924    0.006
 6526.00    0.50911   0.56549    0.006
 6527.00    0.51163   0.56663    0.006
 6528.00    0.52344   0.56175    0.000
 6529.00    0.53533   0.55549    0.000
 6530.00    0.52537   0.55350    0.000
 6531.00    0.51504   0.55778    0.000
 6532.00    0.49565   0.56447    0.000
 6533.00    0.48046   0.56655    0.000
 6534.00    0.52150   0.56406    0.000
 6535.00    0.55943   0.56388    0.000
 6536.00    0.56979   0.56780    0.000
 6537.00    0.57958   0.56981    0.000
 6538.00    0.58564   0.56655    0.000
 6539.00    0.59018   0.56022    0.000
 6540.00    0.58689   0.55465    0.000
 6541.00    0.58928   0.54944    0.000
 6542.00    0.61512   0.53989    0.000
 6543.00    0.64897   0.53086    0.000
 6544.00    0.71021   0.53371    0.000
 6545.00    0.75614   0.54274    0.000
 6546.00    0.75799   0.54628    0.000
 6547.00    0.73931   0.54287    0.000
 6548.00    0.67013   0.53701    0.000
 6549.00    0.59917   0.53263    0.000
 6550.00    0.52443   0.52767    0.000
 6551.00    0.48662   0.51865    0.000
 6552.00    0.51687   0.50965    0.000
 6553.00    0.55899   0.50721    0.000
 6554.00    0.62022   0.50934    0.000
 6555.00    0.73406   0.50785    0.000
 6556.00    0.92219   0.49837    0.000
 6557.00    1.19465   0.47467    0.000
 6558.00    1.57189   0.42054    0.000
 6559.00    1.86127   0.35051    0.000
 6560.00    2.05443   0.33540    0.000
 6561.00    2.06270   0.39543    0.000
 6562.00    1.89237   0.46199    0.000
 6563.00    1.63474   0.49564    0.000
 6564.00    1.30274   0.50894    0.000
 6565.00    1.02082   0.51140    0.000
 6566.00    0.77647   0.51022    0.000
 6567.00    0.61946   0.51404    0.000
 6568.00    0.52001   0.51863    0.000
 6569.00    0.48030   0.51621    0.000
 6570.00    0.47506   0.51086    0.000
 6571.00    0.48263   0.50961    0.000
 6572.00    0.49665   0.51642    0.000
 6573.00    0.49973   0.53013    0.000
 6574.00    0.49806   0.54141    0.000
 6575.00    0.56623   0.54526    0.000
 6576.00    0.66047   0.54311    0.000
 6577.00    0.78424   0.53748    0.000
 6578.00    0.91737   0.53490    0.000
 6579.00    1.00325   0.53929    0.000
 6580.00    1.07665   0.54478    0.000
 6581.00    1.09244   0.54576    0.000
 6582.00    1.09578   0.54318    0.000
 6583.00    1.00519   0.54111    0.000
 6584.00    0.89848   0.54454    0.000
 6585.00    0.75350   0.55046    0.000
 6586.00    0.60355   0.55367    0.000
 6587.00    0.53811   0.55216    0.000
 6588.00    0.48039   0.54125    0.000
 6589.00    0.48802   0.52115    0.000
 6590.00    0.49925   0.50808    0.000
 6591.00    0.53329   0.51597    0.000
 6592.00    0.56782   0.53341    0.000
 6593.00    0.60364   0.54212    0.000
 6594.00    0.63725   0.54079    0.000
 6595.00    0.62023   0.53723    0.000
 6596.00    0.60255   0.54007    0.000
 6597.00    0.57657   0.54855    0.000
 6598.00    0.55178   0.55473    0.000
 6599.00    0.53723   0.55478    0.000
 6600.00    0.52508   0.55036    0.000
 6601.00    0.52822   0.54411    0.000
 6602.00    0.52672   0.54018    0.000
 6603.00    0.50207   0.53908    0.000
 6604.00    0.48637   0.53595    0.000
 6605.00    0.50678   0.52956    0.000
 6606.00    0.52240   0.52771    0.000
 6607.00    0.52194   0.53727    0.000
 6608.00    0.52253   0.54902    0.000
 6609.00    0.52603   0.55096    0.006
 6610.00    0.52554   0.54670    0.006
 6611.00    0.51539   0.54687    0.006
 6612.00    0.49175   0.55200    0.006
 6613.00    0.43999   0.55414    0.006
 6614.00    0.41727   0.55217    0.006
 6615.00    0.44724   0.55127    0.006
 6616.00    0.47360   0.55287    0.006
 6617.00    0.49423   0.55475    0.006
 6618.00    0.51032   0.55500    0.006
 6619.00    0.52010   0.55222    0.006
 6620.00    0.53923   0.54519    0.006
 6621.00    0.56982   0.53690    0.006
 6622.00    0.58065   0.53493    0.006
 6623.00    0.57013   0.53989    0.006
 6624.00    0.56382   0.54377    0.006
 6625.00    0.56153   0.54446    0.006
 6626.00    0.54644   0.54395    0.006
 6627.00    0.52061   0.54248    0.006
 6628.00    0.50611   0.53948    0.006
 6629.00    0.49999   0.53255    0.006
 6630.00    0.48997   0.52375    0.006
 6631.00    0.47742   0.52206    0.006
 6632.00    0.48723   0.53065    0.006
 6633.00    0.50974   0.54036    0.006
 6634.00    0.49773   0.54501    0.006
 6635.00    0.46864   0.54454    0.006
 6636.00    0.44797   0.54162    0.006
 6637.00    0.43090   0.54181    0.006
 6638.00    0.44350   0.54460    0.006
 6639.00    0.46699   0.54010    0.006
 6640.00    0.48546   0.53014    0.006
 6641.00    0.50237   0.52912    0.006
 6642.00    0.52064   0.53654    0.006
 6643.00    0.53928   0.54104    0.006
 6644.00    0.53371   0.54068    0.006
 6645.00    0.52303   0.54093    0.006
 6646.00    0.48635   0.54249    0.006
 6647.00    0.44533   0.54147    0.006
 6648.00    0.46014   0.53894    0.006
 6649.00    0.48195   0.53766    0.006
 6650.00    0.49651   0.53778    0.006
 6651.00    0.51044   0.53895    0.006
 6652.00    0.50500   0.53958    0.006
 6653.00    0.49856   0.53862    0.006
 6654.00    0.49989   0.53851    0.006
 6655.00    0.50168   0.53951    0.006
 6656.00    0.52656   0.53879    0.006
 6657.00    0.55073   0.53642    0.006
 6658.00    0.55961   0.53181    0.006
 6659.00    0.56620   0.52369    0.006
 6660.00    0.54519   0.51663    0.006
 6661.00    0.52027   0.51908    0.006
 6662.00    0.46312   0.52591    0.006
 6663.00    0.41486   0.52792    0.006
 6664.00    0.42146   0.52780    0.006
 6665.00    0.42631   0.53051    0.006
 6666.00    0.42270   0.53593    0.006
 6667.00    0.42321   0.54009    0.006
 6668.00    0.43997   0.54107    0.006
 6669.00    0.46558   0.54063    0.006
 6670.00    0.52026   0.54057    0.006
 6671.00    0.57241   0.54112    0.006
 6672.00    0.61755   0.53983    0.006
 6673.00    0.63973   0.53060    0.006
 6674.00    0.60738   0.51368    0.006
 6675.00    0.56747   0.50517    0.006
 6676.00    0.51202   0.51389    0.006
 6677.00    0.47871   0.52462    0.006
 6678.00    0.48493   0.52789    0.006
 6679.00    0.50320   0.52962    0.006
 6680.00    0.54027   0.53227    0.006
 6681.00    0.56380   0.53443    0.006
 6682.00    0.56875   0.53491    0.006
 6683.00    0.54882   0.53392    0.006
 6684.00    0.49885   0.53253    0.006
 6685.00    0.46788   0.53208    0.006
 6686.00    0.45716   0.53340    0.006
 6687.00    0.45666   0.53480    0.006
 6688.00    0.46576   0.53476    0.006
 6689.00    0.47098   0.53410    0.006
 6690.00    0.47298   0.53379    0.006
 6691.00    0.48721   0.53132    0.006
 6692.00    0.51034   0.52454    0.006
 6693.00    0.50499   0.51871    0.006
 6694.00    0.48142   0.51947    0.006
 6695.00    0.47832   0.52379    0.006
 6696.00    0.48668   0.52858    0.000
 6697.00    0.49428   0.53310    0.000
 6698.00    0.50150   0.53410    0.000
 6699.00    0.49198   0.53077    0.000
 6700.00    0.47541   0.52509    0.000
 6701.00    0.49295   0.52186    0.000
 6702.00    0.52276   0.52362    0.000
 6703.00    0.54469   0.52765    0.000
 6704.00    0.56423   0.52978    0.000
 6705.00    0.56554   0.52984    0.000
 6706.00    0.56223   0.52829    0.000
 6707.00    0.58062   0.52634    0.000
 6708.00    0.60347   0.52595    0.000
 6709.00    0.63077   0.52467    0.000
 6710.00    0.65878   0.52072    0.000
 6711.00    0.70843   0.51638    0.000
 6712.00    0.76068   0.51118    0.000
 6713.00    0.84194   0.50366    0.000
 6714.00    0.92561   0.49801    0.000
 6715.00    0.89122   0.50252    0.000
 6716.00    0.85124   0.51390    0.000
 6717.00    0.79534   0.52023    0.000
 6718.00    0.73908   0.52030    0.000
 6719.00    0.67479   0.52083    0.000
 6720.00    0.61130   0.52398    0.000
 6721.00    0.56344   0.52488    0.000
 6722.00    0.52055   0.52143    0.000
 6723.00    0.53454   0.51851    0.000
 6724.00    0.55795   0.52003    0.000
 6725.00    0.65643   0.52362    0.000
 6726.00    0.74592   0.52603    0.000
 6727.00    0.78151   0.52752    0.000
 6728.00    0.80754   0.52736    0.000
 6729.00    0.78827   0.52525    0.000
 6730.00    0.75725   0.52350    0.000
 6731.00    0.68090   0.52403    0.000
 6732.00    0.61028   0.52567    0.000
 6733.00    0.55818   0.52562    0.000
 6734.00    0.51089   0.52180    0.000
 6735.00    0.47673   0.51654    0.000
 6736.00    0.45442   0.51490    0.000
 6737.00    0.45979   0.51767    0.000
 6738.00    0.46340   0.51917    0.000
 6739.00    0.46345   0.51639    0.000
 6740.00    0.46505   0.51465    0.000
 6741.00    0.46935   0.51732    0.000
 6742.00    0.49193   0.51919    0.000
 6743.00    0.54263   0.51774    0.000
 6744.00    0.56743   0.51535    0.000
 6745.00    0.55720   0.51207    0.000
 6746.00    0.55331   0.50862    0.000
 6747.00    0.55698   0.50840    0.000
 6748.00    0.55359   0.51082    0.000
 6749.00    0.54278   0.51101    0.000
 6750.00    0.52127   0.51105    0.000
 6751.00    0.48987   0.51461    0.000
 6752.00    0.47928   0.51766    0.000
 6753.00    0.48566   0.51956    0.007
 6754.00    0.49778   0.52223    0.007
 6755.00    0.51403   0.52505    0.007
 6756.00    0.53892   0.52703    0.007
 6757.00    0.56925   0.52730    0.007
 6758.00    0.54495   0.52609    0.007
 6759.00    0.49054   0.52511    0.007
 6760.00    0.50202   0.52559    0.007
 6761.00    0.54507   0.52539    0.007
 6762.00    0.59648   0.52214    0.007
 6763.00    0.65135   0.51573    0.008
 6764.00    0.68610   0.51037    0.008
 6765.00    0.71373   0.51140    0.008
 6766.00    0.67402   0.51551    0.008
 6767.00    0.61422   0.51533    0.007
 6768.00    0.60399   0.51307    0.007
 6769.00    0.60605   0.51534    0.007
 6770.00    0.59734   0.52119    0.007
 6771.00    0.58647   0.52654    0.007
 6772.00    0.57328   0.52913    0.007
 6773.00    0.55973   0.52904    0.007
 6774.00    0.55062   0.52802    0.007
 6775.00    0.54202   0.52861    0.007
 6776.00    0.46959   0.53013    0.007
 6777.00    0.39212   0.52827    0.007
 6778.00    0.45035   0.52266    0.007
 6779.00    0.51448   0.51485    0.007
 6780.00    0.53416   0.50735    0.007
 6781.00    0.55229   0.50394    0.007
 6782.00    0.52040   0.50481    0.007
 6783.00    0.48931   0.50781    0.007
 6784.00    0.47281   0.51276    0.007
 6785.00    0.46058   0.51721    0.007
 6786.00    0.49523   0.51773    0.007
 6787.00    0.53124   0.51751    0.007
 6788.00    0.57773   0.51848    0.007
 6789.00    0.61996   0.51719    0.007
 6790.00    0.63742   0.51364    0.007
 6791.00    0.64124   0.51229    0.007
 6792.00    0.58200   0.51353    0.007
 6793.00    0.53959   0.51521    0.007
 6794.00    0.56081   0.51654    0.007
 6795.00    0.57547   0.51701    0.007
 6796.00    0.56939   0.51797    0.007
 6797.00    0.57119   0.51997    0.007
 6798.00    0.59412   0.52135    0.007
 6799.00    0.61944   0.52086    0.007
 6800.00    0.65026   0.51836    0.007
 6801.00    0.64969   0.51691    0.007
 6802.00    0.58671   0.51723    0.007
 6803.00    0.52932   0.51641    0.007
 6804.00    0.48164   0.51637    0.007
 6805.00    0.44546   0.51746    0.007
 6806.00    0.42671   0.51618    0.007
 6807.00    0.41999   0.51472    0.007
 6808.00    0.42930   0.51624    0.007
 6809.00    0.44662   0.51786    0.007
 6810.00    0.47334   0.51587    0.007
 6811.00    0.49113   0.51136    0.007
 6812.00    0.49968   0.51036    0.007
 6813.00    0.48451   0.51535    0.007
 6814.00    0.44769   0.51975    0.007
 6815.00    0.48115   0.51867    0.007
 6816.00    0.57118   0.51456    0.007
 6817.00    0.61436   0.51273    0.007
 6818.00    0.62437   0.51613    0.007
 6819.00    0.59329   0.52083    0.007
 6820.00    0.53666   0.52296    0.007
 6821.00    0.52558   0.52336    0.007
 6822.00    0.53920   0.52318    0.007
 6823.00    0.53176   0.52070    0.006
 6824.00    0.51438   0.51457    0.006
 6825.00    0.47738   0.51000    0.006
 6826.00    0.43241   0.51213    0.006
 6827.00    0.42983   0.51767    0.006
 6828.00    0.44197   0.52009    0.007
 6829.00    0.46863   0.51853    0.007
 6830.00    0.49955   0.51786    0.007
 6831.00    0.48565   0.51997    0.007
 6832.00    0.46089   0.52105    0.007
 6833.00    0.46996   0.51910    0.007
 6834.00    0.48564   0.51508    0.007
 6835.00    0.55586   0.50985    0.007
 6836.00    0.63439   0.50401    0.007
 6837.00    0.67746   0.49781    0.007
 6838.00    0.71655   0.49292    0.007
 6839.00    0.68396   0.49352    0.007
 6840.00    0.64601   0.50025    0.007
 6841.00    0.58340   0.50905    0.007
 6842.00    0.51981   0.51488    0.007
 6843.00    0.46858   0.51647    0.007
 6844.00    0.42085   0.51654    0.007
 6845.00    0.50910   0.51638    0.006
 6846.00    0.58720   0.51547    0.006
 6847.00    0.49364   0.51440    0.006
 6848.00    0.41326   0.51455    0.006
 6849.00    0.47086   0.51529    0.006
 6850.00    0.52144   0.51272    0.007
 6851.00    0.51993   0.50483    0.007
 6852.00    0.52738   0.49856    0.007
 6853.00    0.58567   0.49978    0.007
 6854.00    0.62882   0.50340    0.007
 6855.00    0.60365   0.50590    0.007
 6856.00    0.58635   0.50689    0.007
 6857.00    0.59818   0.50312    0.007
 6858.00    0.60165   0.49841    0.007
 6859.00    0.57923   0.50148    0.007
 6860.00    0.56842   0.51046    0.007
 6861.00    0.58813   0.51631    0.007
 6862.00    0.58247   0.51570    0.007
 6863.00    0.51950   0.51043    0.007
 6864.00    0.47311   0.50305    0.006
 6865.00    0.45916   0.50049    0.007
 6866.00    0.45255   0.50546    0.007
 6867.00    0.45845   0.50888    0.007
 6868.00    0.45816   0.50640    0.007
 6869.00    0.44860   0.50421    0.007
 6870.00    0.42737   0.50615    0.007
 6871.00    0.39078   0.50810    0.007
 6872.00    0.39932   0.50817    0.007
 6873.00    0.46006   0.50986    0.007
 6874.00    0.52100   0.51375    0.007
 6875.00    0.58213   0.51638    0.007
 6876.00    0.60974   0.51562    0.007
 6877.00    0.60717   0.51182    0.007
 6878.00    0.55246   0.50546    0.007
 6879.00    0.45640   0.50030    0.007
 6880.00    0.42771   0.50176    0.007
 6881.00    0.44604   0.50705    0.007
 6882.00    0.47794   0.50845    0.007
 6883.00    0.51814   0.50889    0.007
 6884.00    0.50094   0.51301    0.007
 6885.00    0.45308   0.51595    0.007
 6886.00    0.46393   0.51689    0.007
 6887.00    0.50203   0.51931    0.006
 6888.00    0.53592   0.52030    0.006
 6889.00    0.56812   0.51814    0.006
 6890.00    0.54964   0.51711    0.007
 6891.00    0.51389   0.51653    0.007
 6892.00    0.51609   0.51375    0.007
 6893.00    0.52916   0.51274    0.007
 6894.00    0.52863   0.51580    0.007
 6895.00    0.52488   0.51771    0.007
 6896.00    0.54067   0.51504    0.007
 6897.00    0.56018   0.51319    0.007
 6898.00    0.53712   0.51630    0.007
 6899.00    0.50777   0.51979    0.007
 6900.00    0.49988   0.51932    0.007
 6901.00    0.49431   0.51722    0.007
 6902.00    0.49789   0.51796    0.007
 6903.00    0.50211   0.52102    0.007
 6904.00    0.44601   0.52301    0.007
 6905.00    0.38774   0.52263    0.007
 6906.00    0.44109   0.52151    0.007
 6907.00    0.49236   0.51980    0.007
 6908.00    0.45890   0.51691    0.007
 6909.00    0.42755   0.51308    0.006
 6910.00    0.42969   0.50746    0.006
 6911.00    0.43571   0.50387    0.006
 6912.00    0.48075   0.50535    0.007
 6913.00    0.51542   0.50750    0.007
 6914.00    0.47561   0.50865    0.007
 6915.00    0.44365   0.51057    0.007
 6916.00    0.45492   0.51352    0.007
 6917.00    0.46976   0.51654    0.007
 6918.00    0.50032   0.51841    0.007
 6919.00    0.51682   0.51682    0.007
 6920.00    0.48236   0.51022    0.007
 6921.00    0.45578   0.50282    0.007
 6922.00    0.45313   0.50058    0.007
 6923.00    0.46780   0.50509    0.007
 6924.00    0.52725   0.51182    0.007
 6925.00    0.56322   0.51521    0.007
 6926.00    0.54703   0.51560    0.007
 6927.00    0.52765   0.51549    0.007
 6928.00    0.50211   0.51369    0.007
 6929.00    0.49363   0.50932    0.007
 6930.00    0.51383   0.50717    0.007
 6931.00    0.52194   0.51078    0.007
 6932.00    0.51222   0.51489    0.007
 6933.00    0.52590   0.51506    0.007
 6934.00    0.56987   0.51391    0.007
 6935.00    0.57572   0.51410    0.007
 6936.00    0.53810   0.51588    0.007
 6937.00    0.49691   0.51791    0.007
 6938.00    0.45213   0.51774    0.007
 6939.00    0.42347   0.51429    0.007
 6940.00    0.40911   0.50828    0.007
 6941.00    0.40162   0.50130    0.007
 6942.00    0.39949   0.49945    0.007
 6943.00    0.39778   0.50532    0.007
 6944.00    0.39636   0.51214    0.007
 6945.00    0.43836   0.51580    0.007
 6946.00    0.50654   0.51604    0.007
 6947.00    0.47746   0.51176    0.007
 6948.00    0.39720   0.50670    0.007
 6949.00    0.40182   0.50512    0.007
 6950.00    0.44518   0.50534    0.007
 6951.00    0.46953   0.50651    0.007
 6952.00    0.48641   0.50963    0.007
 6953.00    0.51753   0.51341    0.007
 6954.00    0.55343   0.51520    0.007
 6955.00    0.57208   0.51483    0.007
 6956.00    0.58589   0.51439    0.007
 6957.00    0.51501   0.51490    0.007
 6958.00    0.42453   0.51606    0.007
 6959.00    0.39214   0.51712    0.007
 6960.00    0.37054   0.51779    0.007
 6961.00    0.43891   0.51664    0.007
 6962.00    0.52016   0.51385    0.007
 6963.00    0.55492   0.51378    0.007
 6964.00    0.58486   0.51787    0.007
 6965.00    0.51317   0.52093    0.007
 6966.00    0.43470   0.51930    0.007
 6967.00    0.46243   0.51513    0.007
 6968.00    0.49356   0.51360    0.007
 6969.00    0.48130   0.51644    0.007
 6970.00    0.46706   0.51798    0.007
 6971.00    0.39238   0.51426    0.007
 6972.00    0.32884   0.50782    0.007
 6973.00    0.43117   0.49969    0.007
 6974.00    0.52216   0.48804    0.007
 6975.00    0.50419   0.47896    0.007
 6976.00    0.49414   0.48315    0.007
 6977.00    0.53918   0.49741    0.007
 6978.00    0.56736   0.50966    0.007
 6979.00    0.50504   0.51626    0.007
 6980.00    0.45292   0.51922    0.007
 6981.00    0.44479   0.51988    0.007
 6982.00    0.44193   0.51935    0.007
 6983.00    0.45781   0.51816    0.007
 6984.00    0.48869   0.51515    0.007
 6985.00    0.56433   0.51029    0.007
 6986.00    0.60705   0.50795    0.007
 6987.00    0.56618   0.51091    0.007
 6988.00    0.53304   0.51575    0.007
 6989.00    0.51678   0.51793    0.007
 6990.00    0.49230   0.51644    0.007
 6991.00    0.45221   0.51477    0.007
 6992.00    0.41177   0.51571    0.007
 6993.00    0.37078   0.51741    0.007
 6994.00    0.38416   0.51619    0.007
 6995.00    0.47646   0.51005    0.007
 6996.00    0.54730   0.50322    0.007
 6997.00    0.59073   0.50301    0.007
 6998.00    0.60986   0.50893    0.007
 6999.00    0.60165   0.51220    0.007
 7000.00    0.56550   0.50792    0.007
 7001.00    0.50163   0.50170    0.007
 7002.00    0.43409   0.50000    0.007
 7003.00    0.36334   0.50255    0.007
 7004.00    0.35848   0.50677    0.007
 7005.00    0.40442   0.51121    0.007
 7006.00    0.41684   0.51336    0.007
 7007.00    0.40655   0.51178    0.007
 7008.00    0.39276   0.51023    0.007
 7009.00    0.37691   0.51184    0.007
 7010.00    0.37590   0.51284    0.007
 7011.00    0.38259   0.50589    0.007
 7012.00    0.40583   0.49125    0.007
 7013.00    0.43651   0.48309    0.007
 7014.00    0.44625   0.49170    0.007
 7015.00    0.44791   0.50666    0.007
 7016.00    0.45036   0.51558    0.007
 7017.00    0.45308   0.51818    0.007
 7018.00    0.43842   0.51515    0.007
 7019.00    0.41899   0.50592    0.007
 7020.00    0.40979   0.49647    0.007
 7021.00    0.40291   0.49481    0.007
 7022.00    0.48544   0.49997    0.007
 7023.00    0.58412   0.50472    0.007
 7024.00    0.55176   0.50664    0.007
 7025.00    0.50124   0.50857    0.007
 7026.00    0.54416   0.51125    0.007
 7027.00    0.59636   0.51313    0.007
 7028.00    0.55362   0.51297    0.008
 7029.00    0.50493   0.51127    0.008
 7030.00    0.45668   0.50955    0.008
 7031.00    0.40830   0.50934    0.008
 7032.00    0.32158   0.51138    0.008
 7033.00    0.24255   0.51034    0.008
 7034.00    0.37476   0.50146    0.008
 7035.00    0.49557   0.49513    0.008
 7036.00    0.45624   0.50322    0.008
 7037.00    0.42271   0.51832    0.008
 7038.00    0.44276   0.52797    0.008
 7039.00    0.46251   0.53016    0.007
 7040.00    0.48022   0.52661    0.007
 7041.00    0.48896   0.52059    0.007
 7042.00    0.45085   0.51798    0.007
 7043.00    0.42570   0.52079    0.007
 7044.00    0.45519   0.52586    0.007
 7045.00    0.48443   0.52846    0.007
 7046.00    0.51283   0.52688    0.007
 7047.00    0.53970   0.52257    0.008
 7048.00    0.56212   0.51415    0.008
 7049.00    0.57812   0.50150    0.008
 7050.00    0.57811   0.49033   -2.000
 7051.00    0.55612   0.48534   -2.000
 7052.00    0.48684   0.48724   -2.000
 7053.00    0.44327   0.49307   -2.000
 7054.00    0.44770   0.49668   -2.000
 7055.00    0.44849   0.49349   -2.000
 7056.00    0.44335   0.48607   -2.000
 7057.00    0.43107   0.48208   -2.000
 7058.00    0.40858   0.48407   -2.000
 7059.00    0.45398   0.48823   -2.000
 7060.00    0.58480   0.49273   -2.000
 7061.00    0.64893   0.49583   -2.000
 7062.00    0.63913   0.49321   -2.000
 7063.00    0.63672   0.48566   -2.000
 7064.00    0.64157   0.47779   -2.000
 7065.00    0.62058   0.47525   -2.000
 7066.00    0.57732   0.48149   -2.000
 7067.00    0.56198   0.49049   -2.000
 7068.00    0.56784   0.49496   -2.000
 7069.00    0.57281   0.49581   -2.000
 7070.00    0.57720   0.49616   -2.000
 7071.00    0.52553   0.49594   -2.000
 7072.00    0.44108   0.49483   -2.000
 7073.00    0.46376   0.49414   -2.000
 7074.00    0.54105   0.49487   -2.000
 7075.00    0.57134   0.49622   -2.000
 7076.00    0.58087   0.49763   -2.000
 7077.00    0.60623   0.49895   -2.000
 7078.00    0.63758   0.49734   -2.000
 7079.00    0.49865   0.48985   -2.000
 7080.00    0.30488   0.47779   -2.000
 7081.00    0.37507   0.46859   -2.000
 7082.00    0.51636   0.46815   -2.000
 7083.00    0.51739   0.46984   -2.000
 7084.00    0.48746   0.46709   -2.000
 7085.00    0.52103   0.46337   -2.000
 7086.00    0.56576   0.46082   -2.000
 7087.00    0.49497   0.46012   -2.000
 7088.00    0.40871   0.46211   -2.000
 7089.00    0.42698   0.46334   -2.000
 7090.00    0.45518   0.46304   -2.000
 7091.00    0.51340   0.46295   -2.000
 7092.00    0.57339   0.46296   -2.000
 7093.00    0.57507   0.46348   -2.000
 7094.00    0.57522   0.46550   -2.000
 7095.00    0.56333   0.47077   -2.000
 7096.00    0.55039   0.47544   -2.000
 7097.00    0.51129   0.47583   -2.000
 7098.00    0.46844   0.47334   -2.000
 7099.00    0.37567   0.47122   -2.000
 7100.00    0.30023   0.47258   -2.000
 7101.00    0.37842   0.47646   -2.000
 7102.00    0.45204   0.47795   -2.000
 7103.00    0.49575   0.47568   -2.000
 7104.00    0.52162   0.47417   -2.000
 7105.00    0.45661   0.47501   -2.000
 7106.00    0.41206   0.47342   -2.000
 7107.00    0.45171   0.46792   -2.000
 7108.00    0.48952   0.46448   -2.000
 7109.00    0.52102   0.46713   -2.000
 7110.00    0.54434   0.47192   -2.000
 7111.00    0.54419   0.47462   -2.000
 7112.00    0.52671   0.47632   -2.000
 7113.00    0.46673   0.47802   -2.000
 7114.00    0.45177   0.47864   -2.000
 7115.00    0.53210   0.47832   -2.000
 7116.00    0.55789   0.47780   -2.000
 7117.00    0.48340   0.47621   -2.000
 7118.00    0.45607   0.47260   -2.000
 7119.00    0.50451   0.47183   -2.000
 7120.00    0.52745   0.47532   -2.000
 7121.00    0.51444   0.47464   -2.000
 7122.00    0.49512   0.46809   -2.000
 7123.00    0.46798   0.46395   -2.000
 7124.00    0.40017   0.46533   -2.000
 7125.00    0.28790   0.46616   -2.000
 7126.00    0.37304   0.46115   -2.000
 7127.00    0.64854   0.45425   -2.000
 7128.00    0.75092   0.45385   -2.000
 7129.00    0.70608   0.45969   -2.000
 7130.00    0.60049   0.46646   -2.000
 7131.00    0.44941   0.47084   -2.000
 7132.00    0.37274   0.47241   -2.000
 7133.00    0.34503   0.47386   -2.000
 7134.00    0.39918   0.47403   -2.000
 7135.00    0.50048   0.47093   -2.000
 7136.00    0.48647   0.46912   -2.000
 7137.00    0.41461   0.47158   -2.000
 7138.00    0.35131   0.47383   -2.000
 7139.00    0.29172   0.47348   -2.000
 7140.00    0.32064   0.47284   -2.000
 7141.00    0.38252   0.47246   -2.000
 7142.00    0.40869   0.47211   -2.000
 7143.00    0.42359   0.46820   -2.000
 7144.00    0.37767   0.45850   -2.000
 7145.00    0.31570   0.45355   -2.000
 7146.00    0.36421   0.45884   -2.000
 7147.00    0.43655   0.46603   -2.000
 7148.00    0.43477   0.47176   -2.000
 7149.00    0.42033   0.47754   -2.000
 7150.00    0.42267   0.47967   -2.000
 7151.00    0.42718   0.47666   -2.000
 7152.00    0.38668   0.47533   -2.000
 7153.00    0.34209   0.47947   -2.000
 7154.00    0.37536   0.48201   -2.000
 7155.00    0.41288   0.47876   -2.000
 7156.00    0.53466   0.47409   -2.000
 7157.00    0.65680   0.47328   -2.000
 7158.00    0.65144   0.47594   -2.000
 7159.00    0.63771   0.47480   -2.000
 7160.00    0.43410   0.46452   -2.000
 7161.00    0.27345   0.45296   -2.000
 7162.00    0.65374   0.45315   -2.000
 7163.00    0.97115   0.46375   -2.000
 7164.00    0.75206   0.47381   -2.000
 7165.00    0.56850   0.47741   -2.000
 7166.00    0.61006   0.47673   -2.000
 7167.00    0.62515   0.47722   -2.000
 7168.00    0.50884   0.48030   -2.000
 7169.00    0.43159   0.48266   -2.000
 7170.00    0.51160   0.48270   -2.000
 7171.00    0.56321   0.47958   -2.000
 7172.00    0.51994   0.47317   -2.000
 7173.00    0.46426   0.47008   -2.000
 7174.00    0.37359   0.47420   -2.000
 7175.00    0.33616   0.47668   -2.000
 7176.00    0.42714   0.46975   -2.000
 7177.00    0.50482   0.45943   -2.000
 7178.00    0.55484   0.45762   -2.000
 7179.00    0.58403   0.46710   -2.000
 7180.00    0.57552   0.47682   -2.000
 7181.00    0.50926   0.47914   -2.000
 7182.00    0.35157   0.47473   -2.000
 7183.00    0.27730   0.46425   -2.000
 7184.00    0.31893   0.45533   -2.000
 7185.00    0.39534   0.45417   -2.000
 7186.00    0.51426   0.45858   -2.000
 7187.00    0.56262   0.46486   -2.000
 7188.00    0.53492   0.46767   -2.000
 7189.00    0.47329   0.46610   -2.000
 7190.00    0.37941   0.46569   -2.000
 7191.00    0.36539   0.46954   -2.000
 7192.00    0.41830   0.47137   -2.000
 7193.00    0.39314   0.46757   -2.000
 7194.00    0.31035   0.46579   -2.000
 7195.00    0.34269   0.47035   -2.000
 7196.00    0.44967   0.47472   -2.000
 7197.00    0.43730   0.47317   -2.000
 7198.00    0.35722   0.46860   -2.000
 7199.00    0.39893   0.46809   -2.000
 7200.00    0.50079   0.47363   -2.000
 7201.00    0.54084   0.47880   -2.000
 7202.00    0.55449   0.47412   -2.000
 7203.00    0.49843   0.45991   -2.000
 7204.00    0.41686   0.45077   -2.000
 7205.00    0.46110   0.45335   -2.000
 7206.00    0.54431   0.46269   -2.000
 7207.00    0.42935   0.47339   -2.000
 7208.00    0.26323   0.47836   -2.000
 7209.00    0.36080   0.47571   -2.000
 7210.00    0.51384   0.47106   -2.000
 7211.00    0.49131   0.46838   -2.000
 7212.00    0.43963   0.46855   -2.000
 7213.00    0.43836   0.47261   -2.000
 7214.00    0.44338   0.47829   -2.000
 7215.00    0.43554   0.48033   -2.000
 7216.00    0.42658   0.47837   -2.000
 7217.00    0.40326   0.47593   -2.000
 7218.00    0.37921   0.47397   -2.000
