###################################################################
## OUTPUT of StarlightChains_v04.for    [Cid@UFSC - 01/Apr/2007] ##
###################################################################

## Some input info
KUG0210-078._34_43.txt                   [arq_obs]
Base.CB07.vall.4m                        [arq_base]
Masks.EmLines.NEW.gm                     [arq_masks]
StCv04.C11.config                        [arq_config]
   66                                    [N_base]
    0                                    [N_YAV_components = # of components with extra extinction!]
    0                                    [i_FitPowerLaw (1/0 = Yes/No)]
-9.99                                    [alpha_PowerLaw]
CCM                                      [red_law_option]
 1.458241                                [q_norm = A(l_norm)/A(V)]

## (Re)Sampling Parameters
 3741.00                                 [l_ini (A)]
 7218.00                                 [l_fin (A)]
    1.00                                 [dl    (A)]     (OBS: dl_cushion =    50.00 A)

## Normalization info
 4020.00                                 [l_norm (A) - for base]
 4010.00                                 [llow_norm (A) - window for f_obs]
 4060.00                                 [lupp_norm (A) - window for f_obs]
1.140775E-17                             [fobs_norm (in input units)]

## S/N
 3691.00                                 [llow_SN (A) - window for S/N]
 7268.00                                 [lupp_SN (A) - window for S/N]
   5.594                                 [S/N in S/N window]
   5.193                                 [S/N in norm. window]
   0.015                                 [S/N_err in S/N window]
   0.014                                 [S/N_err in norm. window]
  1.0000                                 [fscale_chi2]

## etc...
    -2007548                             [idum_orig]
  2429                                   [NOl_eff]
  2416                                   [Nl_eff]
    13    NSIGMA                         [Ntot_cliped & clip_method]
   735840                                [Nglobal_steps]
   7                                     [N_chains]
  27                                     [NEX0s_base = N_base in EX0s-fits]
 0   0   1       13   2.0   1.699E+03    [Clip-Bug, RC-Crash & Burn-In warning-flags, n_censored_weights, wei_nsig_threshold & wei_limit]
    13     12.944     12.541      0.403  [idt_all, wdt_TotTime, wdt_UsrTime & wdt_SysTime (sec)]

## Synthesis Results - Best model ##

 7.05069E-06                             [chi2/Nl_eff]
    10.68117                             [adev (%)]

   111.99812                             [sum-of-x (%)]
 8.38484E-18                             [Flux_tot (units of input spectrum!)]
 5.56012E-13                             [Mini_tot (???)]
 2.81137E-13                             [Mcor_tot (???)]

-330.41                                  [v0_min  (km/s)]
 336.43                                  [vd_min  (km/s)]
-0.3136                                  [AV_min  (mag)]
 0.0000                                  [YAV_min (mag)]

# j     x_j(%)      Mini_j(%)     Mcor_j(%)     age_j(yr)     Z_j      (L/M)_j    YAV?  Mstars   component_j        a/Fe...       SSP_chi2r SSP_adev(%)   SSP_AV   SSP_x(%)
  1      0.0000     0.0000E+00    0.0000E+00    1.000000E+06  0.00400  1.094E-02    0   1.0000   age020_m42            0.0000     9.5099E-06    12.4666   3.2668    94.0404
  2      0.0000     0.0000E+00    0.0000E+00    3.160000E+06  0.00400  4.007E-02    0   0.9999   age045_m42            0.0000     8.6615E-06    12.0050   2.5314   100.7627
  3      0.0000     0.0000E+00    0.0000E+00    5.010000E+06  0.00400  2.539E-02    0   0.9488   age055_m42            0.0000     8.9931E-06    12.2271   2.8580    98.1213
  4      0.0000     0.0000E+00    0.0000E+00    6.610000E+06  0.00400  2.620E-02    0   0.9220   age061_m42            0.0000     8.6740E-06    12.0869   2.4597   100.9387
  5      0.0000     0.0000E+00    0.0000E+00    1.000000E+07  0.00400  1.322E-02    0   0.8862   age070_m42            0.0000     9.1243E-06    13.0976   2.2107   102.1127
  6      0.0000     0.0000E+00    0.0000E+00    1.445000E+07  0.00400  7.883E-03    0   0.8571   age078_m42            0.0000     9.2898E-06    13.0829   2.5360    99.5887
  7      0.0000     0.0000E+00    0.0000E+00    2.512000E+07  0.00400  5.251E-03    0   0.8174   age090_m42            0.0000     9.1961E-06    13.2970   2.0851   102.5667
  8      0.0000     0.0000E+00    0.0000E+00    4.000000E+07  0.00400  3.649E-03    0   0.7851   age104_m42            0.0000     8.9631E-06    13.0814   1.8513   103.6192
  9      0.0000     0.0000E+00    0.0000E+00    5.500000E+07  0.00400  3.098E-03    0   0.7629   age110_m42            0.0000     8.7385E-06    12.5675   1.9897   104.0861
 10     11.4234     6.9037E-02    9.8402E-02    1.015200E+08  0.00400  2.228E-03    0   0.7207   age116_m42            0.0000     8.6549E-06    12.2726   1.9993   104.5983
 11      0.0000     0.0000E+00    0.0000E+00    2.861200E+08  0.00400  1.093E-03    0   0.6648   age125_m42            0.0000     8.6914E-06    12.7231   1.4361   107.4195
 12      1.3131     2.6801E-02    3.3738E-02    5.088000E+08  0.00400  6.597E-04    0   0.6365   age130_m42            0.0000     8.4884E-06    12.1511   1.4109   108.8022
 13      0.0000     0.0000E+00    0.0000E+00    1.434000E+09  0.00400  2.132E-04    0   0.5798   age139_m42            0.0000     7.7599E-06    11.4915   0.4307   111.1698
 14      0.0000     0.0000E+00    0.0000E+00    4.250000E+09  0.00400  5.895E-05    0   0.5377   age158_m42            0.0000     7.2711E-06    10.8892  -0.0288   107.3861
 15      0.0000     0.0000E+00    0.0000E+00    7.500000E+09  0.00400  3.510E-05    0   0.5212   age171_m42            0.0000     7.2737E-06    10.8055  -0.2256   106.8751
 16     15.5274     1.0428E+01    1.0382E+01    1.300000E+10  0.00400  2.005E-05    0   0.5034   age193_m42            0.0000     7.3050E-06    10.8162  -0.3985   106.4637
 17      0.0000     0.0000E+00    0.0000E+00    1.800000E+10  0.00400  1.525E-05    0   0.4967   age213_m42            0.0000     7.3298E-06    10.8750  -0.4195   105.9282
 18      1.6874     1.8353E-03    3.6297E-03    1.000000E+06  0.00800  1.238E-02    0   1.0000   age020_m52            0.0000     9.5112E-06    12.4638   3.2632    94.2261
 19      0.0000     0.0000E+00    0.0000E+00    3.160000E+06  0.00800  3.074E-02    0   0.9966   age045_m52            0.0000     9.4192E-06    12.4013   3.1858    95.0873
 20      0.0000     0.0000E+00    0.0000E+00    5.010000E+06  0.00800  2.668E-02    0   0.9443   age055_m52            0.0000     9.1045E-06    12.3117   2.9430    97.1872
 21      0.0000     0.0000E+00    0.0000E+00    6.610000E+06  0.00800  2.136E-02    0   0.9177   age061_m52            0.0000     8.6814E-06    12.7541   1.7088   103.3048
 22      0.0000     0.0000E+00    0.0000E+00    1.000000E+07  0.00800  1.215E-02    0   0.8827   age070_m52            0.0000     9.4522E-06    13.5443   2.3976   101.6521
 23      0.0049     7.6032E-06    1.2860E-05    1.445000E+07  0.00800  8.717E-03    0   0.8552   age078_m52            0.0000     9.2138E-06    13.0738   2.5004   101.0119
 24      0.0000     0.0000E+00    0.0000E+00    2.512000E+07  0.00800  5.592E-03    0   0.8162   age090_m52            0.0000     9.2152E-06    13.4062   2.1486   103.7953
 25      0.0000     0.0000E+00    0.0000E+00    4.000000E+07  0.00800  3.896E-03    0   0.7841   age104_m52            0.0000     8.9637E-06    13.1055   2.0518   104.8688
 26      0.0000     0.0000E+00    0.0000E+00    1.015200E+08  0.00800  2.148E-03    0   0.7226   age116_m52            0.0000     8.6311E-06    12.5006   1.9741   105.2023
 27      0.0000     0.0000E+00    0.0000E+00    2.861200E+08  0.00800  9.925E-04    0   0.6683   age125_m52            0.0000     8.4623E-06    12.1312   1.4758   109.8567
 28      0.0000     0.0000E+00    0.0000E+00    9.047900E+08  0.00800  3.141E-04    0   0.6138   age135_m52            0.0000     7.8610E-06    11.2712   0.6521   115.1146
 29      0.0000     0.0000E+00    0.0000E+00    1.434000E+09  0.00800  1.719E-04    0   0.5853   age139_m52            0.0000     7.3604E-06    11.2040   0.0701   112.7127
 30      0.0000     0.0000E+00    0.0000E+00    2.500000E+09  0.00800  7.872E-05    0   0.5600   age150_m52            0.0000     7.2263E-06    10.6735  -0.2179   110.3009
 31      0.0221     6.8534E-03    7.3545E-03    4.250000E+09  0.00800  4.336E-05    0   0.5426   age158_m52            0.0000     7.2780E-06    10.7132  -0.2343   109.2814
 32      0.4760     2.0287E-01    2.1341E-01    6.250000E+09  0.00800  3.159E-05    0   0.5319   age166_m52            0.0000     7.4090E-06    10.7684  -0.4510   109.6908
 33      0.0000     0.0000E+00    0.0000E+00    1.300000E+10  0.00800  1.361E-05    0   0.5073   age193_m52            0.0000     7.7567E-06    11.0237  -0.9373   109.4533
 34      0.0000     0.0000E+00    0.0000E+00    1.800000E+10  0.00800  9.886E-06    0   0.4990   age213_m52            0.0000     8.1579E-06    11.1102  -1.0000   107.5446
 35      6.1212     5.3382E-03    1.0557E-02    1.000000E+06  0.02000  1.544E-02    0   1.0000   age020_m62            0.0000     9.5472E-06    12.4739   3.2586    94.4552
 36      0.0000     0.0000E+00    0.0000E+00    3.160000E+06  0.02000  3.762E-02    0   0.9858   age045_m62            0.0000     9.5057E-06    12.4488   3.1982    95.2631
 37      0.0000     0.0000E+00    0.0000E+00    5.010000E+06  0.02000  3.296E-02    0   0.9342   age055_m62            0.0000     8.7935E-06    12.0421   2.8101    99.5958
 38      0.0000     0.0000E+00    0.0000E+00    8.710000E+06  0.02000  1.154E-02    0   0.8861   age067_m62            0.0000     1.1724E-05    16.5382   1.9010   102.8101
 39      0.0000     0.0000E+00    0.0000E+00    1.445000E+07  0.02000  7.663E-03    0   0.8472   age078_m62            0.0000     9.8282E-06    14.3631   2.0568   103.5087
 40      0.0000     0.0000E+00    0.0000E+00    2.512000E+07  0.02000  4.532E-03    0   0.8099   age090_m62            0.0000     9.9544E-06    14.5639   2.0509   103.1674
 41      0.0000     0.0000E+00    0.0000E+00    5.500000E+07  0.02000  2.733E-03    0   0.7595   age110_m62            0.0000     8.9434E-06    13.0851   2.0349   104.0997
 42      0.0000     0.0000E+00    0.0000E+00    1.609000E+08  0.02000  1.369E-03    0   0.6985   age120_m62            0.0000     8.6510E-06    12.3781   1.8499   107.7379
 43     19.8145     2.9602E-01    3.9306E-01    2.861200E+08  0.02000  9.013E-04    0   0.6714   age125_m62            0.0000     8.6369E-06    12.0426   1.5877   111.2344
 44      0.0000     0.0000E+00    0.0000E+00    5.088000E+08  0.02000  5.028E-04    0   0.6449   age130_m62            0.0000     8.3315E-06    11.2573   1.1853   114.9266
 45      0.0000     0.0000E+00    0.0000E+00    9.047900E+08  0.02000  2.428E-04    0   0.6179   age135_m62            0.0000     7.5961E-06    10.7539   0.5855   114.6105
 46      1.5026     1.6019E-01    1.8717E-01    1.434000E+09  0.02000  1.263E-04    0   0.5908   age139_m62            0.0000     7.3591E-06    10.6355   0.1338   113.1034
 47      0.0000     0.0000E+00    0.0000E+00    2.500000E+09  0.02000  5.985E-05    0   0.5673   age150_m62            0.0000     7.3944E-06    10.6893  -0.2507   112.0690
 48      0.0000     0.0000E+00    0.0000E+00    4.250000E+09  0.02000  3.271E-05    0   0.5468   age158_m62            0.0000     7.6932E-06    10.9608  -0.5790   111.7878
 49      8.0291     7.9493E+00    8.1234E+00    1.000000E+10  0.02000  1.360E-05    0   0.5167   age181_m62            0.0000     8.4555E-06    11.4843  -0.9551   112.1274
 50     20.2488     3.8272E+01    3.7944E+01    1.800000E+10  0.02000  7.124E-06    0   0.5013   age213_m62            0.0000     9.5204E-06    11.5060  -1.0000   106.0983
 51      0.0000     0.0000E+00    0.0000E+00    1.000000E+06  0.05000  2.592E-02    0   0.9998   age020_m72            0.0000     9.6843E-06    12.5615   3.2536    94.3854
 52      0.0000     0.0000E+00    0.0000E+00    3.160000E+06  0.05000  4.845E-02    0   0.9577   age045_m72            0.0000     9.1646E-06    12.2271   3.0729    96.7859
 53      0.0000     0.0000E+00    0.0000E+00    5.010000E+06  0.05000  3.072E-02    0   0.9147   age055_m72            0.0000     9.6591E-06    13.7110   2.6246   100.0367
 54      0.0000     0.0000E+00    0.0000E+00    6.610000E+06  0.05000  1.455E-02    0   0.8877   age061_m72            0.0000     1.3667E-05    18.7294   1.9490   103.2534
 55      0.7164     1.0630E-03    1.7920E-03    1.000000E+07  0.05000  9.074E-03    0   0.8524   age070_m72            0.0000     9.9622E-06    14.1331   2.7959    99.8753
 56      0.0000     0.0000E+00    0.0000E+00    2.512000E+07  0.05000  4.250E-03    0   0.7902   age090_m72            0.0000     9.5321E-06    13.8346   2.4990   101.8697
 57      0.0000     0.0000E+00    0.0000E+00    4.000000E+07  0.05000  3.087E-03    0   0.7618   age104_m72            0.0000     9.5923E-06    14.0659   2.2734   103.5141
 58      0.0000     0.0000E+00    0.0000E+00    1.015200E+08  0.05000  1.700E-03    0   0.7096   age116_m72            0.0000     8.9289E-06    12.8677   2.0007   107.0211
 59      0.0000     0.0000E+00    0.0000E+00    2.861200E+08  0.05000  7.384E-04    0   0.6633   age125_m72            0.0000     8.5028E-06    11.6353   1.4411   113.2266
 60      0.0000     0.0000E+00    0.0000E+00    5.088000E+08  0.05000  3.819E-04    0   0.6372   age130_m72            0.0000     7.8929E-06    10.8715   0.9268   115.7589
 61      0.0000     0.0000E+00    0.0000E+00    9.047900E+08  0.05000  1.676E-04    0   0.6110   age135_m72            0.0000     7.4964E-06    10.6153   0.2033   114.4901
 62      0.0249     3.7951E-03    4.4088E-03    1.434000E+09  0.05000  8.837E-05    0   0.5874   age139_m72            0.0000     7.5858E-06    10.8058  -0.2584   113.9562
 63      5.1748     1.6461E+00    1.8224E+00    2.500000E+09  0.05000  4.233E-05    0   0.5598   age150_m72            0.0000     7.8427E-06    11.0904  -0.5913   113.1588
 64      0.2061     1.9334E-01    2.0071E-01    6.250000E+09  0.05000  1.435E-05    0   0.5249   age166_m72            0.0000     8.6516E-06    11.4107  -1.0000   110.0844
 65     19.7053     4.0738E+01    4.0575E+01    1.300000E+10  0.05000  6.513E-06    0   0.5036   age193_m72            0.0000     1.0863E-05    12.4274  -1.0000   102.1144
 66      0.0000     0.0000E+00    0.0000E+00    1.800000E+10  0.05000  4.527E-06    0   0.4945   age213_m72            0.0000     1.3052E-05    13.9954  -1.0000    96.6006


## Synthesis Results - Average & Chains ##

# j      x_j: min, <> & last-chain-values for 1 ...  7 chains
  1      0.0000      0.7791      0.4709      0.4107      0.6454      0.6595      0.2509      0.0000      0.3558
  2      0.0000      1.0489      0.2220      0.0000      0.0583      0.0000      0.0487      0.0000      0.0000
  3      0.0000      0.9975      0.0021      0.0000      0.3904      0.0000      0.3980      0.0000      0.2590
  4      0.0000      0.8427      0.1315      0.2389      0.0000      0.0000      0.0000      0.1793      0.4503
  5      0.0000      1.2164      0.2435      0.0000      0.1032      0.0000      0.0000      0.0000      0.0000
  6      0.0000      0.8301      0.3353      0.0000      0.1190      0.1569      0.2797      0.0852      0.0999
  7      0.0000      0.8864      0.0274      0.2712      0.0000      0.0308      0.0650      0.0038      0.0000
  8      0.0000      0.9286      0.0000      0.0570      0.0000      0.0000      0.0316      0.3337      0.0000
  9      0.0000      1.2780      0.0000      0.0484      0.0000      0.6840      0.1674      0.0356      0.0000
 10     11.4234      0.7343      0.2626      0.2367      0.2585      0.2987      0.0562      0.2955      0.0000
 11      0.0000      1.0814      0.0000      0.0000      0.0000      0.2640      0.3202      0.1672      0.0222
 12      1.3131      1.2006      0.1551      0.4715      0.0000      0.0293      0.3674      0.7309      0.0000
 13      0.0000      0.9551      0.0000      0.4128      0.0000      0.0000      0.0000      0.0000      0.0000
 14      0.0000      0.6810      0.0000      0.2134      0.3207      0.0000      0.4148      0.0000      0.0000
 15      0.0000      0.8579      0.0000      0.0000      0.4800      0.0905      0.3259      0.0000      0.0469
 16     15.5274      0.8749      0.1843      0.2166      0.2590      0.1868      0.0000      2.1539      0.0069
 17      0.0000      0.6924      0.4331      0.0000      0.0984      0.6592      0.2754      0.0000      0.0000
 18      1.6874      0.8848      0.4935      0.3398      0.6187      0.5203      0.8026      0.4382      0.3609
 19      0.0000      0.6419      0.3352      0.2230      0.1548      0.0858      0.4748      0.0000      0.0719
 20      0.0000      0.6762      0.3932      0.1461      0.0000      0.2651      0.4201      0.0000      0.0660
 21      0.0000      1.1194      0.0000      0.0000      0.6930      0.1213      0.0154      0.0000      0.2542
 22      0.0000      1.0558      0.2665      0.0000      0.0417      0.0964      0.0000      0.1937      0.0000
 23      0.0049      0.8151      0.0000      0.2581      0.0123      1.0222      0.0222      0.9784      0.0127
 24      0.0000      1.1856      0.0736      0.1985      0.0000      0.0000      0.0000      0.1560      0.6815
 25      0.0000      0.7184      0.0947      0.2974      0.0604      0.0798      0.1333      0.0000      0.0000
 26      0.0000      0.9889      0.1872      0.1174      0.0808      0.4787      0.0000      0.0158      0.0417
 27      0.0000      0.6961      0.0439      0.1791      0.3832      0.4271      0.5975      0.0882      0.0521
 28      0.0000      1.2242      0.4045      0.4272      0.2049      0.5578      0.0000      0.1025      0.6981
 29      0.0000      0.6943      0.0000      0.2551      0.1928      0.2801      0.1798      0.0000      0.1148
 30      0.0000      0.7388      0.1480      0.0000      0.0000      0.0000      0.0618      1.8970      0.0000
 31      0.0221      0.8619      0.3213      0.0671      0.2153      0.0000      0.2948      1.2181      0.0000
 32      0.4760      1.0456      0.0000      0.6545      0.0000      0.0000      0.2477      0.4012      0.0923
 33      0.0000      0.7820      0.1562      0.1686      0.0000      0.0000      0.1085      0.0000      0.0000
 34      0.0000      0.9555      0.1219      0.0000      0.0000      0.1695      0.0166      0.1569      0.3135
 35      6.1212      1.1476      0.0000      0.0102      0.3392      0.3828      0.0554      1.0791      0.0539
 36      0.0000      0.7738      0.2109      0.1072      0.1998      0.4489      0.1304      0.0665      0.3113
 37      0.0000      0.9311      0.6120      0.0384      0.2485      0.0496      0.3339      0.0000      0.3168
 38      0.0000      1.1279      5.8395      5.3559      5.9511      4.2961      3.5634      5.0255      5.1986
 39      0.0000      1.7569      0.0000      0.0157      0.0640      0.0000      0.0000      0.0000      0.0000
 40      0.0000      1.1489      0.0000      0.0000      0.0000      0.4116      0.0137      0.0000      0.0000
 41      0.0000      0.8923      0.0499      0.0000      0.0000      0.0000      0.0000      0.0510      0.0000
 42      0.0000      0.7598      0.0853      0.3440      0.5851      0.0861      0.2076      0.0000      0.5941
 43     19.8145      1.2001      0.0000      0.3006      0.6861      0.9070      0.0483      0.4764      0.2340
 44      0.0000      1.2008      0.3793      0.3265      0.4188      0.0000      0.9860      0.0000      0.2909
 45      0.0000      1.0989      0.0000      0.4937      0.1615      0.3509      0.0220      1.4434      0.7652
 46      1.5026      0.9462      0.0000      0.0682      0.3114      0.1785      0.0423      0.3998      0.0000
 47      0.0000      1.0654      0.0000      0.9341      0.1505      0.3242      0.0994      0.0000      0.0000
 48      0.0000      1.1101      0.1266      0.5016      0.0583      0.0000      0.0441      0.0257      0.4438
 49      8.0291      1.2084      1.2885      1.6643      1.6303      1.4773      1.7407      1.1958      1.4018
 50     20.2488      1.0408      0.2322      0.8364      3.1467      0.8737      1.0428      0.5319      3.1515
 51      0.0000      0.9526      0.4942      1.0921      0.1654      0.7744      0.9760      0.2715      0.2441
 52      0.0000      0.8948      0.0000      0.0000      0.1286      0.1650      0.1610      0.5676      0.0000
 53      0.0000      1.0807      0.0000      0.0000      0.0000      0.1411      0.0000      0.0000      0.0000
 54      0.0000      2.8155     13.2134     11.4117     10.2858     12.3161     13.6977      8.4166     10.8040
 55      0.7164      1.0564      0.3939      0.1266      0.1768      0.1526      0.0000      0.6294      0.0000
 56      0.0000      0.9860      0.0000      0.0358      0.0000      0.0632      0.0000      0.0000      0.0111
 57      0.0000      0.9539      0.0000      0.2965      0.0008      0.0000      0.1232      0.0000      0.2828
 58      0.0000      0.7880      0.5099      0.2500      0.3723      0.0000      0.7655      0.1443      0.1779
 59      0.0000      0.8787      1.0711      0.5754      0.3245      0.2201      0.0000      0.0000      0.1840
 60      0.0000      1.4079      0.7566      0.2054      0.5551      0.3769      1.0629      2.2602      0.2953
 61      0.0000      1.0372      0.2383      0.5368      1.2176      0.0266      0.2071      0.0973      1.0789
 62      0.0249      0.9893      0.0597      0.6179      0.6945      0.5206      0.5908      0.2257      1.1880
 63      5.1748      0.7398      0.3613      0.5998      0.8945      0.5087      0.2534      1.3068      0.1059
 64      0.2061      0.7461      0.2215      0.0000      0.0000      0.0778      0.0115      0.3904      0.0000
 65     19.7053      2.4878     12.2206     11.4035     11.2380     11.3920     10.9883     11.7155     12.3285
 66      0.0000      4.7143     26.3509     25.9869     24.6375     26.3682     26.4562     24.1508     26.5371

# j      m_j: min, <> & last-chain-values for 1 ...  7 chains
  1  0.0000E+00  6.4504E-03  1.0908E-03  9.6081E-04  1.5141E-03  1.5306E-03  5.8400E-04  0.0000E+00  7.7936E-04
  2  0.0000E+00  2.3708E-03  1.4039E-04  0.0000E+00  3.7315E-05  0.0000E+00  3.0924E-05  0.0000E+00  0.0000E+00
  3  0.0000E+00  3.3763E-03  2.0178E-06  0.0000E+00  3.7442E-04  0.0000E+00  3.7873E-04  0.0000E+00  2.3191E-04
  4  0.0000E+00  2.6861E-03  1.1730E-04  2.1514E-04  0.0000E+00  0.0000E+00  0.0000E+00  1.6733E-04  3.7974E-04
  5  0.0000E+00  7.3860E-03  4.1355E-04  0.0000E+00  1.7752E-04  0.0000E+00  0.0000E+00  0.0000E+00  0.0000E+00
  6  0.0000E+00  8.1752E-03  9.2386E-04  0.0000E+00  3.3194E-04  4.3300E-04  7.7434E-04  2.4561E-04  2.6035E-04
  7  0.0000E+00  1.2498E-02  1.0820E-04  1.0803E-03  0.0000E+00  1.2156E-04  2.5783E-04  1.5807E-05  0.0000E+00
  8  0.0000E+00  1.8096E-02  0.0000E+00  3.1397E-04  0.0000E+00  0.0000E+00  1.7334E-04  1.9045E-03  0.0000E+00
  9  0.0000E+00  2.8507E-02  0.0000E+00  3.0505E-04  0.0000E+00  4.2767E-03  1.0500E-03  2.3221E-04  0.0000E+00
 10  9.8402E-02  2.1516E-02  2.1525E-03  1.9597E-03  2.1462E-03  2.4533E-03  4.6298E-04  2.5350E-03  0.0000E+00
 11  0.0000E+00  5.9578E-02  0.0000E+00  0.0000E+00  0.0000E+00  4.0773E-03  4.9595E-03  2.6970E-03  3.2383E-04
 12  3.3738E-02  1.0492E-01  3.7908E-03  1.1643E-02  0.0000E+00  7.1728E-04  9.0279E-03  1.8704E-02  0.0000E+00
 13  0.0000E+00  2.3526E-01  0.0000E+00  2.8730E-02  0.0000E+00  0.0000E+00  0.0000E+00  0.0000E+00  0.0000E+00
 14  0.0000E+00  5.6260E-01  0.0000E+00  4.9809E-02  7.5077E-02  0.0000E+00  9.6352E-02  0.0000E+00  0.0000E+00
 15  0.0000E+00  1.1539E+00  0.0000E+00  0.0000E+00  1.8290E-01  3.4131E-02  1.2324E-01  0.0000E+00  1.6706E-02
 16  1.0382E+01  1.9896E+00  1.1724E-01  1.3915E-01  1.6690E-01  1.1910E-01  0.0000E+00  1.4343E+00  4.1710E-03
 17  0.0000E+00  2.0427E+00  3.5744E-01  0.0000E+00  8.2247E-02  5.4511E-01  2.2847E-01  0.0000E+00  0.0000E+00
 18  3.6297E-03  6.4733E-03  1.0102E-03  7.0233E-04  1.2825E-03  1.0671E-03  1.6509E-03  9.3872E-04  6.9859E-04
 19  0.0000E+00  1.8851E-03  2.7539E-04  1.8499E-04  1.2881E-04  7.0610E-05  3.9200E-04  0.0000E+00  5.5835E-05
 20  0.0000E+00  2.1679E-03  3.5269E-04  1.3235E-04  0.0000E+00  2.3826E-04  3.7865E-04  0.0000E+00  5.5944E-05
 21  0.0000E+00  4.3561E-03  0.0000E+00  0.0000E+00  7.6407E-04  1.3235E-04  1.6895E-05  0.0000E+00  2.6171E-04
 22  0.0000E+00  6.9479E-03  4.9060E-04  0.0000E+00  7.7767E-05  1.7772E-04  0.0000E+00  3.7327E-04  0.0000E+00
 23  1.2860E-05  7.2430E-03  0.0000E+00  6.4812E-04  3.0903E-05  2.5462E-03  5.5523E-05  2.5458E-03  2.9792E-05
 24  0.0000E+00  1.5674E-02  2.7205E-04  7.4139E-04  0.0000E+00  0.0000E+00  0.0000E+00  6.0393E-04  2.3838E-03
 25  0.0000E+00  1.3097E-02  4.8290E-04  1.5315E-03  3.1185E-04  4.0799E-04  6.8303E-04  0.0000E+00  0.0000E+00
 26  0.0000E+00  3.0131E-02  1.5957E-03  1.0103E-03  6.9751E-04  4.0884E-03  0.0000E+00  1.4061E-04  3.3603E-04
 27  0.0000E+00  4.2458E-02  7.4936E-04  3.0860E-03  6.6224E-03  7.3015E-03  1.0245E-02  1.5760E-03  8.4092E-04
 28  0.0000E+00  2.1669E-01  2.0032E-02  2.1364E-02  1.0275E-02  2.7674E-02  0.0000E+00  5.3107E-03  3.2694E-02
 29  0.0000E+00  2.1414E-01  0.0000E+00  2.2225E-02  1.6848E-02  2.4213E-02  1.5593E-02  0.0000E+00  9.3660E-03
 30  0.0000E+00  4.7603E-01  2.6682E-02  0.0000E+00  0.0000E+00  0.0000E+00  1.1196E-02  3.5792E-01  0.0000E+00
 31  7.3545E-03  9.7689E-01  1.0187E-01  2.1489E-02  6.9152E-02  0.0000E+00  9.3950E-02  4.0429E-01  0.0000E+00
 32  2.1341E-01  1.5946E+00  0.0000E+00  2.8202E-01  0.0000E+00  0.0000E+00  1.0622E-01  1.7915E-01  3.7247E-02
 33  0.0000E+00  2.6401E+00  1.4750E-01  1.6082E-01  0.0000E+00  0.0000E+00  1.0297E-01  0.0000E+00  0.0000E+00
 34  0.0000E+00  4.3687E+00  1.5593E-01  0.0000E+00  0.0000E+00  2.1725E-01  2.1398E-02  2.1006E-01  3.7925E-01
 35  1.0557E-02  6.7322E-03  0.0000E+00  1.6930E-05  5.6384E-04  6.2948E-04  9.1451E-05  1.8537E-03  8.3728E-05
 36  0.0000E+00  1.8366E-03  1.4005E-04  7.1914E-05  1.3433E-04  2.9865E-04  8.6990E-05  4.6187E-05  1.9552E-04
 37  0.0000E+00  2.3903E-03  4.3957E-04  2.7835E-05  1.8073E-04  3.5667E-05  2.4101E-04  0.0000E+00  2.1517E-04
 38  0.0000E+00  7.8443E-03  1.1362E-02  1.0524E-02  1.1727E-02  8.3752E-03  6.9681E-03  1.0235E-02  9.5664E-03
 39  0.0000E+00  1.7593E-02  0.0000E+00  4.4482E-05  1.8172E-04  0.0000E+00  0.0000E+00  0.0000E+00  0.0000E+00
 40  0.0000E+00  1.8597E-02  0.0000E+00  0.0000E+00  0.0000E+00  1.8675E-03  6.2166E-05  0.0000E+00  0.0000E+00
 41  0.0000E+00  2.2460E-02  3.5172E-04  0.0000E+00  0.0000E+00  0.0000E+00  0.0000E+00  3.7615E-04  0.0000E+00
 42  0.0000E+00  3.5115E-02  1.1025E-03  4.4922E-03  7.6609E-03  1.1149E-03  2.6972E-03  0.0000E+00  7.2643E-03
 43  3.9306E-01  8.0978E-02  0.0000E+00  5.7304E-03  1.3115E-02  1.7153E-02  9.1628E-04  9.4117E-03  4.1767E-03
 44  0.0000E+00  1.3951E-01  1.2326E-02  1.0717E-02  1.3784E-02  0.0000E+00  3.2208E-02  0.0000E+00  8.9412E-03
 45  0.0000E+00  2.5330E-01  0.0000E+00  3.2150E-02  1.0545E-02  2.2674E-02  1.4260E-03  9.7429E-02  4.6672E-02
 46  1.8717E-01  4.0088E-01  0.0000E+00  8.1601E-03  3.7385E-02  2.1199E-02  5.0334E-03  4.9596E-02  0.0000E+00
 47  0.0000E+00  9.1475E-01  0.0000E+00  2.2657E-01  3.6620E-02  7.8024E-02  2.4005E-02  0.0000E+00  0.0000E+00
 48  0.0000E+00  1.6808E+00  5.3630E-02  2.1457E-01  2.5002E-02  0.0000E+00  1.8782E-02  1.1385E-02  1.7780E-01
 49  8.1234E+00  4.1585E+00  1.2405E+00  1.6181E+00  1.5896E+00  1.4249E+00  1.6842E+00  1.2050E+00  1.2764E+00
 50  3.7944E+01  6.6336E+00  4.1398E-01  1.5063E+00  5.6825E+00  1.5610E+00  1.8687E+00  9.9271E-01  5.3146E+00
 51  0.0000E+00  3.3282E-03  4.8305E-04  1.0781E-03  1.6368E-04  7.5837E-04  9.5872E-04  2.7777E-04  2.2561E-04
 52  0.0000E+00  1.6021E-03  0.0000E+00  0.0000E+00  6.5219E-05  8.2823E-05  8.1037E-05  2.9756E-04  0.0000E+00
 53  0.0000E+00  2.9145E-03  0.0000E+00  0.0000E+00  0.0000E+00  1.0669E-04  0.0000E+00  0.0000E+00  0.0000E+00
 54  0.0000E+00  1.5559E-02  2.0428E-02  1.7817E-02  1.6105E-02  1.9077E-02  2.1282E-02  1.3619E-02  1.5797E-02
 55  1.7920E-03  8.9886E-03  9.3772E-04  3.0437E-04  4.2610E-04  3.6388E-04  0.0000E+00  1.5683E-03  0.0000E+00
 56  0.0000E+00  1.6605E-02  0.0000E+00  1.7050E-04  0.0000E+00  2.9836E-04  0.0000E+00  0.0000E+00  4.9442E-05
 57  0.0000E+00  2.1322E-02  0.0000E+00  1.8724E-03  5.2799E-06  0.0000E+00  7.7447E-04  0.0000E+00  1.6728E-03
 58  0.0000E+00  2.9793E-02  5.3938E-03  2.6706E-03  3.9880E-03  0.0000E+00  8.1372E-03  1.5978E-03  1.7791E-03
 59  0.0000E+00  7.1494E-02  2.4381E-02  1.3227E-02  7.4813E-03  5.0201E-03  0.0000E+00  0.0000E+00  3.9614E-03
 60  0.0000E+00  2.1278E-01  3.1990E-02  8.7695E-03  2.3767E-02  1.5966E-02  4.5162E-02  1.0002E-01  1.1806E-02
 61  0.0000E+00  3.4250E-01  2.2013E-02  5.0076E-02  1.1391E-01  2.4597E-03  1.9230E-02  9.4090E-03  9.4266E-02
 62  4.4088E-03  5.9565E-01  1.0056E-02  1.0511E-01  1.1848E-01  8.7864E-02  1.0000E-01  3.9793E-02  1.8925E-01
 63  1.8224E+00  8.8617E-01  1.2106E-01  2.0298E-01  3.0357E-01  1.7080E-01  8.5348E-02  4.5836E-01  3.3567E-02
 64  2.0071E-01  2.4719E+00  2.0529E-01  0.0000E+00  0.0000E+00  7.2231E-02  1.0715E-02  3.7874E-01  0.0000E+00
 65  4.0575E+01  1.7424E+01  2.3944E+01  2.2565E+01  2.2300E+01  2.2364E+01  2.1637E+01  2.4026E+01  2.2846E+01
 66  0.0000E+00  4.6644E+01  7.2939E+01  7.2644E+01  6.9065E+01  7.3127E+01  7.3595E+01  6.9968E+01  6.9470E+01

# AV, chi2 & Mass for <> & i_chain = 1 ...  7 solutions
AV      -0.3136      0.4142      0.4399      0.4129      0.4124      0.4381      0.4386      0.4163      0.3351
chi2 7.0507E-06  4.8378E-05  2.3132E-05  2.3240E-05  2.3213E-05  2.3212E-05  2.3284E-05  2.3116E-05  2.3283E-05
Mass 2.8114E-13  2.1969E-13  8.1283E-13  7.7614E-13  7.7348E-13  8.0928E-13  8.0740E-13  7.5231E-13  7.4661E-13
-330.41                                  [v0_min (km/s) before EX0s...]
 336.43                                  [vd_min (km/s) before EX0s...]


## Synthetic spectrum (Best Model) ##l_obs f_obs f_syn wei
 3478    [Nl_obs]
 3741.00    0.61821   0.55591    0.000
 3742.00    0.56642   0.54742    0.000
 3743.00    0.45505   0.54234    0.000
 3744.00    0.39974   0.54091    0.000
 3745.00    0.37708   0.54520    0.026
 3746.00    0.47149   0.55517    0.026
 3747.00    0.62536   0.56884    0.026
 3748.00    0.60357   0.58563    0.026
 3749.00    0.50454   0.60243    0.026
 3750.00    0.68400   0.61893    0.026
 3751.00    0.96860   0.63281    0.027
 3752.00    0.81937   0.64274    0.026
 3753.00    0.53109   0.64952    0.026
 3754.00    0.38023   0.65289    0.026
 3755.00    0.26618   0.65448    0.025
 3756.00    0.44894   0.65440    0.025
 3757.00    0.69683   0.65190    0.025
 3758.00    0.79463   0.64856    0.025
 3759.00    0.86623   0.64513    0.025
 3760.00    0.98913   0.64165    0.027
 3761.00    1.11886   0.63948    0.030
 3762.00    1.02531   0.63788    0.027
 3763.00    0.91078   0.63762    0.024
 3764.00    0.85489   0.63996    0.024
 3765.00    0.80239   0.64528    0.023
 3766.00    0.66122   0.65378    0.023
 3767.00    0.52090   0.66504    0.023
 3768.00    0.73679   0.67928    0.024
 3769.00    0.95052   0.69548    0.024
 3770.00    1.11184   0.71321    0.024
 3771.00    1.24217   0.73140    0.024
 3772.00    0.96641   0.74927    0.023
 3773.00    0.71412   0.76712    0.022
 3774.00    0.66791   0.78247    0.022
 3775.00    0.64582   0.79449    0.022
 3776.00    0.78010   0.80338    0.022
 3777.00    0.88500   0.80766    0.022
 3778.00    0.84124   0.80808    0.022
 3779.00    0.82485   0.80334    0.022
 3780.00    0.92046   0.79381    0.022
 3781.00    0.99303   0.78097    0.023
 3782.00    0.98751   0.76399    0.023
 3783.00    0.90456   0.74549    0.023
 3784.00    0.60019   0.72563    0.023
 3785.00    0.38118   0.70564    0.023
 3786.00    0.37073   0.68500    0.023
 3787.00    0.36824   0.66399    0.023
 3788.00    0.38252   0.64449    0.023
 3789.00    0.36988   0.62661    0.023
 3790.00    0.30791   0.61195    0.022
 3791.00    0.34359   0.59999    0.022
 3792.00    0.53559   0.59293    0.023
 3793.00    0.65414   0.59129    0.023
 3794.00    0.66951   0.59553    0.023
 3795.00    0.55881   0.60580    0.023
 3796.00    0.29227   0.62066    0.023
 3797.00    0.15408   0.64002    0.022
 3798.00    0.15574   0.66075    0.023
 3799.00    0.17349   0.68217    0.023
 3800.00    0.20672   0.70243    0.023
 3801.00    0.21791   0.72037    0.023
 3802.00    0.21042   0.73591    0.023
 3803.00    0.36385   0.74757    0.023
 3804.00    0.63738   0.75577    0.024
 3805.00    0.76645   0.75994    0.023
 3806.00    0.80084   0.76011    0.023
 3807.00    0.73555   0.75625    0.023
 3808.00    0.61307   0.74948    0.022
 3809.00    0.63983   0.74023    0.022
 3810.00    0.74119   0.72974    0.022
 3811.00    0.75931   0.71889    0.022
 3812.00    0.74143   0.70679    0.022
 3813.00    0.76135   0.69397    0.022
 3814.00    0.79529   0.68079    0.022
 3815.00    0.83989   0.66876    0.022
 3816.00    0.88786   0.65772    0.022
 3817.00    0.82364   0.64653    0.022
 3818.00    0.73000   0.63440    0.021
 3819.00    0.56345   0.62188    0.021
 3820.00    0.38129   0.60849    0.021
 3821.00    0.45430   0.59476    0.021
 3822.00    0.57062   0.58096    0.021
 3823.00    0.72279   0.56656    0.021
 3824.00    0.87957   0.55192    0.021
 3825.00    0.42752   0.53653    0.021
 3826.00   -0.07919   0.52127    0.000
 3827.00   -0.13359   0.50766    0.000
 3828.00   -0.16368   0.49617    0.000
 3829.00    0.21172   0.48782    0.022
 3830.00    0.59151   0.48370    0.023
 3831.00    0.65642   0.48381    0.023
 3832.00    0.71831   0.48844    0.022
 3833.00    0.71286   0.49831    0.023
 3834.00    0.71061   0.51289    0.023
 3835.00    0.74812   0.53195    0.023
 3836.00    0.78207   0.55505    0.023
 3837.00    0.78583   0.57940    0.024
 3838.00    0.75667   0.60436    0.024
 3839.00    0.52037   0.62815    0.023
 3840.00    0.31491   0.65021    0.023
 3841.00    0.26166   0.67056    0.023
 3842.00    0.27563   0.68723    0.023
 3843.00    0.55873   0.70039    0.023
 3844.00    0.78983   0.70992    0.024
 3845.00    0.84805   0.71708    0.024
 3846.00    0.82095   0.72189    0.024
 3847.00    0.55423   0.72353    0.000
 3848.00    0.40214   0.72351    0.000
 3849.00    0.52537   0.72215    0.000
 3850.00    0.60473   0.71936    0.000
 3851.00    0.59310   0.71723    0.000
 3852.00    0.57795   0.71501    0.000
 3853.00    0.55646   0.71313    0.000
 3854.00    0.68098   0.71251    0.000
 3855.00    1.03577   0.71382    0.000
 3856.00    1.11422   0.71729    0.000
 3857.00    0.81010   0.72086    0.000
 3858.00    0.57832   0.72468    0.000
 3859.00    0.43470   0.72777    0.000
 3860.00    0.52627   0.73017    0.000
 3861.00    0.87046   0.73188    0.000
 3862.00    0.99783   0.73198    0.000
 3863.00    0.91978   0.73091    0.000
 3864.00    0.79906   0.72763    0.000
 3865.00    0.64271   0.72347    0.000
 3866.00    0.66079   0.71894    0.000
 3867.00    0.80717   0.71489    0.000
 3868.00    0.87827   0.71163    0.000
 3869.00    0.90074   0.70752    0.000
 3870.00    0.78757   0.70251    0.000
 3871.00    0.59775   0.69636    0.000
 3872.00    0.49317   0.68852    0.000
 3873.00    0.43050   0.68081    0.000
 3874.00    0.45635   0.67239    0.000
 3875.00    0.51983   0.66188    0.000
 3876.00    0.55464   0.65014    0.000
 3877.00    0.57900   0.63815    0.000
 3878.00    0.58245   0.62702    0.000
 3879.00    0.57945   0.61505    0.000
 3880.00    0.59322   0.60416    0.000
 3881.00    0.61130   0.59702    0.021
 3882.00    0.71020   0.59272    0.022
 3883.00    0.82600   0.59229    0.022
 3884.00    0.91153   0.59741    0.022
 3885.00    0.99207   0.60682    0.022
 3886.00    0.79283   0.61993    0.022
 3887.00    0.55895   0.63493    0.022
 3888.00    0.67924   0.65282    0.022
 3889.00    0.82983   0.67133    0.022
 3890.00    0.77361   0.68965    0.022
 3891.00    0.70708   0.70835    0.022
 3892.00    0.43638   0.72380    0.022
 3893.00    0.16850   0.73814    0.021
 3894.00    0.29863   0.75001    0.021
 3895.00    0.43645   0.76145    0.021
 3896.00    0.73148   0.77141    0.021
 3897.00    1.00670   0.77940    0.021
 3898.00    1.04753   0.78908    0.021
 3899.00    1.07240   0.79727    0.020
 3900.00    0.96721   0.80643    0.020
 3901.00    0.87385   0.81717    0.020
 3902.00    0.85271   0.82844    0.019
 3903.00    0.82979   0.84003    0.019
 3904.00    0.79829   0.85034    0.018
 3905.00    0.76118   0.86036    0.018
 3906.00    0.70209   0.86888    0.018
 3907.00    0.69035   0.87454    0.018
 3908.00    0.83300   0.87764    0.018
 3909.00    0.94649   0.87812    0.019
 3910.00    0.97961   0.87437    0.019
 3911.00    0.97109   0.86799    0.020
 3912.00    0.86425   0.85879    0.020
 3913.00    0.81517   0.84735    0.020
 3914.00    0.88400   0.83451    0.020
 3915.00    0.91015   0.82006    0.021
 3916.00    0.86047   0.80604    0.021
 3917.00    0.84967   0.79031    0.021
 3918.00    0.89926   0.77409    0.021
 3919.00    0.89663   0.75651    0.022
 3920.00    0.82275   0.73691    0.022
 3921.00    0.74473   0.71647    0.022
 3922.00    0.66176   0.69420    0.022
 3923.00    0.59577   0.67196    0.022
 3924.00    0.54778   0.64941    0.022
 3925.00    0.50175   0.62796    0.022
 3926.00    0.45755   0.60923    0.022
 3927.00    0.46180   0.59395    0.022
 3928.00    0.50594   0.58432    0.022
 3929.00    0.62615   0.58051    0.022
 3930.00    0.80150   0.58300    0.023
 3931.00    0.79027   0.59131    0.023
 3932.00    0.66028   0.60451    0.023
 3933.00    0.50332   0.62153    0.023
 3934.00    0.33136   0.64138    0.022
 3935.00    0.45938   0.66246    0.022
 3936.00    0.73262   0.68413    0.023
 3937.00    0.74204   0.70582    0.023
 3938.00    0.64118   0.72657    0.023
 3939.00    0.62715   0.74656    0.022
 3940.00    0.64419   0.76515    0.022
 3941.00    0.72786   0.78231    0.022
 3942.00    0.83167   0.79782    0.022
 3943.00    0.83500   0.81200    0.022
 3944.00    0.81311   0.82409    0.022
 3945.00    0.81902   0.83382    0.022
 3946.00    0.83061   0.84118    0.022
 3947.00    1.14317   0.84522    0.022
 3948.00    1.50392   0.84553    0.023
 3949.00    1.43205   0.84164    0.023
 3950.00    1.30852   0.83372    0.022
 3951.00    1.01540   0.82173    0.022
 3952.00    0.70847   0.80486    0.022
 3953.00    0.80598   0.78272    0.022
 3954.00    0.92209   0.75623    0.022
 3955.00    0.80453   0.72614    0.022
 3956.00    0.68848   0.69268    0.022
 3957.00    0.80600   0.65670    0.022
 3958.00    0.91356   0.61959    0.022
 3959.00    0.83255   0.58313    0.022
 3960.00    0.74706   0.54839    0.000
 3961.00    0.61111   0.51765    0.000
 3962.00    0.50607   0.49271    0.000
 3963.00    0.64405   0.47568    0.000
 3964.00    0.76815   0.46798    0.000
 3965.00    0.80985   0.46944    0.000
 3966.00    0.79230   0.48034    0.000
 3967.00    0.49652   0.50036    0.000
 3968.00    0.25067   0.52801    0.000
 3969.00    0.19612   0.56225    0.000
 3970.00    0.20958   0.60100    0.000
 3971.00    0.44041   0.64223    0.000
 3972.00    0.64506   0.68413    0.000
 3973.00    0.77878   0.72443    0.000
 3974.00    0.92946   0.76195    0.000
 3975.00    1.11951   0.79629    0.000
 3976.00    1.18797   0.82690    0.000
 3977.00    1.01218   0.85408    0.000
 3978.00    0.83669   0.87758    0.000
 3979.00    0.66174   0.89785    0.000
 3980.00    0.62808   0.91635    0.000
 3981.00    0.81075   0.93135    0.023
 3982.00    1.03845   0.94467    0.023
 3983.00    1.32670   0.95644    0.023
 3984.00    1.48443   0.96660    0.024
 3985.00    1.48760   0.97592    0.024
 3986.00    1.39912   0.98280    0.024
 3987.00    1.21495   0.98913    0.024
 3988.00    1.24648   0.99349    0.023
 3989.00    1.47667   0.99747    0.024
 3990.00    1.52843   1.00083    0.023
 3991.00    1.43531   1.00427    0.023
 3992.00    1.27881   1.00833    0.023
 3993.00    1.07704   1.01133    0.022
 3994.00    0.96597   1.01477    0.022
 3995.00    0.91178   1.01767    0.022
 3996.00    0.78903   1.01967    0.022
 3997.00    0.62870   1.02018    0.022
 3998.00    0.77056   1.02122    0.022
 3999.00    1.05637   1.02266    0.022
 4000.00    1.09598   1.02423    0.022
 4001.00    1.03440   1.02629    0.022
 4002.00    1.18199   1.02845    0.022
 4003.00    1.40306   1.03234    0.022
 4004.00    1.26160   1.03688    0.022
 4005.00    1.01274   1.04295    0.021
 4006.00    1.06423   1.04891    0.022
 4007.00    1.18951   1.05600    0.022
 4008.00    1.22720   1.06338    0.022
 4009.00    1.24747   1.06920    0.022
 4010.00    1.06102   1.07439    0.022
 4011.00    0.84246   1.07862    0.022
 4012.00    0.94851   1.08157    0.022
 4013.00    1.09189   1.08305    0.022
 4014.00    1.15904   1.08343    0.022
 4015.00    1.22030   1.08297    0.021
 4016.00    1.12598   1.08099    0.022
 4017.00    1.02511   1.07842    0.022
 4018.00    1.00000   1.07514    0.022
 4019.00    0.97880   1.07092    0.021
 4020.00    1.09871   1.06629    0.021
 4021.00    1.20657   1.06014    0.021
 4022.00    1.10191   1.05260    0.022
 4023.00    1.00196   1.04457    0.022
 4024.00    0.95271   1.03732    0.022
 4025.00    0.92442   1.03002    0.022
 4026.00    1.05531   1.02470    0.022
 4027.00    1.12983   1.02162    0.022
 4028.00    0.87922   1.02128    0.022
 4029.00    0.68233   1.02330    0.022
 4030.00    0.73161   1.02712    0.022
 4031.00    0.79560   1.03205    0.022
 4032.00    0.91481   1.03730    0.022
 4033.00    0.96829   1.04238    0.022
 4034.00    0.81575   1.04531    0.021
 4035.00    0.70971   1.04531    0.021
 4036.00    0.72740   1.04234    0.021
 4037.00    0.82512   1.03737    0.022
 4038.00    1.10556   1.03110    0.022
 4039.00    1.16456   1.02525    0.022
 4040.00    0.78579   1.02009    0.022
 4041.00    0.61851   1.01699    0.022
 4042.00    0.81556   1.01625    0.022
 4043.00    1.09340   1.01815    0.023
 4044.00    1.49312   1.02157    0.023
 4045.00    1.62774   1.02520    0.023
 4046.00    1.41095   1.02928    0.023
 4047.00    1.33604   1.03203    0.023
 4048.00    1.42678   1.03418    0.023
 4049.00    1.47180   1.03377    0.023
 4050.00    1.46975   1.03093    0.023
 4051.00    1.39388   1.02651    0.023
 4052.00    1.25099   1.02052    0.023
 4053.00    1.11676   1.01335    0.023
 4054.00    0.98948   1.00577    0.023
 4055.00    0.93911   0.99934    0.023
 4056.00    0.94289   0.99290    0.022
 4057.00    0.92852   0.98830    0.023
 4058.00    0.90293   0.98474    0.023
 4059.00    0.90492   0.98275    0.022
 4060.00    0.92178   0.98244    0.022
 4061.00    0.97391   0.98290    0.022
 4062.00    1.04256   0.98428    0.022
 4063.00    1.23114   0.98632    0.022
 4064.00    1.46818   0.98834    0.022
 4065.00    1.49543   0.99031    0.022
 4066.00    1.45034   0.99209    0.022
 4067.00    1.17419   0.99256    0.022
 4068.00    0.83095   0.99248    0.021
 4069.00    0.78832   0.99279    0.021
 4070.00    0.81790   0.99408    0.022
 4071.00    0.88576   0.99591    0.022
 4072.00    0.96104   0.99852    0.021
 4073.00    1.05148   1.00259    0.022
 4074.00    1.14421   1.00908    0.022
 4075.00    1.11067   1.01647    0.021
 4076.00    1.06317   1.02420    0.021
 4077.00    1.02389   1.03264    0.021
 4078.00    0.98521   1.04097    0.022
 4079.00    0.92912   1.04898    0.021
 4080.00    0.87236   1.05575    0.021
 4081.00    0.90637   1.06077    0.021
 4082.00    0.94547   1.06313    0.021
 4083.00    1.15794   1.06279    0.021
 4084.00    1.34753   1.05916    0.021
 4085.00    1.16014   1.05175    0.021
 4086.00    0.98746   1.04096    0.021
 4087.00    0.96627   1.02625    0.021
 4088.00    0.94902   1.00846    0.021
 4089.00    0.96061   0.98717    0.021
 4090.00    0.93783   0.96367    0.021
 4091.00    0.72218   0.93855    0.021
 4092.00    0.59012   0.91427    0.000
 4093.00    0.83210   0.89199    0.000
 4094.00    1.02512   0.87273    0.000
 4095.00    1.03831   0.85824    0.000
 4096.00    1.05871   0.84850    0.000
 4097.00    1.10127   0.84439    0.000
 4098.00    1.08775   0.84633    0.000
 4099.00    0.92767   0.85346    0.000
 4100.00    0.80668   0.86474    0.000
 4101.00    0.77348   0.87928    0.000
 4102.00    0.73284   0.89550    0.000
 4103.00    0.67775   0.91320    0.000
 4104.00    0.73154   0.93102    0.000
 4105.00    0.97010   0.94782    0.000
 4106.00    1.12635   0.96291    0.000
 4107.00    1.16026   0.97661    0.000
 4108.00    1.06060   0.98829    0.000
 4109.00    0.78642   0.99801    0.000
 4110.00    0.78583   1.00640    0.000
 4111.00    1.10018   1.01284    0.000
 4112.00    1.16022   1.01821    0.000
 4113.00    0.96212   1.02217    0.022
 4114.00    0.93064   1.02517    0.022
 4115.00    1.04832   1.02732    0.022
 4116.00    1.16324   1.02824    0.022
 4117.00    1.27598   1.02888    0.022
 4118.00    1.09025   1.02834    0.022
 4119.00    0.69740   1.02730    0.022
 4120.00    0.57700   1.02465    0.022
 4121.00    0.62239   1.02211    0.022
 4122.00    0.75427   1.01813    0.022
 4123.00    0.93210   1.01387    0.022
 4124.00    0.99311   1.00963    0.022
 4125.00    1.00026   1.00558    0.022
 4126.00    1.20901   1.00317    0.022
 4127.00    1.49782   1.00116    0.022
 4128.00    1.36839   1.00149    0.022
 4129.00    1.09742   1.00242    0.022
 4130.00    1.07881   1.00498    0.022
 4131.00    1.13201   1.00699    0.021
 4132.00    0.93578   1.00914    0.021
 4133.00    0.68099   1.01019    0.021
 4134.00    0.91544   1.00982    0.021
 4135.00    1.24223   1.00837    0.022
 4136.00    1.24923   1.00497    0.022
 4137.00    1.20952   1.00142    0.021
 4138.00    0.92276   0.99670    0.021
 4139.00    0.60975   0.99290    0.021
 4140.00    0.76437   0.98974    0.021
 4141.00    0.95134   0.98775    0.021
 4142.00    0.88689   0.98664    0.021
 4143.00    0.81376   0.98653    0.021
 4144.00    0.81268   0.98684    0.021
 4145.00    0.81096   0.98803    0.021
 4146.00    0.78343   0.99007    0.021
 4147.00    0.75563   0.99200    0.021
 4148.00    0.72370   0.99454    0.021
 4149.00    0.70515   0.99725    0.021
 4150.00    0.81845   1.00142    0.021
 4151.00    0.91317   1.00588    0.021
 4152.00    0.87600   1.01189    0.021
 4153.00    0.85839   1.01790    0.021
 4154.00    0.94759   1.02429    0.021
 4155.00    1.00527   1.03011    0.021
 4156.00    0.92510   1.03491    0.020
 4157.00    0.83709   1.03858    0.020
 4158.00    0.72086   1.03987    0.020
 4159.00    0.61556   1.03967    0.020
 4160.00    0.54324   1.03696    0.020
 4161.00    0.50743   1.03259    0.020
 4162.00    0.56538   1.02632    0.020
 4163.00    0.67323   1.01906    0.020
 4164.00    0.89130   1.01108    0.020
 4165.00    1.04031   1.00266    0.020
 4166.00    1.05704   0.99472    0.020
 4167.00    1.06760   0.98755    0.020
 4168.00    1.06783   0.98164    0.020
 4169.00    1.01077   0.97719    0.021
 4170.00    0.86981   0.97483    0.020
 4171.00    0.78679   0.97400    0.020
 4172.00    0.77840   0.97468    0.021
 4173.00    0.85636   0.97660    0.021
 4174.00    1.03232   0.97975    0.021
 4175.00    1.08243   0.98390    0.021
 4176.00    1.00660   0.98838    0.021
 4177.00    1.08485   0.99258    0.022
 4178.00    1.29909   0.99683    0.022
 4179.00    1.25341   1.00037    0.021
 4180.00    1.00557   1.00393    0.021
 4181.00    0.91465   1.00665    0.021
 4182.00    0.93105   1.00891    0.021
 4183.00    1.02652   1.01048    0.021
 4184.00    1.16937   1.01140    0.021
 4185.00    1.23438   1.01160    0.021
 4186.00    1.25867   1.01050    0.021
 4187.00    1.22443   1.00833    0.021
 4188.00    1.16363   1.00444    0.021
 4189.00    1.00301   0.99985    0.021
 4190.00    0.80344   0.99457    0.021
 4191.00    0.67366   0.98872    0.021
 4192.00    0.56707   0.98322    0.021
 4193.00    0.64245   0.97858    0.021
 4194.00    0.76856   0.97601    0.021
 4195.00    0.90306   0.97524    0.021
 4196.00    1.03949   0.97698    0.022
 4197.00    1.01490   0.98111    0.022
 4198.00    0.96071   0.98761    0.022
 4199.00    0.81840   0.99558    0.022
 4200.00    0.66363   1.00453    0.022
 4201.00    0.83377   1.01378    0.021
 4202.00    1.03704   1.02231    0.021
 4203.00    0.92081   1.02971    0.021
 4204.00    0.78377   1.03578    0.021
 4205.00    0.76294   1.04047    0.021
 4206.00    0.74609   1.04339    0.021
 4207.00    0.99531   1.04557    0.021
 4208.00    1.23927   1.04657    0.021
 4209.00    1.32834   1.04732    0.022
 4210.00    1.40979   1.04730    0.022
 4211.00    1.38026   1.04677    0.022
 4212.00    1.34323   1.04528    0.022
 4213.00    1.23531   1.04230    0.022
 4214.00    1.13525   1.03728    0.022
 4215.00    1.08915   1.02954    0.022
 4216.00    1.06079   1.01977    0.021
 4217.00    1.12667   1.00764    0.021
 4218.00    1.17563   0.99527    0.021
 4219.00    1.15234   0.98250    0.021
 4220.00    1.12622   0.97155    0.021
 4221.00    1.09016   0.96315    0.021
 4222.00    0.98770   0.95852    0.020
 4223.00    0.68863   0.95780    0.020
 4224.00    0.45712   0.96071    0.020
 4225.00    0.39614   0.96696    0.020
 4226.00    0.47585   0.97505    0.020
 4227.00    0.86128   0.98450    0.020
 4228.00    1.08158   0.99409    0.020
 4229.00    0.99049   1.00383    0.020
 4230.00    0.97869   1.01296    0.019
 4231.00    1.09741   1.02129    0.019
 4232.00    1.16225   1.02949    0.019
 4233.00    1.14932   1.03715    0.019
 4234.00    1.15332   1.04487    0.019
 4235.00    1.17882   1.05212    0.019
 4236.00    1.18668   1.05896    0.019
 4237.00    1.17480   1.06415    0.019
 4238.00    1.10373   1.06780    0.019
 4239.00    0.97424   1.06913    0.019
 4240.00    1.00909   1.06777    0.019
 4241.00    1.18695   1.06415    0.019
 4242.00    1.13738   1.05831    0.019
 4243.00    0.91344   1.05109    0.019
 4244.00    0.82006   1.04302    0.019
 4245.00    0.81466   1.03517    0.020
 4246.00    0.95506   1.02813    0.020
 4247.00    1.18155   1.02217    0.020
 4248.00    1.12167   1.01812    0.020
 4249.00    0.91436   1.01565    0.020
 4250.00    0.88249   1.01532    0.020
 4251.00    0.92891   1.01635    0.020
 4252.00    0.97425   1.01923    0.020
 4253.00    1.01918   1.02321    0.020
 4254.00    0.87321   1.02833    0.020
 4255.00    0.66502   1.03370    0.019
 4256.00    0.64779   1.03944    0.019
 4257.00    0.68268   1.04453    0.019
 4258.00    0.75996   1.04833    0.020
 4259.00    0.84675   1.05000    0.020
 4260.00    0.77681   1.04865    0.020
 4261.00    0.67884   1.04460    0.020
 4262.00    0.67731   1.03721    0.020
 4263.00    0.68898   1.02798    0.020
 4264.00    0.81326   1.01693    0.020
 4265.00    0.94854   1.00593    0.020
 4266.00    1.09144   0.99587    0.020
 4267.00    1.23481   0.98826    0.020
 4268.00    1.09079   0.98378    0.020
 4269.00    0.93933   0.98279    0.020
 4270.00    0.85062   0.98537    0.020
 4271.00    0.76394   0.99035    0.020
 4272.00    0.73081   0.99724    0.042
 4273.00    0.69619   1.00439   -1.000
 4274.00    0.64085   1.01127   -1.000
 4275.00    0.58653   1.01627   -1.000
 4276.00    0.54153   1.01930   -1.000
 4277.00    0.49905   1.01973   -1.000
 4278.00    0.47341   1.01770   -1.000
 4279.00    0.48088   1.01351   -1.000
 4280.00    0.65977   1.00749   -1.000
 4281.00    0.80779   1.00041   -1.000
 4282.00    0.82699   0.99257   -2.000
 4283.00    0.75583   0.98499   -2.000
 4284.00    0.37276   0.97731   -2.000
 4285.00    0.14149   0.97032   -2.000
 4286.00    0.35146   0.96331   -2.000
 4287.00    0.59770   0.95623   -2.000
 4288.00    0.93389   0.94885   -2.000
 4289.00    1.18868   0.94027   -2.000
 4290.00    1.26946   0.93077   -2.000
 4291.00    1.23385   0.91961   -2.000
 4292.00    0.98212   0.90746   -2.000
 4293.00    0.77094   0.89426   -2.000
 4294.00    0.62553   0.88077   -2.000
 4295.00    0.53449   0.86755   -2.000
 4296.00    0.52080   0.85507   -2.000
 4297.00    0.62576   0.84443   -2.000
 4298.00    0.87919   0.83570    0.022
 4299.00    0.92209   0.83011    0.022
 4300.00    0.73276   0.82756    0.021
 4301.00    0.67647   0.82899    0.021
 4302.00    0.74962   0.83470    0.021
 4303.00    0.83879   0.84500    0.021
 4304.00    0.94168   0.86022    0.021
 4305.00    0.83041   0.87993    0.021
 4306.00    0.55728   0.90384    0.021
 4307.00    0.62354   0.93082    0.021
 4308.00    0.91517   0.95972    0.021
 4309.00    1.00002   0.98872    0.021
 4310.00    0.96460   1.01595    0.021
 4311.00    1.03274   1.04007    0.021
 4312.00    1.15335   1.05878    0.021
 4313.00    1.05220   1.07230    0.021
 4314.00    0.85374   1.07871    0.020
 4315.00    0.81619   1.08019    0.021
 4316.00    0.83924   1.07587    0.021
 4317.00    1.05542   1.06932    0.021
 4318.00    1.33334   1.06041    0.021
 4319.00    1.27032   1.05266    0.021
 4320.00    1.11618   1.04607    0.021
 4321.00    1.03719   1.04244    0.021
 4322.00    0.97465   1.04149    0.021
 4323.00    0.98730   1.04297    0.021
 4324.00    1.01302   1.04574    0.021
 4325.00    0.91220   1.04821    0.021
 4326.00    0.79464   1.04919    0.021
 4327.00    0.81397   1.04709    0.021
 4328.00    0.84610   1.04141    0.021
 4329.00    1.06853   1.03198    0.021
 4330.00    1.30184   1.01916    0.000
 4331.00    1.09024   1.00436    0.000
 4332.00    0.86839   0.98856    0.000
 4333.00    0.65789   0.97415    0.000
 4334.00    0.46179   0.96246    0.000
 4335.00    0.61106   0.95521    0.000
 4336.00    0.76763   0.95297    0.000
 4337.00    1.01935   0.95585    0.000
 4338.00    1.23120   0.96358    0.000
 4339.00    1.09461   0.97475    0.000
 4340.00    0.96473   0.98844    0.000
 4341.00    0.87813   1.00284    0.000
 4342.00    0.83097   1.01729    0.000
 4343.00    0.98274   1.03029    0.000
 4344.00    1.09848   1.04183    0.000
 4345.00    1.06709   1.05168    0.000
 4346.00    1.01137   1.06018    0.000
 4347.00    0.87335   1.06788    0.000
 4348.00    0.79727   1.07541    0.000
 4349.00    0.89794   1.08344    0.000
 4350.00    0.99612   1.09198    0.000
 4351.00    1.08825   1.10158    0.021
 4352.00    1.19881   1.11165    0.021
 4353.00    1.34814   1.12233    0.020
 4354.00    1.41634   1.13259    0.020
 4355.00    1.33622   1.14259    0.021
 4356.00    1.18401   1.15123    0.021
 4357.00    0.91661   1.15851    0.020
 4358.00    0.87063   1.16350    0.020
 4359.00    1.13509   1.16636    0.021
 4360.00    1.30913   1.16669    0.021
 4361.00    1.37162   1.16461    0.021
 4362.00    1.27016   1.16044    0.021
 4363.00    0.99039   1.15431    0.020
 4364.00    0.88452   1.14702    0.020
 4365.00    0.94545   1.13855    0.020
 4366.00    0.98216   1.12987    0.020
 4367.00    0.99837   1.12078    0.020
 4368.00    1.09423   1.11199    0.020
 4369.00    1.24942   1.10299    0.020
 4370.00    1.29240   1.09414    0.020
 4371.00    1.26194   1.08472    0.020
 4372.00    1.18759   1.07491    0.020
 4373.00    1.08811   1.06422    0.020
 4374.00    1.09672   1.05298    0.020
 4375.00    1.15925   1.04136    0.020
 4376.00    1.17537   1.02997    0.020
 4377.00    1.17146   1.01978    0.020
 4378.00    1.05934   1.01140    0.020
 4379.00    0.90718   1.00602    0.020
 4380.00    0.90862   1.00371    0.020
 4381.00    0.95823   1.00527    0.020
 4382.00    0.96508   1.01006    0.020
 4383.00    0.96075   1.01803    0.020
 4384.00    1.03631   1.02820    0.020
 4385.00    1.12894   1.03994    0.020
 4386.00    1.09015   1.05235    0.020
 4387.00    1.02914   1.06456    0.020
 4388.00    1.00178   1.07597    0.020
 4389.00    0.97872   1.08577    0.020
 4390.00    0.96810   1.09373    0.019
 4391.00    0.95858   1.09914    0.019
 4392.00    0.91961   1.10206    0.020
 4393.00    0.87907   1.10223    0.020
 4394.00    0.91928   1.10009    0.020
 4395.00    0.96169   1.09599    0.020
 4396.00    1.05493   1.09063    0.020
 4397.00    1.14640   1.08499    0.019
 4398.00    1.19888   1.07981    0.020
 4399.00    1.25419   1.07624    0.020
 4400.00    1.34438   1.07459    0.020
 4401.00    1.41415   1.07567    0.020
 4402.00    1.31200   1.07908    0.019
 4403.00    1.21996   1.08495    0.019
 4404.00    1.19128   1.09223    0.020
 4405.00    1.18542   1.10071    0.020
 4406.00    1.29178   1.10917    0.020
 4407.00    1.35478   1.11754    0.020
 4408.00    1.24471   1.12486    0.020
 4409.00    1.14921   1.13153    0.019
 4410.00    1.10207   1.13693    0.019
 4411.00    1.08850   1.14173    0.019
 4412.00    1.16900   1.14554    0.019
 4413.00    1.18008   1.14895    0.019
 4414.00    1.02482   1.15157    0.020
 4415.00    0.95604   1.15375    0.020
 4416.00    1.06626   1.15518    0.020
 4417.00    1.22540   1.15601    0.020
 4418.00    1.47260   1.15611    0.020
 4419.00    1.56039   1.15561    0.020
 4420.00    1.39722   1.15451    0.020
 4421.00    1.20404   1.15291    0.020
 4422.00    0.96938   1.15103    0.019
 4423.00    0.89549   1.14879    0.019
 4424.00    1.01716   1.14670    0.019
 4425.00    1.12277   1.14455    0.019
 4426.00    1.21115   1.14301    0.019
 4427.00    1.25967   1.14184    0.019
 4428.00    1.27047   1.14173    0.020
 4429.00    1.16731   1.14233    0.020
 4430.00    0.96911   1.14418    0.020
 4431.00    0.92657   1.14674    0.020
 4432.00    0.99831   1.15039    0.020
 4433.00    1.02045   1.15442    0.020
 4434.00    1.01061   1.15910    0.020
 4435.00    0.96805   1.16380    0.020
 4436.00    0.90703   1.16871    0.020
 4437.00    0.93884   1.17341    0.020
 4438.00    1.01622   1.17785    0.020
 4439.00    1.06360   1.18176    0.020
 4440.00    1.09826   1.18483    0.020
 4441.00    1.05026   1.18676    0.020
 4442.00    0.97223   1.18704    0.020
 4443.00    0.93465   1.18547    0.020
 4444.00    0.90952   1.18164    0.020
 4445.00    0.89508   1.17571    0.020
 4446.00    0.88338   1.16753    0.020
 4447.00    0.99302   1.15797    0.020
 4448.00    1.12795   1.14700    0.020
 4449.00    1.39946   1.13612    0.020
 4450.00    1.69341   1.12526    0.020
 4451.00    1.56781   1.11606    0.020
 4452.00    1.39049   1.10832    0.020
 4453.00    1.21548   1.10322    0.020
 4454.00    1.04067   1.10047    0.020
 4455.00    1.16222   1.10048    0.020
 4456.00    1.29839   1.10288    0.020
 4457.00    1.15987   1.10751    0.020
 4458.00    1.01981   1.11385    0.020
 4459.00    1.05791   1.12173    0.020
 4460.00    1.09544   1.13038    0.020
 4461.00    1.12139   1.14010    0.000
 4462.00    1.13911   1.14985    0.000
 4463.00    1.06009   1.16040    0.000
 4464.00    0.99690   1.17057    0.000
 4465.00    1.06208   1.18118    0.000
 4466.00    1.12366   1.19108    0.000
 4467.00    1.16340   1.20068    0.000
 4468.00    1.21062   1.20917    0.000
 4469.00    1.29377   1.21637    0.000
 4470.00    1.37592   1.22215    0.000
 4471.00    1.45413   1.22597    0.000
 4472.00    1.45738   1.22857    0.000
 4473.00    1.21687   1.22924    0.000
 4474.00    1.02307   1.22945    0.000
 4475.00    0.95780   1.22840    0.000
 4476.00    0.94824   1.22773    0.000
 4477.00    1.06999   1.22645    0.000
 4478.00    1.09236   1.22591    0.000
 4479.00    0.91230   1.22492    0.000
 4480.00    0.88049   1.22443    0.000
 4481.00    1.11146   1.22322    0.000
 4482.00    1.31590   1.22211    0.020
 4483.00    1.47920   1.22001    0.020
 4484.00    1.52545   1.21822    0.020
 4485.00    1.41230   1.21576    0.020
 4486.00    1.40555   1.21425    0.020
 4487.00    1.52640   1.21301    0.020
 4488.00    1.47933   1.21344    0.020
 4489.00    1.25474   1.21512    0.020
 4490.00    1.17903   1.21876    0.020
 4491.00    1.24214   1.22423    0.020
 4492.00    1.30303   1.23130    0.020
 4493.00    1.36208   1.24015    0.020
 4494.00    1.23973   1.25003    0.020
 4495.00    0.98610   1.26066    0.020
 4496.00    1.00216   1.27127    0.020
 4497.00    1.18953   1.28141    0.020
 4498.00    1.27153   1.29046    0.020
 4499.00    1.29500   1.29793    0.020
 4500.00    1.28898   1.30366    0.020
 4501.00    1.26870   1.30722    0.020
 4502.00    1.23849   1.30885    0.020
 4503.00    1.20414   1.30831    0.020
 4504.00    1.22675   1.30616    0.020
 4505.00    1.26969   1.30228    0.020
 4506.00    1.19152   1.29756    0.020
 4507.00    1.07684   1.29193    0.019
 4508.00    1.14757   1.28630    0.020
 4509.00    1.26473   1.28030    0.020
 4510.00    1.34583   1.27479    0.020
 4511.00    1.41959   1.26872    0.020
 4512.00    1.35839   1.26333    0.020
 4513.00    1.27566   1.25682    0.019
 4514.00    1.34339   1.25035    0.019
 4515.00    1.42899   1.24225    0.019
 4516.00    1.28755   1.23326    0.019
 4517.00    1.12774   1.22297    0.019
 4518.00    1.06746   1.21132    0.020
 4519.00    1.01171   1.19950    0.020
 4520.00    1.22674   1.18680    0.020
 4521.00    1.44076   1.17550    0.020
 4522.00    1.43408   1.16438    0.019
 4523.00    1.42023   1.15643    0.019
 4524.00    1.27170   1.14957    0.020
 4525.00    1.12667   1.14690    0.020
 4526.00    1.02078   1.14572    0.020
 4527.00    0.93399   1.14838    0.020
 4528.00    0.99666   1.15260    0.019
 4529.00    1.02408   1.15901    0.019
 4530.00    0.84310   1.16680    0.019
 4531.00    0.74074   1.17511    0.019
 4532.00    1.00639   1.18427    0.019
 4533.00    1.22623   1.19206    0.019
 4534.00    1.27103   1.19916    0.020
 4535.00    1.32617   1.20459    0.020
 4536.00    1.41431   1.20862    0.020
 4537.00    1.47331   1.21137    0.020
 4538.00    1.45358   1.21248    0.020
 4539.00    1.40251   1.21271    0.020
 4540.00    1.27882   1.21149    0.019
 4541.00    1.17785   1.21046    0.019
 4542.00    1.12243   1.20885    0.019
 4543.00    1.03385   1.20782    0.020
 4544.00    0.88735   1.20724    0.019
 4545.00    0.90406   1.20747    0.019
 4546.00    1.17017   1.20945    0.019
 4547.00    1.34887   1.21181    0.019
 4548.00    1.41023   1.21635    0.020
 4549.00    1.31132   1.22098    0.020
 4550.00    1.02295   1.22733    0.000
 4551.00    0.99198   1.23343    0.000
 4552.00    1.22934   1.24036    0.000
 4553.00    1.41152   1.24634    0.000
 4554.00    1.54299   1.25203    0.000
 4555.00    1.52841   1.25647    0.000
 4556.00    1.39546   1.25987    0.000
 4557.00    1.34912   1.26245    0.000
 4558.00    1.36455   1.26390    0.000
 4559.00    1.41570   1.26509    0.000
 4560.00    1.48921   1.26563    0.000
 4561.00    1.39191   1.26628    0.000
 4562.00    1.20120   1.26683    0.000
 4563.00    1.14381   1.26756    0.000
 4564.00    1.14981   1.26794    0.000
 4565.00    1.10624   1.26822    0.000
 4566.00    1.04235   1.26752    0.000
 4567.00    1.23090   1.26656    0.000
 4568.00    1.50791   1.26458    0.000
 4569.00    1.36296   1.26193    0.000
 4570.00    1.09331   1.25854    0.000
 4571.00    1.10386   1.25452    0.000
 4572.00    1.18306   1.24943    0.000
 4573.00    1.06530   1.24466    0.000
 4574.00    0.90851   1.23960    0.000
 4575.00    0.95191   1.23539    0.000
 4576.00    1.02629   1.23169    0.000
 4577.00    1.06390   1.22920    0.000
 4578.00    1.09729   1.22803    0.000
 4579.00    1.24153   1.22778    0.000
 4580.00    1.39429   1.22877    0.000
 4581.00    1.34738   1.22945    0.000
 4582.00    1.29215   1.23113    0.000
 4583.00    1.27031   1.23177    0.000
 4584.00    1.24802   1.23276    0.000
 4585.00    1.19424   1.23254    0.000
 4586.00    1.13949   1.23197    0.000
 4587.00    1.06768   1.23023    0.000
 4588.00    1.01174   1.22840    0.000
 4589.00    1.12563   1.22603    0.000
 4590.00    1.22607   1.22456    0.000
 4591.00    1.22484   1.22305    0.000
 4592.00    1.23784   1.22277    0.000
 4593.00    1.33260   1.22295    0.000
 4594.00    1.40892   1.22480    0.000
 4595.00    1.40096   1.22732    0.000
 4596.00    1.37202   1.23131    0.000
 4597.00    1.26459   1.23636    0.000
 4598.00    1.15325   1.24184    0.000
 4599.00    1.02963   1.24928    0.000
 4600.00    0.97295   1.25601    0.000
 4601.00    1.09392   1.26421    0.000
 4602.00    1.17692   1.27118    0.000
 4603.00    1.17338   1.27881    0.000
 4604.00    1.16732   1.28519    0.000
 4605.00    1.15630   1.29129    0.000
 4606.00    1.16363   1.29613    0.000
 4607.00    1.20251   1.29986    0.000
 4608.00    1.19589   1.30278    0.000
 4609.00    1.12076   1.30473    0.000
 4610.00    1.06098   1.30664    0.000
 4611.00    1.02152   1.30738    0.000
 4612.00    1.05922   1.30887    0.000
 4613.00    1.18684   1.30882    0.000
 4614.00    1.33033   1.30951    0.000
 4615.00    1.49012   1.30916    0.000
 4616.00    1.47496   1.30891    0.000
 4617.00    1.30123   1.30798    0.000
 4618.00    1.22688   1.30731    0.000
 4619.00    1.23194   1.30561    0.000
 4620.00    1.18955   1.30378    0.000
 4621.00    1.11380   1.30140    0.000
 4622.00    1.17818   1.29840    0.000
 4623.00    1.32895   1.29484    0.000
 4624.00    1.32943   1.29079    0.000
 4625.00    1.24897   1.28615    0.000
 4626.00    1.23095   1.28069    0.000
 4627.00    1.24213   1.27486    0.000
 4628.00    1.34635   1.26860    0.000
 4629.00    1.48809   1.26196    0.000
 4630.00    1.46003   1.25481    0.000
 4631.00    1.37355   1.24781    0.000
 4632.00    1.21903   1.24089    0.000
 4633.00    1.04480   1.23400    0.000
 4634.00    1.14730   1.22774    0.000
 4635.00    1.31608   1.22123    0.000
 4636.00    1.17910   1.21597    0.000
 4637.00    0.98307   1.21039    0.000
 4638.00    0.99290   1.20647    0.000
 4639.00    1.03363   1.20273    0.000
 4640.00    1.04479   1.20040    0.000
 4641.00    1.05270   1.19879    0.000
 4642.00    1.16714   1.19892    0.000
 4643.00    1.28933   1.19988    0.000
 4644.00    1.26581   1.20282    0.000
 4645.00    1.23677   1.20669    0.000
 4646.00    1.37926   1.21209    0.000
 4647.00    1.51048   1.21776    0.000
 4648.00    1.19216   1.22423    0.000
 4649.00    0.90905   1.22990    0.000
 4650.00    1.20154   1.23557    0.000
 4651.00    1.44724   1.23966    0.000
 4652.00    1.21400   1.24260    0.000
 4653.00    1.00463   1.24399    0.000
 4654.00    0.96970   1.24321    0.000
 4655.00    0.96791   1.24108    0.000
 4656.00    1.15137   1.23657    0.000
 4657.00    1.28901   1.23085    0.000
 4658.00    1.22221   1.22358    0.000
 4659.00    1.16265   1.21602    0.000
 4660.00    1.12958   1.20870    0.000
 4661.00    1.11629   1.20245    0.000
 4662.00    1.16365   1.19810    0.000
 4663.00    1.21346   1.19531    0.000
 4664.00    1.26961   1.19475    0.000
 4665.00    1.30755   1.19591    0.000
 4666.00    1.30467   1.19886    0.000
 4667.00    1.33832   1.20273    0.000
 4668.00    1.44293   1.20712    0.000
 4669.00    1.50576   1.21123    0.000
 4670.00    1.49781   1.21444    0.000
 4671.00    1.40220   1.21710    0.000
 4672.00    1.17651   1.21861    0.000
 4673.00    1.05373   1.21973    0.000
 4674.00    1.06515   1.22011    0.000
 4675.00    1.09726   1.21995    0.000
 4676.00    1.15316   1.21982    0.000
 4677.00    1.20191   1.21934    0.000
 4678.00    1.24340   1.21940    0.000
 4679.00    1.22115   1.21953    0.000
 4680.00    1.14192   1.22020    0.000
 4681.00    1.07722   1.22094    0.000
 4682.00    1.02395   1.22175    0.000
 4683.00    1.11507   1.22265    0.000
 4684.00    1.30620   1.22317    0.000
 4685.00    1.43329   1.22359    0.000
 4686.00    1.52148   1.22374    0.000
 4687.00    1.51842   1.22328    0.000
 4688.00    1.46697   1.22241    0.000
 4689.00    1.43478   1.22068    0.000
 4690.00    1.41145   1.21845    0.000
 4691.00    1.37475   1.21526    0.000
 4692.00    1.33275   1.21188    0.000
 4693.00    1.31920   1.20780    0.000
 4694.00    1.31526   1.20357    0.000
 4695.00    1.36644   1.19951    0.000
 4696.00    1.43325   1.19544    0.000
 4697.00    1.37873   1.19277    0.000
 4698.00    1.29580   1.19018    0.000
 4699.00    1.20935   1.18978    0.000
 4700.00    1.12223   1.18941    0.000
 4701.00    1.08819   1.19108    0.000
 4702.00    1.06186   1.19316    0.000
 4703.00    1.01504   1.19685    0.000
 4704.00    0.96605   1.20128    0.000
 4705.00    1.11565   1.20653    0.000
 4706.00    1.27887   1.21281    0.000
 4707.00    1.33817   1.21954    0.000
 4708.00    1.39394   1.22755    0.000
 4709.00    1.47408   1.23520    0.000
 4710.00    1.54590   1.24353    0.000
 4711.00    1.34559   1.25094    0.000
 4712.00    1.15293   1.25792    0.000
 4713.00    1.07781   1.26381    0.000
 4714.00    1.00306   1.26852    0.000
 4715.00    0.93195   1.27144    0.000
 4716.00    0.88010   1.27264    0.000
 4717.00    0.96444   1.27136    0.000
 4718.00    1.03383   1.26841    0.000
 4719.00    1.02183   1.26380    0.000
 4720.00    1.01335   1.25789    0.000
 4721.00    1.02019   1.25167    0.000
 4722.00    1.03500   1.24505    0.000
 4723.00    1.07839   1.23947    0.000
 4724.00    1.13252   1.23436    0.000
 4725.00    1.21901   1.23074    0.000
 4726.00    1.27695   1.22858    0.000
 4727.00    1.26174   1.22802    0.000
 4728.00    1.23955   1.22964    0.000
 4729.00    1.20199   1.23218    0.000
 4730.00    1.20920   1.23618    0.000
 4731.00    1.30200   1.24029    0.000
 4732.00    1.34789   1.24545    0.000
 4733.00    1.31553   1.25009    0.000
 4734.00    1.26917   1.25507    0.000
 4735.00    1.20236   1.25992    0.000
 4736.00    1.19481   1.26408    0.000
 4737.00    1.26344   1.26849    0.000
 4738.00    1.28880   1.27192    0.000
 4739.00    1.26515   1.27479    0.000
 4740.00    1.28252   1.27659    0.000
 4741.00    1.34085   1.27816    0.000
 4742.00    1.38273   1.27837    0.000
 4743.00    1.41010   1.27800    0.000
 4744.00    1.35432   1.27640    0.000
 4745.00    1.23399   1.27396    0.000
 4746.00    1.22463   1.27118    0.000
 4747.00    1.29103   1.26690    0.000
 4748.00    1.29811   1.26294    0.000
 4749.00    1.26971   1.25768    0.000
 4750.00    1.30460   1.25306    0.000
 4751.00    1.37252   1.24734    0.000
 4752.00    1.49057   1.24229    0.000
 4753.00    1.63130   1.23694    0.000
 4754.00    1.56629   1.23192    0.000
 4755.00    1.42118   1.22722    0.000
 4756.00    1.37135   1.22284    0.000
 4757.00    1.35310   1.21938    0.000
 4758.00    1.35452   1.21676    0.000
 4759.00    1.36141   1.21525    0.000
 4760.00    1.22679   1.21513    0.000
 4761.00    1.05980   1.21614    0.018
 4762.00    1.06425   1.21905    0.018
 4763.00    1.10011   1.22317    0.018
 4764.00    1.18923   1.22827    0.018
 4765.00    1.28586   1.23422    0.018
 4766.00    1.25572   1.24043    0.018
 4767.00    1.21273   1.24680    0.018
 4768.00    1.34140   1.25212    0.018
 4769.00    1.48116   1.25694    0.018
 4770.00    1.44526   1.26001    0.018
 4771.00    1.40406   1.26204    0.018
 4772.00    1.36651   1.26302    0.018
 4773.00    1.33256   1.26254    0.018
 4774.00    1.40284   1.26103    0.018
 4775.00    1.46082   1.25812    0.019
 4776.00    1.34106   1.25490    0.018
 4777.00    1.23693   1.25165    0.018
 4778.00    1.27995   1.24840    0.018
 4779.00    1.28652   1.24580    0.018
 4780.00    1.04354   1.24433    0.017
 4781.00    0.87278   1.24382    0.017
 4782.00    1.08460   1.24462    0.017
 4783.00    1.25728   1.24657    0.017
 4784.00    1.26332   1.25001    0.017
 4785.00    1.26860   1.25384    0.018
 4786.00    1.27124   1.25800    0.018
 4787.00    1.27239   1.26309    0.018
 4788.00    1.26914   1.26735    0.018
 4789.00    1.28301   1.27112    0.018
 4790.00    1.34001   1.27460    0.018
 4791.00    1.35812   1.27656    0.018
 4792.00    1.29188   1.27819    0.018
 4793.00    1.26716   1.27829    0.018
 4794.00    1.32059   1.27798    0.018
 4795.00    1.33648   1.27635    0.018
 4796.00    1.29068   1.27470    0.018
 4797.00    1.21307   1.27275    0.018
 4798.00    1.08961   1.27075    0.018
 4799.00    1.01633   1.26936    0.018
 4800.00    1.00665   1.26795    0.018
 4801.00    1.05075   1.26758    0.018
 4802.00    1.15489   1.26673    0.018
 4803.00    1.32788   1.26714    0.018
 4804.00    1.56870   1.26735    0.019
 4805.00    1.61717   1.26924    0.019
 4806.00    1.49854   1.27120    0.019
 4807.00    1.32916   1.27373    0.018
 4808.00    1.12094   1.27640    0.019
 4809.00    1.12183   1.27898    0.018
 4810.00    1.26338   1.28093    0.018
 4811.00    1.36385   1.28239    0.018
 4812.00    1.44010   1.28318    0.018
 4813.00    1.28659   1.28283    0.018
 4814.00    1.01501   1.28180    0.018
 4815.00    1.11194   1.27960    0.018
 4816.00    1.37295   1.27704    0.018
 4817.00    1.24484   1.27347    0.018
 4818.00    0.96787   1.26937    0.018
 4819.00    0.94373   1.26559    0.018
 4820.00    1.00178   1.26127    0.018
 4821.00    1.11975   1.25786    0.018
 4822.00    1.25405   1.25399    0.019
 4823.00    1.18817   1.25127    0.018
 4824.00    1.07756   1.24916    0.018
 4825.00    1.21750   1.24732    0.018
 4826.00    1.40209   1.24507    0.018
 4827.00    1.35641   1.24321    0.018
 4828.00    1.27935   1.24141    0.019
 4829.00    1.25854   1.23962    0.018
 4830.00    1.24320   1.23814    0.018
 4831.00    1.31572   1.23581    0.018
 4832.00    1.39357   1.23449    0.019
 4833.00    1.27373   1.23283    0.018
 4834.00    1.14989   1.23092    0.018
 4835.00    1.24870   1.22859    0.018
 4836.00    1.34087   1.22650    0.018
 4837.00    1.25962   1.22421    0.018
 4838.00    1.18901   1.22154    0.018
 4839.00    1.26381   1.21861    0.018
 4840.00    1.32418   1.21525    0.018
 4841.00    1.25415   1.21088    0.018
 4842.00    1.19097   1.20513    0.018
 4843.00    1.17331   1.19792    0.017
 4844.00    1.17017   1.18984    0.017
 4845.00    1.24190   1.17969    0.017
 4846.00    1.26954   1.16733    0.018
 4847.00    1.11359   1.15330    0.018
 4848.00    0.98063   1.13795    0.000
 4849.00    0.92681   1.12265    0.000
 4850.00    0.91826   1.10673    0.000
 4851.00    1.04101   1.09139    0.000
 4852.00    1.10688   1.07692    0.000
 4853.00    1.03196   1.06448    0.000
 4854.00    1.05515   1.05365    0.000
 4855.00    1.28767   1.04659    0.000
 4856.00    1.48716   1.04266    0.000
 4857.00    1.62545   1.04146    0.000
 4858.00    1.68915   1.04251    0.000
 4859.00    1.63210   1.04575    0.000
 4860.00    1.52762   1.05177    0.000
 4861.00    1.35580   1.06001    0.000
 4862.00    1.25488   1.07094    0.000
 4863.00    1.24254   1.08038    0.000
 4864.00    1.21612   1.09061    0.000
 4865.00    1.17420   1.10112    0.000
 4866.00    1.14035   1.11098    0.000
 4867.00    1.11436   1.12113    0.000
 4868.00    1.03708   1.13080    0.000
 4869.00    0.91589   1.14004    0.000
 4870.00    0.91054   1.14801    0.000
 4871.00    0.99258   1.15627    0.000
 4872.00    1.06661   1.16432    0.000
 4873.00    1.13534   1.17018    0.000
 4874.00    1.12416   1.17435    0.000
 4875.00    1.06660   1.17704    0.017
 4876.00    1.15442   1.17917    0.017
 4877.00    1.31578   1.17903    0.017
 4878.00    1.27207   1.17893    0.017
 4879.00    1.13857   1.17748    0.017
 4880.00    1.07151   1.17682    0.017
 4881.00    1.02943   1.17703    0.017
 4882.00    1.03299   1.17968    0.017
 4883.00    1.05111   1.18321    0.017
 4884.00    1.03939   1.18786    0.017
 4885.00    1.01971   1.19470    0.017
 4886.00    1.07109   1.20304    0.018
 4887.00    1.13796   1.21299    0.018
 4888.00    1.17484   1.22195    0.017
 4889.00    1.20652   1.23235    0.017
 4890.00    1.11740   1.24066    0.017
 4891.00    1.01238   1.24930    0.017
 4892.00    1.02618   1.25721    0.017
 4893.00    1.05102   1.26259    0.017
 4894.00    1.25739   1.26658    0.018
 4895.00    1.47405   1.26794    0.018
 4896.00    1.40906   1.26787    0.017
 4897.00    1.33861   1.26643    0.017
 4898.00    1.37261   1.26379    0.017
 4899.00    1.40908   1.26033    0.018
 4900.00    1.50445   1.25718    0.018
 4901.00    1.58259   1.25379    0.017
 4902.00    1.43783   1.24911    0.017
 4903.00    1.29830   1.24510    0.017
 4904.00    1.20431   1.24071    0.017
 4905.00    1.14236   1.23603    0.017
 4906.00    1.28659   1.22960    0.017
 4907.00    1.38071   1.22229    0.017
 4908.00    1.22285   1.21481    0.018
 4909.00    1.12271   1.20713    0.018
 4910.00    1.25749   1.20077    0.018
 4911.00    1.32367   1.19459    0.018
 4912.00    1.15837   1.18938    0.018
 4913.00    1.07256   1.18444    0.018
 4914.00    1.21305   1.18219    0.018
 4915.00    1.27887   1.18105    0.018
 4916.00    1.16300   1.18212    0.018
 4917.00    1.06037   1.18517    0.018
 4918.00    0.98551   1.18964    0.018
 4919.00    0.95642   1.19701    0.017
 4920.00    1.01086   1.20509    0.017
 4921.00    1.08317   1.21391    0.017
 4922.00    1.18398   1.22147    0.018
 4923.00    1.25530   1.22750    0.018
 4924.00    1.28534   1.23202    0.018
 4925.00    1.30900   1.23588    0.018
 4926.00    1.32480   1.23750    0.018
 4927.00    1.33991   1.23696    0.018
 4928.00    1.35426   1.23609    0.018
 4929.00    1.37087   1.23471    0.018
 4930.00    1.38963   1.23321    0.018
 4931.00    1.37283   1.23314    0.018
 4932.00    1.32601   1.23293    0.018
 4933.00    1.36837   1.23411    0.018
 4934.00    1.47704   1.23811    0.018
 4935.00    1.45680   1.24259    0.018
 4936.00    1.35236   1.24727    0.018
 4937.00    1.28508   1.25295    0.018
 4938.00    1.23904   1.25919    0.019
 4939.00    1.25440   1.26603    0.019
 4940.00    1.30032   1.27207    0.000
 4941.00    1.34519   1.27601    0.000
 4942.00    1.38960   1.27831    0.000
 4943.00    1.49684   1.27872    0.000
 4944.00    1.62729   1.27734    0.000
 4945.00    1.53026   1.27288    0.000
 4946.00    1.36208   1.26872    0.000
 4947.00    1.34532   1.26177    0.000
 4948.00    1.36806   1.25506    0.000
 4949.00    1.36202   1.24907    0.000
 4950.00    1.34984   1.24275    0.000
 4951.00    1.30935   1.23726    0.000
 4952.00    1.26410   1.23108    0.000
 4953.00    1.21499   1.22758    0.000
 4954.00    1.16540   1.22415    0.000
 4955.00    1.04349   1.22189    0.000
 4956.00    0.91517   1.21952    0.000
 4957.00    1.02931   1.21918    0.000
 4958.00    1.15624   1.22143    0.000
 4959.00    1.20887   1.22304    0.000
 4960.00    1.25859   1.22413    0.000
 4961.00    1.19148   1.22482    0.000
 4962.00    1.13122   1.22655    0.000
 4963.00    1.21986   1.22727    0.000
 4964.00    1.30238   1.22789    0.000
 4965.00    1.30981   1.22769    0.000
 4966.00    1.31822   1.22754    0.000
 4967.00    1.33490   1.22631    0.000
 4968.00    1.34969   1.22341    0.000
 4969.00    1.35274   1.21987    0.000
 4970.00    1.35742   1.21458    0.000
 4971.00    1.37016   1.20885    0.000
 4972.00    1.35909   1.20089    0.000
 4973.00    1.25324   1.19302    0.000
 4974.00    1.17547   1.18613    0.000
 4975.00    1.19057   1.17914    0.000
 4976.00    1.19927   1.17395    0.000
 4977.00    1.19007   1.17004    0.000
 4978.00    1.17661   1.16766    0.000
 4979.00    1.15296   1.16689    0.000
 4980.00    1.11374   1.16769    0.000
 4981.00    1.04236   1.16847    0.000
 4982.00    1.01651   1.17184    0.000
 4983.00    1.07247   1.17598    0.000
 4984.00    1.13566   1.17949    0.000
 4985.00    1.21020   1.18348    0.000
 4986.00    1.24274   1.18632    0.000
 4987.00    1.21734   1.18776    0.000
 4988.00    1.21466   1.18743    0.000
 4989.00    1.23955   1.18552    0.000
 4990.00    1.23440   1.18212    0.000
 4991.00    1.19710   1.17839    0.000
 4992.00    1.21690   1.17397    0.000
 4993.00    1.29063   1.16777    0.000
 4994.00    1.18697   1.16200    0.000
 4995.00    0.93564   1.15524    0.000
 4996.00    0.89666   1.14760    0.000
 4997.00    1.01330   1.14158    0.000
 4998.00    1.19314   1.13625    0.000
 4999.00    1.41364   1.13100    0.000
 5000.00    1.42946   1.12665    0.000
 5001.00    1.33004   1.12294    0.000
 5002.00    1.28888   1.11859    0.000
 5003.00    1.27626   1.11535    0.000
 5004.00    1.34483   1.11141    0.000
 5005.00    1.44778   1.10873    0.000
 5006.00    1.44723   1.10753    0.000
 5007.00    1.40916   1.10672    0.000
 5008.00    1.31738   1.10592    0.000
 5009.00    1.20913   1.10524    0.000
 5010.00    1.21330   1.10585    0.000
 5011.00    1.24617   1.10651    0.000
 5012.00    1.22543   1.10797    0.000
 5013.00    1.19354   1.11116    0.000
 5014.00    1.14337   1.11586    0.000
 5015.00    1.09021   1.12107    0.000
 5016.00    1.14714   1.12717    0.000
 5017.00    1.21759   1.13158    0.000
 5018.00    1.28974   1.13784    0.000
 5019.00    1.36204   1.14437    0.000
 5020.00    1.42352   1.15013    0.000
 5021.00    1.48447   1.15584    0.000
 5022.00    1.30494   1.16064    0.000
 5023.00    1.12657   1.16607    0.000
 5024.00    1.24594   1.16861    0.000
 5025.00    1.35461   1.17001    0.000
 5026.00    1.24855   1.16887    0.000
 5027.00    1.16061   1.16754    0.000
 5028.00    1.28438   1.16553    0.000
 5029.00    1.36938   1.16193    0.017
 5030.00    1.14150   1.15731    0.017
 5031.00    0.97188   1.15143    0.017
 5032.00    1.15557   1.14779    0.017
 5033.00    1.32172   1.14415    0.018
 5034.00    1.40397   1.14186    0.018
 5035.00    1.43739   1.14097    0.018
 5036.00    1.28065   1.14248    0.018
 5037.00    1.13904   1.14522    0.018
 5038.00    1.04649   1.14706    0.017
 5039.00    0.99447   1.15029    0.017
 5040.00    1.05372   1.15361    0.017
 5041.00    1.15405   1.15884    0.017
 5042.00    1.35102   1.16528    0.017
 5043.00    1.45582   1.17071    0.017
 5044.00    1.37325   1.17609    0.017
 5045.00    1.30189   1.18169    0.017
 5046.00    1.25037   1.18644    0.017
 5047.00    1.23731   1.19035    0.017
 5048.00    1.28378   1.19463    0.017
 5049.00    1.23634   1.19913    0.017
 5050.00    1.06123   1.20375    0.017
 5051.00    1.05103   1.20722    0.017
 5052.00    1.23821   1.20997    0.017
 5053.00    1.33728   1.21203    0.017
 5054.00    1.34338   1.21142    0.017
 5055.00    1.33920   1.20939    0.017
 5056.00    1.32548   1.20642    0.017
 5057.00    1.27969   1.20244    0.016
 5058.00    1.20758   1.19856    0.016
 5059.00    1.18312   1.19345    0.016
 5060.00    1.19309   1.18906    0.016
 5061.00    1.20611   1.18387    0.016
 5062.00    1.22109   1.17824    0.016
 5063.00    1.15703   1.17301    0.016
 5064.00    1.04915   1.16701    0.016
 5065.00    1.03974   1.16373    0.016
 5066.00    1.07780   1.16002    0.016
 5067.00    1.11191   1.15571    0.016
 5068.00    1.14438   1.15196    0.016
 5069.00    1.23975   1.14779    0.016
 5070.00    1.35752   1.14423    0.016
 5071.00    1.31785   1.13882    0.016
 5072.00    1.23083   1.13580    0.016
 5073.00    1.09913   1.13446    0.016
 5074.00    0.95626   1.13339    0.017
 5075.00    1.08181   1.13348    0.017
 5076.00    1.26175   1.13478    0.016
 5077.00    1.31914   1.13810    0.016
 5078.00    1.35706   1.14054    0.016
 5079.00    1.25900   1.14469    0.016
 5080.00    1.14485   1.15034    0.016
 5081.00    1.07760   1.15633    0.016
 5082.00    1.01411   1.16148    0.016
 5083.00    1.02441   1.16617    0.016
 5084.00    1.03803   1.17058    0.016
 5085.00    1.10799   1.17368    0.016
 5086.00    1.17903   1.17501    0.016
 5087.00    1.27093   1.17470    0.016
 5088.00    1.35760   1.17343    0.016
 5089.00    1.34709   1.17076    0.016
 5090.00    1.32780   1.16752    0.016
 5091.00    1.21056   1.16350    0.016
 5092.00    1.10782   1.16068    0.017
 5093.00    1.11802   1.15738    0.016
 5094.00    1.13351   1.15369    0.016
 5095.00    1.18019   1.14994    0.017
 5096.00    1.23379   1.14671    0.017
 5097.00    1.31966   1.14426    0.017
 5098.00    1.36400   1.14225    0.017
 5099.00    1.25003   1.14178    0.017
 5100.00    1.13633   1.14193    0.016
 5101.00    1.02351   1.14339    0.016
 5102.00    0.91031   1.14394    0.016
 5103.00    0.79606   1.14600    0.016
 5104.00    0.79605   1.14919    0.016
 5105.00    1.06015   1.15187    0.016
 5106.00    1.19878   1.15508    0.016
 5107.00    1.08640   1.15807    0.017
 5108.00    1.04328   1.16103    0.017
 5109.00    1.12088   1.16310    0.017
 5110.00    1.16657   1.16427    0.017
 5111.00    1.16361   1.16450    0.017
 5112.00    1.14701   1.16242    0.017
 5113.00    1.11214   1.15885    0.017
 5114.00    1.15021   1.15490    0.017
 5115.00    1.27434   1.14888    0.017
 5116.00    1.32684   1.14320    0.017
 5117.00    1.30480   1.13796    0.017
 5118.00    1.27882   1.13262    0.017
 5119.00    1.24921   1.12744    0.017
 5120.00    1.27682   1.12313    0.017
 5121.00    1.35070   1.12014    0.017
 5122.00    1.37900   1.11765    0.017
 5123.00    1.37484   1.11726    0.017
 5124.00    1.27369   1.11751    0.016
 5125.00    1.11195   1.11887    0.016
 5126.00    1.12148   1.11949    0.016
 5127.00    1.22452   1.12105    0.017
 5128.00    1.23477   1.12168    0.017
 5129.00    1.20099   1.12065    0.016
 5130.00    1.20863   1.12118    0.016
 5131.00    1.23320   1.11890    0.016
 5132.00    1.24598   1.11794    0.016
 5133.00    1.25462   1.11689    0.016
 5134.00    1.28339   1.11357    0.016
 5135.00    1.31808   1.11072    0.016
 5136.00    1.28529   1.10829    0.016
 5137.00    1.23602   1.10591    0.016
 5138.00    1.21194   1.10281    0.016
 5139.00    1.19283   1.10121    0.016
 5140.00    1.12033   1.10111    0.016
 5141.00    1.03959   1.10084    0.016
 5142.00    1.02322   1.10080    0.016
 5143.00    1.01417   1.10226    0.015
 5144.00    0.99878   1.10339    0.016
 5145.00    0.98292   1.10518    0.016
 5146.00    1.11955   1.10755    0.016
 5147.00    1.26246   1.11022    0.016
 5148.00    1.28572   1.11354    0.016
 5149.00    1.30818   1.11536    0.016
 5150.00    1.33806   1.11568    0.016
 5151.00    1.36526   1.11317    0.016
 5152.00    1.34625   1.10920    0.016
 5153.00    1.31357   1.10369    0.016
 5154.00    1.13549   1.09465    0.016
 5155.00    0.98311   1.08494    0.016
 5156.00    1.02419   1.07208    0.016
 5157.00    1.08189   1.05536    0.016
 5158.00    1.23476   1.03715    0.017
 5159.00    1.34977   1.01863    0.017
 5160.00    1.29236   1.00319    0.016
 5161.00    1.20886   0.98906    0.016
 5162.00    1.02804   0.97824    0.016
 5163.00    0.89429   0.96820    0.016
 5164.00    0.90744   0.95743    0.016
 5165.00    0.95603   0.95183    0.016
 5166.00    1.09846   0.95165    0.016
 5167.00    1.18963   0.95526    0.016
 5168.00    1.16424   0.95913    0.016
 5169.00    1.12567   0.96485    0.016
 5170.00    1.06115   0.97095    0.017
 5171.00    1.01511   0.97520    0.017
 5172.00    1.00079   0.98099    0.016
 5173.00    1.02365   0.98725    0.016
 5174.00    1.10238   0.99301    0.017
 5175.00    1.14378   0.99537    0.017
 5176.00    1.13589   0.99832    0.017
 5177.00    1.13227   1.00505    0.017
 5178.00    1.13361   1.01115    0.016
 5179.00    1.10531   1.01847    0.016
 5180.00    1.04658   1.02450    0.016
 5181.00    1.03396   1.03143    0.016
 5182.00    1.06304   1.03930    0.016
 5183.00    1.07171   1.04572    0.016
 5184.00    1.06411   1.05473    0.016
 5185.00    1.06587   1.06420    0.016
 5186.00    1.07419   1.07310    0.016
 5187.00    1.14422   1.07932    0.016
 5188.00    1.25221   1.08528    0.016
 5189.00    1.26488   1.09132    0.016
 5190.00    1.22631   1.09414    0.000
 5191.00    1.25033   1.09644    0.000
 5192.00    1.30356   1.09844    0.000
 5193.00    1.29452   1.09916    0.000
 5194.00    1.26041   1.09761    0.000
 5195.00    1.24427   1.09526    0.000
 5196.00    1.23429   1.09249    0.000
 5197.00    1.18010   1.08795    0.000
 5198.00    1.11314   1.08442    0.000
 5199.00    1.14982   1.08265    0.000
 5200.00    1.21125   1.07930    0.000
 5201.00    1.15504   1.07873    0.000
 5202.00    1.07619   1.07972    0.000
 5203.00    1.04915   1.08231    0.000
 5204.00    1.02987   1.08723    0.000
 5205.00    1.08972   1.09270    0.000
 5206.00    1.15824   1.10104    0.000
 5207.00    1.07531   1.10640    0.000
 5208.00    0.98144   1.11321    0.000
 5209.00    1.07853   1.12055    0.000
 5210.00    1.18276   1.12667    0.000
 5211.00    1.13797   1.13258    0.015
 5212.00    1.09265   1.13523    0.015
 5213.00    1.05335   1.13781    0.015
 5214.00    1.02255   1.13697    0.016
 5215.00    1.12962   1.13598    0.016
 5216.00    1.21631   1.13467    0.016
 5217.00    1.09545   1.13175    0.016
 5218.00    1.00099   1.12928    0.016
 5219.00    1.09865   1.12530    0.016
 5220.00    1.18445   1.12483    0.016
 5221.00    1.20413   1.12548    0.016
 5222.00    1.20091   1.12641    0.016
 5223.00    1.09582   1.13026    0.016
 5224.00    1.02060   1.13282    0.016
 5225.00    1.05449   1.13677    0.016
 5226.00    1.07422   1.14235    0.016
 5227.00    1.05058   1.14922    0.016
 5228.00    1.04404   1.15888    0.016
 5229.00    1.08199   1.16617    0.016
 5230.00    1.11727   1.17354    0.016
 5231.00    1.14658   1.17972    0.016
 5232.00    1.16040   1.18343    0.017
 5233.00    1.14417   1.18821    0.016
 5234.00    1.20936   1.19056    0.016
 5235.00    1.41216   1.19273    0.016
 5236.00    1.46558   1.19414    0.016
 5237.00    1.29778   1.19269    0.016
 5238.00    1.18302   1.19036    0.016
 5239.00    1.13731   1.18606    0.016
 5240.00    1.05293   1.18278    0.016
 5241.00    0.92421   1.17914    0.016
 5242.00    0.96595   1.17403    0.017
 5243.00    1.18009   1.17205    0.017
 5244.00    1.20410   1.16954    0.016
 5245.00    1.05848   1.16670    0.016
 5246.00    1.02566   1.16396    0.016
 5247.00    1.08152   1.16101    0.016
 5248.00    1.05781   1.15999    0.016
 5249.00    0.97908   1.15586    0.016
 5250.00    0.99163   1.15213    0.016
 5251.00    1.05952   1.14852    0.016
 5252.00    1.14898   1.14168    0.016
 5253.00    1.24984   1.13315    0.016
 5254.00    1.28464   1.12275    0.016
 5255.00    1.28910   1.11237    0.016
 5256.00    1.19011   1.10029    0.016
 5257.00    1.05021   1.08789    0.016
 5258.00    1.08000   1.07775    0.016
 5259.00    1.16695   1.06987    0.016
 5260.00    1.21831   1.06218    0.016
 5261.00    1.25959   1.05583    0.016
 5262.00    1.23432   1.05235    0.016
 5263.00    1.19352   1.05249    0.016
 5264.00    1.16911   1.05692    0.016
 5265.00    1.14779   1.06419    0.016
 5266.00    1.14189   1.07516    0.016
 5267.00    1.13823   1.08490    0.016
 5268.00    1.10509   1.09418    0.016
 5269.00    1.06885   1.10584    0.016
 5270.00    1.05380   1.11957    0.016
 5271.00    1.04020   1.13435    0.016
 5272.00    1.11169   1.14656    0.016
 5273.00    1.18604   1.15810    0.016
 5274.00    1.14064   1.16792    0.016
 5275.00    1.09597   1.17583    0.016
 5276.00    1.07869   1.18535    0.016
 5277.00    1.06509   1.19492    0.016
 5278.00    1.10755   1.20286    0.016
 5279.00    1.14599   1.20975    0.016
 5280.00    1.14530   1.21484    0.016
 5281.00    1.14705   1.21928    0.016
 5282.00    1.16596   1.22251    0.016
 5283.00    1.17613   1.22406    0.016
 5284.00    1.13885   1.22534    0.016
 5285.00    1.12120   1.22455    0.016
 5286.00    1.18883   1.22339    0.016
 5287.00    1.27726   1.22053    0.016
 5288.00    1.44012   1.21634    0.016
 5289.00    1.55086   1.21273    0.016
 5290.00    1.50505   1.20875    0.016
 5291.00    1.44639   1.20681    0.016
 5292.00    1.35489   1.20545    0.016
 5293.00    1.29614   1.20609    0.016
 5294.00    1.30944   1.20802    0.016
 5295.00    1.29082   1.20978    0.016
 5296.00    1.21127   1.21387    0.016
 5297.00    1.16705   1.21913    0.016
 5298.00    1.18163   1.22628    0.016
 5299.00    1.18224   1.23291    0.017
 5300.00    1.16245   1.23777    0.016
 5301.00    1.20370   1.24263    0.016
 5302.00    1.32332   1.24723    0.017
 5303.00    1.36422   1.25100    0.016
 5304.00    1.31613   1.25311    0.016
 5305.00    1.25747   1.25358    0.016
 5306.00    1.18828   1.25208    0.016
 5307.00    1.17420   1.24964    0.016
 5308.00    1.20861   1.24623    0.016
 5309.00    1.20927   1.24176    0.016
 5310.00    1.18378   1.23526    0.016
 5311.00    1.19091   1.22717    0.016
 5312.00    1.22024   1.22017    0.016
 5313.00    1.27542   1.21208    0.016
 5314.00    1.34601   1.20273    0.015
 5315.00    1.33654   1.19144    0.015
 5316.00    1.28535   1.18156    0.015
 5317.00    1.31653   1.17395    0.015
 5318.00    1.38492   1.16600    0.015
 5319.00    1.41756   1.15958    0.015
 5320.00    1.43631   1.15352    0.015
 5321.00    1.33138   1.14944    0.015
 5322.00    1.18556   1.14558    0.015
 5323.00    1.16200   1.14570    0.015
 5324.00    1.17234   1.15024    0.015
 5325.00    1.16327   1.15451    0.015
 5326.00    1.14976   1.15822    0.014
 5327.00    1.07242   1.15951    0.015
 5328.00    0.98343   1.16526    0.015
 5329.00    1.05449   1.17298    0.015
 5330.00    1.14799   1.17812    0.015
 5331.00    1.21498   1.18265    0.015
 5332.00    1.27929   1.18470    0.015
 5333.00    1.26495   1.18755    0.015
 5334.00    1.24556   1.18972    0.015
 5335.00    1.19711   1.19094    0.015
 5336.00    1.14800   1.19498    0.015
 5337.00    1.18575   1.19748    0.015
 5338.00    1.22029   1.19993    0.015
 5339.00    1.16281   1.20249    0.015
 5340.00    1.11096   1.20496    0.015
 5341.00    1.13983   1.21178    0.015
 5342.00    1.17012   1.21722    0.015
 5343.00    1.21364   1.22234    0.015
 5344.00    1.25561   1.22923    0.015
 5345.00    1.28698   1.23540    0.015
 5346.00    1.30850   1.24291    0.015
 5347.00    1.27796   1.24816    0.015
 5348.00    1.25018   1.25274    0.015
 5349.00    1.23408   1.25775    0.015
 5350.00    1.25447   1.26066    0.015
 5351.00    1.40279   1.26207    0.015
 5352.00    1.47967   1.26091    0.016
 5353.00    1.34600   1.25873    0.016
 5354.00    1.25874   1.25516    0.016
 5355.00    1.28809   1.25029    0.016
 5356.00    1.29629   1.24368    0.016
 5357.00    1.25875   1.23665    0.015
 5358.00    1.21779   1.22917    0.015
 5359.00    1.17043   1.22062    0.015
 5360.00    1.11235   1.21466    0.015
 5361.00    1.03667   1.20873    0.015
 5362.00    1.01721   1.20506    0.015
 5363.00    1.07863   1.20159    0.016
 5364.00    1.13097   1.19780    0.016
 5365.00    1.17183   1.19734    0.015
 5366.00    1.17549   1.19871    0.015
 5367.00    1.13769   1.20379    0.015
 5368.00    1.13944   1.20733   -2.000
 5369.00    1.18008   1.21010   -2.000
 5370.00    1.16055   1.21317   -2.000
 5371.00    1.08884   1.21629   -2.000
 5372.00    1.13471   1.22153   -2.000
 5373.00    1.27041   1.22477   -2.000
 5374.00    1.35241   1.22654   -2.000
 5375.00    1.39834   1.22644   -2.000
 5376.00    1.39106   1.22526   -2.000
 5377.00    1.35248   1.22371   -2.000
 5378.00    1.32398   1.22121   -2.000
 5379.00    1.30065   1.21824   -2.000
 5380.00    1.27379   1.21362   -2.000
 5381.00    1.24536   1.20815   -2.000
 5382.00    1.25755   1.20246   -2.000
 5383.00    1.28525   1.19588    0.015
 5384.00    1.25854   1.18952    0.015
 5385.00    1.21417   1.18345    0.014
 5386.00    1.21247   1.17636    0.014
 5387.00    1.22234   1.17087    0.014
 5388.00    1.25139   1.16516    0.014
 5389.00    1.28471   1.15984    0.014
 5390.00    1.28551   1.15499    0.014
 5391.00    1.28054   1.14864    0.014
 5392.00    1.27766   1.14554    0.014
 5393.00    1.27507   1.14302    0.015
 5394.00    1.26012   1.13944    0.015
 5395.00    1.24397   1.13670    0.014
 5396.00    1.21271   1.13496    0.015
 5397.00    1.18054   1.13438    0.015
 5398.00    1.19692   1.13327    0.015
 5399.00    1.21512   1.13218    0.015
 5400.00    1.32547   1.13428    0.015
 5401.00    1.42457   1.13955    0.015
 5402.00    1.23352   1.14439    0.015
 5403.00    1.05481   1.14793    0.015
 5404.00    1.04334   1.15171    0.015
 5405.00    1.04095   1.15965    0.014
 5406.00    1.12022   1.16943    0.015
 5407.00    1.18114   1.17707    0.015
 5408.00    1.12072   1.18306    0.015
 5409.00    1.08403   1.18811    0.015
 5410.00    1.16929   1.19497    0.015
 5411.00    1.23062   1.20155    0.015
 5412.00    1.19260   1.20509    0.015
 5413.00    1.15699   1.20606    0.015
 5414.00    1.12962   1.20667    0.015
 5415.00    1.12446   1.20782    0.015
 5416.00    1.18353   1.20821    0.014
 5417.00    1.22592   1.20636    0.014
 5418.00    1.22713   1.20022    0.014
 5419.00    1.20848   1.19683    0.014
 5420.00    1.14758   1.19654    0.014
 5421.00    1.12051   1.19385    0.014
 5422.00    1.15602   1.19072    0.014
 5423.00    1.19340   1.18340    0.014
 5424.00    1.23383   1.18017    0.014
 5425.00    1.21513   1.18358    0.014
 5426.00    1.11262   1.18345    0.014
 5427.00    1.06851   1.18430    0.014
 5428.00    1.09724   1.18365    0.014
 5429.00    1.13664   1.18492    0.014
 5430.00    1.18776   1.19042    0.014
 5431.00    1.22273   1.19364    0.014
 5432.00    1.24204   1.19868    0.014
 5433.00    1.21465   1.20142    0.014
 5434.00    1.14734   1.20282    0.014
 5435.00    1.16083   1.20426    0.014
 5436.00    1.23518   1.20405    0.014
 5437.00    1.31910   1.20640    0.014
 5438.00    1.40935   1.20590    0.014
 5439.00    1.35535   1.20292    0.014
 5440.00    1.21780   1.19886    0.014
 5441.00    1.20239   1.19449    0.014
 5442.00    1.24863   1.19439    0.014
 5443.00    1.26129   1.19290    0.014
 5444.00    1.25926   1.18859    0.014
 5445.00    1.23915   1.18510    0.014
 5446.00    1.21225   1.18327    0.014
 5447.00    1.20138   1.18309    0.014
 5448.00    1.19562   1.18294    0.014
 5449.00    1.19386   1.17985    0.014
 5450.00    1.19318   1.17858    0.014
 5451.00    1.21499   1.18053    0.014
 5452.00    1.24170   1.18084    0.014
 5453.00    1.28993   1.18217    0.015
 5454.00    1.34188   1.18153    0.015
 5455.00    1.29312   1.18071    0.015
 5456.00    1.23115   1.18214    0.015
 5457.00    1.24403   1.18127    0.015
 5458.00    1.26383   1.18202    0.015
 5459.00    1.28808   1.18191    0.014
 5460.00    1.31259   1.17916    0.014
 5461.00    1.33366   1.17814    0.014
 5462.00    1.35412   1.17572    0.014
 5463.00    1.31884   1.17379    0.014
 5464.00    1.28163   1.17175    0.014
 5465.00    1.19911   1.16637    0.014
 5466.00    1.12754   1.16337    0.014
 5467.00    1.19685   1.16108    0.014
 5468.00    1.25497   1.15940    0.014
 5469.00    1.21617   1.15844    0.014
 5470.00    1.17511   1.15332    0.014
 5471.00    1.11954   1.15130    0.014
 5472.00    1.06733   1.15327    0.014
 5473.00    1.03189   1.15592    0.013
 5474.00    1.02792   1.15856    0.013
 5475.00    1.15162   1.15770    0.014
 5476.00    1.24937   1.15860    0.014
 5477.00    1.25971   1.16266    0.013
 5478.00    1.24983   1.16785   -2.000
 5479.00    1.18250   1.17210   -2.000
 5480.00    1.14763   1.17400   -2.000
 5481.00    1.19157   1.17537   -2.000
 5482.00    1.23088   1.17723   -2.000
 5483.00    1.26049   1.18115   -2.000
 5484.00    1.15071   1.18392   -2.000
 5485.00    0.78707   1.18496   -2.000
 5486.00    0.66155   1.18463   -2.000
 5487.00    0.91505   1.18405   -2.000
 5488.00    1.20046   1.18607   -2.000
 5489.00    1.53044   1.18684   -2.000
 5490.00    1.81325   1.18489   -2.000
 5491.00    2.03809   1.18259   -2.000
 5492.00    1.93604   1.18130   -2.000
 5493.00    1.47973   1.18152   -2.000
 5494.00    1.29403   1.18067   -2.000
 5495.00    1.36700   1.17626   -2.000
 5496.00    1.45361   1.17282   -2.000
 5497.00    1.55172   1.17219   -2.000
 5498.00    1.53741   1.17102   -2.000
 5499.00    1.43966   1.16992   -2.000
 5500.00    1.39249   1.16623   -2.000
 5501.00    1.37830   1.16310   -2.000
 5502.00    1.29066   1.16426    0.014
 5503.00    1.16109   1.16414    0.014
 5504.00    1.13808   1.16465    0.014
 5505.00    1.16801   1.16478    0.014
 5506.00    1.23207   1.16409    0.014
 5507.00    1.31081   1.16769    0.014
 5508.00    1.30342   1.17059    0.014
 5509.00    1.26430   1.17307    0.014
 5510.00    1.22421   1.17632    0.014
 5511.00    1.18382   1.17772    0.013
 5512.00    1.15611   1.18111    0.013
 5513.00    1.13172   1.18450    0.013
 5514.00    1.14450   1.18611    0.013
 5515.00    1.16519   1.18795    0.013
 5516.00    1.16216   1.18787    0.013
 5517.00    1.15516   1.18737    0.013
 5518.00    1.19083   1.18818    0.013
 5519.00    1.23191   1.18773    0.013
 5520.00    1.29077   1.18737    0.013
 5521.00    1.35121   1.18613    0.013
 5522.00    1.32080   1.18388    0.013
 5523.00    1.28565   1.18440    0.013
 5524.00    1.24993   1.18478    0.013
 5525.00    1.21437   1.18582    0.013
 5526.00    1.19123   1.18660    0.013
 5527.00    1.16772   1.18619    0.013
 5528.00    1.13615   1.18869    0.013
 5529.00    1.10845   1.19087    0.013
 5530.00    1.12789   1.19376    0.013
 5531.00    1.14894   1.19649    0.013
 5532.00    1.18349   1.19744    0.013
 5533.00    1.20126   1.20067    0.013
 5534.00    1.11472   1.20353    0.014
 5535.00    1.04726   1.20608    0.014
 5536.00    1.07309   1.20879    0.014
 5537.00    1.10143   1.20997    0.014
 5538.00    1.13974   1.21209    0.013
 5539.00    1.17578   1.21443    0.013
 5540.00    1.20436   1.21563    0.013
 5541.00    1.22436   1.21671    0.013
 5542.00    1.22041   1.21722    0.013
 5543.00    1.21043   1.21722    0.016
 5544.00    1.18602   1.21746    0.040
 5545.00    1.18095   1.21707   -1.000
 5546.00    1.21573   1.21557   -1.000
 5547.00    1.24205   1.21393   -1.000
 5548.00    1.25319   1.21189   -1.000
 5549.00    1.28869   1.20945    0.066
 5550.00    1.36237   1.20749    0.019
 5551.00    1.36569   1.20405    0.013
 5552.00    1.27213   1.20038    0.013
 5553.00    1.18586   1.19760    0.013
 5554.00    1.10842   1.19400    0.013
 5555.00    1.08743   1.19140    0.013
 5556.00    1.12676   1.18787    0.013
 5557.00    1.15205   1.18426    0.013
 5558.00    1.16411   1.18232    0.013
 5559.00    1.19253   1.17972    0.013
 5560.00    1.23453   1.17854    0.013
 5561.00    1.25985   1.17674    0.013
 5562.00    1.27295   1.17497    0.013
 5563.00    1.27333   1.17530    0.013
 5564.00    1.26552   1.17489    0.013
 5565.00    1.25184   1.17567    0.012
 5566.00    1.23485   1.17598    0.012
 5567.00    1.22157   1.17513    0.012
 5568.00    1.21010   1.17625    0.013
 5569.00    1.18803   1.17677    0.013
 5570.00    1.16148   1.17604    0.012
 5571.00    1.15346   1.17523    0.013
 5572.00    1.15215   1.17287    0.013
 5573.00    1.18996   1.17035    0.013
 5574.00    1.23975   1.16862    0.013
 5575.00    1.22336   1.16417    0.013
 5576.00    1.19013   1.15931    0.013
 5577.00    1.16564   1.15529    0.013
 5578.00    1.14297   1.14959    0.013
 5579.00    1.10490   1.14606    0.013
 5580.00    1.06433   1.14199    0.013
 5581.00    0.99524   1.13697    0.013
 5582.00    0.92267   1.13503    0.014
 5583.00    1.00558   1.13194    0.013
 5584.00    1.10157   1.13083    0.013
 5585.00    1.05060   1.13189    0.014
 5586.00    0.99253   1.13125    0.014
 5587.00    0.93467   1.13258    0.013
 5588.00    0.87826   1.13396    0.013
 5589.00    0.90720   1.13581    0.013
 5590.00    0.93784   1.14055    0.014
 5591.00    1.00214   1.14339    0.013
 5592.00    1.06649   1.14560    0.013
 5593.00    1.13131   1.14976    0.013
 5594.00    1.18828   1.15362    0.014
 5595.00    1.18215   1.15908    0.014
 5596.00    1.16905   1.16355    0.014
 5597.00    1.11378   1.16632    0.014
 5598.00    1.06565   1.17145    0.014
 5599.00    1.05150   1.17547    0.014
 5600.00    1.05143   1.17903    0.013
 5601.00    1.10599   1.18152    0.013
 5602.00    1.13289   1.18269    0.013
 5603.00    1.07028   1.18468    0.013
 5604.00    1.03260   1.18390    0.013
 5605.00    1.06321   1.18257    0.013
 5606.00    1.11101   1.18081    0.013
 5607.00    1.19915   1.17870    0.012
 5608.00    1.26766   1.17687    0.012
 5609.00    1.29638   1.17195    0.012
 5610.00    1.29531   1.16836    0.012
 5611.00    1.24162   1.16672    0.012
 5612.00    1.19210   1.16521    0.013
 5613.00    1.14902   1.16352    0.013
 5614.00    1.11760   1.16030    0.013
 5615.00    1.10199   1.15953    0.012
 5616.00    1.08938   1.16117    0.012
 5617.00    1.08034   1.16261    0.013
 5618.00    1.09060   1.16296    0.013
 5619.00    1.12119   1.16295    0.013
 5620.00    1.13812   1.16535    0.013
 5621.00    1.14235   1.16826    0.013
 5622.00    1.15035   1.17002    0.013
 5623.00    1.16144   1.17092    0.013
 5624.00    1.16749   1.17148    0.013
 5625.00    1.16992   1.17311    0.013
 5626.00    1.16964   1.17411    0.013
 5627.00    1.16766   1.17344    0.013
 5628.00    1.19904   1.17292    0.013
 5629.00    1.24889   1.17243    0.013
 5630.00    1.24658   1.17147    0.013
 5631.00    1.21919   1.17067    0.013
 5632.00    1.16175   1.16914    0.013
 5633.00    1.09184   1.16850    0.013
 5634.00    1.09613   1.16860    0.013
 5635.00    1.12680   1.16721    0.013
 5636.00    1.14265   1.16709    0.013
 5637.00    1.15406   1.16754    0.012
 5638.00    1.14309   1.16783    0.013
 5639.00    1.12654   1.16852    0.013
 5640.00    1.09539   1.16768    0.013
 5641.00    1.06130   1.16779    0.012
 5642.00    1.06029   1.16884    0.012
 5643.00    1.06452   1.16798    0.012
 5644.00    1.15729   1.16611    0.012
 5645.00    1.26048   1.16468    0.012
 5646.00    1.27230   1.16379    0.012
 5647.00    1.27683   1.16244    0.012
 5648.00    1.26181   1.15950    0.012
 5649.00    1.24592   1.15577    0.012
 5650.00    1.22912   1.15463    0.012
 5651.00    1.21354   1.15451    0.012
 5652.00    1.25823   1.15223    0.012
 5653.00    1.30032   1.15020    0.013
 5654.00    1.29438   1.15010    0.012
 5655.00    1.28068   1.15194    0.012
 5656.00    1.18103   1.15392    0.012
 5657.00    1.08862   1.15448    0.012
 5658.00    1.05233   1.15627    0.012
 5659.00    1.03172   1.16068    0.012
 5660.00    1.10310   1.16503    0.012
 5661.00    1.17623   1.16789    0.013
 5662.00    1.25749   1.17107    0.012
 5663.00    1.30396   1.17514    0.012
 5664.00    1.21820   1.17958    0.013
 5665.00    1.12569   1.18305    0.013
 5666.00    1.01172   1.18512    0.013
 5667.00    0.96170   1.18764    0.013
 5668.00    1.08370   1.18960    0.013
 5669.00    1.16715   1.19045    0.013
 5670.00    1.16163   1.19098    0.013
 5671.00    1.14500   1.19096    0.013
 5672.00    1.10621   1.19054    0.013
 5673.00    1.06645   1.18881    0.013
 5674.00    1.02502   1.18685    0.013
 5675.00    1.02604   1.18581    0.013
 5676.00    1.09168   1.18459    0.013
 5677.00    1.13898   1.18284    0.013
 5678.00    1.16174   1.18113    0.013
 5679.00    1.19684   1.18017    0.013
 5680.00    1.24647   1.17992    0.013
 5681.00    1.28125   1.17960    0.013
 5682.00    1.30058   1.17898    0.013
 5683.00    1.25735   1.17930    0.012
 5684.00    1.15680   1.17944    0.012
 5685.00    1.11705   1.17924    0.012
 5686.00    1.12640   1.17899    0.012
 5687.00    1.14481   1.17738    0.012
 5688.00    1.16967   1.17641    0.012
 5689.00    1.14973   1.17445    0.012
 5690.00    1.10187   1.17183    0.012
 5691.00    1.06343   1.16966    0.012
 5692.00    1.03014   1.16453    0.012
 5693.00    1.02589   1.16065    0.012
 5694.00    1.03540   1.15703    0.012
 5695.00    1.06766   1.15202    0.012
 5696.00    1.10921   1.14939    0.013
 5697.00    1.14777   1.14426    0.013
 5698.00    1.18530   1.14023    0.013
 5699.00    1.20104   1.13961    0.013
 5700.00    1.21038   1.13663    0.013
 5701.00    1.19954   1.13647    0.013
 5702.00    1.18380   1.13721    0.013
 5703.00    1.18657   1.13719    0.013
 5704.00    1.19300   1.14178    0.013
 5705.00    1.25916   1.14515    0.013
 5706.00    1.33449   1.14871    0.013
 5707.00    1.29137   1.15550    0.013
 5708.00    1.23482   1.16058    0.012
 5709.00    1.26317   1.16727    0.013
 5710.00    1.29795   1.17445    0.013
 5711.00    1.27669   1.17957    0.013
 5712.00    1.25315   1.18593    0.013
 5713.00    1.17029   1.19121    0.013
 5714.00    1.08992   1.19558    0.013
 5715.00    1.13200   1.20053    0.012
 5716.00    1.17276   1.20367    0.012
 5717.00    1.19103   1.20529    0.012
 5718.00    1.20378   1.20668    0.012
 5719.00    1.15813   1.20842    0.012
 5720.00    1.12022   1.20985    0.012
 5721.00    1.14028   1.21013    0.012
 5722.00    1.16115   1.20912    0.012
 5723.00    1.18669   1.20862    0.012
 5724.00    1.19925   1.20973    0.012
 5725.00    1.15286   1.20962    0.012
 5726.00    1.11965   1.20884    0.012
 5727.00    1.13551   1.20876    0.012
 5728.00    1.15606   1.20874    0.012
 5729.00    1.19123   1.20925    0.012
 5730.00    1.22149   1.20888    0.012
 5731.00    1.23876   1.20819    0.012
 5732.00    1.24722   1.20895    0.012
 5733.00    1.23569   1.20877    0.012
 5734.00    1.23092   1.20742    0.012
 5735.00    1.23943   1.20694    0.012
 5736.00    1.24916   1.20663    0.012
 5737.00    1.26095   1.20626    0.012
 5738.00    1.25879   1.20498    0.012
 5739.00    1.23572   1.20217    0.013
 5740.00    1.22681   1.20102    0.000
 5741.00    1.23655   1.20096    0.000
 5742.00    1.23186   1.19934    0.000
 5743.00    1.21041   1.19739    0.000
 5744.00    1.19172   1.19550    0.000
 5745.00    1.17587   1.19390    0.000
 5746.00    1.15196   1.19360    0.000
 5747.00    1.12077   1.19278    0.000
 5748.00    1.12923   1.19132    0.000
 5749.00    1.16925   1.19143    0.000
 5750.00    1.16555   1.19190    0.000
 5751.00    1.13123   1.19179    0.000
 5752.00    1.15591   1.19199    0.000
 5753.00    1.21682   1.19199    0.000
 5754.00    1.23735   1.19306    0.000
 5755.00    1.23621   1.19587    0.000
 5756.00    1.24530   1.19730    0.000
 5757.00    1.25916   1.19778    0.000
 5758.00    1.26358   1.19898    0.000
 5759.00    1.26422   1.20047    0.000
 5760.00    1.23937   1.20182    0.000
 5761.00    1.20579   1.20258    0.000
 5762.00    1.22045   1.20244    0.000
 5763.00    1.24902   1.20174    0.000
 5764.00    1.23909   1.20140    0.000
 5765.00    1.22000   1.19948    0.000
 5766.00    1.26547   1.19621    0.000
 5767.00    1.32334   1.19351    0.000
 5768.00    1.37471   1.18959    0.000
 5769.00    1.42511   1.18584    0.000
 5770.00    1.39954   1.18207    0.000
 5771.00    1.36570   1.17584    0.000
 5772.00    1.33755   1.17064    0.000
 5773.00    1.30980   1.16678    0.000
 5774.00    1.29279   1.16317    0.000
 5775.00    1.27618   1.16077    0.000
 5776.00    1.27922   1.15637    0.000
 5777.00    1.28280   1.15433    0.000
 5778.00    1.30311   1.15601    0.000
 5779.00    1.32154   1.15578    0.000
 5780.00    1.30955   1.15742    0.000
 5781.00    1.29274   1.15948    0.000
 5782.00    1.22708   1.16157    0.000
 5783.00    1.17173   1.16737    0.000
 5784.00    1.19115   1.17070    0.000
 5785.00    1.20614   1.17453    0.000
 5786.00    1.19655   1.18076    0.000
 5787.00    1.19103   1.18474    0.000
 5788.00    1.20362   1.18902    0.000
 5789.00    1.22866   1.19206    0.000
 5790.00    1.29905   1.19573    0.000
 5791.00    1.35030   1.20093   -2.000
 5792.00    1.34312   1.20302   -2.000
 5793.00    1.34971   1.20543   -2.000
 5794.00    1.39207   1.20748   -2.000
 5795.00    1.40951   1.20792   -2.000
 5796.00    1.37135   1.20956   -2.000
 5797.00    1.31188   1.21010   -2.000
 5798.00    1.21120   1.21080   -2.000
 5799.00    1.13979   1.21183   -2.000
 5800.00    1.11775   1.21105   -2.000
 5801.00    1.12143   1.21130   -2.000
 5802.00    1.16312   1.21153   -2.000
 5803.00    1.21621   1.21109   -2.000
 5804.00    1.28412   1.21188   -2.000
 5805.00    1.30942   1.21217   -2.000
 5806.00    1.28595   1.21241   -2.000
 5807.00    1.22021   1.21268   -2.000
 5808.00    1.11179   1.21317   -2.000
 5809.00    1.05222   1.21513   -2.000
 5810.00    1.03617   1.21645   -2.000
 5811.00    1.07660   1.21738    0.000
 5812.00    1.16135   1.21879    0.000
 5813.00    1.22397   1.22022    0.000
 5814.00    1.27129   1.22180    0.000
 5815.00    1.28071   1.22301    0.000
 5816.00    1.26719   1.22451    0.000
 5817.00    1.25700   1.22590    0.000
 5818.00    1.24856   1.22663    0.000
 5819.00    1.26471   1.22725    0.000
 5820.00    1.29212   1.22777    0.000
 5821.00    1.31237   1.22817    0.000
 5822.00    1.32980   1.22806    0.000
 5823.00    1.26737   1.22792    0.000
 5824.00    1.17809   1.22810    0.000
 5825.00    1.18949   1.22745    0.000
 5826.00    1.22931   1.22641    0.000
 5827.00    1.24330   1.22628    0.000
 5828.00    1.25129   1.22614    0.000
 5829.00    1.26051   1.22500    0.000
 5830.00    1.26995   1.22384    0.000
 5831.00    1.25190   1.22321    0.000
 5832.00    1.22988   1.22270    0.000
 5833.00    1.21730   1.22161    0.000
 5834.00    1.20571   1.21969    0.000
 5835.00    1.25117   1.21770    0.000
 5836.00    1.30048   1.21587    0.000
 5837.00    1.31238   1.21327    0.000
 5838.00    1.32304   1.20995    0.000
 5839.00    1.25116   1.20671    0.000
 5840.00    1.18136   1.20291    0.000
 5841.00    1.17881   1.19872    0.000
 5842.00    1.17936   1.19478    0.000
 5843.00    1.22663   1.19001    0.000
 5844.00    1.26652   1.18517    0.000
 5845.00    1.23494   1.18083    0.000
 5846.00    1.20470   1.17714    0.000
 5847.00    1.18397   1.17416    0.000
 5848.00    1.16564   1.16996    0.000
 5849.00    1.16025   1.16649    0.000
 5850.00    1.15884   1.16516    0.000
 5851.00    1.17464   1.16426    0.000
 5852.00    1.17013   1.16401    0.000
 5853.00    1.09310   1.16308    0.000
 5854.00    1.04029   1.16309    0.000
 5855.00    1.06007   1.16536    0.000
 5856.00    1.08794   1.16680    0.000
 5857.00    1.13650   1.16793    0.000
 5858.00    1.18075   1.16972    0.000
 5859.00    1.21556   1.17201    0.000
 5860.00    1.22855   1.17463    0.000
 5861.00    1.20002   1.17609    0.000
 5862.00    1.19414   1.17675    0.000
 5863.00    1.22589   1.17755    0.000
 5864.00    1.24205   1.17803    0.000
 5865.00    1.23548   1.17797    0.000
 5866.00    1.21549   1.17676    0.000
 5867.00    1.17831   1.17439    0.000
 5868.00    1.16347   1.17146    0.000
 5869.00    1.17386   1.16755    0.000
 5870.00    1.19271   1.16259    0.000
 5871.00    1.21997   1.15612    0.000
 5872.00    1.23817   1.14756    0.000
 5873.00    1.24841   1.13886    0.000
 5874.00    1.24503   1.13018    0.000
 5875.00    1.23112   1.11864    0.000
 5876.00    1.20575   1.10627    0.000
 5877.00    1.17261   1.09385    0.000
 5878.00    1.11965   1.07938    0.000
 5879.00    1.05488   1.06676    0.000
 5880.00    1.04324   1.05320    0.000
 5881.00    1.05922   1.03831    0.000
 5882.00    1.08828   1.03018    0.000
 5883.00    1.12324   1.02107    0.000
 5884.00    1.11589   1.01115    0.000
 5885.00    1.09214   1.00811    0.000
 5886.00    1.08688   1.00285    0.000
 5887.00    1.08771   1.00143    0.000
 5888.00    1.03789   1.00758    0.000
 5889.00    0.97407   1.01118    0.000
 5890.00    0.98318   1.01917    0.000
 5891.00    1.00888   1.02932    0.000
 5892.00    1.02007   1.03683    0.000
 5893.00    1.02861   1.05007    0.000
 5894.00    1.05965   1.06271    0.000
 5895.00    1.09382   1.07270    0.000
 5896.00    1.11169   1.08601    0.000
 5897.00    1.12791   1.09769    0.000
 5898.00    1.12162   1.10723    0.000
 5899.00    1.11390   1.11643    0.000
 5900.00    1.13453   1.12404    0.000
 5901.00    1.15601   1.13055    0.011
 5902.00    1.18818   1.13594    0.011
 5903.00    1.21820   1.14091    0.011
 5904.00    1.18756   1.14416    0.011
 5905.00    1.15635   1.14632    0.011
 5906.00    1.11716   1.14886    0.011
 5907.00    1.08271   1.15001    0.012
 5908.00    1.09247   1.15198    0.011
 5909.00    1.09750   1.15324    0.011
 5910.00    1.07043   1.15254    0.012
 5911.00    1.04879   1.15473    0.012
 5912.00    1.05569   1.15582    0.012
 5913.00    1.06691   1.15547    0.012
 5914.00    1.09640   1.15754    0.012
 5915.00    1.12445   1.15793    0.012
 5916.00    1.14747   1.15887    0.012
 5917.00    1.17515   1.16033    0.012
 5918.00    1.21650   1.15910    0.012
 5919.00    1.24328   1.16057    0.012
 5920.00    1.23356   1.16179    0.012
 5921.00    1.22263   1.16059    0.012
 5922.00    1.20906   1.16157    0.011
 5923.00    1.21115   1.16161    0.011
 5924.00    1.24258   1.16181    0.011
 5925.00    1.25179   1.16225    0.011
 5926.00    1.22465   1.16073    0.011
 5927.00    1.20310   1.16216    0.011
 5928.00    1.18957   1.16305    0.011
 5929.00    1.17847   1.16158    0.011
 5930.00    1.17042   1.16236    0.011
 5931.00    1.15513   1.16248    0.011
 5932.00    1.13178   1.16238    0.011
 5933.00    1.13185   1.16284    0.011
 5934.00    1.15491   1.16204    0.011
 5935.00    1.19196   1.16280    0.011
 5936.00    1.24112   1.16284    0.011
 5937.00    1.25460   1.16083    0.011
 5938.00    1.24086   1.16118    0.011
 5939.00    1.20390   1.16156    0.011
 5940.00    1.15137   1.15982    0.011
 5941.00    1.13337   1.15907    0.012
 5942.00    1.13566   1.15959    0.012
 5943.00    1.16345   1.15948    0.012
 5944.00    1.20431   1.15831    0.012
 5945.00    1.19049   1.15753    0.012
 5946.00    1.15243   1.15826    0.012
 5947.00    1.11066   1.15948    0.012
 5948.00    1.06747   1.15945    0.011
 5949.00    1.09110   1.15961    0.011
 5950.00    1.13635   1.16201    0.012
 5951.00    1.17636   1.16390    0.012
 5952.00    1.21495   1.16476    0.011
 5953.00    1.20600   1.16636    0.011
 5954.00    1.18649   1.16819    0.011
 5955.00    1.18387   1.17080    0.011
 5956.00    1.18423   1.17247    0.011
 5957.00    1.13824   1.17350    0.011
 5958.00    1.08599   1.17576    0.011
 5959.00    1.08972   1.17692    0.011
 5960.00    1.09883   1.17765    0.011
 5961.00    1.14196   1.17828    0.011
 5962.00    1.18713   1.17790    0.011
 5963.00    1.18554   1.17806    0.011
 5964.00    1.18285   1.17710    0.011
 5965.00    1.19532   1.17567    0.011
 5966.00    1.20750   1.17474    0.011
 5967.00    1.21236   1.17292    0.011
 5968.00    1.21427   1.17125    0.011
 5969.00    1.17646   1.16917    0.011
 5970.00    1.14272   1.16724    0.011
 5971.00    1.14546   1.16534    0.011
 5972.00    1.14626   1.16197    0.011
 5973.00    1.13420   1.16078    0.012
 5974.00    1.12199   1.16024    0.012
 5975.00    1.10896   1.15807    0.012
 5976.00    1.10479   1.15762    0.012
 5977.00    1.13726   1.15737    0.012
 5978.00    1.16006   1.15735    0.011
 5979.00    1.14973   1.15742    0.012
 5980.00    1.14454   1.15624    0.012
 5981.00    1.15416   1.15776    0.011
 5982.00    1.16117   1.15937    0.011
 5983.00    1.16175   1.15893    0.011
 5984.00    1.15543   1.15982    0.011
 5985.00    1.13443   1.16028    0.011
 5986.00    1.11924   1.16083    0.011
 5987.00    1.11477   1.16089    0.011
 5988.00    1.10863   1.15955    0.011
 5989.00    1.09978   1.16065    0.011
 5990.00    1.10201   1.15997    0.011
 5991.00    1.11989   1.15739    0.011
 5992.00    1.12433   1.15774    0.011
 5993.00    1.11203   1.15587    0.011
 5994.00    1.11527   1.15377    0.011
 5995.00    1.13555   1.15335    0.011
 5996.00    1.14079   1.14992    0.011
 5997.00    1.13146   1.14922    0.011
 5998.00    1.12255   1.14905    0.011
 5999.00    1.11400   1.14572    0.011
 6000.00    1.13589   1.14561    0.011
 6001.00    1.18068   1.14402    0.011
 6002.00    1.20415   1.14191    0.011
 6003.00    1.21353   1.14311    0.011
 6004.00    1.19348   1.14032    0.011
 6005.00    1.15642   1.13917    0.011
 6006.00    1.15520   1.14135    0.011
 6007.00    1.17204   1.13977    0.011
 6008.00    1.19090   1.13932    0.011
 6009.00    1.21063   1.13966    0.011
 6010.00    1.20349   1.13975    0.011
 6011.00    1.18630   1.14203    0.012
 6012.00    1.14969   1.14157    0.012
 6013.00    1.10691   1.14256    0.012
 6014.00    1.07360   1.14654    0.011
 6015.00    1.04279   1.14737    0.011
 6016.00    1.04699   1.14932    0.011
 6017.00    1.05879   1.15300    0.011
 6018.00    1.06333   1.15578    0.011
 6019.00    1.06662   1.15924    0.011
 6020.00    1.09025   1.16191    0.011
 6021.00    1.11655   1.16562    0.011
 6022.00    1.12542   1.16983    0.011
 6023.00    1.13269   1.17191    0.011
 6024.00    1.16004   1.17499    0.011
 6025.00    1.18851   1.17860    0.011
 6026.00    1.22746   1.18092    0.011
 6027.00    1.26598   1.18267    0.011
 6028.00    1.23827   1.18482    0.011
 6029.00    1.21078   1.18720    0.011
 6030.00    1.18831   1.18815    0.011
 6031.00    1.16580   1.18935    0.011
 6032.00    1.14270   1.19104    0.011
 6033.00    1.12541   1.19151    0.011
 6034.00    1.15820   1.19244    0.011
 6035.00    1.18003   1.19313    0.011
 6036.00    1.13197   1.19318    0.011
 6037.00    1.09183   1.19390    0.011
 6038.00    1.09128   1.19368    0.011
 6039.00    1.09775   1.19356    0.011
 6040.00    1.13264   1.19396    0.012
 6041.00    1.15467   1.19280    0.012
 6042.00    1.13349   1.19180    0.011
 6043.00    1.10634   1.19155    0.011
 6044.00    1.06227   1.19000    0.011
 6045.00    1.04318   1.18827    0.011
 6046.00    1.08461   1.18728    0.011
 6047.00    1.13474   1.18580    0.011
 6048.00    1.20306   1.18415    0.011
 6049.00    1.25436   1.18269    0.011
 6050.00    1.27474   1.18071    0.011
 6051.00    1.28337   1.17980    0.011
 6052.00    1.27334   1.17928    0.011
 6053.00    1.24970   1.17745    0.011
 6054.00    1.20706   1.17744    0.010
 6055.00    1.16968   1.17831    0.011
 6056.00    1.13875   1.17783    0.011
 6057.00    1.13708   1.17897    0.011
 6058.00    1.16709   1.17952    0.011
 6059.00    1.16762   1.17992    0.011
 6060.00    1.14001   1.18232    0.011
 6061.00    1.09886   1.18207    0.011
 6062.00    1.04630   1.18277    0.011
 6063.00    1.04906   1.18530    0.011
 6064.00    1.09278   1.18484    0.011
 6065.00    1.12999   1.18529    0.011
 6066.00    1.16295   1.18520    0.011
 6067.00    1.17346   1.18320    0.011
 6068.00    1.17120   1.18323    0.011
 6069.00    1.18568   1.18134    0.011
 6070.00    1.20846   1.17828    0.011
 6071.00    1.20117   1.17693    0.011
 6072.00    1.18097   1.17393    0.011
 6073.00    1.15150   1.17159    0.011
 6074.00    1.11861   1.16917    0.011
 6075.00    1.15539   1.16507    0.011
 6076.00    1.21387   1.16432    0.011
 6077.00    1.21893   1.16297    0.011
 6078.00    1.21012   1.15865    0.011
 6079.00    1.17725   1.15810    0.011
 6080.00    1.13929   1.15841    0.011
 6081.00    1.13123   1.15593    0.011
 6082.00    1.12818   1.15507    0.011
 6083.00    1.12540   1.15522    0.011
 6084.00    1.12267   1.15467    0.010
 6085.00    1.11873   1.15462    0.011
 6086.00    1.11469   1.15388    0.011
 6087.00    1.13291   1.15264    0.011
 6088.00    1.15227   1.15313    0.011
 6089.00    1.17734   1.15329    0.011
 6090.00    1.20198   1.15153    0.011
 6091.00    1.18830   1.15222    0.011
 6092.00    1.17490   1.15267    0.011
 6093.00    1.16783   1.15035    0.011
 6094.00    1.15963   1.15152    0.011
 6095.00    1.13786   1.15200    0.011
 6096.00    1.11534   1.15015    0.011
 6097.00    1.08662   1.15286    0.011
 6098.00    1.06390   1.15236    0.011
 6099.00    1.07839   1.15036    0.011
 6100.00    1.09376   1.15470    0.011
 6101.00    1.11337   1.15493    0.011
 6102.00    1.12961   1.15441    0.011
 6103.00    1.13253   1.15751    0.011
 6104.00    1.14486   1.15548    0.011
 6105.00    1.18820   1.15584    0.011
 6106.00    1.21032   1.15818    0.011
 6107.00    1.17341   1.15405    0.011
 6108.00    1.14566   1.15392    0.011
 6109.00    1.13975   1.15497    0.011
 6110.00    1.13811   1.15097    0.011
 6111.00    1.14527   1.15076    0.011
 6112.00    1.14814   1.14902    0.011
 6113.00    1.14330   1.14519    0.010
 6114.00    1.13123   1.14602    0.010
 6115.00    1.10781   1.14330    0.010
 6116.00    1.10913   1.14039    0.010
 6117.00    1.14445   1.14157    0.011
 6118.00    1.16057   1.13804    0.011
 6119.00    1.15346   1.13604    0.011
 6120.00    1.14761   1.13822    0.011
 6121.00    1.14311   1.13549    0.011
 6122.00    1.12833   1.13243    0.011
 6123.00    1.10389   1.13294    0.011
 6124.00    1.06237   1.13153    0.011
 6125.00    1.00669   1.12956    0.011
 6126.00    0.98812   1.12915    0.011
 6127.00    0.99665   1.12750    0.011
 6128.00    1.02242   1.12677    0.011
 6129.00    1.05924   1.12705    0.011
 6130.00    1.04140   1.12546    0.011
 6131.00    0.99290   1.12610    0.011
 6132.00    0.95533   1.12755    0.011
 6133.00    0.92309   1.12626    0.011
 6134.00    0.92810   1.12772    0.011
 6135.00    0.94882   1.13117    0.011
 6136.00    1.02200   1.13271    0.011
 6137.00    1.11412   1.13349    0.011
 6138.00    1.16292   1.13426    0.011
 6139.00    1.19849   1.13558    0.011
 6140.00    1.18023   1.13641    0.011
 6141.00    1.14829   1.13580    0.010
 6142.00    1.17189   1.13465    0.010
 6143.00    1.20697   1.13294    0.011
 6144.00    1.22113   1.13041    0.011
 6145.00    1.23189   1.12692    0.010
 6146.00    1.19705   1.12301    0.011
 6147.00    1.15666   1.11854    0.011
 6148.00    1.05144   1.11291    0.011
 6149.00    0.94080   1.10852    0.010
 6150.00    0.94140   1.10326    0.011
 6151.00    0.94732   1.09556    0.011
 6152.00    1.00280   1.09118    0.011
 6153.00    1.05877   1.08750    0.011
 6154.00    1.10082   1.08034    0.011
 6155.00    1.14078   1.07642    0.011
 6156.00    1.13943   1.07494    0.011
 6157.00    1.13894   1.07101    0.011
 6158.00    1.14841   1.06884    0.011
 6159.00    1.15903   1.06865    0.011
 6160.00    1.17887   1.06968    0.011
 6161.00    1.18896   1.07212    0.011
 6162.00    1.14030   1.07225    0.011
 6163.00    1.08578   1.07464    0.011
 6164.00    1.00338   1.08035    0.010
 6165.00    0.93864   1.08181    0.010
 6166.00    0.94233   1.08368    0.010
 6167.00    0.95438   1.08975    0.010
 6168.00    0.99339   1.09363    0.010
 6169.00    1.03135   1.09560    0.010
 6170.00    1.06643   1.09839    0.010
 6171.00    1.09388   1.10181    0.010
 6172.00    1.10347   1.10436    0.010
 6173.00    1.11554   1.10368    0.010
 6174.00    1.13261   1.10506    0.011
 6175.00    1.14060   1.10772    0.011
 6176.00    1.13258   1.10489    0.011
 6177.00    1.12558   1.10407    0.011
 6178.00    1.12018   1.10559    0.011
 6179.00    1.11186   1.10256    0.011
 6180.00    1.09959   1.10152    0.011
 6181.00    1.11147   1.10109    0.011
 6182.00    1.15217   1.09847    0.011
 6183.00    1.18319   1.09923    0.011
 6184.00    1.20405   1.09779    0.011
 6185.00    1.21023   1.09648    0.011
 6186.00    1.20278   1.09977    0.011
 6187.00    1.17831   1.09851    0.011
 6188.00    1.13993   1.09815    0.011
 6189.00    1.11303   1.10230    0.011
 6190.00    1.09442   1.10286    0.011
 6191.00    1.11394   1.10400    0.011
 6192.00    1.15756   1.10605    0.011
 6193.00    1.17143   1.10654    0.010
 6194.00    1.16886   1.10877    0.010
 6195.00    1.21204   1.10880    0.011
 6196.00    1.27718   1.10804   -2.000
 6197.00    1.43134   1.10930   -2.000
 6198.00    1.62239   1.10792   -2.000
 6199.00    1.63289   1.10664   -2.000
 6200.00    1.57939   1.10550   -2.000
 6201.00    1.37715   1.10185   -2.000
 6202.00    1.13040   1.09990   -2.000
 6203.00    0.99583   1.09663   -2.000
 6204.00    0.88914   1.09192   -2.000
 6205.00    0.90165   1.08999   -2.000
 6206.00    0.93816   1.08518   -2.000
 6207.00    1.01726   1.08058   -2.000
 6208.00    1.10308   1.07932    0.012
 6209.00    1.13355   1.07436    0.011
 6210.00    1.15754   1.07127    0.011
 6211.00    1.12007   1.07083    0.011
 6212.00    1.07772   1.06652    0.010
 6213.00    1.06690   1.06530    0.011
 6214.00    1.05747   1.06554    0.011
 6215.00    1.06703   1.06252    0.011
 6216.00    1.07757   1.06250    0.010
 6217.00    1.12503   1.06211    0.010
 6218.00    1.16943   1.06059    0.010
 6219.00    1.15813   1.06178    0.010
 6220.00    1.14806   1.06041    0.010
 6221.00    1.15168   1.05954    0.010
 6222.00    1.16164   1.06109    0.010
 6223.00    1.22054   1.05931    0.010
 6224.00    1.26691   1.05886    0.010
 6225.00    1.23994   1.06028    0.010
 6226.00    1.20646   1.05858    0.010
 6227.00    1.14275   1.05805    0.010
 6228.00    1.09367   1.05906    0.010
 6229.00    1.10011   1.05837    0.011
 6230.00    1.10275   1.05734    0.011
 6231.00    1.09334   1.05727    0.011
 6232.00    1.08209   1.05729    0.011
 6233.00    1.06587   1.05479    0.011
 6234.00    1.05250   1.05410    0.011
 6235.00    1.04568   1.05507    0.011
 6236.00    1.04947   1.05118    0.011
 6237.00    1.07438   1.05026    0.011
 6238.00    1.08583   1.05198    0.011
 6239.00    1.07393   1.04767    0.011
 6240.00    1.07660   1.04636    0.010
 6241.00    1.10140   1.04798    0.010
 6242.00    1.11834   1.04445    0.010
 6243.00    1.12478   1.04305    0.010
 6244.00    1.11477   1.04396    0.010
 6245.00    1.08544   1.04142    0.010
 6246.00    1.04520   1.04043    0.010
 6247.00    0.99367   1.04132    0.010
 6248.00    0.96299   1.04024    0.010
 6249.00    0.95137   1.04032    0.010
 6250.00    0.93413   1.04236    0.010
 6251.00    0.91238   1.04295    0.010
 6252.00    0.91343   1.04427    0.010
 6253.00    0.93066   1.04822    0.010
 6254.00    0.98629   1.05015    0.010
 6255.00    1.06580   1.05201    0.010
 6256.00    1.08504   1.05722    0.011
 6257.00    1.07151   1.06058    0.011
 6258.00    1.05042   1.06209    0.011
 6259.00    1.02576   1.06630    0.012
 6260.00    1.04403   1.07050    0.012
 6261.00    1.07978   1.07187    0.013
 6262.00    1.04241   1.07426    0.014
 6263.00    0.97959   1.07813    0.014
 6264.00    0.92313   1.07933    0.013
 6265.00    0.86854   1.08065    0.013
 6266.00    0.83163   1.08365    0.012
 6267.00    0.79901   1.08408    0.012
 6268.00    0.84472   1.08514    0.011
 6269.00    0.90580   1.08758    0.011
 6270.00    0.97407   1.08726    0.010
 6271.00    1.04344   1.08856    0.010
 6272.00    1.05397   1.09054    0.010
 6273.00    1.05786   1.08986    0.010
 6274.00    1.07321   1.09160    0.010
 6275.00    1.08943   1.09298    0.010
 6276.00    1.11405   1.09258    0.010
 6277.00    1.13900   1.09450    0.010
 6278.00    1.10966   1.09474    0.010
 6279.00    1.08091   1.09466    0.010
 6280.00    1.09227   1.09594    0.000
 6281.00    1.10355   1.09489    0.000
 6282.00    1.11350   1.09489    0.000
 6283.00    1.12000   1.09465    0.000
 6284.00    1.09016   1.09256    0.000
 6285.00    1.06278   1.09240    0.000
 6286.00    1.05364   1.09081    0.000
 6287.00    1.05122   1.08848    0.000
 6288.00    1.08702   1.08834    0.000
 6289.00    1.11596   1.08632    0.000
 6290.00    1.11387   1.08427    0.000
 6291.00    1.11023   1.08420    0.000
 6292.00    1.10085   1.08305    0.000
 6293.00    1.09548   1.08222    0.000
 6294.00    1.10260   1.08222    0.000
 6295.00    1.11029   1.08164    0.000
 6296.00    1.11945   1.08179    0.000
 6297.00    1.12831   1.08268    0.000
 6298.00    1.13647   1.08247    0.000
 6299.00    1.13473   1.08212    0.000
 6300.00    1.11360   1.08344    0.000
 6301.00    1.09678   1.08363    0.000
 6302.00    1.08735   1.08223    0.000
 6303.00    1.08337   1.08312    0.000
 6304.00    1.08755   1.08328    0.000
 6305.00    1.07926   1.08088    0.000
 6306.00    1.05457   1.08186    0.000
 6307.00    1.03337   1.08269    0.000
 6308.00    1.01624   1.07956    0.000
 6309.00    0.99631   1.08069    0.000
 6310.00    0.97354   1.08321    0.000
 6311.00    0.98871   1.08076    0.000
 6312.00    1.03809   1.08158    0.000
 6313.00    1.07025   1.08544    0.000
 6314.00    1.08874   1.08513    0.000
 6315.00    1.07553   1.08580    0.000
 6316.00    1.04018   1.08948    0.000
 6317.00    1.00803   1.09029    0.000
 6318.00    0.97787   1.09111    0.000
 6319.00    0.95677   1.09419    0.000
 6320.00    0.94053   1.09414    0.000
 6321.00    0.94947   1.09472    0.010
 6322.00    0.97010   1.09699    0.010
 6323.00    0.97723   1.09561    0.010
 6324.00    0.97895   1.09574    0.010
 6325.00    0.97766   1.09668    0.010
 6326.00    0.97534   1.09455    0.010
 6327.00    1.00202   1.09498    0.010
 6328.00    1.03705   1.09449    0.010
 6329.00    1.05315   1.09151    0.010
 6330.00    1.06476   1.09267    0.010
 6331.00    1.05763   1.09254    0.010
 6332.00    1.04690   1.09005    0.010
 6333.00    1.04602   1.09128    0.010
 6334.00    1.04659   1.09109    0.010
 6335.00    1.07412   1.08998    0.010
 6336.00    1.10457   1.09102    0.010
 6337.00    1.10192   1.08978    0.010
 6338.00    1.09691   1.08973    0.010
 6339.00    1.09627   1.09082    0.010
 6340.00    1.09579   1.08895    0.010
 6341.00    1.09898   1.08862    0.010
 6342.00    1.10257   1.08850    0.010
 6343.00    1.11986   1.08617    0.010
 6344.00    1.13697   1.08513    0.010
 6345.00    1.15110   1.08323    0.010
 6346.00    1.16082   1.08069    0.010
 6347.00    1.12619   1.07934    0.010
 6348.00    1.09169   1.07590    0.010
 6349.00    1.05817   1.07356    0.010
 6350.00    1.03496   1.07340    0.010
 6351.00    1.06883   1.07027    0.010
 6352.00    1.09741   1.06829    0.010
 6353.00    1.10259   1.06950    0.010
 6354.00    1.09577   1.06867    0.010
 6355.00    1.04536   1.06856    0.010
 6356.00    0.99865   1.07096    0.010
 6357.00    0.96323   1.07244    0.010
 6358.00    0.95024   1.07491    0.010
 6359.00    0.99538   1.07834    0.010
 6360.00    1.03932   1.08100    0.010
 6361.00    1.08056   1.08495    0.010
 6362.00    1.10271   1.08871    0.011
 6363.00    1.08800   1.09154    0.011
 6364.00    1.07916   1.09535    0.011
 6365.00    1.08021   1.09829    0.011
 6366.00    1.09031   1.10087    0.011
 6367.00    1.11376   1.10396    0.011
 6368.00    1.11510   1.10502    0.011
 6369.00    1.08776   1.10650    0.010
 6370.00    1.04054   1.10892    0.010
 6371.00    0.97058   1.10843    0.010
 6372.00    0.93258   1.10865    0.010
 6373.00    0.92678   1.11039    0.010
 6374.00    0.93559   1.10902    0.010
 6375.00    0.95739   1.10837    0.010
 6376.00    0.99197   1.10959    0.010
 6377.00    1.03655   1.10780    0.010
 6378.00    1.07157   1.10636    0.010
 6379.00    1.09999   1.10712    0.010
 6380.00    1.11069   1.10525    0.010
 6381.00    1.11070   1.10338    0.010
 6382.00    1.10473   1.10398    0.010
 6383.00    1.09560   1.10180    0.010
 6384.00    1.08611   1.09954    0.010
 6385.00    1.07645   1.10092    0.010
 6386.00    1.05345   1.09885    0.010
 6387.00    1.02521   1.09592    0.010
 6388.00    1.00124   1.09849    0.010
 6389.00    0.97871   1.09759    0.010
 6390.00    0.96976   1.09398    0.010
 6391.00    0.96464   1.09711    0.010
 6392.00    1.00304   1.09736    0.010
 6393.00    1.05154   1.09387    0.011
 6394.00    1.07739   1.09698    0.011
 6395.00    1.09902   1.09754    0.011
 6396.00    1.09899   1.09539    0.011
 6397.00    1.09585   1.09815    0.010
 6398.00    1.09884   1.09711    0.010
 6399.00    1.10247   1.09622    0.010
 6400.00    1.07259   1.09927    0.010
 6401.00    1.04047   1.09663    0.010
 6402.00    1.02468   1.09608    0.010
 6403.00    1.00943   1.09953    0.010
 6404.00    1.00629   1.09658    0.010
 6405.00    1.00334   1.09582    0.010
 6406.00    1.00634   1.09904    0.010
 6407.00    1.00830   1.09696    0.010
 6408.00    0.99479   1.09624    0.010
 6409.00    0.98162   1.09877    0.010
 6410.00    0.97165   1.09796    0.010
 6411.00    0.96319   1.09732    0.010
 6412.00    0.96525   1.09914    0.010
 6413.00    0.97454   1.09997    0.010
 6414.00    1.02278   1.09960    0.010
 6415.00    1.06356   1.10038    0.010
 6416.00    1.07215   1.10221    0.011
 6417.00    1.06997   1.10209    0.010
 6418.00    1.02944   1.10210    0.010
 6419.00    0.99224   1.10421    0.010
 6420.00    0.96500   1.10379    0.010
 6421.00    0.95111   1.10323    0.010
 6422.00    0.97118   1.10538    0.010
 6423.00    0.99465   1.10495    0.010
 6424.00    1.02557   1.10473    0.010
 6425.00    1.04854   1.10644    0.009
 6426.00    1.05642   1.10565    0.010
 6427.00    1.06656   1.10645    0.010
 6428.00    1.08047   1.10766    0.010
 6429.00    1.08752   1.10614    0.010
 6430.00    1.08459   1.10770    0.010
 6431.00    1.07694   1.10893    0.010
 6432.00    1.06328   1.10754    0.010
 6433.00    1.04902   1.10864    0.010
 6434.00    1.03409   1.10883    0.010
 6435.00    1.02861   1.10806    0.010
 6436.00    1.03252   1.10822    0.010
 6437.00    1.03798   1.10697    0.010
 6438.00    1.04478   1.10722    0.010
 6439.00    1.03059   1.10614    0.010
 6440.00    1.00020   1.10310    0.010
 6441.00    0.98222   1.10461    0.010
 6442.00    0.97267   1.10391    0.010
 6443.00    0.99668   1.10054    0.010
 6444.00    1.04065   1.10258    0.010
 6445.00    1.05014   1.10234    0.010
 6446.00    1.04172   1.09908    0.010
 6447.00    1.05591   1.10137    0.010
 6448.00    1.08028   1.10265    0.010
 6449.00    1.09413   1.09995    0.010
 6450.00    1.10390   1.10157    0.010
 6451.00    1.07840   1.10420    0.010
 6452.00    1.04129   1.10196    0.010
 6453.00    1.03753   1.10225    0.010
 6454.00    1.04296   1.10590    0.010
 6455.00    1.07101   1.10465    0.010
 6456.00    1.10418   1.10384    0.010
 6457.00    1.10440   1.10742    0.010
 6458.00    1.09863   1.10672    0.010
 6459.00    1.06695   1.10502    0.010
 6460.00    1.03167   1.10820    0.010
 6461.00    1.02211   1.10789    0.010
 6462.00    1.01512   1.10549    0.010
 6463.00    1.04689   1.10780    0.010
 6464.00    1.08111   1.10791    0.010
 6465.00    1.06142   1.10504    0.010
 6466.00    1.04018   1.10581    0.010
 6467.00    1.01960   1.10604    0.010
 6468.00    0.99962   1.10306    0.010
 6469.00    0.99670   1.10210    0.010
 6470.00    0.99653   1.10185    0.010
 6471.00    1.03523   1.09894    0.010
 6472.00    1.07537   1.09653    0.010
 6473.00    1.12890   1.09538    0.010
 6474.00    1.17175   1.09227    0.010
 6475.00    1.14222   1.08863    0.010
 6476.00    1.11105   1.08647    0.010
 6477.00    1.07124   1.08269    0.010
 6478.00    1.03761   1.07769    0.010
 6479.00    1.03011   1.07476    0.010
 6480.00    1.02952   1.07045    0.010
 6481.00    1.05309   1.06425    0.010
 6482.00    1.07376   1.06098    0.010
 6483.00    1.08594   1.05682    0.010
 6484.00    1.09808   1.05101    0.010
 6485.00    1.11012   1.04878    0.010
 6486.00    1.11255   1.04559    0.010
 6487.00    1.09430   1.04168    0.010
 6488.00    1.07196   1.04176    0.010
 6489.00    1.04196   1.04069    0.010
 6490.00    1.01182   1.03979    0.010
 6491.00    0.98144   1.04253    0.010
 6492.00    0.96701   1.04389    0.010
 6493.00    0.97547   1.04591    0.010
 6494.00    0.97833   1.05070    0.009
 6495.00    0.97415   1.05379    0.009
 6496.00    0.97347   1.05728    0.009
 6497.00    0.97669   1.06268    0.010
 6498.00    0.99136   1.06647    0.010
 6499.00    1.01726   1.06975    0.010
 6500.00    1.02971   1.07418    0.010
 6501.00    1.03056   1.07764    0.010
 6502.00    1.02582   1.07962    0.011
 6503.00    1.01682   1.08233    0.011
 6504.00    1.01325   1.08501    0.011
 6505.00    1.01331   1.08562    0.011
 6506.00    1.03307   1.08681    0.011
 6507.00    1.06436   1.08873    0.011
 6508.00    1.06145   1.08847    0.011
 6509.00    1.04107   1.08893    0.010
 6510.00    1.02715   1.09026    0.010
 6511.00    1.01609   1.08960    0.010
 6512.00    1.02893   1.09002    0.010
 6513.00    1.05085   1.09108    0.010
 6514.00    1.03798   1.09042    0.010
 6515.00    1.01389   1.09103    0.010
 6516.00    1.00648   1.09182    0.010
 6517.00    1.00357   1.09128    0.010
 6518.00    1.03130   1.09203    0.010
 6519.00    1.06582   1.09263    0.010
 6520.00    1.05551   1.09228    0.009
 6521.00    1.03729   1.09285    0.009
 6522.00    1.02188   1.09315    0.009
 6523.00    1.00685   1.09297    0.010
 6524.00    1.02284   1.09315    0.010
 6525.00    1.04178   1.09310    0.009
 6526.00    1.03864   1.09287    0.010
 6527.00    1.03420   1.09224    0.010
 6528.00    1.02962   1.09173    0.000
 6529.00    1.02481   1.09118    0.000
 6530.00    0.98846   1.08943    0.000
 6531.00    0.95284   1.08816    0.000
 6532.00    0.93543   1.08688    0.000
 6533.00    0.92301   1.08388    0.000
 6534.00    0.97746   1.08162    0.000
 6535.00    1.02593   1.07922    0.000
 6536.00    1.02114   1.07497    0.000
 6537.00    1.01774   1.07148    0.000
 6538.00    1.02352   1.06779    0.000
 6539.00    1.03901   1.06260    0.000
 6540.00    1.10411   1.05759    0.000
 6541.00    1.16405   1.05236    0.000
 6542.00    1.20265   1.04675    0.000
 6543.00    1.23234   1.04000    0.000
 6544.00    1.23159   1.03297    0.000
 6545.00    1.22287   1.02771    0.000
 6546.00    1.19118   1.01974    0.000
 6547.00    1.15616   1.01128    0.000
 6548.00    1.11297   1.00732    0.000
 6549.00    1.06869   0.99920    0.000
 6550.00    1.02210   0.99037    0.000
 6551.00    0.98611   0.98895    0.000
 6552.00    0.96961   0.98263    0.000
 6553.00    0.95774   0.97508    0.000
 6554.00    0.95329   0.97723    0.000
 6555.00    1.00731   0.97453    0.000
 6556.00    1.14389   0.96977    0.000
 6557.00    1.32822   0.97552    0.000
 6558.00    1.57190   0.97707    0.000
 6559.00    1.76358   0.97566    0.000
 6560.00    1.89831   0.98392    0.000
 6561.00    1.90786   0.98885    0.000
 6562.00    1.79649   0.99018    0.000
 6563.00    1.62787   0.99928    0.000
 6564.00    1.41051   1.00578    0.000
 6565.00    1.27029   1.00856    0.000
 6566.00    1.18796   1.01706    0.000
 6567.00    1.16021   1.02336    0.000
 6568.00    1.16846   1.02636    0.000
 6569.00    1.16825   1.03349    0.000
 6570.00    1.16317   1.03846    0.000
 6571.00    1.13198   1.04086    0.000
 6572.00    1.08766   1.04643    0.000
 6573.00    1.05630   1.04963    0.000
 6574.00    1.03057   1.05097    0.000
 6575.00    1.04637   1.05507    0.000
 6576.00    1.07767   1.05653    0.000
 6577.00    1.18635   1.05664    0.000
 6578.00    1.31954   1.05949    0.000
 6579.00    1.43282   1.05961    0.000
 6580.00    1.54083   1.05861    0.000
 6581.00    1.54417   1.06057    0.000
 6582.00    1.52487   1.06003    0.000
 6583.00    1.44211   1.05835    0.000
 6584.00    1.34847   1.05985    0.000
 6585.00    1.26255   1.05938    0.000
 6586.00    1.17764   1.05760    0.000
 6587.00    1.09973   1.05900    0.000
 6588.00    1.02246   1.05905    0.000
 6589.00    0.97355   1.05764    0.000
 6590.00    0.92621   1.05901    0.000
 6591.00    0.96191   1.05963    0.000
 6592.00    0.99902   1.05875    0.000
 6593.00    1.00131   1.05998    0.000
 6594.00    1.00310   1.06092    0.000
 6595.00    0.99328   1.06057    0.000
 6596.00    0.98700   1.06155    0.000
 6597.00    1.02570   1.06259    0.000
 6598.00    1.06034   1.06271    0.000
 6599.00    1.06017   1.06356    0.000
 6600.00    1.05234   1.06463    0.000
 6601.00    0.99573   1.06520    0.000
 6602.00    0.94607   1.06609    0.000
 6603.00    0.93108   1.06716    0.000
 6604.00    0.92681   1.06803    0.000
 6605.00    0.96585   1.06894    0.000
 6606.00    1.00113   1.06982    0.000
 6607.00    1.02383   1.07067    0.000
 6608.00    1.03329   1.07124    0.000
 6609.00    1.00529   1.07160    0.010
 6610.00    0.98514   1.07206    0.009
 6611.00    0.98396   1.07185    0.009
 6612.00    0.98967   1.07139    0.009
 6613.00    1.00977   1.07131    0.009
 6614.00    1.03435   1.07009    0.009
 6615.00    1.06705   1.06875    0.009
 6616.00    1.08155   1.06829    0.010
 6617.00    1.06720   1.06625    0.010
 6618.00    1.04733   1.06428    0.010
 6619.00    1.01978   1.06382    0.010
 6620.00    1.00319   1.06145    0.010
 6621.00    1.00003   1.05927    0.010
 6622.00    1.01315   1.05920    0.010
 6623.00    1.04385   1.05711    0.010
 6624.00    1.05871   1.05505    0.010
 6625.00    1.05848   1.05560    0.010
 6626.00    1.03699   1.05422    0.010
 6627.00    0.99763   1.05247    0.010
 6628.00    0.96963   1.05358    0.010
 6629.00    0.95002   1.05308    0.010
 6630.00    0.95600   1.05163    0.009
 6631.00    0.97860   1.05300    0.009
 6632.00    0.99223   1.05328    0.009
 6633.00    1.00076   1.05211    0.010
 6634.00    1.02332   1.05332    0.010
 6635.00    1.05284   1.05407    0.009
 6636.00    1.06359   1.05320    0.009
 6637.00    1.06631   1.05393    0.009
 6638.00    1.03113   1.05472    0.009
 6639.00    0.98206   1.05419    0.009
 6640.00    0.97188   1.05429    0.010
 6641.00    0.97378   1.05465    0.010
 6642.00    1.01453   1.05442    0.010
 6643.00    1.06533   1.05391    0.010
 6644.00    1.10200   1.05349    0.010
 6645.00    1.13569   1.05343    0.010
 6646.00    1.09811   1.05247    0.010
 6647.00    1.04865   1.05113    0.010
 6648.00    1.03746   1.05111    0.010
 6649.00    1.03108   1.04998    0.010
 6650.00    1.04753   1.04793    0.010
 6651.00    1.06597   1.04794    0.010
 6652.00    1.09405   1.04698    0.010
 6653.00    1.12261   1.04469    0.010
 6654.00    1.10890   1.04484    0.009
 6655.00    1.09386   1.04431    0.009
 6656.00    1.03842   1.04225    0.009
 6657.00    0.98418   1.04271    0.009
 6658.00    0.95536   1.04260    0.009
 6659.00    0.92916   1.04102    0.009
 6660.00    0.93460   1.04183    0.009
 6661.00    0.94174   1.04188    0.010
 6662.00    0.96281   1.04066    0.010
 6663.00    0.97734   1.04176    0.010
 6664.00    0.95151   1.04170    0.010
 6665.00    0.92715   1.04052    0.010
 6666.00    0.90991   1.04185    0.010
 6667.00    0.89407   1.04168    0.010
 6668.00    0.88379   1.04036    0.010
 6669.00    0.87527   1.04187    0.010
 6670.00    0.87248   1.04184    0.010
 6671.00    0.89026   1.04046    0.010
 6672.00    0.96516   1.04206    0.010
 6673.00    1.02843   1.04241    0.010
 6674.00    1.06409   1.04119    0.009
 6675.00    1.06768   1.04268    0.009
 6676.00    1.00542   1.04335    0.009
 6677.00    0.96376   1.04236    0.009
 6678.00    0.95891   1.04350    0.009
 6679.00    0.96314   1.04410    0.009
 6680.00    0.98157   1.04324    0.009
 6681.00    1.00005   1.04389    0.009
 6682.00    1.01862   1.04403    0.009
 6683.00    1.03085   1.04314    0.009
 6684.00    1.03541   1.04334    0.010
 6685.00    1.03460   1.04290    0.010
 6686.00    1.02806   1.04190    0.010
 6687.00    1.01053   1.04187    0.010
 6688.00    0.98267   1.04096    0.010
 6689.00    0.97163   1.03993    0.010
 6690.00    0.97452   1.03983    0.010
 6691.00    0.99116   1.03863    0.010
 6692.00    1.01783   1.03766    0.010
 6693.00    1.02789   1.03751    0.010
 6694.00    1.02733   1.03606    0.010
 6695.00    1.01110   1.03512    0.010
 6696.00    0.98610   1.03484    0.000
 6697.00    0.97610   1.03306    0.000
 6698.00    0.97339   1.03201    0.000
 6699.00    1.00068   1.03154    0.000
 6700.00    1.04059   1.02944    0.000
 6701.00    1.05112   1.02818    0.000
 6702.00    1.05108   1.02760    0.000
 6703.00    1.02143   1.02546    0.000
 6704.00    0.98277   1.02410    0.000
 6705.00    0.97053   1.02364    0.000
 6706.00    0.96499   1.02195    0.000
 6707.00    0.96018   1.02082    0.000
 6708.00    0.95552   1.02079    0.000
 6709.00    1.02004   1.01997    0.000
 6710.00    1.09576   1.01942    0.000
 6711.00    1.21243   1.01998    0.000
 6712.00    1.33406   1.02011    0.000
 6713.00    1.35675   1.02024    0.000
 6714.00    1.37124   1.02133    0.000
 6715.00    1.28685   1.02211    0.000
 6716.00    1.19778   1.02268    0.000
 6717.00    1.13736   1.02399    0.000
 6718.00    1.07808   1.02492    0.000
 6719.00    1.06053   1.02548    0.000
 6720.00    1.04374   1.02658    0.000
 6721.00    1.04164   1.02723    0.000
 6722.00    1.04146   1.02739    0.000
 6723.00    1.06334   1.02792    0.000
 6724.00    1.08908   1.02805    0.000
 6725.00    1.14556   1.02771    0.000
 6726.00    1.20077   1.02748    0.000
 6727.00    1.24842   1.02704    0.000
 6728.00    1.27999   1.02637    0.000
 6729.00    1.23539   1.02552    0.000
 6730.00    1.19075   1.02457    0.000
 6731.00    1.14590   1.02391    0.000
 6732.00    1.11200   1.02282    0.000
 6733.00    1.11334   1.02149    0.000
 6734.00    1.10080   1.02113    0.000
 6735.00    1.05037   1.02037    0.000
 6736.00    1.01025   1.01889    0.000
 6737.00    0.99421   1.01897    0.000
 6738.00    0.98636   1.01906    0.000
 6739.00    0.99506   1.01775    0.000
 6740.00    0.99185   1.01822    0.000
 6741.00    0.96768   1.01941    0.000
 6742.00    0.94544   1.01857    0.000
 6743.00    0.92621   1.01927    0.000
 6744.00    0.91248   1.02144    0.000
 6745.00    0.90620   1.02120    0.000
 6746.00    0.88566   1.02190    0.000
 6747.00    0.84815   1.02455    0.000
 6748.00    0.84439   1.02475    0.000
 6749.00    0.87608   1.02524    0.000
 6750.00    0.90637   1.02776    0.000
 6751.00    0.93538   1.02804    0.000
 6752.00    0.99071   1.02815    0.000
 6753.00    1.06753   1.03015    0.011
 6754.00    1.06881   1.03017    0.011
 6755.00    1.01581   1.02993    0.011
 6756.00    0.97066   1.03138    0.011
 6757.00    0.93046   1.03110    0.011
 6758.00    0.89743   1.03062    0.011
 6759.00    0.86836   1.03181    0.011
 6760.00    0.93376   1.03144    0.011
 6761.00    1.04445   1.03084    0.011
 6762.00    1.14358   1.03202    0.011
 6763.00    1.23793   1.03178    0.012
 6764.00    1.23276   1.03103    0.011
 6765.00    1.19240   1.03221    0.011
 6766.00    1.19311   1.03213    0.011
 6767.00    1.20607   1.03106    0.011
 6768.00    1.21927   1.03197    0.011
 6769.00    1.23253   1.03193    0.011
 6770.00    1.21232   1.03037    0.011
 6771.00    1.18538   1.03075    0.011
 6772.00    1.14305   1.03068    0.011
 6773.00    1.09831   1.02866    0.011
 6774.00    1.02947   1.02850    0.010
 6775.00    0.95782   1.02852    0.010
 6776.00    0.91609   1.02634    0.010
 6777.00    0.87673   1.02584    0.010
 6778.00    0.93416   1.02618    0.011
 6779.00    0.99582   1.02429    0.011
 6780.00    1.04514   1.02368    0.011
 6781.00    1.09272   1.02447    0.011
 6782.00    1.06559   1.02325    0.011
 6783.00    1.04026   1.02267    0.011
 6784.00    1.04774   1.02374    0.010
 6785.00    1.05686   1.02334    0.010
 6786.00    1.08397   1.02289    0.010
 6787.00    1.10691   1.02389    0.010
 6788.00    1.09773   1.02421    0.010
 6789.00    1.08967   1.02396    0.010
 6790.00    1.08805   1.02452    0.010
 6791.00    1.08743   1.02524    0.011
 6792.00    1.09135   1.02529    0.011
 6793.00    1.10948   1.02528    0.011
 6794.00    1.18132   1.02600    0.011
 6795.00    1.23068   1.02640    0.011
 6796.00    1.20905   1.02594    0.011
 6797.00    1.18147   1.02638    0.011
 6798.00    1.13793   1.02706    0.011
 6799.00    1.11053   1.02648    0.011
 6800.00    1.12022   1.02657    0.010
 6801.00    1.11177   1.02740    0.010
 6802.00    1.06722   1.02701    0.010
 6803.00    1.02847   1.02693    0.010
 6804.00    0.99977   1.02778    0.010
 6805.00    0.99463   1.02771    0.010
 6806.00    1.02524   1.02770    0.010
 6807.00    1.03589   1.02849    0.010
 6808.00    1.01994   1.02867    0.010
 6809.00    1.01952   1.02887    0.010
 6810.00    1.03734   1.02955    0.010
 6811.00    1.05186   1.02979    0.010
 6812.00    1.06296   1.03012    0.010
 6813.00    1.07044   1.03063    0.011
 6814.00    1.07463   1.03073    0.011
 6815.00    1.08284   1.03098    0.011
 6816.00    1.09431   1.03119    0.011
 6817.00    1.08331   1.03103    0.011
 6818.00    1.05642   1.03099    0.010
 6819.00    1.07176   1.03078    0.010
 6820.00    1.11334   1.03029    0.010
 6821.00    1.11734   1.02987    0.010
 6822.00    1.10093   1.02915    0.010
 6823.00    1.06258   1.02829    0.010
 6824.00    1.01388   1.02755    0.010
 6825.00    0.99746   1.02642    0.010
 6826.00    0.99417   1.02523    0.010
 6827.00    1.01190   1.02436    0.010
 6828.00    1.03693   1.02311    0.010
 6829.00    1.04836   1.02171    0.010
 6830.00    1.05581   1.02096    0.010
 6831.00    1.08373   1.01998    0.010
 6832.00    1.11661   1.01857    0.010
 6833.00    1.09466   1.01814    0.010
 6834.00    1.06198   1.01768    0.010
 6835.00    1.04336   1.01637    0.010
 6836.00    1.02687   1.01627    0.010
 6837.00    1.06603   1.01639    0.011
 6838.00    1.11144   1.01508    0.011
 6839.00    1.05948   1.01508    0.011
 6840.00    1.00025   1.01564    0.011
 6841.00    0.99297   1.01416    0.011
 6842.00    0.98775   1.01385    0.011
 6843.00    0.96352   1.01472    0.010
 6844.00    0.94202   1.01306    0.010
 6845.00    1.03427   1.01206    0.010
 6846.00    1.11999   1.01314    0.010
 6847.00    1.09524   1.01170    0.010
 6848.00    1.07066   1.00994    0.009
 6849.00    1.04776   1.01104    0.009
 6850.00    1.02865   1.01033    0.009
 6851.00    1.03769   1.00809    0.010
 6852.00    1.04717   1.00898    0.010
 6853.00    1.05915   1.00932    0.010
 6854.00    1.06648   1.00716    0.010
 6855.00    1.05278   1.00753    0.010
 6856.00    1.03870   1.00878    0.010
 6857.00    1.02321   1.00730    0.010
 6858.00    1.01708   1.00708    0.010
 6859.00    1.03995   1.00869    0.010
 6860.00    1.06168   1.00823    0.010
 6861.00    1.08041   1.00771    0.010
 6862.00    1.09417   1.00909    0.010
 6863.00    1.09670   1.00955    0.010
 6864.00    1.08883   1.00927    0.010
 6865.00    1.06055   1.01023    0.010
 6866.00    1.03644   1.01111    0.010
 6867.00    1.01943   1.01147    0.010
 6868.00    1.01268   1.01228    0.010
 6869.00    1.02127   1.01303    0.010
 6870.00    1.02072   1.01405    0.010
 6871.00    1.00817   1.01527    0.010
 6872.00    1.00272   1.01564    0.010
 6873.00    1.00549   1.01688    0.010
 6874.00    1.00781   1.01891    0.010
 6875.00    1.00966   1.01913    0.010
 6876.00    1.02230   1.02003    0.010
 6877.00    1.04466   1.02276    0.010
 6878.00    1.04627   1.02332    0.010
 6879.00    1.03143   1.02361    0.010
 6880.00    1.00943   1.02640    0.010
 6881.00    0.98245   1.02757    0.010
 6882.00    0.98236   1.02737    0.010
 6883.00    0.99873   1.02958    0.010
 6884.00    1.02046   1.03127    0.010
 6885.00    1.04506   1.03088    0.010
 6886.00    1.08535   1.03211    0.010
 6887.00    1.13291   1.03401    0.010
 6888.00    1.09357   1.03376    0.010
 6889.00    1.01950   1.03409    0.010
 6890.00    0.95220   1.03576    0.010
 6891.00    0.88720   1.03572    0.010
 6892.00    0.92329   1.03557    0.010
 6893.00    0.98837   1.03674    0.010
 6894.00    1.02862   1.03662    0.010
 6895.00    1.06300   1.03637    0.010
 6896.00    1.02714   1.03710    0.010
 6897.00    0.97790   1.03655    0.010
 6898.00    0.97414   1.03626    0.010
 6899.00    0.97711   1.03675    0.010
 6900.00    0.99869   1.03568    0.010
 6901.00    1.02228   1.03518    0.010
 6902.00    1.06719   1.03559    0.010
 6903.00    1.11360   1.03424    0.010
 6904.00    1.03598   1.03335    0.010
 6905.00    0.95391   1.03374    0.010
 6906.00    0.98743   1.03249    0.010
 6907.00    1.02105   1.03120    0.010
 6908.00    1.04499   1.03153    0.010
 6909.00    1.06650   1.03068    0.010
 6910.00    1.04957   1.02924    0.010
 6911.00    1.03107   1.02953    0.010
 6912.00    0.99676   1.02916    0.010
 6913.00    0.96118   1.02769    0.010
 6914.00    0.91641   1.02792    0.010
 6915.00    0.87996   1.02803    0.010
 6916.00    0.88938   1.02662    0.010
 6917.00    0.90611   1.02679    0.010
 6918.00    0.95510   1.02738    0.010
 6919.00    0.99104   1.02623    0.010
 6920.00    0.97971   1.02633    0.010
 6921.00    0.97720   1.02717    0.010
 6922.00    1.00151   1.02629    0.010
 6923.00    1.02518   1.02640    0.010
 6924.00    1.04720   1.02742    0.010
 6925.00    1.05993   1.02665    0.010
 6926.00    1.05202   1.02666    0.010
 6927.00    1.03748   1.02768    0.010
 6928.00    1.01019   1.02680    0.010
 6929.00    0.98448   1.02671    0.010
 6930.00    0.96145   1.02780    0.010
 6931.00    0.96305   1.02670    0.010
 6932.00    1.00095   1.02643    0.010
 6933.00    1.01163   1.02757    0.010
 6934.00    0.98705   1.02616    0.010
 6935.00    0.99068   1.02566    0.010
 6936.00    1.02648   1.02704    0.010
 6937.00    1.02076   1.02562    0.010
 6938.00    0.97325   1.02489    0.011
 6939.00    0.93267   1.02663    0.010
 6940.00    0.89823   1.02569    0.010
 6941.00    0.89657   1.02481    0.010
 6942.00    0.92055   1.02678    0.010
 6943.00    0.93591   1.02665    0.010
 6944.00    0.94535   1.02592    0.010
 6945.00    0.96305   1.02788    0.010
 6946.00    0.98573   1.02853    0.010
 6947.00    0.98671   1.02826    0.010
 6948.00    0.97628   1.02994    0.010
 6949.00    0.99827   1.03097    0.010
 6950.00    1.03505   1.03125    0.010
 6951.00    1.03421   1.03253    0.010
 6952.00    1.01860   1.03338    0.010
 6953.00    1.01694   1.03401    0.010
 6954.00    1.01994   1.03475    0.010
 6955.00    1.03328   1.03495    0.010
 6956.00    1.04953   1.03564    0.010
 6957.00    1.01332   1.03577    0.010
 6958.00    0.96497   1.03484    0.010
 6959.00    0.99509   1.03521    0.010
 6960.00    1.03977   1.03520    0.010
 6961.00    1.01328   1.03302    0.010
 6962.00    0.97660   1.03249    0.011
 6963.00    0.98992   1.03289    0.010
 6964.00    1.00841   1.03018    0.010
 6965.00    1.00879   1.02858    0.010
 6966.00    1.00796   1.02973    0.010
 6967.00    1.03609   1.02777    0.010
 6968.00    1.06514   1.02565    0.010
 6969.00    1.03510   1.02723    0.010
 6970.00    1.00428   1.02661    0.010
 6971.00    0.94949   1.02472    0.010
 6972.00    0.89904   1.02637    0.010
 6973.00    0.91323   1.02729    0.010
 6974.00    0.92728   1.02625    0.010
 6975.00    0.93990   1.02755    0.010
 6976.00    0.94540   1.02936    0.010
 6977.00    0.90131   1.02931    0.011
 6978.00    0.87075   1.03023    0.011
 6979.00    0.91291   1.03214    0.011
 6980.00    0.95172   1.03239    0.011
 6981.00    0.97613   1.03275    0.011
 6982.00    1.00393   1.03412    0.011
 6983.00    1.04378   1.03424    0.011
 6984.00    1.06561   1.03419    0.011
 6985.00    1.03368   1.03468    0.010
 6986.00    1.02055   1.03404    0.010
 6987.00    1.05515   1.03359    0.010
 6988.00    1.07612   1.03379    0.010
 6989.00    1.06728   1.03286    0.010
 6990.00    1.04503   1.03173    0.010
 6991.00    0.99735   1.03144    0.010
 6992.00    0.98327   1.03055    0.010
 6993.00    1.02482   1.02916    0.010
 6994.00    1.05587   1.02864    0.010
 6995.00    1.07169   1.02812    0.010
 6996.00    1.06393   1.02666    0.010
 6997.00    1.02609   1.02592    0.010
 6998.00    1.00381   1.02575    0.010
 6999.00    0.99903   1.02437    0.010
 7000.00    0.98832   1.02370    0.011
 7001.00    0.97172   1.02396    0.011
 7002.00    0.97423   1.02231    0.011
 7003.00    0.99346   1.02143    0.011
 7004.00    0.97242   1.02259    0.010
 7005.00    0.92035   1.02147    0.010
 7006.00    0.91708   1.02026    0.010
 7007.00    0.94689   1.02170    0.010
 7008.00    0.99758   1.02148    0.010
 7009.00    1.06068   1.02019    0.010
 7010.00    1.11070   1.02129    0.010
 7011.00    1.15395   1.02204    0.010
 7012.00    1.10814   1.02134    0.010
 7013.00    1.02236   1.02211    0.010
 7014.00    1.03993   1.02340    0.011
 7015.00    1.09739   1.02344    0.011
 7016.00    1.09979   1.02430    0.011
 7017.00    1.08413   1.02583    0.011
 7018.00    1.03045   1.02615    0.011
 7019.00    0.96630   1.02740    0.011
 7020.00    0.94939   1.02919    0.011
 7021.00    0.94315   1.02933    0.011
 7022.00    0.98332   1.03111    0.011
 7023.00    1.03188   1.03356    0.011
 7024.00    1.02109   1.03311    0.011
 7025.00    1.00207   1.03480    0.011
 7026.00    1.03990   1.03838    0.011
 7027.00    1.08337   1.03801    0.011
 7028.00    1.06367   1.03879    0.011
 7029.00    1.04000   1.04285    0.010
 7030.00    1.01882   1.04323    0.010
 7031.00    0.99773   1.04283    0.011
 7032.00    0.98449   1.04612    0.011
 7033.00    0.97251   1.04706    0.011
 7034.00    0.99523   1.04567    0.011
 7035.00    1.01816   1.04722    0.011
 7036.00    1.04407   1.04802    0.011
 7037.00    1.06018   1.04611    0.011
 7038.00    0.98595   1.04536    0.011
 7039.00    0.92580   1.04470    0.011
 7040.00    0.96056   1.04233    0.011
 7041.00    0.98946   1.03973    0.011
 7042.00    0.98778   1.03718    0.011
 7043.00    1.00993   1.03424    0.011
 7044.00    1.13242   1.03094    0.011
 7045.00    1.22105   1.02716    0.011
 7046.00    1.19194   1.02355    0.011
 7047.00    1.15657   1.02049    0.011
 7048.00    1.10287   1.01639    0.011
 7049.00    1.05573   1.01203    0.011
 7050.00    1.02494   1.00981   -2.000
 7051.00    1.00479   1.00676   -2.000
 7052.00    1.00753   1.00247   -2.000
 7053.00    1.02933   1.00120   -2.000
 7054.00    1.08671   0.99955   -2.000
 7055.00    1.12457   0.99593   -2.000
 7056.00    1.13058   0.99548   -2.000
 7057.00    1.10863   0.99516   -2.000
 7058.00    1.04668   0.99253   -2.000
 7059.00    1.02841   0.99280   -2.000
 7060.00    1.06510   0.99391   -2.000
 7061.00    1.09632   0.99226   -2.000
 7062.00    1.12147   0.99219   -2.000
 7063.00    1.16320   0.99368   -2.000
 7064.00    1.22113   0.99278   -2.000
 7065.00    1.21447   0.99204   -2.000
 7066.00    1.15209   0.99298   -2.000
 7067.00    1.06025   0.99220   -2.000
 7068.00    0.94603   0.99053   -2.000
 7069.00    0.96101   0.99041   -2.000
 7070.00    1.06226   0.98888   -2.000
 7071.00    1.13153   0.98619   -2.000
 7072.00    1.18208   0.98507   -2.000
 7073.00    1.19499   0.98209   -2.000
 7074.00    1.18869   0.97827   -2.000
 7075.00    1.15311   0.97705   -2.000
 7076.00    1.10460   0.97377   -2.000
 7077.00    1.11802   0.96941   -2.000
 7078.00    1.15493   0.96790   -2.000
 7079.00    1.16071   0.96477   -2.000
 7080.00    1.15648   0.96084   -2.000
 7081.00    1.13034   0.95970   -2.000
 7082.00    1.09830   0.95756   -2.000
 7083.00    1.09432   0.95461   -2.000
 7084.00    1.09652   0.95375   -2.000
 7085.00    1.06651   0.95322   -2.000
 7086.00    1.03084   0.95143   -2.000
 7087.00    1.04788   0.95079   -2.000
 7088.00    1.07197   0.95192   -2.000
 7089.00    0.99701   0.95112   -2.000
 7090.00    0.91264   0.95067   -2.000
 7091.00    0.95701   0.95237   -2.000
 7092.00    1.00894   0.95229   -2.000
 7093.00    1.02001   0.95199   -2.000
 7094.00    1.02982   0.95387   -2.000
 7095.00    1.00414   0.95443   -2.000
 7096.00    0.98091   0.95383   -2.000
 7097.00    1.01831   0.95487   -2.000
 7098.00    1.05290   0.95604   -2.000
 7099.00    1.05011   0.95569   -2.000
 7100.00    1.03427   0.95557   -2.000
 7101.00    0.90276   0.95645   -2.000
 7102.00    0.79392   0.95667   -2.000
 7103.00    0.83318   0.95623   -2.000
 7104.00    0.87817   0.95640   -2.000
 7105.00    0.95241   0.95659   -2.000
 7106.00    1.01508   0.95615   -2.000
 7107.00    1.03013   0.95578   -2.000
 7108.00    1.03850   0.95534   -2.000
 7109.00    1.02413   0.95479   -2.000
 7110.00    1.01788   0.95450   -2.000
 7111.00    1.03495   0.95324   -2.000
 7112.00    1.03312   0.95220   -2.000
 7113.00    0.98495   0.95219   -2.000
 7114.00    0.98421   0.95085   -2.000
 7115.00    1.08387   0.94917   -2.000
 7116.00    1.10799   0.94875   -2.000
 7117.00    0.99322   0.94819   -2.000
 7118.00    0.96722   0.94678   -2.000
 7119.00    1.08386   0.94572   -2.000
 7120.00    1.11369   0.94577   -2.000
 7121.00    1.02115   0.94523   -2.000
 7122.00    0.97031   0.94412   -2.000
 7123.00    0.97120   0.94503   -2.000
 7124.00    1.04016   0.94530   -2.000
 7125.00    1.18356   0.94410   -2.000
 7126.00    1.24406   0.94573   -2.000
 7127.00    1.22462   0.94695   -2.000
 7128.00    1.15127   0.94560   -2.000
 7129.00    1.03207   0.94709   -2.000
 7130.00    0.99124   0.94931   -2.000
 7131.00    1.00909   0.94821   -2.000
 7132.00    1.07783   0.94905   -2.000
 7133.00    1.18006   0.95171   -2.000
 7134.00    1.15451   0.95090   -2.000
 7135.00    1.05535   0.95148   -2.000
 7136.00    0.97646   0.95416   -2.000
 7137.00    0.90774   0.95310   -2.000
 7138.00    0.97350   0.95347   -2.000
 7139.00    1.09765   0.95666   -2.000
 7140.00    1.13878   0.95588   -2.000
 7141.00    1.14899   0.95532   -2.000
 7142.00    1.11661   0.95857   -2.000
 7143.00    1.07079   0.95911   -2.000
 7144.00    0.99799   0.95757   -2.000
 7145.00    0.91807   0.95966   -2.000
 7146.00    0.92754   0.96143   -2.000
 7147.00    0.95628   0.95969   -2.000
 7148.00    0.93118   0.96036   -2.000
 7149.00    0.89688   0.96208   -2.000
 7150.00    0.91754   0.96073   -2.000
 7151.00    0.94532   0.96082   -2.000
 7152.00    1.02648   0.96159   -2.000
 7153.00    1.11249   0.96040   -2.000
 7154.00    1.07341   0.96018   -2.000
 7155.00    1.02748   0.96059   -2.000
 7156.00    0.98187   0.95990   -2.000
 7157.00    0.93528   0.95935   -2.000
 7158.00    0.79783   0.95958   -2.000
 7159.00    0.68106   0.95930   -2.000
 7160.00    1.03351   0.95897   -2.000
 7161.00    1.36284   0.95919   -2.000
 7162.00    1.40097   0.95858   -2.000
 7163.00    1.44474   0.95811   -2.000
 7164.00    1.53658   0.95862   -2.000
 7165.00    1.55037   0.95767   -2.000
 7166.00    1.06956   0.95661   -2.000
 7167.00    0.70935   0.95720   -2.000
 7168.00    0.94792   0.95635   -2.000
 7169.00    1.13951   0.95457   -2.000
 7170.00    1.14199   0.95429   -2.000
 7171.00    1.13729   0.95407   -2.000
 7172.00    1.10857   0.95260   -2.000
 7173.00    1.06596   0.95106   -2.000
 7174.00    0.98413   0.95087   -2.000
 7175.00    0.94936   0.95040   -2.000
 7176.00    1.02810   0.94832   -2.000
 7177.00    1.08760   0.94794   -2.000
 7178.00    1.10707   0.94810   -2.000
 7179.00    1.13323   0.94596   -2.000
 7180.00    1.17152   0.94564   -2.000
 7181.00    1.15513   0.94649   -2.000
 7182.00    1.05222   0.94502   -2.000
 7183.00    0.98924   0.94473   -2.000
 7184.00    0.98176   0.94638   -2.000
 7185.00    0.94641   0.94575   -2.000
 7186.00    0.87699   0.94434   -2.000
 7187.00    0.86117   0.94633   -2.000
 7188.00    0.90312   0.94738   -2.000
 7189.00    0.96957   0.94560   -2.000
 7190.00    1.05930   0.94688   -2.000
 7191.00    1.08039   0.94862   -2.000
 7192.00    1.04391   0.94726   -2.000
 7193.00    0.99246   0.94774   -2.000
 7194.00    0.92997   0.94967   -2.000
 7195.00    0.92250   0.94900   -2.000
 7196.00    0.95070   0.94872   -2.000
 7197.00    0.88768   0.95115   -2.000
 7198.00    0.77291   0.95130   -2.000
 7199.00    0.86283   0.94972   -2.000
 7200.00    1.05383   0.95218   -2.000
 7201.00    1.15524   0.95385   -2.000
 7202.00    1.21839   0.95255   -2.000
 7203.00    1.21785   0.95483   -2.000
 7204.00    1.19400   0.95733   -2.000
 7205.00    1.06099   0.95645   -2.000
 7206.00    0.89416   0.95797   -2.000
 7207.00    0.85458   0.96116   -2.000
 7208.00    0.84785   0.96117   -2.000
 7209.00    0.84718   0.96212   -2.000
 7210.00    0.84778   0.96592   -2.000
 7211.00    0.87836   0.96704   -2.000
 7212.00    0.91392   0.96691   -2.000
 7213.00    0.96796   0.97016   -2.000
 7214.00    1.02431   0.97264   -2.000
 7215.00    1.10365   0.97230   -2.000
 7216.00    1.18498   0.97479   -2.000
 7217.00    1.02301   0.97801   -2.000
 7218.00    0.84868   0.97764   -2.000
