###################################################################
## OUTPUT of StarlightChains_v04.for    [Cid@UFSC - 01/Apr/2007] ##
###################################################################

## Some input info
KUG0210-078._40_7.txt                    [arq_obs]
Base.CB07.vall.4m                        [arq_base]
Masks.EmLines.NEW.gm                     [arq_masks]
StCv04.C11.config                        [arq_config]
   66                                    [N_base]
    0                                    [N_YAV_components = # of components with extra extinction!]
    0                                    [i_FitPowerLaw (1/0 = Yes/No)]
-9.99                                    [alpha_PowerLaw]
CCM                                      [red_law_option]
 1.458241                                [q_norm = A(l_norm)/A(V)]

## (Re)Sampling Parameters
 3741.00                                 [l_ini (A)]
 7218.00                                 [l_fin (A)]
    1.00                                 [dl    (A)]     (OBS: dl_cushion =    50.00 A)

## Normalization info
 4020.00                                 [l_norm (A) - for base]
 4010.00                                 [llow_norm (A) - window for f_obs]
 4060.00                                 [lupp_norm (A) - window for f_obs]
6.193655E-18                             [fobs_norm (in input units)]

## S/N
 3691.00                                 [llow_SN (A) - window for S/N]
 7268.00                                 [lupp_SN (A) - window for S/N]
   2.067                                 [S/N in S/N window]
   2.762                                 [S/N in norm. window]
   0.006                                 [S/N_err in S/N window]
   0.008                                 [S/N_err in norm. window]
  1.0000                                 [fscale_chi2]

## etc...
    -2007711                             [idum_orig]
  2350                                   [NOl_eff]
  2344                                   [Nl_eff]
     6    NSIGMA                         [Ntot_cliped & clip_method]
   924840                                [Nglobal_steps]
   7                                     [N_chains]
  31                                     [NEX0s_base = N_base in EX0s-fits]
 0   0   1        6   2.0   6.310E+02    [Clip-Bug, RC-Crash & Burn-In warning-flags, n_censored_weights, wei_nsig_threshold & wei_limit]
    20     19.710     18.712      0.998  [idt_all, wdt_TotTime, wdt_UsrTime & wdt_SysTime (sec)]

## Synthesis Results - Best model ##

 1.51117E-05                             [chi2/Nl_eff]
    82.31904                             [adev (%)]

   122.65122                             [sum-of-x (%)]
 1.98300E-18                             [Flux_tot (units of input spectrum!)]
 3.60111E-14                             [Mini_tot (???)]
 1.93701E-14                             [Mcor_tot (???)]

-203.11                                  [v0_min  (km/s)]
 104.67                                  [vd_min  (km/s)]
-1.0000                                  [AV_min  (mag)]
 0.0000                                  [YAV_min (mag)]

# j     x_j(%)      Mini_j(%)     Mcor_j(%)     age_j(yr)     Z_j      (L/M)_j    YAV?  Mstars   component_j        a/Fe...       SSP_chi2r SSP_adev(%)   SSP_AV   SSP_x(%)
  1      0.0000     0.0000E+00    0.0000E+00    1.000000E+06  0.00400  1.094E-02    0   1.0000   age020_m42            0.0000     1.6142E-05    88.5550   2.0902   102.3517
  2      0.0000     0.0000E+00    0.0000E+00    3.160000E+06  0.00400  4.007E-02    0   0.9999   age045_m42            0.0000     1.5656E-05    86.7298   1.3424   109.3560
  3      0.0000     0.0000E+00    0.0000E+00    5.010000E+06  0.00400  2.539E-02    0   0.9488   age055_m42            0.0000     1.5825E-05    88.0123   1.6800   106.5563
  4      0.0000     0.0000E+00    0.0000E+00    6.610000E+06  0.00400  2.620E-02    0   0.9220   age061_m42            0.0000     1.5654E-05    87.2548   1.2816   109.2316
  5      0.4720     1.6028E-03    2.6407E-03    1.000000E+07  0.00400  1.322E-02    0   0.8862   age070_m42            0.0000     1.5870E-05    89.4858   1.0702   109.6302
  6      0.0000     0.0000E+00    0.0000E+00    1.445000E+07  0.00400  7.883E-03    0   0.8571   age078_m42            0.0000     1.5948E-05    89.6423   1.3881   107.2602
  7      0.1789     1.5295E-03    2.3243E-03    2.512000E+07  0.00400  5.251E-03    0   0.8174   age090_m42            0.0000     1.5879E-05    89.6504   0.9510   109.9083
  8      0.0000     0.0000E+00    0.0000E+00    4.000000E+07  0.00400  3.649E-03    0   0.7851   age104_m42            0.0000     1.5782E-05    88.9471   0.7122   111.0360
  9      0.0000     0.0000E+00    0.0000E+00    5.500000E+07  0.00400  3.098E-03    0   0.7629   age110_m42            0.0000     1.5671E-05    87.5175   0.8322   111.8227
 10      0.0000     0.0000E+00    0.0000E+00    1.015200E+08  0.00400  2.228E-03    0   0.7207   age116_m42            0.0000     1.5608E-05    86.7277   0.8367   112.4035
 11      0.0000     0.0000E+00    0.0000E+00    2.861200E+08  0.00400  1.093E-03    0   0.6648   age125_m42            0.0000     1.5586E-05    87.1189   0.2873   114.9286
 12     18.8230     1.2810E+00    1.5159E+00    5.088000E+08  0.00400  6.597E-04    0   0.6365   age130_m42            0.0000     1.5500E-05    85.1625   0.2366   116.8979
 13      0.7181     1.5121E-01    1.6299E-01    1.434000E+09  0.00400  2.132E-04    0   0.5798   age139_m42            0.0000     1.5266E-05    82.7495  -0.7608   119.8054
 14      7.9426     6.0491E+00    6.0470E+00    4.250000E+09  0.00400  5.895E-05    0   0.5377   age158_m42            0.0000     1.5355E-05    83.3978  -1.0000   112.1556
 15      0.0000     0.0000E+00    0.0000E+00    7.500000E+09  0.00400  3.510E-05    0   0.5212   age171_m42            0.0000     1.5762E-05    84.0014  -1.0000   107.6278
 16      0.0000     0.0000E+00    0.0000E+00    1.300000E+10  0.00400  2.005E-05    0   0.5034   age193_m42            0.0000     1.6347E-05    85.0070  -1.0000   103.3962
 17      0.0966     2.8427E-01    2.6250E-01    1.800000E+10  0.00400  1.525E-05    0   0.4967   age213_m42            0.0000     1.6404E-05    85.8088  -1.0000   102.4522
 18      0.0000     0.0000E+00    0.0000E+00    1.000000E+06  0.00800  1.238E-02    0   1.0000   age020_m52            0.0000     1.6150E-05    88.6773   2.0865   102.5603
 19      0.0000     0.0000E+00    0.0000E+00    3.160000E+06  0.00800  3.074E-02    0   0.9966   age045_m52            0.0000     1.6063E-05    88.5684   2.0029   103.6465
 20      0.2847     4.7902E-04    8.4095E-04    5.010000E+06  0.00800  2.668E-02    0   0.9443   age055_m52            0.0000     1.5894E-05    88.3990   1.7613   105.6637
 21      0.0000     0.0000E+00    0.0000E+00    6.610000E+06  0.00800  2.136E-02    0   0.9177   age061_m52            0.0000     1.5764E-05    88.9256   0.5581   111.3131
 22      0.5832     2.1552E-03    3.5368E-03    1.000000E+07  0.00800  1.215E-02    0   0.8827   age070_m52            0.0000     1.5997E-05    90.6393   1.2666   109.0056
 23      0.0000     0.0000E+00    0.0000E+00    1.445000E+07  0.00800  8.717E-03    0   0.8552   age078_m52            0.0000     1.5917E-05    89.6823   1.3570   108.6263
 24      1.1173     8.9704E-03    1.3612E-02    2.512000E+07  0.00800  5.592E-03    0   0.8162   age090_m52            0.0000     1.5867E-05    89.7866   1.0126   111.1837
 25      0.0000     0.0000E+00    0.0000E+00    4.000000E+07  0.00800  3.896E-03    0   0.7841   age104_m52            0.0000     1.5737E-05    88.7853   0.9118   112.3240
 26      0.0000     0.0000E+00    0.0000E+00    1.015200E+08  0.00800  2.148E-03    0   0.7226   age116_m52            0.0000     1.5590E-05    87.3672   0.8139   113.0115
 27      0.0000     0.0000E+00    0.0000E+00    2.861200E+08  0.00800  9.925E-04    0   0.6683   age125_m52            0.0000     1.5490E-05    85.0002   0.3088   117.7812
 28      0.0000     0.0000E+00    0.0000E+00    9.047900E+08  0.00800  3.141E-04    0   0.6138   age135_m52            0.0000     1.5285E-05    80.8621  -0.5645   124.4843
 29      0.0000     0.0000E+00    0.0000E+00    1.434000E+09  0.00800  1.719E-04    0   0.5853   age139_m52            0.0000     1.5219E-05    82.1132  -1.0000   119.3309
 30      9.2404     5.2701E+00    5.4867E+00    2.500000E+09  0.00800  7.872E-05    0   0.5600   age150_m52            0.0000     1.5683E-05    82.6650  -1.0000   111.1114
 31      0.0000     0.0000E+00    0.0000E+00    4.250000E+09  0.00800  4.336E-05    0   0.5426   age158_m52            0.0000     1.5750E-05    82.8460  -1.0000   109.7832
 32      0.0000     0.0000E+00    0.0000E+00    6.250000E+09  0.00800  3.159E-05    0   0.5319   age166_m52            0.0000     1.6490E-05    83.3934  -1.0000   105.1958
 33      0.0000     0.0000E+00    0.0000E+00    1.300000E+10  0.00800  1.361E-05    0   0.5073   age193_m52            0.0000     1.9118E-05    86.4687  -1.0000    92.6760
 34      0.0000     0.0000E+00    0.0000E+00    1.800000E+10  0.00800  9.886E-06    0   0.4990   age213_m52            0.0000     2.0075E-05    85.6956  -1.0000    89.2757
 35      0.6149     1.7880E-03    3.3240E-03    1.000000E+06  0.02000  1.544E-02    0   1.0000   age020_m62            0.0000     1.6165E-05    88.8182   2.0820   102.8375
 36      0.0000     0.0000E+00    0.0000E+00    3.160000E+06  0.02000  3.762E-02    0   0.9858   age045_m62            0.0000     1.6136E-05    88.8505   2.0162   103.8767
 37      0.0000     0.0000E+00    0.0000E+00    5.010000E+06  0.02000  3.296E-02    0   0.9342   age055_m62            0.0000     1.5752E-05    87.7021   1.6238   108.1256
 38      4.7066     1.8311E-02    3.0165E-02    8.710000E+06  0.02000  1.154E-02    0   0.8861   age067_m62            0.0000     1.6730E-05    95.8511   0.8353   108.9612
 39      0.0000     0.0000E+00    0.0000E+00    1.445000E+07  0.02000  7.663E-03    0   0.8472   age078_m62            0.0000     1.6122E-05    91.7775   0.9474   110.5153
 40      0.0000     0.0000E+00    0.0000E+00    2.512000E+07  0.02000  4.532E-03    0   0.8099   age090_m62            0.0000     1.6117E-05    92.0317   0.9440   109.9953
 41      0.0000     0.0000E+00    0.0000E+00    5.500000E+07  0.02000  2.733E-03    0   0.7595   age110_m62            0.0000     1.5749E-05    89.1344   0.8962   111.5222
 42      0.0000     0.0000E+00    0.0000E+00    1.609000E+08  0.02000  1.369E-03    0   0.6985   age120_m62            0.0000     1.5592E-05    86.6233   0.6992   115.3089
 43      0.0000     0.0000E+00    0.0000E+00    2.861200E+08  0.02000  9.013E-04    0   0.6714   age125_m62            0.0000     1.5563E-05    84.3237   0.4192   119.1857
 44     26.6930     2.3835E+00    2.8577E+00    5.088000E+08  0.02000  5.028E-04    0   0.6449   age130_m62            0.0000     1.5426E-05    80.5871  -0.0268   124.1368
 45      0.0000     0.0000E+00    0.0000E+00    9.047900E+08  0.02000  2.428E-04    0   0.6179   age135_m62            0.0000     1.5232E-05    80.0381  -0.6525   124.6065
 46     17.6681     6.2806E+00    6.8984E+00    1.434000E+09  0.02000  1.263E-04    0   0.5908   age139_m62            0.0000     1.5222E-05    80.2946  -1.0000   121.1801
 47      0.5562     4.1727E-01    4.4009E-01    2.500000E+09  0.02000  5.985E-05    0   0.5673   age150_m62            0.0000     1.5822E-05    81.4401  -1.0000   112.1593
 48      4.8771     6.6942E+00    6.8051E+00    4.250000E+09  0.02000  3.271E-05    0   0.5468   age158_m62            0.0000     1.7082E-05    82.1322  -1.0000   103.9849
 49      0.0000     0.0000E+00    0.0000E+00    1.000000E+10  0.02000  1.360E-05    0   0.5167   age181_m62            0.0000     1.9392E-05    82.7037  -1.0000    94.3404
 50      0.0000     0.0000E+00    0.0000E+00    1.800000E+10  0.02000  7.124E-06    0   0.5013   age213_m62            0.0000     2.1249E-05    82.6714  -1.0000    87.7284
 51      0.0000     0.0000E+00    0.0000E+00    1.000000E+06  0.05000  2.592E-02    0   0.9998   age020_m72            0.0000     1.6211E-05    89.0815   2.0769   102.8685
 52      0.0000     0.0000E+00    0.0000E+00    3.160000E+06  0.05000  4.845E-02    0   0.9577   age045_m72            0.0000     1.5952E-05    88.3590   1.8869   105.4091
 53      0.0000     0.0000E+00    0.0000E+00    5.010000E+06  0.05000  3.072E-02    0   0.9147   age055_m72            0.0000     1.6098E-05    90.9018   1.4886   107.6477
 54      0.0000     0.0000E+00    0.0000E+00    6.610000E+06  0.05000  1.455E-02    0   0.8877   age061_m72            0.0000     1.7151E-05    98.2126   0.9158   108.7128
 55      0.0000     0.0000E+00    0.0000E+00    1.000000E+07  0.05000  9.074E-03    0   0.8524   age070_m72            0.0000     1.6150E-05    90.9928   1.6644   107.3025
 56      4.2761     4.5172E-02    6.6361E-02    2.512000E+07  0.05000  4.250E-03    0   0.7902   age090_m72            0.0000     1.5946E-05    90.3516   1.3671   109.1152
 57      0.0000     0.0000E+00    0.0000E+00    4.000000E+07  0.05000  3.087E-03    0   0.7618   age104_m72            0.0000     1.5923E-05    90.5486   1.1523   110.4781
 58      1.0839     2.8625E-02    3.7763E-02    1.015200E+08  0.05000  1.700E-03    0   0.7096   age116_m72            0.0000     1.5682E-05    87.6069   0.8559   114.4034
 59      0.0000     0.0000E+00    0.0000E+00    2.861200E+08  0.05000  7.384E-04    0   0.6633   age125_m72            0.0000     1.5444E-05    82.3045   0.2492   121.8451
 60      0.0000     0.0000E+00    0.0000E+00    5.088000E+08  0.05000  3.819E-04    0   0.6372   age130_m72            0.0000     1.5209E-05    80.0774  -0.3131   125.8217
 61      0.0000     0.0000E+00    0.0000E+00    9.047900E+08  0.05000  1.676E-04    0   0.6110   age135_m72            0.0000     1.5107E-05    78.1532  -1.0000   124.2667
 62      0.0000     0.0000E+00    0.0000E+00    1.434000E+09  0.05000  8.837E-05    0   0.5874   age139_m72            0.0000     1.5868E-05    80.7196  -1.0000   113.8078
 63      0.0000     0.0000E+00    0.0000E+00    2.500000E+09  0.05000  4.233E-05    0   0.5598   age150_m72            0.0000     1.7157E-05    80.8766  -1.0000   104.9282
 64     22.7188     7.1080E+01    6.9363E+01    6.250000E+09  0.05000  1.435E-05    0   0.5249   age166_m72            0.0000     2.0138E-05    83.0235  -1.0000    91.3278
 65      0.0000     0.0000E+00    0.0000E+00    1.300000E+10  0.05000  6.513E-06    0   0.5036   age193_m72            0.0000     2.2781E-05    83.3493  -1.0000    84.0990
 66      0.0000     0.0000E+00    0.0000E+00    1.800000E+10  0.05000  4.527E-06    0   0.4945   age213_m72            0.0000     2.4504E-05    83.6092  -1.0000    79.2075


## Synthesis Results - Average & Chains ##

# j      x_j: min, <> & last-chain-values for 1 ...  7 chains
  1      0.0000      1.4253      0.0000      1.0505      3.4662      0.0000      1.3894      2.6850      0.0000
  2      0.0000      1.4756      6.1193      0.0000      0.0000      2.2625      1.5352      0.0000      0.0000
  3      0.0000      1.3724      2.1582      3.8411      6.4929      0.9110      0.1092      1.1907      0.0426
  4      0.0000      1.0013      0.0000      0.0000      0.0000      1.4452      0.0000      0.0000      0.3230
  5      0.4720      1.6356      0.0000      3.9830      0.0000      6.3432      0.0000      0.5879      0.0000
  6      0.0000      1.1820      0.0000      0.0000      0.2216      0.0000      0.4026      0.0000      0.2747
  7      0.1789      1.4717      4.8590      3.6591      9.5657      4.7875      0.1718      2.4460      0.0000
  8      0.0000      1.9707      7.7756      0.4373      5.4255      4.2179      0.4812      1.4176      0.0000
  9      0.0000      1.1475      0.0000      0.0000      0.0000      0.5551      1.9494      2.4828      0.0000
 10      0.0000      1.4212      0.0000      6.0499      3.0444      0.0000      2.1481      0.0731      0.0000
 11      0.0000      1.3805      0.0000      0.0000      0.0000      1.6934      0.1354      1.6525      1.4813
 12     18.8230      1.3341      1.1048      3.4828      0.0000      1.3522      0.0584      0.0033      1.6740
 13      0.7181      1.0770      2.5876      1.3426      3.2766      1.6024      0.2837      1.1959      0.0000
 14      7.9426      1.4473      5.1003      6.6844      2.3522      4.2422     12.0164      0.8580      5.9529
 15      0.0000      1.3057      6.3670      0.0000      5.4354      3.1009      5.9132      2.5724      0.0566
 16      0.0000      1.6588      6.4960      0.1853      3.0382      1.8316      0.3491      1.1703      1.2615
 17      0.0966      1.3099      0.0000      5.2385      1.1436      0.0000      0.0000      1.9510      0.0000
 18      0.0000      1.5798      2.3469      0.0000      0.9006      0.3856     11.2459      3.2258      2.4300
 19      0.0000      1.6137      0.0000      0.0000      4.7996      3.5845      2.8044      0.4889      0.0693
 20      0.2847      1.4177      1.4650      4.5251      0.0000      1.9575      2.7678      1.5148      1.7798
 21      0.0000      1.5068      0.1096      0.5931      0.0000      0.0000      0.0054      0.7452      0.0000
 22      0.5832      1.5099      2.4793      3.6686      1.7079      0.0000      0.3073      0.0000      0.3328
 23      0.0000      1.4831      0.8387      2.8071      1.5976      1.4793      0.0000      1.9076      0.0000
 24      1.1173      1.3373      0.0000      1.0101      0.0000      0.0000      0.0000      2.2855      0.2184
 25      0.0000      1.4222      1.5871      0.0000      0.8325      3.8612      0.0000      1.7369      6.1972
 26      0.0000      1.4990      0.0000      3.8082      0.2941      0.0000      0.3674      2.2030      4.9508
 27      0.0000      1.2015      0.0000      1.8082      0.0395      0.5295      0.0000      5.4066      1.2677
 28      0.0000      1.4463      0.2661      0.0000      0.0092      2.6820      0.0591      0.3455      3.5643
 29      0.0000      1.3777      3.2913      0.0000      0.0000      0.0000      0.0000      3.9603      0.9398
 30      9.2404      1.2611      2.6540      1.7695      3.5097      0.0000      0.8497      0.4472      6.7530
 31      0.0000      1.3405      0.0000      0.1280      0.7222      1.0232      2.0264      3.2448      3.4959
 32      0.0000      1.7232      1.2684      1.8154      0.0000      0.3286      0.0000      0.9749      1.1326
 33      0.0000      1.2185      0.3199      2.0989      2.9540      0.9298      0.0000      1.4942      0.6865
 34      0.0000      1.3338      0.0384      0.1021      0.0000      0.0000      5.3499      0.0000      0.0000
 35      0.6149      1.2474      0.7982      4.5969      0.0000      0.6657      1.6983      1.2444      0.0000
 36      0.0000      1.4256      4.4521      0.0000      4.3094      0.0000      0.2528      1.7336      4.5820
 37      0.0000      1.0694      0.0000      0.0000      0.1268      6.1637      1.5183      0.1689      0.0000
 38      4.7066      1.7366      3.8122      3.7739      0.0000      1.3998      0.7956      2.1998      2.2889
 39      0.0000      1.3411      1.0150      0.0000      3.1582      0.0000      0.2645      0.0000      0.0000
 40      0.0000      1.2210      0.1826      0.0000      6.4862      1.5258      6.1415      1.1120      5.6482
 41      0.0000      1.0273      0.7960      0.1808      0.0000      0.0000      0.1912      1.0998      0.0000
 42      0.0000      1.3418      4.2597      2.7065      1.4557      2.9661      0.0000      2.1543      0.0000
 43      0.0000      1.1398      0.0738      0.0000      2.5446      0.9986      0.0000      0.2812      1.3351
 44     26.6930      1.4327      5.4344      5.8496      0.6189      0.0000      0.0000      0.0307      0.1188
 45      0.0000      1.3838      0.0000      0.0000      0.2546      0.0000      3.7131      0.0000      0.0000
 46     17.6681      1.4232      6.2996      2.1757      0.0000      0.0434      3.0955      1.3293      2.5186
 47      0.5562      1.4008      0.0000      4.7804      2.4970      1.6899      0.0440      0.0000      0.0000
 48      4.8771      1.3825      0.0000      1.7708      0.0000      3.2682      0.1201      1.5849      6.1759
 49      0.0000      1.2744      0.1388      0.0000      0.0000      0.0000      1.6063      1.7947      0.8165
 50      0.0000      1.1107      0.0852      0.8173      0.0000      2.7273      0.0000      0.0000      0.3525
 51      0.0000      1.2719      2.4097      0.0000      0.4780      0.9528      2.3375      0.8389      0.6510
 52      0.0000      1.2798      0.3834      0.0000      0.0000      0.0000      0.8404      0.0000      0.6831
 53      0.0000      1.3551      0.1604      0.2404      0.1021      0.0000      2.2896      0.0000      4.5722
 54      0.0000      1.3559      2.4662      0.0000      0.0000      1.5123      2.5042      0.0000      1.0922
 55      0.0000      1.3834      0.4512      3.3528      0.8623      0.0000      0.0228      0.0000      2.2229
 56      4.2761      1.5245      0.0000      5.1631      1.0057      1.2652      2.7537      5.6227      0.5956
 57      0.0000      1.3017      0.0000      0.0000      0.0000      1.9090      3.6209      1.8841      6.7764
 58      1.0839      1.6238      0.6924      1.0627      0.0000      0.0997      0.0000      1.9762      7.3884
 59      0.0000      1.6107      0.1142      0.0000      0.5290      2.2867      2.9225      1.7179      0.0815
 60      0.0000      1.4086      0.7119      0.0000      2.0754      1.8485      0.0590      1.8575      0.0000
 61      0.0000      1.8323      1.6361      0.0000      0.0000      0.6110      2.1177      2.9284      0.4923
 62      0.0000      1.3428      0.2515      0.0000      0.4796      7.2540      0.7876      2.4304      0.0000
 63      0.0000      1.5312      0.6107      0.2495      4.2445      4.2432      1.5422      0.5672      2.0033
 64     22.7188      1.2358      0.0000      1.9343      0.4564      1.1759      0.2464      0.6374      0.7366
 65      0.0000      1.3553      0.0000      0.0000      0.8349      0.2457      0.9466      2.5083      0.0000
 66      0.0000      1.4493      1.5195      0.0000      1.3432      0.1952      0.0000      4.1311      0.0000

# j      m_j: min, <> & last-chain-values for 1 ...  7 chains
  1  0.0000E+00  1.5730E-02  0.0000E+00  1.5851E-02  4.5610E-02  0.0000E+00  1.7635E-02  2.2446E-02  0.0000E+00
  2  0.0000E+00  4.4458E-03  2.4792E-02  0.0000E+00  0.0000E+00  8.5407E-03  5.3193E-03  0.0000E+00  0.0000E+00
  3  0.0000E+00  6.1924E-03  1.3094E-02  2.3694E-02  3.4928E-02  5.1500E-03  5.6686E-04  4.0691E-03  3.3571E-04
  4  0.0000E+00  4.2543E-03  0.0000E+00  0.0000E+00  0.0000E+00  7.6936E-03  0.0000E+00  0.0000E+00  2.3978E-03
  5  2.6407E-03  1.3239E-02  0.0000E+00  4.4074E-02  0.0000E+00  6.4325E-02  0.0000E+00  3.6042E-03  0.0000E+00
  6  0.0000E+00  1.5517E-02  0.0000E+00  0.0000E+00  3.4692E-03  0.0000E+00  6.0786E-03  0.0000E+00  6.3002E-03
  7  2.3243E-03  2.7661E-02  1.2281E-01  9.4022E-02  2.1436E-01  1.1274E-01  3.7137E-03  3.4822E-02  0.0000E+00
  8  0.0000E+00  5.1195E-02  2.7162E-01  1.5532E-02  1.6804E-01  1.3729E-01  1.4376E-02  2.7894E-02  0.0000E+00
  9  0.0000E+00  3.4119E-02  0.0000E+00  0.0000E+00  0.0000E+00  2.0679E-02  6.6655E-02  5.5916E-02  0.0000E+00
 10  0.0000E+00  5.5507E-02  0.0000E+00  3.2304E-01  1.4176E-01  0.0000E+00  9.6479E-02  2.1628E-03  0.0000E+00
 11  0.0000E+00  1.0138E-01  0.0000E+00  0.0000E+00  0.0000E+00  1.5581E-01  1.1433E-02  9.1920E-02  1.9008E-01
 12  1.5159E+00  1.5541E-01  1.7306E-01  5.5468E-01  0.0000E+00  1.9737E-01  7.8232E-03  2.9348E-04  3.4076E-01
 13  1.6299E-01  3.5363E-01  1.1425E+00  6.0269E-01  1.2828E+00  6.5922E-01  1.0713E-01  2.9744E-01  0.0000E+00
 14  6.0470E+00  1.5939E+00  7.5532E+00  1.0064E+01  3.0886E+00  5.8536E+00  1.5219E+01  7.1572E-01  1.1455E+01
 15  0.0000E+00  2.3409E+00  1.5350E+01  0.0000E+00  1.1619E+01  6.9657E+00  1.2192E+01  3.4934E+00  1.7744E-01
 16  0.0000E+00  5.0285E+00  2.6480E+01  7.6786E-01  1.0981E+01  6.9568E+00  1.2171E+00  2.6872E+00  6.6823E+00
 17  2.6250E-01  5.1513E+00  0.0000E+00  2.8164E+01  5.3619E+00  0.0000E+00  0.0000E+00  5.8115E+00  0.0000E+00
 18  0.0000E+00  1.5408E-02  3.0779E-02  0.0000E+00  1.0472E-02  4.7116E-03  1.2613E-01  2.3830E-02  4.1411E-02
 19  0.0000E+00  6.3168E-03  0.0000E+00  0.0000E+00  2.2400E-02  1.7580E-02  1.2624E-02  1.4495E-03  4.7391E-04
 20  8.4095E-04  6.0584E-03  8.4184E-03  2.6437E-02  0.0000E+00  1.0481E-02  1.3602E-02  4.9032E-03  1.3290E-02
 21  0.0000E+00  7.8162E-03  7.6485E-04  4.2062E-03  0.0000E+00  0.0000E+00  3.2014E-05  2.9278E-03  0.0000E+00
 22  3.5368E-03  1.3244E-02  2.9245E-02  4.3995E-02  1.7862E-02  0.0000E+00  3.1002E-03  0.0000E+00  5.1010E-03
 23  0.0000E+00  1.7568E-02  1.3359E-02  4.5460E-02  2.2563E-02  2.1955E-02  0.0000E+00  1.7115E-02  0.0000E+00
 24  1.3612E-02  2.3568E-02  0.0000E+00  2.4338E-02  0.0000E+00  0.0000E+00  0.0000E+00  3.0508E-02  6.7252E-03
 25  0.0000E+00  3.4559E-02  5.1860E-02  0.0000E+00  2.4120E-02  1.1756E-01  0.0000E+00  3.1969E-02  2.6313E-01
 26  0.0000E+00  6.0885E-02  0.0000E+00  2.1147E-01  1.4245E-02  0.0000E+00  1.7160E-02  6.7777E-02  3.5138E-01
 27  0.0000E+00  9.7681E-02  0.0000E+00  2.0098E-01  3.8294E-03  5.3941E-02  0.0000E+00  3.3294E-01  1.8009E-01
 28  0.0000E+00  3.4124E-01  8.4439E-02  0.0000E+00  2.5835E-03  7.9286E-01  1.6045E-02  6.1746E-02  1.4695E+00
 29  0.0000E+00  5.6638E-01  1.8195E+00  0.0000E+00  0.0000E+00  0.0000E+00  0.0000E+00  1.2332E+00  6.7513E-01
 30  5.4867E+00  1.0832E+00  3.0653E+00  2.0779E+00  3.5942E+00  0.0000E+00  8.3927E-01  2.9095E-01  1.0135E+01
 31  0.0000E+00  2.0255E+00  0.0000E+00  2.6444E-01  1.3009E+00  1.9370E+00  3.5210E+00  3.7135E+00  9.2295E+00
 32  0.0000E+00  3.5033E+00  3.4676E+00  5.0456E+00  0.0000E+00  8.3696E-01  0.0000E+00  1.5012E+00  4.0234E+00
 33  0.0000E+00  5.4839E+00  1.9360E+00  1.2914E+01  1.5851E+01  5.2430E+00  0.0000E+00  5.0935E+00  5.3985E+00
 34  0.0000E+00  8.1288E+00  3.1499E-01  8.5100E-01  0.0000E+00  0.0000E+00  3.7495E+01  0.0000E+00  0.0000E+00
 35  3.3240E-03  9.7544E-03  8.3937E-03  4.9145E-02  0.0000E+00  6.5221E-03  1.5273E-02  7.3710E-03  0.0000E+00
 36  0.0000E+00  4.5105E-03  1.8941E-02  0.0000E+00  1.6256E-02  0.0000E+00  9.1975E-04  4.1544E-03  2.5331E-02
 37  0.0000E+00  3.6599E-03  0.0000E+00  0.0000E+00  5.1736E-04  2.6428E-02  5.9752E-03  4.3769E-04  0.0000E+00
 38  3.0165E-02  1.6100E-02  4.7526E-02  4.7833E-02  0.0000E+00  1.6260E-02  8.4818E-03  1.5448E-02  3.7080E-02
 39  0.0000E+00  1.7902E-02  1.8219E-02  0.0000E+00  5.0263E-02  0.0000E+00  4.0604E-03  0.0000E+00  0.0000E+00
 40  0.0000E+00  2.6346E-02  5.2980E-03  0.0000E+00  1.6686E-01  4.1249E-02  1.5239E-01  1.8174E-02  2.1295E-01
 41  0.0000E+00  3.4470E-02  3.5913E-02  8.2917E-03  0.0000E+00  0.0000E+00  7.3777E-03  2.7951E-02  0.0000E+00
 42  0.0000E+00  8.2662E-02  3.5287E-01  2.2795E-01  1.0692E-01  2.2894E-01  0.0000E+00  1.0052E-01  0.0000E+00
 43  0.0000E+00  1.0252E-01  8.9205E-03  0.0000E+00  2.7287E-01  1.1253E-01  0.0000E+00  1.9160E-02  2.0982E-01
 44  2.8577E+00  2.2188E-01  1.1317E+00  1.2385E+00  1.1428E-01  0.0000E+00  0.0000E+00  3.6067E-03  3.2139E-02
 45  0.0000E+00  4.2521E-01  0.0000E+00  0.0000E+00  9.3261E-02  0.0000E+00  1.3120E+00  0.0000E+00  0.0000E+00
 46  6.8984E+00  8.0382E-01  4.7844E+00  1.6800E+00  0.0000E+00  3.0719E-02  2.0105E+00  5.6867E-01  2.4856E+00
 47  4.4009E-01  1.6032E+00  0.0000E+00  7.4795E+00  3.4072E+00  2.4232E+00  5.7879E-02  0.0000E+00  0.0000E+00
 48  6.8051E+00  2.7903E+00  0.0000E+00  4.8864E+00  0.0000E+00  8.2648E+00  2.7871E-01  2.4229E+00  2.1781E+01
 49  0.0000E+00  5.8460E+00  8.5589E-01  0.0000E+00  0.0000E+00  0.0000E+00  8.4738E+00  6.2357E+00  6.5448E+00
 50  0.0000E+00  9.4364E+00  9.7382E-01  9.4937E+00  0.0000E+00  2.9032E+01  0.0000E+00  0.0000E+00  5.2332E+00
 51  0.0000E+00  5.9236E-03  1.5091E-02  0.0000E+00  2.6540E-03  5.5600E-03  1.2519E-02  2.9591E-03  5.2978E-03
 52  0.0000E+00  3.0544E-03  1.2304E-03  0.0000E+00  0.0000E+00  0.0000E+00  2.3065E-03  0.0000E+00  2.8488E-03
 53  0.0000E+00  4.8718E-03  7.7531E-04  1.1814E-03  4.3785E-04  0.0000E+00  9.4659E-03  0.0000E+00  2.8722E-02
 54  0.0000E+00  9.9879E-03  2.4429E-02  0.0000E+00  0.0000E+00  1.3957E-02  2.1214E-02  0.0000E+00  1.4059E-02
 55  0.0000E+00  1.5691E-02  6.8821E-03  5.1990E-02  1.1661E-02  0.0000E+00  2.9701E-04  0.0000E+00  4.4056E-02
 56  6.6361E-02  3.4224E-02  0.0000E+00  1.5846E-01  2.6918E-02  3.5586E-02  7.1091E-02  9.5608E-02  2.3364E-02
 57  0.0000E+00  3.8786E-02  0.0000E+00  0.0000E+00  0.0000E+00  7.1266E-02  1.2407E-01  4.2521E-02  3.5280E-01
 58  3.7763E-02  8.1836E-02  4.6927E-02  7.3225E-02  0.0000E+00  6.2970E-03  0.0000E+00  7.5441E-02  6.5065E-01
 59  0.0000E+00  1.7469E-01  1.6655E-02  0.0000E+00  6.8411E-02  3.1074E-01  3.6452E-01  1.4113E-01  1.5452E-02
 60  0.0000E+00  2.8377E-01  1.9285E-01  0.0000E+00  4.9850E-01  4.6656E-01  1.3661E-02  2.8344E-01  0.0000E+00
 61  0.0000E+00  8.0654E-01  9.6842E-01  0.0000E+00  0.0000E+00  3.3696E-01  1.0720E+00  9.7635E-01  3.7863E-01
 62  0.0000E+00  1.0777E+00  2.7146E-01  0.0000E+00  4.5892E-01  7.2943E+00  7.2692E-01  1.4775E+00  0.0000E+00
 63  0.0000E+00  2.4449E+00  1.3112E+00  5.4470E-01  8.0805E+00  8.4889E+00  2.8318E+00  6.8594E-01  5.5894E+00
 64  6.9363E+01  5.4581E+00  0.0000E+00  1.1679E+01  2.4031E+00  6.5066E+00  1.2515E+00  2.1323E+00  5.6848E+00
 65  0.0000E+00  1.2652E+01  0.0000E+00  0.0000E+00  9.2938E+00  2.8745E+00  1.0163E+01  1.7738E+01  0.0000E+00
 66  0.0000E+00  1.9115E+01  2.6949E+01  0.0000E+00  2.1122E+01  3.2249E+00  0.0000E+00  4.1269E+01  0.0000E+00

# AV, chi2 & Mass for <> & i_chain = 1 ...  7 solutions
AV      -1.0000      0.1772      0.1591      0.2422      0.2685      0.1377      0.1865      0.1099      0.2372
chi2 1.5112E-05  1.7643E-05  1.6632E-05  1.6541E-05  1.7065E-05  1.6887E-05  1.7003E-05  1.7583E-05  1.6911E-05
Mass 1.9370E-14  6.5080E-14  4.7238E-14  5.1949E-14  6.1707E-14  4.9259E-14  5.7301E-14  7.8498E-14  4.0373E-14
-203.11                                  [v0_min (km/s) before EX0s...]
 104.67                                  [vd_min (km/s) before EX0s...]


## Synthetic spectrum (Best Model) ##l_obs f_obs f_syn wei
 3478    [Nl_obs]
 3741.00    1.02576   0.72594    0.000
 3742.00    0.87903   0.68395    0.000
 3743.00    0.55624   0.64070    0.000
 3744.00    0.28408   0.59455    0.000
 3745.00    0.04141   0.54626    0.016
 3746.00    0.10246   0.50774    0.016
 3747.00    0.31773   0.50155    0.016
 3748.00    0.10569   0.53960    0.016
 3749.00   -0.29425   0.60907    0.000
 3750.00    0.07736   0.68674    0.017
 3751.00    0.74025   0.75623    0.017
 3752.00    1.06930   0.80536    0.017
 3753.00    1.29135   0.82130    0.016
 3754.00    1.34022   0.80245    0.016
 3755.00    1.34267   0.76890    0.016
 3756.00    0.66324   0.74943    0.016
 3757.00   -0.16584   0.75610    0.000
 3758.00   -0.65178   0.77746    0.000
 3759.00   -1.07783   0.79534    0.000
 3760.00   -0.69995   0.80024    0.000
 3761.00   -0.21527   0.79228    0.000
 3762.00   -0.18692   0.77386    0.000
 3763.00   -0.20144   0.74508    0.000
 3764.00   -0.05978   0.70863    0.000
 3765.00    0.09089   0.67283    0.015
 3766.00   -0.14109   0.64417    0.000
 3767.00   -0.37763   0.62667    0.000
 3768.00   -0.06555   0.62937    0.000
 3769.00    0.24315   0.65915    0.015
 3770.00    0.46988   0.70694    0.015
 3771.00    0.66693   0.75439    0.015
 3772.00    0.47502   0.79228    0.014
 3773.00    0.35090   0.82421    0.014
 3774.00    0.82181   0.85615    0.014
 3775.00    1.16092   0.88957    0.014
 3776.00    0.64543   0.92314    0.014
 3777.00    0.20820   0.95406    0.014
 3778.00    0.16709   0.97795    0.014
 3779.00    0.05364   0.99291    0.014
 3780.00   -0.35596   1.00046    0.000
 3781.00   -0.77835   0.99796    0.000
 3782.00   -1.24411   0.97742    0.000
 3783.00   -1.42203   0.93784    0.000
 3784.00   -0.77673   0.89223    0.000
 3785.00   -0.28094   0.85558    0.000
 3786.00   -0.15043   0.83259    0.000
 3787.00   -0.09791   0.81999    0.000
 3788.00   -0.20980   0.81092    0.000
 3789.00   -0.24030   0.79460    0.000
 3790.00   -0.12172   0.76145    0.000
 3791.00   -0.04780   0.71229    0.000
 3792.00   -0.04535   0.65725    0.000
 3793.00    0.11100   0.60550    0.015
 3794.00    0.48351   0.56310    0.015
 3795.00    0.55645   0.54057    0.015
 3796.00    0.25912   0.55194    0.015
 3797.00   -0.13499   0.60023    0.000
 3798.00   -0.63456   0.67078    0.000
 3799.00   -0.22409   0.74336    0.000
 3800.00    1.06090   0.80473    0.017
 3801.00    1.84935   0.84809    0.018
 3802.00    2.21703   0.87077    0.019
 3803.00    1.73903   0.87847    0.018
 3804.00    0.62998   0.88573    0.016
 3805.00    0.55290   0.90566    0.015
 3806.00    1.15234   0.93809    0.015
 3807.00    1.36355   0.96876    0.016
 3808.00    1.35200   0.98071    0.016
 3809.00    0.95739   0.96668    0.015
 3810.00    0.37134   0.93393    0.015
 3811.00    0.11551   0.89936    0.014
 3812.00    0.00250   0.87850    0.014
 3813.00    0.08414   0.87647    0.014
 3814.00    0.23796   0.88507    0.014
 3815.00    0.46689   0.88742    0.014
 3816.00    0.71942   0.87254    0.014
 3817.00    0.43709   0.84911    0.014
 3818.00    0.01445   0.83644    0.014
 3819.00    0.05901   0.83888    0.014
 3820.00    0.20368   0.83913    0.014
 3821.00    0.22877   0.82079    0.014
 3822.00    0.23357   0.78755    0.014
 3823.00   -0.12649   0.75480    0.000
 3824.00   -0.53337   0.73093    0.000
 3825.00   -0.31169   0.71353    0.000
 3826.00   -0.03360   0.69680    0.000
 3827.00    0.46449   0.67455    0.015
 3828.00    0.97440   0.64001    0.018
 3829.00    0.90678   0.59145    0.017
 3830.00    0.83097   0.53789    0.016
 3831.00    1.04139   0.49477    0.016
 3832.00    1.22522   0.47374    0.016
 3833.00    0.81859   0.47700    0.015
 3834.00    0.38991   0.49835    0.015
 3835.00   -0.31291   0.52919    0.000
 3836.00   -0.94656   0.56545    0.000
 3837.00   -0.99559   0.60862    0.000
 3838.00   -1.00501   0.66110    0.000
 3839.00   -0.76528   0.72078    0.000
 3840.00   -0.48555   0.77890    0.000
 3841.00   -0.00842   0.82525    0.000
 3842.00    0.39091   0.85686    0.015
 3843.00    0.47886   0.87892    0.015
 3844.00    0.49715   0.89642    0.015
 3845.00    0.28388   0.90853    0.015
 3846.00    0.00509   0.91357    0.015
 3847.00   -0.45767   0.91686    0.000
 3848.00   -0.77989   0.92658    0.000
 3849.00   -0.76451   0.94189    0.000
 3850.00   -0.61020   0.95267    0.000
 3851.00   -0.16772   0.95172    0.000
 3852.00   -0.03119   0.94152    0.000
 3853.00   -0.44647   0.92899    0.000
 3854.00   -0.57753   0.91756    0.000
 3855.00   -0.26035   0.90598    0.000
 3856.00    0.09020   0.89572    0.000
 3857.00    0.48695   0.89591    0.000
 3858.00    0.53392   0.91460    0.000
 3859.00    0.15469   0.94618    0.000
 3860.00   -0.13572   0.97437    0.000
 3861.00   -0.33070   0.98729    0.000
 3862.00   -0.27071   0.98577    0.000
 3863.00    0.03087   0.97847    0.000
 3864.00    0.56655   0.97250    0.000
 3865.00    1.29777   0.96770    0.000
 3866.00    1.76186   0.95798    0.000
 3867.00    2.02946   0.93836    0.000
 3868.00    1.84502   0.91176    0.000
 3869.00    1.36859   0.88971    0.000
 3870.00    0.95913   0.88452    0.000
 3871.00    0.58751   0.89721    0.000
 3872.00    0.58538   0.91326    0.000
 3873.00    0.76499   0.91325    0.000
 3874.00    0.86453   0.89036    0.000
 3875.00    0.93003   0.85696    0.000
 3876.00    0.79381   0.83142    0.000
 3877.00    0.58413   0.81859    0.000
 3878.00    0.46369   0.80801    0.000
 3879.00    0.37077   0.79077    0.000
 3880.00   -0.10348   0.76805    0.000
 3881.00   -0.67563   0.73995    0.000
 3882.00   -0.04871   0.69940    0.000
 3883.00    0.82891   0.64471    0.015
 3884.00    0.79045   0.58858    0.015
 3885.00    0.60093   0.54994    0.015
 3886.00    0.36928   0.54262    0.015
 3887.00    0.13242   0.57101    0.015
 3888.00   -0.25609   0.62688    0.000
 3889.00   -0.65758   0.69068    0.000
 3890.00   -0.33953   0.74348    0.000
 3891.00    0.01437   0.77916    0.015
 3892.00   -0.41805   0.80424    0.000
 3893.00   -0.85270   0.82781    0.000
 3894.00   -0.60014   0.85191    0.000
 3895.00   -0.33546   0.87218    0.000
 3896.00    0.17698   0.88733    0.014
 3897.00    0.65684   0.90257    0.015
 3898.00    0.75127   0.92055    0.014
 3899.00    0.85682   0.93526    0.014
 3900.00    1.05284   0.94009    0.014
 3901.00    1.21552   0.93630    0.014
 3902.00    1.17455   0.93188    0.013
 3903.00    1.13947   0.93686    0.013
 3904.00    1.13273   0.95817    0.012
 3905.00    1.00582   0.99305    0.012
 3906.00    0.40834   1.02925    0.012
 3907.00   -0.09824   1.05585    0.000
 3908.00   -0.30850   1.07010    0.000
 3909.00   -0.28050   1.07377    0.000
 3910.00    0.40454   1.06974    0.013
 3911.00    1.02415   1.06204    0.013
 3912.00    1.48927   1.05380    0.014
 3913.00    1.79016   1.04446    0.014
 3914.00    1.75587   1.03141    0.014
 3915.00    1.49243   1.01350    0.015
 3916.00    0.82198   0.99233    0.015
 3917.00    0.25831   0.97253    0.015
 3918.00   -0.13945   0.96080    0.000
 3919.00   -0.20802   0.96024    0.000
 3920.00    0.17258   0.96594    0.015
 3921.00    0.45035   0.96768    0.015
 3922.00    0.60459   0.95668    0.015
 3923.00    0.40674   0.93012    0.015
 3924.00   -0.16400   0.89062    0.000
 3925.00   -0.08353   0.84287    0.000
 3926.00    0.60530   0.79018    0.015
 3927.00    0.91007   0.73360    0.016
 3928.00    0.89854   0.67361    0.016
 3929.00    0.90271   0.61454    0.016
 3930.00    0.91827   0.56881    0.016
 3931.00    0.88755   0.55340    0.016
 3932.00    0.82739   0.57755    0.016
 3933.00    0.93112   0.63449    0.016
 3934.00    1.12605   0.70620    0.016
 3935.00    0.61985   0.77552    0.016
 3936.00   -0.22577   0.83274    0.000
 3937.00    0.14655   0.87411    0.016
 3938.00    1.02807   0.89853    0.015
 3939.00    1.29993   0.90819    0.016
 3940.00    1.35371   0.91070    0.016
 3941.00    0.63903   0.91736    0.016
 3942.00   -0.30793   0.93479    0.000
 3943.00   -0.92879   0.95799    0.000
 3944.00   -1.46774   0.97576    0.000
 3945.00   -0.44062   0.98420    0.000
 3946.00    0.90585   0.98942    0.015
 3947.00    1.43450   0.99612    0.015
 3948.00    1.83219   1.00098    0.016
 3949.00    1.10613   1.00058    0.015
 3950.00    0.24590   0.99767    0.015
 3951.00    0.26398   0.99431    0.015
 3952.00    0.35358   0.98597    0.015
 3953.00    0.91163   0.96915    0.015
 3954.00    1.49120   0.94953    0.015
 3955.00    1.89751   0.93364    0.015
 3956.00    2.28479   0.91553    0.015
 3957.00    1.79366   0.88181    0.015
 3958.00    1.31850   0.82933    0.015
 3959.00    1.14600   0.76968    0.016
 3960.00    0.97792   0.71463    0.000
 3961.00    0.85954   0.66295    0.000
 3962.00    0.73082   0.60457    0.000
 3963.00    0.52076   0.53473    0.000
 3964.00    0.35702   0.46098    0.000
 3965.00    0.46807   0.39922    0.000
 3966.00    0.46898   0.36573    0.000
 3967.00   -0.04727   0.36943    0.000
 3968.00   -0.29547   0.40815    0.000
 3969.00    0.48355   0.47070    0.000
 3970.00    0.96083   0.54371    0.000
 3971.00    0.47363   0.61754    0.000
 3972.00    0.07580   0.68724    0.000
 3973.00   -0.08000   0.75096    0.000
 3974.00   -0.30504   0.80907    0.000
 3975.00   -0.69084   0.86261    0.000
 3976.00   -0.85183   0.90988    0.000
 3977.00   -0.56130   0.94563    0.000
 3978.00   -0.22199   0.96631    0.000
 3979.00    0.20264   0.97560    0.000
 3980.00    0.35305   0.98264    0.000
 3981.00    0.08364   0.99460    0.016
 3982.00    0.06125   1.01208    0.017
 3983.00    0.37108   1.03201    0.017
 3984.00    0.84984   1.05182    0.017
 3985.00    1.52867   1.06914    0.017
 3986.00    1.70406   1.08184    0.017
 3987.00    1.35375   1.09099    0.016
 3988.00    1.36272   1.10098    0.016
 3989.00    1.70259   1.11336    0.016
 3990.00    1.96224   1.12282    0.016
 3991.00    2.15676   1.12249    0.016
 3992.00    2.17541   1.11128    0.016
 3993.00    2.06840   1.09518    0.016
 3994.00    1.57334   1.08463    0.016
 3995.00    0.83496   1.08909    0.016
 3996.00    0.45641   1.10985    0.015
 3997.00    0.27506   1.13769    0.015
 3998.00    0.42052   1.15975    0.015
 3999.00    0.72166   1.16746    0.015
 4000.00    0.78108   1.15724    0.015
 4001.00    0.74116   1.13077    0.015
 4002.00    1.04891   1.09973    0.015
 4003.00    1.47877   1.08315    0.015
 4004.00    1.29279   1.09156    0.015
 4005.00    0.92434   1.11674    0.015
 4006.00    0.48712   1.14184    0.015
 4007.00    0.03299   1.15786    0.015
 4008.00    0.70077   1.16627    0.015
 4009.00    1.59160   1.17139    0.015
 4010.00    1.92847   1.17597    0.015
 4011.00    2.17926   1.18110    0.015
 4012.00    1.27545   1.18567    0.015
 4013.00    0.23887   1.18766    0.015
 4014.00    0.38861   1.18825    0.015
 4015.00    0.63006   1.19158    0.015
 4016.00    0.68718   1.19854    0.015
 4017.00    0.73653   1.20364    0.015
 4018.00    0.50105   1.20079    0.015
 4019.00    0.26958   1.18979    0.015
 4020.00    0.32807   1.17529    0.015
 4021.00    0.40394   1.16318    0.015
 4022.00    0.78632   1.15968    0.015
 4023.00    1.17711   1.16817    0.015
 4024.00    1.65844   1.18278    0.015
 4025.00    1.96560   1.18826    0.016
 4026.00    0.95065   1.17178    0.016
 4027.00   -0.03586   1.13525    0.000
 4028.00   -0.85826   1.09432    0.000
 4029.00   -1.14853   1.06647    0.000
 4030.00    1.00000   1.06044    0.016
 4031.00    2.54038   1.07587    0.016
 4032.00    1.79953   1.10868    0.016
 4033.00    1.05485   1.15164    0.016
 4034.00    0.29813   1.19239    0.015
 4035.00    0.00495   1.21770    0.015
 4036.00    0.94494   1.22231    0.015
 4037.00    1.53314   1.21269    0.015
 4038.00    1.31805   1.19900    0.016
 4039.00    1.06656   1.18203    0.016
 4040.00    0.74314   1.15220    0.016
 4041.00    0.77132   1.10583    0.016
 4042.00    1.40523   1.05972    0.016
 4043.00    1.35357   1.04155    0.016
 4044.00    0.26771   1.06325    0.016
 4045.00   -0.34371   1.10972    0.000
 4046.00   -0.32623   1.15463    0.000
 4047.00    0.27248   1.18146    0.016
 4048.00    1.54981   1.18810    0.016
 4049.00    1.74995   1.17907    0.016
 4050.00    0.84110   1.16060    0.016
 4051.00    1.02867   1.14013    0.016
 4052.00    2.21190   1.12306    0.016
 4053.00    2.18744   1.11044    0.016
 4054.00    1.19636   1.10257    0.016
 4055.00    0.86682   1.10256    0.016
 4056.00    1.00309   1.11201    0.015
 4057.00    1.06757   1.12304    0.015
 4058.00    1.08769   1.11980    0.015
 4059.00    1.08236   1.09477    0.015
 4060.00    1.06331   1.06138    0.015
 4061.00    1.14884   1.04248    0.015
 4062.00    1.28338   1.04754    0.015
 4063.00    1.00806   1.06782    0.015
 4064.00    0.56714   1.09115    0.015
 4065.00    0.73704   1.11106    0.015
 4066.00    1.11754   1.12126    0.015
 4067.00    1.28123   1.11476    0.015
 4068.00    1.38195   1.09599    0.015
 4069.00    0.99580   1.08209    0.015
 4070.00    0.49271   1.08304    0.014
 4071.00    1.07626   1.08767    0.015
 4072.00    1.87036   1.07686    0.015
 4073.00    2.09212   1.04783    0.015
 4074.00    2.22762   1.01955    0.015
 4075.00    1.40065   1.01431    0.015
 4076.00    0.46721   1.03831    0.015
 4077.00    0.68157   1.07791    0.015
 4078.00    0.97997   1.11056    0.015
 4079.00    1.22406   1.12115    0.015
 4080.00    1.46606   1.11068    0.015
 4081.00    0.78202   1.09256    0.015
 4082.00    0.11381   1.08242    0.015
 4083.00    0.23557   1.08785    0.015
 4084.00    0.39359   1.10449    0.015
 4085.00    1.14924   1.12033    0.015
 4086.00    1.77451   1.12433    0.015
 4087.00    1.05801   1.11320    0.015
 4088.00    0.44125   1.09174    0.015
 4089.00    0.55638   1.06744    0.015
 4090.00    0.61464   1.04289    0.015
 4091.00    0.35389   1.01381    0.015
 4092.00    0.18720   0.97610    0.000
 4093.00    0.44138   0.93184    0.000
 4094.00    0.58943   0.88647    0.000
 4095.00    0.34768   0.84111    0.000
 4096.00    0.32614   0.79058    0.000
 4097.00    0.98183   0.73437    0.000
 4098.00    1.43226   0.68709    0.000
 4099.00    1.34624   0.67033    0.000
 4100.00    1.20888   0.69398    0.000
 4101.00    0.95624   0.74846    0.000
 4102.00    0.81193   0.81306    0.000
 4103.00    0.87842   0.86981    0.000
 4104.00    0.98403   0.91077    0.000
 4105.00    1.15602   0.93605    0.000
 4106.00    1.29270   0.95062    0.000
 4107.00    1.37688   0.96190    0.000
 4108.00    1.23825   0.97650    0.000
 4109.00    0.80849   0.99740    0.000
 4110.00    0.71070   1.02286    0.000
 4111.00    0.99499   1.04830    0.000
 4112.00    1.13413   1.06875    0.000
 4113.00    1.12592   1.07942    0.015
 4114.00    1.18535   1.07765    0.015
 4115.00    1.30534   1.06696    0.015
 4116.00    0.76698   1.05646    0.015
 4117.00   -0.29082   1.05321    0.000
 4118.00   -0.34907   1.05734    0.000
 4119.00    0.28630   1.06553    0.015
 4120.00    0.96686   1.07635    0.015
 4121.00    1.67490   1.08887    0.015
 4122.00    1.49074   1.09820    0.015
 4123.00    0.83258   1.09836    0.015
 4124.00    1.06115   1.08897    0.015
 4125.00    1.69859   1.07593    0.016
 4126.00    1.35535   1.06375    0.015
 4127.00    0.62268   1.05111    0.015
 4128.00    0.76392   1.03592    0.015
 4129.00    1.20092   1.02267    0.015
 4130.00    1.30543   1.02062    0.015
 4131.00    1.31534   1.03588    0.015
 4132.00    1.26483   1.06471    0.015
 4133.00    1.20015   1.09565    0.015
 4134.00    0.98927   1.12015    0.015
 4135.00    0.75081   1.13588    0.015
 4136.00    0.08359   1.14220    0.014
 4137.00   -0.64624   1.13544    0.000
 4138.00   -0.26923   1.10975    0.000
 4139.00    0.22540   1.06814    0.014
 4140.00    1.30819   1.02946    0.015
 4141.00    2.43166   1.01527    0.015
 4142.00    2.31823   1.03051    0.015
 4143.00    2.16214   1.06059    0.015
 4144.00    2.17575   1.08527    0.015
 4145.00    2.17225   1.09397    0.015
 4146.00    1.59262   1.09010    0.014
 4147.00    1.01731   1.08265    0.014
 4148.00    0.50881   1.07640    0.014
 4149.00    0.04893   1.07062    0.014
 4150.00    0.06830   1.06301    0.014
 4151.00    0.12214   1.05441    0.014
 4152.00    0.42068   1.04862    0.014
 4153.00    0.75772   1.04954    0.014
 4154.00    1.30500   1.05946    0.015
 4155.00    1.72353   1.07647    0.015
 4156.00    1.57932   1.09509    0.015
 4157.00    1.26913   1.11055    0.014
 4158.00    0.36195   1.12208    0.014
 4159.00   -0.25731   1.13040    0.000
 4160.00   -0.00777   1.13417    0.000
 4161.00    0.24138   1.13141    0.014
 4162.00    0.48957   1.12149    0.014
 4163.00    0.58077   1.10727    0.014
 4164.00    0.32518   1.09548    0.014
 4165.00    0.33737   1.09089    0.014
 4166.00    0.86251   1.08936    0.014
 4167.00    0.83018   1.08000    0.015
 4168.00   -0.13386   1.05610    0.000
 4169.00   -0.45396   1.02533    0.000
 4170.00    0.16923   1.00405    0.014
 4171.00    0.36952   1.00131    0.014
 4172.00    0.02516   1.01173    0.014
 4173.00   -0.20678   1.02275    0.000
 4174.00   -0.31113   1.02837    0.000
 4175.00    0.03335   1.03303    0.015
 4176.00    0.82706   1.04143    0.015
 4177.00    1.27412   1.05077    0.015
 4178.00    1.41521   1.05622    0.015
 4179.00    1.28052   1.05875    0.015
 4180.00    0.93136   1.06342    0.015
 4181.00    0.96227   1.07161    0.015
 4182.00    1.25310   1.07607    0.015
 4183.00    1.05042   1.06975    0.015
 4184.00    0.55194   1.05827    0.015
 4185.00    0.39697   1.05381    0.015
 4186.00    0.42165   1.06083    0.015
 4187.00    0.67252   1.07410    0.015
 4188.00    1.02598   1.08806    0.015
 4189.00    1.49434   1.10087    0.015
 4190.00    2.00753   1.10828    0.015
 4191.00    1.32710   1.10305    0.015
 4192.00    0.25021   1.08293    0.015
 4193.00   -0.46314   1.05405    0.000
 4194.00   -1.07518   1.02606    0.000
 4195.00   -0.60238   1.00744    0.000
 4196.00    0.11929   1.00113    0.015
 4197.00    0.59231   1.00254    0.015
 4198.00    1.01964   1.00661    0.015
 4199.00    0.98319   1.01339    0.015
 4200.00    0.88115   1.02494    0.014
 4201.00    0.65614   1.04183    0.014
 4202.00    0.41858   1.06228    0.014
 4203.00    0.56369   1.08241    0.014
 4204.00    0.73374   1.09827    0.014
 4205.00    0.76993   1.10669    0.014
 4206.00    0.80198   1.10779    0.014
 4207.00    0.81838   1.10669    0.014
 4208.00    0.84006   1.10738    0.014
 4209.00    1.01677   1.10648    0.014
 4210.00    1.21015   1.09634    0.014
 4211.00    1.64609   1.07477    0.014
 4212.00    1.98687   1.05324    0.014
 4213.00    1.42787   1.04905    0.014
 4214.00    0.95230   1.06725    0.014
 4215.00    1.05020   1.09715    0.014
 4216.00    1.10536   1.12351    0.014
 4217.00    0.93332   1.13636    0.014
 4218.00    0.78511   1.13155    0.014
 4219.00    0.73861   1.10760    0.014
 4220.00    0.67432   1.06473    0.014
 4221.00    0.54735   1.00662    0.014
 4222.00    0.33773   0.94460    0.014
 4223.00   -0.11662   0.90014    0.000
 4224.00   -0.27479   0.89576    0.000
 4225.00    0.31448   0.93519    0.013
 4226.00    0.84350   0.99768    0.013
 4227.00    1.24162   1.05374    0.013
 4228.00    1.38439   1.08253    0.013
 4229.00    1.04561   1.08160    0.013
 4230.00    0.87749   1.06470    0.013
 4231.00    0.99035   1.04674    0.013
 4232.00    0.95940   1.03433    0.013
 4233.00    0.72084   1.02937    0.013
 4234.00    0.55198   1.03131    0.012
 4235.00    0.47161   1.03827    0.012
 4236.00    0.82121   1.04990    0.012
 4237.00    1.65187   1.06588    0.012
 4238.00    1.98276   1.08374    0.013
 4239.00    1.82048   1.10095    0.012
 4240.00    1.63028   1.11642    0.013
 4241.00    1.41576   1.12637    0.013
 4242.00    1.34342   1.12379    0.013
 4243.00    1.38006   1.10593    0.013
 4244.00    1.26788   1.07853    0.013
 4245.00    1.05542   1.05088    0.013
 4246.00    0.91222   1.02934    0.013
 4247.00    0.80993   1.01845    0.014
 4248.00    0.80124   1.02021    0.014
 4249.00    0.84075   1.02852    0.014
 4250.00    0.98611   1.03384    0.014
 4251.00    1.17870   1.03518    0.014
 4252.00    0.96205   1.04045    0.014
 4253.00    0.58848   1.05264    0.014
 4254.00    0.52230   1.06133    0.013
 4255.00    0.55629   1.05395    0.013
 4256.00    0.09952   1.03209    0.013
 4257.00   -0.49123   1.01278    0.000
 4258.00   -0.20245   1.01493    0.000
 4259.00    0.28343   1.04249    0.013
 4260.00    0.52074   1.08196    0.013
 4261.00    0.71361   1.11562    0.014
 4262.00    1.02857   1.13268    0.014
 4263.00    1.36024   1.13030    0.014
 4264.00    1.40291   1.11112    0.014
 4265.00    1.41736   1.08002    0.014
 4266.00    1.18249   1.04032    0.014
 4267.00    0.93238   0.99555    0.014
 4268.00    1.01511   0.95532    0.014
 4269.00    1.10619   0.93246    0.014
 4270.00    1.07189   0.93135    0.014
 4271.00    1.04005   0.94757    0.013
 4272.00    1.07331   0.97690    0.014
 4273.00    1.08458   1.01459    0.014
 4274.00    0.79337   1.05088    0.014
 4275.00    0.50372   1.07359    0.014
 4276.00    0.22824   1.07625    0.014
 4277.00    0.14267   1.06459    0.014
 4278.00    1.32212   1.05075    0.014
 4279.00    2.32662   1.04234    0.014
 4280.00    2.42543   1.03934    0.014
 4281.00    2.36292   1.03640    0.014
 4282.00    1.62692   1.02905   -2.000
 4283.00    0.96632   1.01689   -2.000
 4284.00    0.56603   0.99892   -2.000
 4285.00    0.13784   0.97385   -2.000
 4286.00   -0.37144   0.94757   -2.000
 4287.00   -0.34691   0.93431   -2.000
 4288.00    1.00166   0.94352   -2.000
 4289.00    2.03317   0.96803   -2.000
 4290.00    2.38688   0.99025   -2.000
 4291.00    2.50142   0.99864   -2.000
 4292.00    2.17191   0.99365   -2.000
 4293.00    1.60100   0.97789   -2.000
 4294.00    0.63859   0.95095   -2.000
 4295.00    0.22399   0.91374   -2.000
 4296.00    0.58871   0.87447   -2.000
 4297.00    0.93991   0.84700   -2.000
 4298.00    1.27418   0.83804    0.014
 4299.00    1.29765   0.84319    0.014
 4300.00    0.97827   0.85475    0.014
 4301.00    0.82564   0.86451    0.014
 4302.00    0.83526   0.86504    0.014
 4303.00    1.03702   0.85400    0.014
 4304.00    1.40363   0.83606    0.014
 4305.00    1.21717   0.82304    0.014
 4306.00    0.61276   0.82631    0.014
 4307.00    0.63122   0.84701    0.014
 4308.00    1.06333   0.87707    0.014
 4309.00    1.34470   0.90767    0.014
 4310.00    1.53842   0.93697    0.014
 4311.00    1.67847   0.97083    0.014
 4312.00    1.79131   1.01502    0.014
 4313.00    1.77140   1.06415    0.014
 4314.00    1.69324   1.10245    0.014
 4315.00    1.47540   1.11847    0.013
 4316.00    1.20494   1.11257    0.013
 4317.00    1.05664   1.09205    0.013
 4318.00    0.94740   1.06309    0.013
 4319.00    0.96937   1.02549    0.013
 4320.00    1.02640   0.97639    0.013
 4321.00    1.10600   0.92283    0.013
 4322.00    1.19055   0.88417    0.013
 4323.00    1.04403   0.88029    0.013
 4324.00    0.85731   0.91312    0.013
 4325.00    0.90731   0.96097    0.013
 4326.00    0.98862   0.99717    0.014
 4327.00    1.50510   1.01077    0.014
 4328.00    2.06223   1.00899    0.013
 4329.00    2.12721   1.00302    0.013
 4330.00    2.16405   0.99617    0.000
 4331.00    1.80207   0.98362    0.000
 4332.00    1.42887   0.95569    0.000
 4333.00    0.83276   0.90387    0.000
 4334.00    0.28340   0.83048    0.000
 4335.00    0.85640   0.75191    0.000
 4336.00    1.37411   0.68862    0.000
 4337.00    1.17209   0.65763    0.000
 4338.00    0.97242   0.66808    0.000
 4339.00    0.79333   0.71260    0.000
 4340.00    0.69823   0.77106    0.000
 4341.00    1.14572   0.82744    0.000
 4342.00    1.50593   0.87599    0.000
 4343.00    1.42590   0.91590    0.000
 4344.00    1.20043   0.94832    0.000
 4345.00    0.38130   0.97220    0.000
 4346.00   -0.13579   0.98038    0.000
 4347.00    0.36901   0.96680    0.000
 4348.00    0.85996   0.93986    0.000
 4349.00    1.31139   0.92210    0.000
 4350.00    1.59586   0.92971    0.000
 4351.00    1.47326   0.95843    0.013
 4352.00    1.36936   0.99324    0.013
 4353.00    1.30477   1.02174    0.013
 4354.00    1.28008   1.03720    0.013
 4355.00    1.32835   1.04050    0.013
 4356.00    1.36344   1.04104    0.013
 4357.00    1.37746   1.04945    0.013
 4358.00    1.56145   1.06718    0.013
 4359.00    1.98371   1.08770    0.013
 4360.00    1.99540   1.10501    0.013
 4361.00    1.50051   1.11637    0.013
 4362.00    1.14717   1.11781    0.013
 4363.00    0.94777   1.10564    0.013
 4364.00    1.02208   1.08420    0.013
 4365.00    1.35896   1.06492    0.013
 4366.00    1.56430   1.05584    0.013
 4367.00    1.65839   1.05505    0.013
 4368.00    1.74710   1.05461    0.013
 4369.00    1.83180   1.04613    0.013
 4370.00    1.51194   1.02713    0.013
 4371.00    0.92735   1.00595    0.012
 4372.00    0.55677   0.99801    0.012
 4373.00    0.30875   1.01197    0.012
 4374.00    0.68975   1.04030    0.012
 4375.00    1.38451   1.06514    0.012
 4376.00    1.41596   1.07194    0.012
 4377.00    1.16117   1.05492    0.012
 4378.00    1.17430   1.01452    0.012
 4379.00    1.28658   0.95695    0.013
 4380.00    1.17547   0.90025    0.013
 4381.00    0.99432   0.87090    0.013
 4382.00    0.82574   0.88190    0.013
 4383.00    0.66044   0.92023    0.013
 4384.00    0.53439   0.96008    0.012
 4385.00    0.41672   0.98549    0.012
 4386.00    0.58019   0.99707    0.012
 4387.00    0.79121   1.00307    0.012
 4388.00    1.27413   1.01027    0.012
 4389.00    1.79178   1.01857    0.012
 4390.00    1.19485   1.02373    0.012
 4391.00    0.49846   1.02636    0.012
 4392.00    0.30984   1.03389    0.013
 4393.00    0.14826   1.05077    0.013
 4394.00    0.33785   1.06832    0.012
 4395.00    0.53283   1.07257    0.012
 4396.00    0.60598   1.06072    0.012
 4397.00    0.70098   1.04239    0.012
 4398.00    1.27624   1.02870    0.013
 4399.00    1.77880   1.01881    0.013
 4400.00    1.38308   1.00204    0.013
 4401.00    1.02711   0.97781    0.013
 4402.00    1.00554   0.96091    0.013
 4403.00    1.03378   0.96194    0.013
 4404.00    1.37424   0.97643    0.013
 4405.00    1.59720   0.99807    0.013
 4406.00    1.24222   1.02662    0.013
 4407.00    1.00872   1.05926    0.013
 4408.00    1.26020   1.08582    0.013
 4409.00    1.40560   1.09517    0.012
 4410.00    1.19922   1.08133    0.013
 4411.00    1.07195   1.04940    0.013
 4412.00    1.16633   1.01810    0.013
 4413.00    1.30618   1.00749    0.013
 4414.00    1.55498   1.02162    0.013
 4415.00    1.73466   1.05028    0.013
 4416.00    1.77128   1.07790    0.013
 4417.00    1.70440   1.09045    0.013
 4418.00    1.45120   1.08459    0.013
 4419.00    1.24015   1.06913    0.013
 4420.00    1.09548   1.05736    0.013
 4421.00    1.09860   1.05475    0.013
 4422.00    1.30595   1.05705    0.012
 4423.00    1.41634   1.05979    0.013
 4424.00    1.40880   1.06163    0.013
 4425.00    1.18668   1.06228    0.013
 4426.00    0.73447   1.06024    0.013
 4427.00    0.68811   1.05506    0.013
 4428.00    1.02563   1.04987    0.013
 4429.00    1.48007   1.04296    0.013
 4430.00    2.03202   1.02906    0.013
 4431.00    1.99637   1.01168    0.013
 4432.00    1.52934   1.00354    0.013
 4433.00    1.68019   1.01590    0.013
 4434.00    2.22940   1.04621    0.013
 4435.00    2.10869   1.07794    0.013
 4436.00    1.61010   1.09361    0.013
 4437.00    1.32405   1.08514    0.013
 4438.00    1.14233   1.05883    0.013
 4439.00    1.23596   1.03215    0.013
 4440.00    1.44642   1.02191    0.013
 4441.00    1.37577   1.03390    0.013
 4442.00    1.20296   1.05952    0.013
 4443.00    1.06159   1.08309    0.013
 4444.00    0.92988   1.09522    0.013
 4445.00    1.14222   1.09763    0.013
 4446.00    1.44265   1.09431    0.013
 4447.00    0.84554   1.08721    0.013
 4448.00    0.06138   1.07795    0.013
 4449.00    0.79473   1.06365    0.013
 4450.00    1.77740   1.04038    0.013
 4451.00    1.73205   1.01146    0.013
 4452.00    1.55996   0.98714    0.013
 4453.00    1.06549   0.97595    0.013
 4454.00    0.54360   0.97540    0.013
 4455.00    0.84095   0.97691    0.013
 4456.00    1.17873   0.97570    0.012
 4457.00    0.77003   0.97347    0.013
 4458.00    0.36468   0.97507    0.013
 4459.00    0.91458   0.98550    0.013
 4460.00    1.44309   1.00494    0.012
 4461.00    1.53816   1.02448    0.000
 4462.00    1.58607   1.03553    0.000
 4463.00    1.07960   1.03672    0.000
 4464.00    0.62880   1.03090    0.000
 4465.00    0.62948   1.02276    0.000
 4466.00    0.76060   1.01805    0.000
 4467.00    1.68552   1.02284    0.000
 4468.00    2.34840   1.03898    0.000
 4469.00    1.75420   1.06237    0.000
 4470.00    1.21614   1.08599    0.000
 4471.00    0.89736   1.10417    0.000
 4472.00    0.74070   1.11562    0.000
 4473.00    1.11114   1.12201    0.000
 4474.00    1.44336   1.12141    0.000
 4475.00    1.67042   1.10683    0.000
 4476.00    1.74443   1.07569    0.000
 4477.00    1.45783   1.03781    0.000
 4478.00    1.19139   1.01184    0.000
 4479.00    0.96601   1.01215    0.000
 4480.00    0.93764   1.03777    0.000
 4481.00    1.25851   1.07378    0.000
 4482.00    1.46475   1.10223    0.013
 4483.00    1.49323   1.11201    0.013
 4484.00    1.52362   1.10159    0.013
 4485.00    1.55663   1.07867    0.013
 4486.00    1.73796   1.05706    0.013
 4487.00    2.09714   1.04795    0.013
 4488.00    1.91710   1.05172    0.013
 4489.00    1.16699   1.05829    0.013
 4490.00    1.02740   1.05736    0.013
 4491.00    1.45713   1.04825    0.013
 4492.00    1.49370   1.04086    0.012
 4493.00    1.20706   1.04444    0.013
 4494.00    1.38492   1.05927    0.013
 4495.00    1.89889   1.07762    0.012
 4496.00    1.56546   1.09019    0.012
 4497.00    0.69373   1.09507    0.012
 4498.00    0.58571   1.09915    0.012
 4499.00    0.90189   1.11137    0.012
 4500.00    1.03912   1.13193    0.012
 4501.00    1.08990   1.15031    0.012
 4502.00    1.16411   1.15695    0.012
 4503.00    1.24810   1.15144    0.012
 4504.00    1.26594   1.14083    0.013
 4505.00    1.26017   1.13334    0.013
 4506.00    1.13864   1.13174    0.012
 4507.00    0.98221   1.13196    0.012
 4508.00    1.21191   1.12754    0.012
 4509.00    1.53833   1.11558    0.012
 4510.00    1.46244   1.09994    0.012
 4511.00    1.30477   1.08686    0.013
 4512.00    1.03748   1.07969    0.013
 4513.00    0.75270   1.07790    0.012
 4514.00    0.89928   1.07901    0.012
 4515.00    1.09713   1.08232    0.012
 4516.00    0.88864   1.08844    0.012
 4517.00    0.64727   1.09374    0.012
 4518.00    1.05726   1.09297    0.012
 4519.00    1.49687   1.08353    0.012
 4520.00    1.02727   1.06744    0.012
 4521.00    0.56104   1.04869    0.012
 4522.00    0.83609   1.02739    0.012
 4523.00    1.08894   1.00382    0.012
 4524.00    0.92518   0.98180    0.012
 4525.00    0.81098   0.96711    0.012
 4526.00    1.25195   0.96379    0.012
 4527.00    1.58083   0.97093    0.012
 4528.00    1.03253   0.98121    0.012
 4529.00    0.63306   0.98675    0.012
 4530.00    1.11363   0.98480    0.012
 4531.00    1.43953   0.98242    0.012
 4532.00    1.04143   0.99187    0.012
 4533.00    0.69899   1.01708    0.012
 4534.00    0.56924   1.04870    0.012
 4535.00    0.56337   1.07057    0.012
 4536.00    0.95246   1.07524    0.012
 4537.00    1.16283   1.06894    0.012
 4538.00    0.89028   1.06234    0.012
 4539.00    0.81807   1.06022    0.012
 4540.00    1.21009   1.05958    0.012
 4541.00    1.43886   1.05596    0.013
 4542.00    1.34036   1.04930    0.012
 4543.00    1.09293   1.04162    0.012
 4544.00    0.58546   1.03226    0.012
 4545.00    0.47137   1.02162    0.012
 4546.00    0.95842   1.01350    0.012
 4547.00    1.17700   1.01203    0.012
 4548.00    1.03519   1.01584    0.012
 4549.00    0.82561   1.01732    0.012
 4550.00    0.53591   1.01333    0.000
 4551.00    0.42090   1.00931    0.000
 4552.00    0.48795   1.01364    0.000
 4553.00    0.75928   1.02983    0.000
 4554.00    1.21845   1.05343    0.000
 4555.00    1.30022   1.07548    0.000
 4556.00    1.07613   1.09013    0.000
 4557.00    1.08383   1.09594    0.000
 4558.00    1.25683   1.09233    0.000
 4559.00    1.18958   1.07947    0.000
 4560.00    0.97196   1.06073    0.000
 4561.00    0.62740   1.04488    0.000
 4562.00    0.21342   1.04176    0.000
 4563.00    0.43589   1.05324    0.000
 4564.00    0.96092   1.07170    0.000
 4565.00    0.83932   1.08499    0.000
 4566.00    0.45251   1.08491    0.000
 4567.00    0.64787   1.07408    0.000
 4568.00    1.04723   1.06262    0.000
 4569.00    1.17991   1.06006    0.000
 4570.00    1.23377   1.06803    0.000
 4571.00    1.04779   1.07884    0.000
 4572.00    0.80307   1.08453    0.000
 4573.00    0.87229   1.08254    0.000
 4574.00    1.00372   1.07279    0.000
 4575.00    1.07268   1.05621    0.000
 4576.00    1.13197   1.03637    0.000
 4577.00    0.65927   1.01969    0.000
 4578.00    0.12569   1.01081    0.000
 4579.00    0.26294   1.00929    0.000
 4580.00    0.45170   1.01098    0.000
 4581.00    0.62325   1.01326    0.000
 4582.00    0.79409   1.01788    0.000
 4583.00    1.61418   1.02720    0.000
 4584.00    2.40006   1.04092    0.000
 4585.00    1.47429   1.05436    0.000
 4586.00    0.61930   1.06097    0.000
 4587.00    1.00115   1.05749    0.000
 4588.00    1.32929   1.04654    0.000
 4589.00    1.08278   1.03420    0.000
 4590.00    0.84260   1.02525    0.000
 4591.00    0.65025   1.02073    0.000
 4592.00    0.47325   1.01947    0.000
 4593.00    0.38441   1.02083    0.000
 4594.00    0.37338   1.02420    0.000
 4595.00    0.71786   1.02729    0.000
 4596.00    0.95116   1.02835    0.000
 4597.00    0.76851   1.02736    0.000
 4598.00    0.69440   1.02635    0.000
 4599.00    0.95975   1.02722    0.000
 4600.00    1.21386   1.02912    0.000
 4601.00    1.43813   1.03179    0.000
 4602.00    1.53503   1.03734    0.000
 4603.00    1.34167   1.04893    0.000
 4604.00    1.29814   1.06647    0.000
 4605.00    1.55020   1.08443    0.000
 4606.00    1.43341   1.09525    0.000
 4607.00    0.68240   1.09504    0.000
 4608.00    0.40366   1.08641    0.000
 4609.00    0.83604   1.07639    0.000
 4610.00    1.21654   1.07070    0.000
 4611.00    1.52837   1.07039    0.000
 4612.00    1.61040   1.07307    0.000
 4613.00    1.42463   1.07472    0.000
 4614.00    1.22002   1.07334    0.000
 4615.00    0.99605   1.07021    0.000
 4616.00    1.10188   1.06834    0.000
 4617.00    1.50667   1.07029    0.000
 4618.00    1.56749   1.07534    0.000
 4619.00    1.35350   1.07974    0.000
 4620.00    1.07634   1.08074    0.000
 4621.00    0.75477   1.07838    0.000
 4622.00    1.14228   1.07406    0.000
 4623.00    1.96697   1.06938    0.000
 4624.00    1.81894   1.06518    0.000
 4625.00    1.14705   1.06197    0.000
 4626.00    0.96577   1.06085    0.000
 4627.00    1.01394   1.06215    0.000
 4628.00    0.92369   1.06322    0.000
 4629.00    0.77764   1.06002    0.000
 4630.00    0.96248   1.05194    0.000
 4631.00    1.26115   1.04246    0.000
 4632.00    1.15488   1.03416    0.000
 4633.00    0.93131   1.02649    0.000
 4634.00    1.09752   1.01844    0.000
 4635.00    1.35709   1.01152    0.000
 4636.00    1.14380   1.00918    0.000
 4637.00    0.83918   1.01292    0.000
 4638.00    0.92476   1.02007    0.000
 4639.00    1.06891   1.02467    0.000
 4640.00    0.94243   1.02102    0.000
 4641.00    0.78617   1.00764    0.000
 4642.00    0.77939   0.98830    0.000
 4643.00    0.78349   0.97020    0.000
 4644.00    0.96924   0.96127    0.000
 4645.00    1.16186   0.96565    0.000
 4646.00    1.68015   0.98091    0.000
 4647.00    2.16629   1.00014    0.000
 4648.00    1.40027   1.01590    0.000
 4649.00    0.69598   1.02306    0.000
 4650.00    1.00059   1.02053    0.000
 4651.00    1.26857   1.01199    0.000
 4652.00    1.16159   1.00527    0.000
 4653.00    1.05411   1.00839    0.000
 4654.00    0.94302   1.02380    0.000
 4655.00    0.90523   1.04601    0.000
 4656.00    1.27724   1.06442    0.000
 4657.00    1.54652   1.07005    0.000
 4658.00    1.35740   1.06104    0.000
 4659.00    1.15760   1.04246    0.000
 4660.00    0.91867   1.02067    0.000
 4661.00    0.67661   0.99778    0.000
 4662.00    0.42493   0.97263    0.000
 4663.00    0.21990   0.94706    0.000
 4664.00    0.13650   0.92922    0.000
 4665.00    0.17470   0.92808    0.000
 4666.00    0.48544   0.94448    0.000
 4667.00    0.76653   0.96938    0.000
 4668.00    0.99007   0.99127    0.000
 4669.00    1.05904   1.00434    0.000
 4670.00    0.86627   1.01057    0.000
 4671.00    0.72223   1.01534    0.000
 4672.00    0.65052   1.02096    0.000
 4673.00    0.59900   1.02433    0.000
 4674.00    0.57384   1.02090    0.000
 4675.00    0.77010   1.00997    0.000
 4676.00    1.22078   0.99613    0.000
 4677.00    1.39414   0.98581    0.000
 4678.00    1.28648   0.98321    0.000
 4679.00    1.21304   0.98846    0.000
 4680.00    1.17018   0.99794    0.000
 4681.00    0.97517   1.00652    0.000
 4682.00    0.66034   1.01064    0.000
 4683.00    0.71683   1.01000    0.000
 4684.00    1.03053   1.00668    0.000
 4685.00    1.07318   1.00296    0.000
 4686.00    0.95122   0.99985    0.000
 4687.00    0.78928   0.99765    0.000
 4688.00    0.60615   0.99729    0.000
 4689.00    0.55710   1.00033    0.000
 4690.00    0.56974   1.00726    0.000
 4691.00    0.83285   1.01585    0.000
 4692.00    1.19521   1.02136    0.000
 4693.00    1.15389   1.01892    0.000
 4694.00    0.97627   1.00728    0.000
 4695.00    1.09977   0.99070    0.000
 4696.00    1.30871   0.97549    0.000
 4697.00    1.38518   0.96475    0.000
 4698.00    1.43064   0.95793    0.000
 4699.00    1.32244   0.95454    0.000
 4700.00    1.18534   0.95579    0.000
 4701.00    1.24284   0.96106    0.000
 4702.00    1.32863   0.96600    0.000
 4703.00    1.22654   0.96622    0.000
 4704.00    1.10457   0.96240    0.000
 4705.00    0.85865   0.95999    0.000
 4706.00    0.60421   0.96404    0.000
 4707.00    0.91851   0.97411    0.000
 4708.00    1.25215   0.98421    0.000
 4709.00    1.05982   0.98833    0.000
 4710.00    0.86913   0.98622    0.000
 4711.00    0.75804   0.98420    0.000
 4712.00    0.65782   0.98910    0.000
 4713.00    0.72454   1.00199    0.000
 4714.00    0.79728   1.01845    0.000
 4715.00    0.92905   1.03306    0.000
 4716.00    1.03969   1.04267    0.000
 4717.00    1.00090   1.04658    0.000
 4718.00    0.99259   1.04612    0.000
 4719.00    1.15013   1.04428    0.000
 4720.00    1.18245   1.04317    0.000
 4721.00    0.66904   1.04074    0.000
 4722.00    0.28955   1.03157    0.000
 4723.00    0.39046   1.01241    0.000
 4724.00    0.60738   0.98712    0.000
 4725.00    1.17348   0.96467    0.000
 4726.00    1.54358   0.95248    0.000
 4727.00    1.41143   0.95220    0.000
 4728.00    1.37891   0.96065    0.000
 4729.00    1.56602   0.97288    0.000
 4730.00    1.61377   0.98413    0.000
 4731.00    1.39509   0.99108    0.000
 4732.00    1.23729   0.99297    0.000
 4733.00    1.18102   0.99289    0.000
 4734.00    1.12020   0.99498    0.000
 4735.00    1.05271   0.99982    0.000
 4736.00    0.88434   1.00453    0.000
 4737.00    0.58628   1.00674    0.000
 4738.00    0.56095   1.00760    0.000
 4739.00    0.84459   1.00947    0.000
 4740.00    1.13155   1.01253    0.000
 4741.00    1.42183   1.01578    0.000
 4742.00    1.51616   1.01916    0.000
 4743.00    1.43782   1.02285    0.000
 4744.00    1.20459   1.02616    0.000
 4745.00    0.85109   1.02789    0.000
 4746.00    0.72087   1.02718    0.000
 4747.00    0.74307   1.02345    0.000
 4748.00    1.04060   1.01622    0.000
 4749.00    1.50286   1.00633    0.000
 4750.00    1.63261   0.99590    0.000
 4751.00    1.58878   0.98768    0.000
 4752.00    1.29740   0.98330    0.000
 4753.00    0.89395   0.98325    0.000
 4754.00    0.84119   0.98671    0.000
 4755.00    0.92497   0.99109    0.000
 4756.00    1.10850   0.99253    0.000
 4757.00    1.32509   0.98738    0.000
 4758.00    1.19688   0.97509    0.000
 4759.00    0.97281   0.95909    0.000
 4760.00    1.01482   0.94392    0.000
 4761.00    1.11769   0.93314    0.010
 4762.00    0.99638   0.92903    0.010
 4763.00    0.83401   0.93309    0.010
 4764.00    0.86586   0.94475    0.010
 4765.00    0.92506   0.96009    0.010
 4766.00    1.08088   0.97305    0.010
 4767.00    1.24650   0.97953    0.010
 4768.00    1.27858   0.98113    0.010
 4769.00    1.30203   0.98309    0.011
 4770.00    1.22988   0.98922    0.011
 4771.00    1.15467   0.99835    0.011
 4772.00    0.99430   1.00649    0.011
 4773.00    0.83354   1.01114    0.011
 4774.00    0.66175   1.01178    0.011
 4775.00    0.50157   1.00899    0.011
 4776.00    0.50925   1.00350    0.011
 4777.00    0.52773   0.99599    0.011
 4778.00    0.64782   0.98709    0.010
 4779.00    0.77468   0.97772    0.010
 4780.00    0.94793   0.96957    0.010
 4781.00    1.11280   0.96367    0.010
 4782.00    1.23329   0.95944    0.010
 4783.00    1.25544   0.95664    0.010
 4784.00    0.85881   0.95544    0.010
 4785.00    0.57457   0.95606    0.010
 4786.00    0.68525   0.95929    0.010
 4787.00    0.82047   0.96580    0.010
 4788.00    1.02819   0.97653    0.010
 4789.00    1.18227   0.99131    0.010
 4790.00    1.20129   1.00719    0.010
 4791.00    1.21758   1.01924    0.010
 4792.00    1.22794   1.02273    0.010
 4793.00    1.19089   1.01609    0.010
 4794.00    1.06462   1.00224    0.010
 4795.00    0.95600   0.98754    0.010
 4796.00    0.87639   0.97874    0.010
 4797.00    0.95037   0.97921    0.010
 4798.00    1.24566   0.98655    0.010
 4799.00    1.37655   0.99390    0.010
 4800.00    1.29907   0.99511    0.010
 4801.00    1.12124   0.98881    0.010
 4802.00    0.83132   0.97887    0.010
 4803.00    0.78546   0.96974    0.010
 4804.00    0.98002   0.96428    0.011
 4805.00    1.03400   0.96338    0.011
 4806.00    0.96587   0.96610    0.010
 4807.00    0.93459   0.97046    0.010
 4808.00    0.93150   0.97452    0.010
 4809.00    0.94315   0.97764    0.010
 4810.00    0.96472   0.98080    0.010
 4811.00    1.01596   0.98516    0.010
 4812.00    1.08468   0.99110    0.010
 4813.00    0.98744   0.99795    0.010
 4814.00    0.80492   1.00417    0.010
 4815.00    0.79792   1.00807    0.010
 4816.00    0.86909   1.00744    0.010
 4817.00    1.05935   1.00052    0.011
 4818.00    1.29517   0.98714    0.011
 4819.00    1.17177   0.97011    0.011
 4820.00    0.93157   0.95622    0.011
 4821.00    1.05493   0.95126    0.011
 4822.00    1.27728   0.95472    0.011
 4823.00    1.19652   0.96098    0.011
 4824.00    1.04804   0.96404    0.010
 4825.00    0.98773   0.96222    0.010
 4826.00    0.94313   0.95756    0.011
 4827.00    0.89159   0.95202    0.010
 4828.00    0.83910   0.94756    0.010
 4829.00    0.78770   0.94651    0.010
 4830.00    0.73641   0.94939    0.010
 4831.00    0.71751   0.95419    0.010
 4832.00    0.70059   0.95723    0.011
 4833.00    1.07392   0.95585    0.011
 4834.00    1.45310   0.94949    0.011
 4835.00    1.02168   0.93962    0.011
 4836.00    0.61472   0.92934    0.010
 4837.00    0.84613   0.92180    0.010
 4838.00    1.06692   0.91837    0.011
 4839.00    1.14265   0.91852    0.011
 4840.00    1.18855   0.92167    0.010
 4841.00    0.96482   0.92620    0.010
 4842.00    0.78680   0.92866    0.010
 4843.00    0.91205   0.92566    0.010
 4844.00    0.94995   0.91693    0.010
 4845.00    0.53718   0.90673    0.010
 4846.00    0.27787   0.89976    0.010
 4847.00    0.65742   0.89571    0.010
 4848.00    0.94986   0.89020    0.000
 4849.00    0.94237   0.87858    0.000
 4850.00    0.90370   0.85911    0.000
 4851.00    0.77461   0.83485    0.000
 4852.00    0.77343   0.81132    0.000
 4853.00    1.08883   0.79029    0.000
 4854.00    1.26237   0.76667    0.000
 4855.00    1.13324   0.73384    0.000
 4856.00    1.09148   0.69230    0.000
 4857.00    1.21162   0.65405    0.000
 4858.00    1.22652   0.63644    0.000
 4859.00    1.07108   0.64754    0.000
 4860.00    0.99584   0.68073    0.000
 4861.00    1.03448   0.72287    0.000
 4862.00    1.07203   0.76192    0.000
 4863.00    1.10821   0.79212    0.000
 4864.00    1.07552   0.81165    0.000
 4865.00    0.96698   0.82006    0.000
 4866.00    0.96915   0.81801    0.000
 4867.00    1.07884   0.80991    0.000
 4868.00    1.03820   0.80464    0.000
 4869.00    0.86882   0.80912    0.000
 4870.00    1.06144   0.82335    0.000
 4871.00    1.52712   0.84197    0.000
 4872.00    1.61279   0.85985    0.000
 4873.00    1.44658   0.87577    0.000
 4874.00    1.13974   0.89015    0.000
 4875.00    0.75127   0.90326    0.010
 4876.00    0.81293   0.91183    0.010
 4877.00    1.10225   0.91340    0.010
 4878.00    0.99688   0.90955    0.010
 4879.00    0.71867   0.90302    0.010
 4880.00    0.61741   0.89529    0.010
 4881.00    0.58265   0.88671    0.009
 4882.00    0.76224   0.87850    0.010
 4883.00    1.01020   0.87271    0.010
 4884.00    1.30375   0.86927    0.010
 4885.00    1.60945   0.86544    0.010
 4886.00    1.52412   0.85990    0.010
 4887.00    1.35349   0.85662    0.010
 4888.00    0.96769   0.86484    0.010
 4889.00    0.54460   0.88771    0.010
 4890.00    0.77483   0.91995    0.010
 4891.00    1.09109   0.95168    0.010
 4892.00    0.97185   0.97358    0.010
 4893.00    0.81215   0.98288    0.010
 4894.00    0.90390   0.98129    0.010
 4895.00    1.00990   0.97218    0.010
 4896.00    1.22619   0.96042    0.010
 4897.00    1.43925   0.95043    0.010
 4898.00    1.02352   0.94346    0.010
 4899.00    0.63310   0.94000    0.010
 4900.00    0.84364   0.94106    0.010
 4901.00    1.04519   0.94679    0.010
 4902.00    1.13043   0.95407    0.010
 4903.00    1.20206   0.95674    0.010
 4904.00    1.15528   0.95015    0.010
 4905.00    1.11495   0.93540    0.010
 4906.00    1.11614   0.91907    0.010
 4907.00    1.11637   0.90941    0.010
 4908.00    1.11176   0.91056    0.010
 4909.00    1.10133   0.92066    0.010
 4910.00    1.06718   0.93429    0.010
 4911.00    1.07488   0.94472    0.010
 4912.00    1.22379   0.94504    0.010
 4913.00    1.25335   0.93084    0.010
 4914.00    0.94315   0.90233    0.010
 4915.00    0.67463   0.86742    0.010
 4916.00    0.50750   0.83862    0.010
 4917.00    0.51447   0.82597    0.010
 4918.00    0.88690   0.83099    0.010
 4919.00    1.11631   0.84639    0.010
 4920.00    1.08477   0.86460    0.010
 4921.00    1.02011   0.88294    0.010
 4922.00    0.90261   0.90254    0.010
 4923.00    0.92359   0.92330    0.010
 4924.00    1.13836   0.94312    0.010
 4925.00    1.19074   0.95871    0.010
 4926.00    1.04313   0.96659    0.010
 4927.00    0.83997   0.96552    0.010
 4928.00    0.57652   0.95523    0.010
 4929.00    0.62830   0.93852    0.010
 4930.00    0.98197   0.92234    0.010
 4931.00    1.09076   0.91128    0.010
 4932.00    0.99280   0.90356    0.010
 4933.00    0.97869   0.89487    0.010
 4934.00    1.02693   0.88423    0.010
 4935.00    0.97305   0.87759    0.010
 4936.00    0.85249   0.88276    0.010
 4937.00    0.87640   0.90017    0.010
 4938.00    0.98290   0.92275    0.010
 4939.00    1.08338   0.94240    0.010
 4940.00    1.18085   0.95388    0.000
 4941.00    1.32725   0.95739    0.000
 4942.00    1.49471   0.95708    0.000
 4943.00    1.32781   0.95728    0.000
 4944.00    1.03747   0.96011    0.000
 4945.00    0.99584   0.96501    0.000
 4946.00    1.03201   0.96940    0.000
 4947.00    1.20042   0.97090    0.000
 4948.00    1.40332   0.96787    0.000
 4949.00    1.03686   0.95995    0.000
 4950.00    0.54916   0.94672    0.000
 4951.00    0.96790   0.92715    0.000
 4952.00    1.53937   0.90189    0.000
 4953.00    1.24501   0.87598    0.000
 4954.00    0.84051   0.86133    0.000
 4955.00    1.01906   0.86575    0.000
 4956.00    1.24933   0.88596    0.000
 4957.00    1.04634   0.91072    0.000
 4958.00    0.82049   0.92801    0.000
 4959.00    0.77857   0.93365    0.000
 4960.00    0.74273   0.92916    0.000
 4961.00    0.90798   0.91806    0.000
 4962.00    1.06969   0.90531    0.000
 4963.00    1.15422   0.89530    0.000
 4964.00    1.23540   0.89091    0.000
 4965.00    1.27549   0.89269    0.000
 4966.00    1.29459   0.89869    0.000
 4967.00    1.13802   0.90763    0.000
 4968.00    0.99965   0.91803    0.000
 4969.00    0.97494   0.92772    0.000
 4970.00    0.96711   0.93501    0.000
 4971.00    1.04201   0.93748    0.000
 4972.00    1.06480   0.93426    0.000
 4973.00    0.88011   0.92554    0.000
 4974.00    0.78718   0.91229    0.000
 4975.00    0.99781   0.89664    0.000
 4976.00    1.22071   0.87898    0.000
 4977.00    1.47791   0.85889    0.000
 4978.00    1.56273   0.83788    0.000
 4979.00    1.23529   0.82091    0.000
 4980.00    1.09870   0.81427    0.000
 4981.00    1.35631   0.82112    0.000
 4982.00    1.55148   0.83919    0.000
 4983.00    1.63446   0.86140    0.000
 4984.00    1.58204   0.87979    0.000
 4985.00    1.31688   0.89015    0.000
 4986.00    1.15657   0.89222    0.000
 4987.00    1.14091   0.88966    0.000
 4988.00    1.23250   0.88746    0.000
 4989.00    1.45433   0.88722    0.000
 4990.00    1.49321   0.88944    0.000
 4991.00    1.33627   0.89320    0.000
 4992.00    1.07517   0.89593    0.000
 4993.00    0.71573   0.89566    0.000
 4994.00    0.60620   0.88974    0.000
 4995.00    0.70470   0.87774    0.000
 4996.00    0.63010   0.86330    0.000
 4997.00    0.42865   0.85045    0.000
 4998.00    0.48837   0.84173    0.000
 4999.00    0.71615   0.83638    0.000
 5000.00    0.87431   0.83085    0.000
 5001.00    0.99328   0.82384    0.000
 5002.00    0.96726   0.81865    0.000
 5003.00    0.87022   0.82051    0.000
 5004.00    1.06607   0.83071    0.000
 5005.00    1.38593   0.84398    0.000
 5006.00    1.44967   0.85176    0.000
 5007.00    1.42054   0.84815    0.000
 5008.00    1.28269   0.83427    0.000
 5009.00    1.11149   0.81712    0.000
 5010.00    1.05361   0.80362    0.000
 5011.00    1.02466   0.79809    0.000
 5012.00    1.14021   0.79936    0.000
 5013.00    1.28579   0.80323    0.000
 5014.00    1.07294   0.80738    0.000
 5015.00    0.80142   0.81162    0.000
 5016.00    0.85468   0.81674    0.000
 5017.00    0.94781   0.82262    0.000
 5018.00    0.94466   0.82839    0.000
 5019.00    0.93337   0.83456    0.000
 5020.00    0.81582   0.84127    0.000
 5021.00    0.69308   0.84745    0.000
 5022.00    0.93953   0.85086    0.000
 5023.00    1.18615   0.85071    0.000
 5024.00    1.09411   0.85106    0.000
 5025.00    0.99540   0.85534    0.000
 5026.00    0.76285   0.86446    0.000
 5027.00    0.55626   0.87693    0.000
 5028.00    0.65293   0.88830    0.000
 5029.00    0.75087   0.89443    0.009
 5030.00    0.85908   0.89218    0.009
 5031.00    0.95121   0.88081    0.010
 5032.00    0.94586   0.86412    0.010
 5033.00    0.96403   0.84667    0.010
 5034.00    1.09471   0.82955    0.010
 5035.00    1.20823   0.81199    0.010
 5036.00    1.25489   0.79421    0.010
 5037.00    1.25413   0.78257    0.009
 5038.00    1.09955   0.78621    0.010
 5039.00    1.04163   0.80663    0.010
 5040.00    1.24905   0.83745    0.009
 5041.00    1.29121   0.86725    0.009
 5042.00    0.94475   0.88516    0.009
 5043.00    0.81954   0.88741    0.009
 5044.00    1.14408   0.87646    0.009
 5045.00    1.27042   0.85918    0.009
 5046.00    1.04610   0.84375    0.009
 5047.00    0.99743   0.83595    0.009
 5048.00    1.22069   0.83759    0.009
 5049.00    1.23478   0.84668    0.009
 5050.00    0.96451   0.85948    0.009
 5051.00    0.80725   0.87244    0.009
 5052.00    0.78529   0.88271    0.009
 5053.00    0.81748   0.88981    0.009
 5054.00    0.90683   0.89502    0.009
 5055.00    0.96638   0.89965    0.009
 5056.00    0.99819   0.90399    0.009
 5057.00    1.00113   0.90607    0.009
 5058.00    0.98039   0.90295    0.009
 5059.00    0.96651   0.89246    0.009
 5060.00    0.95760   0.87551    0.009
 5061.00    1.13350   0.85770    0.009
 5062.00    1.42660   0.84485    0.009
 5063.00    1.26696   0.83927    0.009
 5064.00    0.85634   0.84001    0.009
 5065.00    0.72655   0.84354    0.009
 5066.00    0.73215   0.84687    0.009
 5067.00    0.79313   0.84838    0.009
 5068.00    0.87717   0.84809    0.009
 5069.00    0.98618   0.84708    0.009
 5070.00    1.10408   0.84647    0.009
 5071.00    1.00069   0.84684    0.009
 5072.00    0.83073   0.84614    0.009
 5073.00    0.75957   0.84108    0.009
 5074.00    0.71308   0.82975    0.009
 5075.00    1.14241   0.81377    0.009
 5076.00    1.66817   0.79862    0.009
 5077.00    1.52892   0.79019    0.009
 5078.00    1.28399   0.79163    0.009
 5079.00    1.13775   0.80120    0.009
 5080.00    1.00317   0.81433    0.009
 5081.00    0.95802   0.82740    0.009
 5082.00    0.92006   0.83874    0.009
 5083.00    0.81163   0.84743    0.009
 5084.00    0.70004   0.85336    0.008
 5085.00    0.76840   0.85765    0.008
 5086.00    0.83969   0.86181    0.008
 5087.00    0.95059   0.86675    0.008
 5088.00    1.04634   0.87208    0.008
 5089.00    0.86012   0.87606    0.008
 5090.00    0.71233   0.87607    0.008
 5091.00    0.99246   0.86952    0.009
 5092.00    1.21237   0.85579    0.009
 5093.00    0.96304   0.83743    0.009
 5094.00    0.71176   0.81958    0.009
 5095.00    0.44899   0.80844    0.009
 5096.00    0.25820   0.80777    0.009
 5097.00    0.40334   0.81609    0.009
 5098.00    0.56320   0.82799    0.009
 5099.00    0.77916   0.83683    0.009
 5100.00    1.00847   0.83915    0.009
 5101.00    1.28027   0.83565    0.008
 5102.00    1.38273   0.82850    0.008
 5103.00    1.02866   0.82024    0.009
 5104.00    0.82726   0.81323    0.009
 5105.00    0.97888   0.80901    0.009
 5106.00    1.03119   0.80971    0.009
 5107.00    0.88480   0.81587    0.009
 5108.00    0.86190   0.82526    0.009
 5109.00    1.05420   0.83618    0.009
 5110.00    1.05353   0.84655    0.009
 5111.00    0.75853   0.85506    0.009
 5112.00    0.74633   0.86256    0.009
 5113.00    1.11307   0.86857    0.009
 5114.00    1.14723   0.87136    0.009
 5115.00    0.78894   0.86918    0.009
 5116.00    0.65292   0.86067    0.009
 5117.00    0.74816   0.84660    0.010
 5118.00    0.73309   0.82917    0.010
 5119.00    0.61676   0.81155    0.009
 5120.00    0.56466   0.79756    0.009
 5121.00    0.56452   0.78912    0.009
 5122.00    0.65905   0.78608    0.009
 5123.00    0.82096   0.78668    0.009
 5124.00    0.65345   0.78862    0.009
 5125.00    0.28016   0.79148    0.009
 5126.00    0.32307   0.79631    0.009
 5127.00    0.59318   0.80322    0.009
 5128.00    0.83811   0.81123    0.009
 5129.00    1.07109   0.81910    0.009
 5130.00    0.97078   0.82558    0.009
 5131.00    0.73406   0.82870    0.009
 5132.00    0.61320   0.82664    0.009
 5133.00    0.53285   0.81951    0.009
 5134.00    0.61380   0.80878    0.009
 5135.00    0.74231   0.79910    0.009
 5136.00    0.72827   0.79391    0.009
 5137.00    0.67939   0.79147    0.009
 5138.00    0.88883   0.79076    0.009
 5139.00    1.14930   0.79110    0.009
 5140.00    0.98698   0.79092    0.009
 5141.00    0.75947   0.79077    0.009
 5142.00    0.59288   0.79040    0.009
 5143.00    0.43322   0.78908    0.009
 5144.00    0.67515   0.78858    0.009
 5145.00    0.94773   0.78935    0.009
 5146.00    0.81764   0.78966    0.009
 5147.00    0.67098   0.78839    0.008
 5148.00    0.67911   0.78564    0.008
 5149.00    0.69294   0.78380    0.008
 5150.00    0.89330   0.78640    0.009
 5151.00    1.07491   0.79464    0.009
 5152.00    0.93144   0.80731    0.008
 5153.00    0.79216   0.82148    0.008
 5154.00    0.69727   0.83316    0.008
 5155.00    0.62942   0.84000    0.009
 5156.00    0.76506   0.84101    0.009
 5157.00    0.89093   0.83587    0.009
 5158.00    0.96091   0.82556    0.009
 5159.00    1.00148   0.80938    0.009
 5160.00    0.90809   0.78508    0.009
 5161.00    0.84140   0.75244    0.008
 5162.00    0.87435   0.71441    0.009
 5163.00    0.89473   0.67913    0.009
 5164.00    0.87590   0.65625    0.009
 5165.00    0.82362   0.64864    0.009
 5166.00    0.68271   0.64983    0.009
 5167.00    0.63866   0.65082    0.009
 5168.00    0.81484   0.65059    0.009
 5169.00    0.90038   0.65643    0.009
 5170.00    0.80742   0.67536    0.009
 5171.00    0.80676   0.70687    0.009
 5172.00    0.96453   0.74204    0.009
 5173.00    1.03679   0.76982    0.009
 5174.00    0.98053   0.78443    0.009
 5175.00    0.95726   0.78541    0.009
 5176.00    0.97759   0.77305    0.009
 5177.00    0.88132   0.74750    0.009
 5178.00    0.64940   0.71317    0.009
 5179.00    0.54733   0.68199    0.009
 5180.00    0.57848   0.66777    0.009
 5181.00    0.62405   0.67676    0.009
 5182.00    0.68267   0.70499    0.009
 5183.00    0.69132   0.73960    0.009
 5184.00    0.66011   0.76759    0.009
 5185.00    0.55479   0.78307    0.009
 5186.00    0.39747   0.78490    0.009
 5187.00    0.33335   0.77687    0.009
 5188.00    0.32657   0.76589    0.009
 5189.00    0.51665   0.75719    0.009
 5190.00    0.81254   0.75457    0.000
 5191.00    1.01161   0.75950    0.000
 5192.00    1.16548   0.76907    0.000
 5193.00    1.02971   0.78017    0.000
 5194.00    0.77742   0.79214    0.000
 5195.00    0.64249   0.80306    0.000
 5196.00    0.54784   0.81001    0.000
 5197.00    0.58585   0.81100    0.000
 5198.00    0.66218   0.80489    0.000
 5199.00    0.80885   0.79109    0.000
 5200.00    0.97233   0.77122    0.000
 5201.00    1.02556   0.74999    0.000
 5202.00    1.05757   0.73173    0.000
 5203.00    0.89228   0.71943    0.000
 5204.00    0.69748   0.71633    0.000
 5205.00    0.59447   0.72312    0.000
 5206.00    0.50153   0.73819    0.000
 5207.00    0.51639   0.75967    0.000
 5208.00    0.53904   0.78216    0.000
 5209.00    0.77380   0.79881    0.000
 5210.00    1.01648   0.80571    0.000
 5211.00    0.84869   0.80416    0.008
 5212.00    0.68285   0.79986    0.008
 5213.00    0.65696   0.79913    0.008
 5214.00    0.63944   0.80511    0.008
 5215.00    0.75764   0.81588    0.008
 5216.00    0.86626   0.82665    0.008
 5217.00    0.87732   0.83208    0.008
 5218.00    0.88692   0.82848    0.008
 5219.00    0.88597   0.81475    0.008
 5220.00    0.88334   0.79215    0.008
 5221.00    0.87131   0.76517    0.008
 5222.00    0.81806   0.74231    0.008
 5223.00    0.58149   0.73300    0.008
 5224.00    0.43204   0.73982    0.008
 5225.00    0.60092   0.75836    0.008
 5226.00    0.73880   0.78005    0.008
 5227.00    0.78177   0.79404    0.008
 5228.00    0.73256   0.79681    0.008
 5229.00    0.44350   0.79336    0.008
 5230.00    0.30111   0.79019    0.008
 5231.00    0.48671   0.79332    0.009
 5232.00    0.69439   0.80392    0.009
 5233.00    0.94484   0.81772    0.008
 5234.00    1.08936   0.82994    0.008
 5235.00    1.05480   0.83771    0.008
 5236.00    0.98769   0.84111    0.009
 5237.00    0.87238   0.84173    0.009
 5238.00    0.74638   0.84143    0.009
 5239.00    0.60648   0.84138    0.009
 5240.00    0.55111   0.84014    0.009
 5241.00    0.59269   0.83486    0.009
 5242.00    0.54783   0.82487    0.008
 5243.00    0.41556   0.81233    0.008
 5244.00    0.45888   0.79982    0.008
 5245.00    0.65886   0.79020    0.008
 5246.00    0.76624   0.78586    0.009
 5247.00    0.80081   0.78586    0.009
 5248.00    0.76514   0.78838    0.009
 5249.00    0.68089   0.79233    0.009
 5250.00    0.65837   0.79680    0.009
 5251.00    0.67327   0.80312    0.009
 5252.00    0.72861   0.81269    0.009
 5253.00    0.80533   0.82475    0.009
 5254.00    0.73573   0.83544    0.009
 5255.00    0.59894   0.83841    0.009
 5256.00    0.66265   0.82943    0.009
 5257.00    0.80563   0.80866    0.009
 5258.00    0.78510   0.77999    0.009
 5259.00    0.70950   0.74933    0.009
 5260.00    0.75284   0.72242    0.009
 5261.00    0.82983   0.70381    0.009
 5262.00    0.91942   0.69515    0.009
 5263.00    1.01194   0.69221    0.009
 5264.00    0.76104   0.68940    0.009
 5265.00    0.44574   0.68707    0.009
 5266.00    0.73376   0.68917    0.009
 5267.00    1.10918   0.69906    0.009
 5268.00    0.78621   0.71739    0.009
 5269.00    0.38978   0.73858    0.009
 5270.00    0.78034   0.75536    0.009
 5271.00    1.22454   0.76809    0.009
 5272.00    1.04498   0.78135    0.009
 5273.00    0.84449   0.79627    0.009
 5274.00    0.63202   0.81041    0.009
 5275.00    0.42275   0.81855    0.009
 5276.00    0.31624   0.81707    0.008
 5277.00    0.24190   0.80782    0.008
 5278.00    0.65744   0.79636    0.008
 5279.00    1.01993   0.78951    0.008
 5280.00    0.86501   0.79238    0.008
 5281.00    0.74289   0.80488    0.008
 5282.00    0.85166   0.82273    0.008
 5283.00    0.92359   0.84012    0.008
 5284.00    0.79582   0.85241    0.008
 5285.00    0.66549   0.85890    0.008
 5286.00    0.52411   0.86138    0.008
 5287.00    0.46950   0.86115    0.008
 5288.00    0.72537   0.85813    0.008
 5289.00    0.89475   0.85176    0.008
 5290.00    0.80439   0.84123    0.008
 5291.00    0.77308   0.82605    0.008
 5292.00    0.89274   0.80722    0.008
 5293.00    0.97908   0.78870    0.009
 5294.00    0.99210   0.77620    0.009
 5295.00    0.94993   0.77295    0.009
 5296.00    0.80248   0.77845    0.008
 5297.00    0.72351   0.78956    0.008
 5298.00    0.75856   0.80279    0.008
 5299.00    0.76404   0.81672    0.008
 5300.00    0.72636   0.83049    0.008
 5301.00    0.74699   0.84160    0.008
 5302.00    0.84247   0.84796    0.008
 5303.00    0.86252   0.85030    0.008
 5304.00    0.79726   0.85119    0.009
 5305.00    0.77438   0.85265    0.009
 5306.00    0.79375   0.85469    0.008
 5307.00    0.65415   0.85541    0.008
 5308.00    0.37471   0.85319    0.008
 5309.00    0.42287   0.84817    0.008
 5310.00    0.72490   0.84119    0.008
 5311.00    0.89159   0.83336    0.008
 5312.00    0.96606   0.82660    0.008
 5313.00    0.98797   0.82230    0.008
 5314.00    0.97849   0.82082    0.008
 5315.00    0.98940   0.82155    0.008
 5316.00    1.01093   0.82199    0.008
 5317.00    0.82709   0.81938    0.008
 5318.00    0.55049   0.81249    0.008
 5319.00    0.65556   0.80183    0.008
 5320.00    0.90891   0.78889    0.008
 5321.00    0.84896   0.77368    0.008
 5322.00    0.68545   0.75564    0.008
 5323.00    0.75124   0.73687    0.008
 5324.00    0.88060   0.72311    0.008
 5325.00    0.93766   0.72063    0.008
 5326.00    0.97822   0.73257    0.008
 5327.00    0.90675   0.75491    0.008
 5328.00    0.81481   0.77869    0.008
 5329.00    0.91207   0.79760    0.008
 5330.00    1.03586   0.81034    0.008
 5331.00    0.94680   0.81801    0.008
 5332.00    0.83628   0.82088    0.008
 5333.00    0.69691   0.81803    0.008
 5334.00    0.55569   0.80931    0.008
 5335.00    0.56148   0.79732    0.008
 5336.00    0.57192   0.78678    0.008
 5337.00    0.69289   0.78170    0.008
 5338.00    0.81221   0.78387    0.008
 5339.00    0.88423   0.79144    0.008
 5340.00    0.95189   0.79888    0.008
 5341.00    0.95688   0.80229    0.008
 5342.00    0.95355   0.80146    0.008
 5343.00    0.87233   0.79807    0.008
 5344.00    0.83426   0.79532    0.008
 5345.00    1.09051   0.79585    0.008
 5346.00    1.26759   0.80074    0.008
 5347.00    1.02666   0.80998    0.008
 5348.00    0.82411   0.82201    0.008
 5349.00    0.78453   0.83428    0.008
 5350.00    0.77305   0.84492    0.008
 5351.00    0.86009   0.85366    0.008
 5352.00    0.92627   0.86037    0.008
 5353.00    0.93095   0.86412    0.008
 5354.00    0.92681   0.86442    0.008
 5355.00    0.90054   0.86112    0.008
 5356.00    0.84866   0.85417    0.008
 5357.00    0.74136   0.84433    0.008
 5358.00    0.73333   0.83302    0.008
 5359.00    0.91176   0.82176    0.008
 5360.00    1.02841   0.81224    0.008
 5361.00    1.04370   0.80481    0.008
 5362.00    1.06562   0.79835    0.008
 5363.00    1.09710   0.79147    0.008
 5364.00    1.10597   0.78220    0.008
 5365.00    1.08624   0.77004    0.008
 5366.00    0.97856   0.75837    0.008
 5367.00    0.77281   0.75291    0.008
 5368.00    0.66912   0.75812   -2.000
 5369.00    0.66576   0.77407   -2.000
 5370.00    0.73036   0.79533   -2.000
 5371.00    0.85388   0.81391   -2.000
 5372.00    0.92889   0.82550   -2.000
 5373.00    0.96684   0.83024   -2.000
 5374.00    0.95077   0.83002   -2.000
 5375.00    0.89843   0.82721   -2.000
 5376.00    0.76862   0.82301   -2.000
 5377.00    0.59325   0.81770   -2.000
 5378.00    0.55247   0.81280   -2.000
 5379.00    0.58071   0.81033   -2.000
 5380.00    0.70726   0.81057   -2.000
 5381.00    0.87748   0.81270   -2.000
 5382.00    0.90337   0.81483   -2.000
 5383.00    0.87418   0.81415    0.008
 5384.00    0.74773   0.80955    0.008
 5385.00    0.58974   0.80210    0.008
 5386.00    0.61165   0.79347    0.008
 5387.00    0.68242   0.78545    0.007
 5388.00    0.67050   0.77921    0.007
 5389.00    0.64016   0.77441    0.008
 5390.00    0.68896   0.76933    0.008
 5391.00    0.75182   0.76281    0.008
 5392.00    0.79339   0.75637    0.008
 5393.00    0.83207   0.75266    0.007
 5394.00    1.10876   0.75354    0.007
 5395.00    1.40846   0.75992    0.007
 5396.00    1.10892   0.76884    0.008
 5397.00    0.77334   0.77414    0.008
 5398.00    0.60451   0.77195    0.008
 5399.00    0.44129   0.76220    0.008
 5400.00    0.48757   0.74746    0.008
 5401.00    0.53305   0.73325    0.008
 5402.00    0.55809   0.72533    0.008
 5403.00    0.58621   0.72539    0.008
 5404.00    0.65610   0.73106    0.008
 5405.00    0.72502   0.73896    0.008
 5406.00    0.78523   0.74735    0.008
 5407.00    0.81434   0.75693    0.008
 5408.00    0.63793   0.76847    0.008
 5409.00    0.51174   0.78032    0.008
 5410.00    0.64387   0.79025    0.008
 5411.00    0.75260   0.79781    0.008
 5412.00    0.76424   0.80371    0.008
 5413.00    0.74983   0.80817    0.008
 5414.00    0.64599   0.80994    0.008
 5415.00    0.59543   0.80823    0.008
 5416.00    0.69904   0.80424    0.008
 5417.00    0.76934   0.79934    0.008
 5418.00    0.75738   0.79446    0.008
 5419.00    0.76951   0.79098    0.008
 5420.00    0.83293   0.78955    0.008
 5421.00    0.82006   0.79038    0.008
 5422.00    0.66610   0.79263    0.008
 5423.00    0.62080   0.79240    0.008
 5424.00    0.75109   0.78683    0.008
 5425.00    0.81187   0.77710    0.008
 5426.00    0.77412   0.76647    0.007
 5427.00    0.79663   0.75897    0.007
 5428.00    0.89425   0.75544    0.007
 5429.00    0.98563   0.75268    0.007
 5430.00    1.07014   0.75023    0.007
 5431.00    0.99431   0.75134    0.007
 5432.00    0.76303   0.75884    0.007
 5433.00    0.60469   0.77268    0.007
 5434.00    0.50871   0.79005    0.007
 5435.00    0.44181   0.80695    0.007
 5436.00    0.39681   0.81977    0.007
 5437.00    0.54119   0.82644    0.007
 5438.00    0.81086   0.82609    0.007
 5439.00    0.83480   0.81835    0.007
 5440.00    0.71636   0.80363    0.007
 5441.00    0.60819   0.78477    0.007
 5442.00    0.50518   0.76761    0.007
 5443.00    0.53823   0.75793    0.007
 5444.00    0.63074   0.75877    0.007
 5445.00    0.71771   0.76846    0.007
 5446.00    0.80262   0.78007    0.007
 5447.00    0.77496   0.78681    0.007
 5448.00    0.71148   0.78557    0.007
 5449.00    0.67085   0.77688    0.007
 5450.00    0.63630   0.76499    0.008
 5451.00    0.62527   0.75566    0.007
 5452.00    0.61937   0.75318    0.007
 5453.00    0.54006   0.75925    0.007
 5454.00    0.44807   0.77061    0.007
 5455.00    0.66313   0.78020    0.007
 5456.00    0.91845   0.78291    0.007
 5457.00    0.94745   0.77864    0.007
 5458.00    0.95553   0.77162    0.008
 5459.00    0.91271   0.76620    0.008
 5460.00    0.86702   0.76466    0.008
 5461.00    0.78999   0.76790    0.008
 5462.00    0.71334   0.77382    0.008
 5463.00    0.74907   0.77860    0.008
 5464.00    0.78605   0.78082    0.008
 5465.00    0.85211   0.78086    0.007
 5466.00    0.90943   0.77842    0.007
 5467.00    0.85456   0.77346    0.007
 5468.00    0.80799   0.76733    0.007
 5469.00    0.83338   0.76005    0.007
 5470.00    0.86476   0.75033    0.007
 5471.00    0.93446   0.74019    0.007
 5472.00    1.01537   0.73303    0.007
 5473.00    1.15241   0.73007    0.007
 5474.00    1.24579   0.73216    0.007
 5475.00    1.16193   0.73832    0.007
 5476.00    1.05670   0.74462    0.007
 5477.00    0.87950   0.74855    0.007
 5478.00    0.76526   0.75199   -2.000
 5479.00    0.82985   0.75804   -2.000
 5480.00    0.83220   0.76584   -2.000
 5481.00    0.68347   0.77188   -2.000
 5482.00    0.69871   0.77415   -2.000
 5483.00    1.05745   0.77268   -2.000
 5484.00    1.22628   0.76953   -2.000
 5485.00    1.04929   0.76828   -2.000
 5486.00    0.87279   0.76991   -2.000
 5487.00    0.69707   0.77202   -2.000
 5488.00    0.69000   0.77337   -2.000
 5489.00    0.91852   0.77381   -2.000
 5490.00    1.28153   0.77267   -2.000
 5491.00    1.80986   0.77074   -2.000
 5492.00    1.77260   0.76961   -2.000
 5493.00    1.12242   0.76928   -2.000
 5494.00    0.80367   0.76903   -2.000
 5495.00    0.80172   0.76900   -2.000
 5496.00    0.73000   0.76833   -2.000
 5497.00    0.59947   0.76526   -2.000
 5498.00    0.61425   0.76041   -2.000
 5499.00    0.73688   0.75610   -2.000
 5500.00    0.78480   0.75302   -2.000
 5501.00    0.78403   0.75103   -2.000
 5502.00    0.79290   0.75005    0.007
 5503.00    0.80729   0.75005    0.007
 5504.00    0.85255   0.75169    0.007
 5505.00    0.91316   0.75350    0.007
 5506.00    0.88194   0.75226    0.007
 5507.00    0.81126   0.74772    0.007
 5508.00    0.93179   0.74205    0.007
 5509.00    1.12275   0.73792    0.007
 5510.00    1.22856   0.73802    0.007
 5511.00    1.30781   0.74311    0.007
 5512.00    1.17613   0.75195    0.007
 5513.00    0.98956   0.76229    0.007
 5514.00    0.86438   0.77201    0.007
 5515.00    0.75223   0.77972    0.007
 5516.00    0.72177   0.78419    0.007
 5517.00    0.70502   0.78526    0.007
 5518.00    0.62162   0.78394    0.007
 5519.00    0.52979   0.78072    0.007
 5520.00    0.41475   0.77521    0.007
 5521.00    0.29767   0.76689    0.007
 5522.00    0.37485   0.75651    0.007
 5523.00    0.46219   0.74703    0.007
 5524.00    0.57344   0.74150    0.007
 5525.00    0.68502   0.74166    0.007
 5526.00    0.78779   0.74738    0.007
 5527.00    0.88319   0.75513    0.007
 5528.00    0.82007   0.76026    0.007
 5529.00    0.76359   0.76144    0.007
 5530.00    0.78823   0.76033    0.007
 5531.00    0.79464   0.75895    0.007
 5532.00    0.64915   0.75890    0.007
 5533.00    0.53649   0.76159    0.007
 5534.00    0.62815   0.76627    0.007
 5535.00    0.70026   0.77121    0.007
 5536.00    0.67674   0.77538    0.007
 5537.00    0.66082   0.77748    0.007
 5538.00    0.67509   0.77676    0.007
 5539.00    0.68296   0.77374    0.008
 5540.00    0.66972   0.77032    0.018
 5541.00    0.65243   0.76903   -1.000
 5542.00    0.62382   0.77066   -1.000
 5543.00    0.65221   0.77446   -1.000
 5544.00    0.81665   0.77978   -1.000
 5545.00    0.89388   0.78501   -1.000
 5546.00    0.79133   0.78779   -1.000
 5547.00    0.67451   0.78717    0.039
 5548.00    0.53210   0.78369    0.010
 5549.00    0.46804   0.77865    0.007
 5550.00    0.52684   0.77367    0.007
 5551.00    0.58173   0.77014    0.007
 5552.00    0.63123   0.76872    0.007
 5553.00    0.64072   0.76860    0.007
 5554.00    0.60172   0.76833    0.007
 5555.00    0.57810   0.76732    0.007
 5556.00    0.57090   0.76537    0.007
 5557.00    0.61643   0.76215    0.007
 5558.00    0.71164   0.75797    0.007
 5559.00    0.75585   0.75342    0.007
 5560.00    0.75766   0.74934    0.007
 5561.00    0.76534   0.74644    0.007
 5562.00    0.77731   0.74414    0.007
 5563.00    0.71999   0.74234    0.007
 5564.00    0.61816   0.74184    0.007
 5565.00    0.62575   0.74214    0.007
 5566.00    0.69482   0.74210    0.007
 5567.00    0.83852   0.74234    0.007
 5568.00    1.01871   0.74332    0.007
 5569.00    1.06824   0.74402    0.007
 5570.00    1.06255   0.74582    0.007
 5571.00    0.95489   0.74996    0.007
 5572.00    0.81034   0.75420    0.007
 5573.00    0.71716   0.75732    0.007
 5574.00    0.63971   0.76000    0.007
 5575.00    0.61874   0.76151    0.007
 5576.00    0.61215   0.76152    0.007
 5577.00    0.60154   0.76032    0.007
 5578.00    0.59008   0.75716    0.007
 5579.00    0.69758   0.75146    0.007
 5580.00    0.82447   0.74302    0.007
 5581.00    0.84325   0.73129    0.007
 5582.00    0.84883   0.71730    0.007
 5583.00    0.83015   0.70417    0.007
 5584.00    0.80943   0.69575    0.007
 5585.00    0.77746   0.69429    0.007
 5586.00    0.74494   0.69886    0.007
 5587.00    0.74185   0.70661    0.007
 5588.00    0.74073   0.71461    0.007
 5589.00    0.83053   0.72136    0.007
 5590.00    0.90568   0.72702    0.007
 5591.00    0.68992   0.73166    0.007
 5592.00    0.48834   0.73513    0.007
 5593.00    0.45137   0.73579    0.007
 5594.00    0.41825   0.73159    0.007
 5595.00    0.41616   0.72404    0.007
 5596.00    0.45345   0.71707    0.007
 5597.00    0.72871   0.71307    0.007
 5598.00    0.94842   0.71343    0.007
 5599.00    0.90326   0.71955    0.007
 5600.00    0.86146   0.73115    0.007
 5601.00    0.83269   0.74566    0.007
 5602.00    0.81219   0.75892    0.007
 5603.00    0.81847   0.76806    0.007
 5604.00    0.79029   0.77287    0.007
 5605.00    0.66772   0.77457    0.007
 5606.00    0.57356   0.77429    0.007
 5607.00    0.54609   0.77177    0.007
 5608.00    0.55287   0.76554    0.007
 5609.00    0.62916   0.75478    0.007
 5610.00    0.65520   0.74073    0.007
 5611.00    0.59250   0.72657    0.007
 5612.00    0.55167   0.71702    0.007
 5613.00    0.54462   0.71580    0.007
 5614.00    0.58077   0.72104    0.006
 5615.00    0.67554   0.72777    0.007
 5616.00    0.71162   0.73306    0.007
 5617.00    0.67757   0.73573    0.006
 5618.00    0.60842   0.73506    0.006
 5619.00    0.50229   0.73115    0.006
 5620.00    0.48770   0.72555    0.006
 5621.00    0.55820   0.72154    0.007
 5622.00    0.57565   0.72270    0.007
 5623.00    0.54964   0.72924    0.007
 5624.00    0.51370   0.73813    0.007
 5625.00    0.47058   0.74677    0.007
 5626.00    0.45722   0.75362    0.007
 5627.00    0.46268   0.75725    0.007
 5628.00    0.53828   0.75718    0.007
 5629.00    0.65270   0.75394    0.007
 5630.00    0.68075   0.74842    0.007
 5631.00    0.66724   0.74194    0.007
 5632.00    0.56452   0.73588    0.007
 5633.00    0.42474   0.73102    0.007
 5634.00    0.50987   0.72783    0.007
 5635.00    0.67491   0.72643    0.007
 5636.00    0.67167   0.72609    0.007
 5637.00    0.61795   0.72583    0.007
 5638.00    0.56752   0.72609    0.007
 5639.00    0.51792   0.72790    0.007
 5640.00    0.57617   0.73101    0.007
 5641.00    0.65620   0.73439    0.007
 5642.00    0.65193   0.73738    0.007
 5643.00    0.63430   0.73947    0.007
 5644.00    0.62022   0.74066    0.007
 5645.00    0.60655   0.74128    0.007
 5646.00    0.53528   0.74183    0.006
 5647.00    0.45939   0.74249    0.006
 5648.00    0.40726   0.74270    0.006
 5649.00    0.35618   0.74129    0.006
 5650.00    0.33448   0.73702    0.006
 5651.00    0.31578   0.72971    0.006
 5652.00    0.42715   0.72109    0.006
 5653.00    0.54035   0.71282    0.007
 5654.00    0.68740   0.70523    0.006
 5655.00    0.82344   0.70022    0.006
 5656.00    0.83759   0.70042    0.006
 5657.00    0.83363   0.70463    0.007
 5658.00    0.68909   0.70956    0.006
 5659.00    0.56373   0.71456    0.006
 5660.00    0.55098   0.72017    0.006
 5661.00    0.54483   0.72533    0.006
 5662.00    0.56941   0.72823    0.007
 5663.00    0.58776   0.72861    0.007
 5664.00    0.58239   0.72806    0.007
 5665.00    0.57861   0.72877    0.006
 5666.00    0.57984   0.73181    0.006
 5667.00    0.56302   0.73677    0.007
 5668.00    0.49765   0.74267    0.007
 5669.00    0.45661   0.74832    0.007
 5670.00    0.47171   0.75237    0.007
 5671.00    0.53948   0.75400    0.007
 5672.00    0.71241   0.75386    0.007
 5673.00    0.78483   0.75288    0.007
 5674.00    0.68243   0.75070    0.007
 5675.00    0.61439   0.74666    0.007
 5676.00    0.59867   0.74133    0.007
 5677.00    0.66350   0.73565    0.007
 5678.00    0.83608   0.73012    0.007
 5679.00    0.87776   0.72550    0.007
 5680.00    0.76526   0.72273    0.007
 5681.00    0.69898   0.72138    0.007
 5682.00    0.68069   0.72017    0.007
 5683.00    0.62886   0.71909    0.007
 5684.00    0.54632   0.71963    0.007
 5685.00    0.53290   0.72313    0.007
 5686.00    0.57532   0.72924    0.006
 5687.00    0.59199   0.73614    0.006
 5688.00    0.59036   0.74195    0.006
 5689.00    0.50890   0.74560    0.006
 5690.00    0.37766   0.74653    0.007
 5691.00    0.40102   0.74496    0.007
 5692.00    0.50860   0.74174    0.006
 5693.00    0.56318   0.73717    0.006
 5694.00    0.59268   0.73113    0.006
 5695.00    0.59815   0.72451    0.006
 5696.00    0.59382   0.71880    0.007
 5697.00    0.62220   0.71463    0.007
 5698.00    0.66199   0.71219    0.007
 5699.00    0.65156   0.71139    0.007
 5700.00    0.62635   0.71082    0.007
 5701.00    0.61682   0.70817    0.007
 5702.00    0.61110   0.70243    0.007
 5703.00    0.56722   0.69492    0.007
 5704.00    0.51584   0.68780    0.006
 5705.00    0.51412   0.68298    0.007
 5706.00    0.52002   0.68224    0.007
 5707.00    0.67713   0.68614    0.007
 5708.00    0.85136   0.69373    0.006
 5709.00    0.73277   0.70393    0.007
 5710.00    0.59198   0.71502    0.007
 5711.00    0.52465   0.72459    0.007
 5712.00    0.46031   0.73170    0.007
 5713.00    0.54036   0.73675    0.007
 5714.00    0.61964   0.74050    0.007
 5715.00    0.62003   0.74398    0.007
 5716.00    0.62162   0.74769    0.007
 5717.00    0.64389   0.75121    0.007
 5718.00    0.65882   0.75388    0.006
 5719.00    0.59603   0.75488    0.007
 5720.00    0.54399   0.75351    0.007
 5721.00    0.57254   0.75015    0.006
 5722.00    0.60544   0.74586    0.006
 5723.00    0.66320   0.74175    0.006
 5724.00    0.71109   0.73899    0.006
 5725.00    0.71415   0.73797    0.006
 5726.00    0.70103   0.73768    0.007
 5727.00    0.62766   0.73737    0.006
 5728.00    0.58564   0.73785    0.006
 5729.00    0.64118   0.74004    0.006
 5730.00    0.69862   0.74311    0.006
 5731.00    0.76109   0.74533    0.006
 5732.00    0.77276   0.74588    0.006
 5733.00    0.66919   0.74502    0.006
 5734.00    0.60697   0.74353    0.006
 5735.00    0.62602   0.74209    0.006
 5736.00    0.67249   0.74095    0.006
 5737.00    0.76591   0.74026    0.006
 5738.00    0.80580   0.74015    0.006
 5739.00    0.76539   0.74066    0.006
 5740.00    0.71836   0.74158    0.000
 5741.00    0.66261   0.74222    0.000
 5742.00    0.63957   0.74163    0.000
 5743.00    0.65453   0.73948    0.000
 5744.00    0.68869   0.73669    0.000
 5745.00    0.74251   0.73457    0.000
 5746.00    0.76790   0.73291    0.000
 5747.00    0.76762   0.73002    0.000
 5748.00    0.77422   0.72524    0.000
 5749.00    0.78629   0.72042    0.000
 5750.00    0.78664   0.71857    0.000
 5751.00    0.77879   0.72147    0.000
 5752.00    0.73536   0.72773    0.000
 5753.00    0.67007   0.73362    0.000
 5754.00    0.67775   0.73586    0.000
 5755.00    0.72458   0.73333    0.000
 5756.00    0.63187   0.72727    0.000
 5757.00    0.47417   0.72066    0.000
 5758.00    0.39095   0.71667    0.000
 5759.00    0.33763   0.71748    0.000
 5760.00    0.45644   0.72327    0.000
 5761.00    0.63418   0.73153    0.000
 5762.00    0.64990   0.73886    0.000
 5763.00    0.61893   0.74344    0.000
 5764.00    0.58498   0.74503    0.000
 5765.00    0.55031   0.74412    0.000
 5766.00    0.57961   0.74162    0.000
 5767.00    0.62118   0.73845    0.000
 5768.00    0.77386   0.73532    0.000
 5769.00    0.94309   0.73295    0.000
 5770.00    1.05436   0.73166    0.000
 5771.00    1.15933   0.73124    0.000
 5772.00    1.10974   0.73097    0.000
 5773.00    1.04907   0.72937    0.000
 5774.00    0.92100   0.72477    0.000
 5775.00    0.79045   0.71667    0.000
 5776.00    0.79378   0.70598    0.000
 5777.00    0.79876   0.69498    0.000
 5778.00    0.84262   0.68660    0.000
 5779.00    0.88494   0.68244    0.000
 5780.00    0.90253   0.68206    0.000
 5781.00    0.90383   0.68479    0.000
 5782.00    0.74014   0.69057    0.000
 5783.00    0.59010   0.69843    0.000
 5784.00    0.53893   0.70601    0.000
 5785.00    0.50877   0.71156    0.000
 5786.00    0.59519   0.71482    0.000
 5787.00    0.66374   0.71694    0.000
 5788.00    0.65298   0.71967    0.000
 5789.00    0.66743   0.72339    0.000
 5790.00    0.77378   0.72694    0.000
 5791.00    0.84334   0.72919   -2.000
 5792.00    0.80055   0.72962   -2.000
 5793.00    0.77981   0.72895   -2.000
 5794.00    0.81633   0.72932   -2.000
 5795.00    0.84686   0.73237   -2.000
 5796.00    0.86404   0.73709   -2.000
 5797.00    0.83557   0.74080   -2.000
 5798.00    0.71880   0.74161   -2.000
 5799.00    0.66477   0.73912   -2.000
 5800.00    0.71660   0.73435   -2.000
 5801.00    0.74981   0.72965   -2.000
 5802.00    0.75548   0.72703   -2.000
 5803.00    0.75999   0.72689   -2.000
 5804.00    0.76299   0.72849   -2.000
 5805.00    0.71758   0.73078   -2.000
 5806.00    0.61676   0.73295   -2.000
 5807.00    0.56672   0.73412   -2.000
 5808.00    0.56797   0.73352   -2.000
 5809.00    0.54986   0.73114   -2.000
 5810.00    0.51450   0.72770   -2.000
 5811.00    0.51165   0.72445    0.000
 5812.00    0.53432   0.72309    0.000
 5813.00    0.54961   0.72497    0.000
 5814.00    0.55980   0.72960    0.000
 5815.00    0.58035   0.73485    0.000
 5816.00    0.60715   0.73882    0.000
 5817.00    0.66021   0.74083    0.000
 5818.00    0.72713   0.74111    0.000
 5819.00    0.67601   0.74047    0.000
 5820.00    0.57079   0.73986    0.000
 5821.00    0.48985   0.73978    0.000
 5822.00    0.41848   0.74004    0.000
 5823.00    0.50910   0.74041    0.000
 5824.00    0.65414   0.74081    0.000
 5825.00    0.80150   0.74109    0.000
 5826.00    0.94950   0.74084    0.000
 5827.00    0.94042   0.73975    0.000
 5828.00    0.89479   0.73802    0.000
 5829.00    0.83661   0.73594    0.000
 5830.00    0.77609   0.73371    0.000
 5831.00    0.69439   0.73194    0.000
 5832.00    0.60964   0.73124    0.000
 5833.00    0.66397   0.73138    0.000
 5834.00    0.73285   0.73205    0.000
 5835.00    0.79502   0.73368    0.000
 5836.00    0.85673   0.73630    0.000
 5837.00    0.78593   0.73888    0.000
 5838.00    0.71074   0.74020    0.000
 5839.00    0.65315   0.73958    0.000
 5840.00    0.59648   0.73695    0.000
 5841.00    0.56845   0.73281    0.000
 5842.00    0.54372   0.72808    0.000
 5843.00    0.56904   0.72374    0.000
 5844.00    0.59866   0.72045    0.000
 5845.00    0.67013   0.71793    0.000
 5846.00    0.73701   0.71524    0.000
 5847.00    0.77182   0.71152    0.000
 5848.00    0.78590   0.70658    0.000
 5849.00    0.68800   0.70111    0.000
 5850.00    0.61340   0.69620    0.000
 5851.00    0.63981   0.69200    0.000
 5852.00    0.66934   0.68783    0.000
 5853.00    0.71001   0.68418    0.000
 5854.00    0.75184   0.68303    0.000
 5855.00    0.79715   0.68550    0.000
 5856.00    0.78734   0.69036    0.000
 5857.00    0.63691   0.69554    0.000
 5858.00    0.55966   0.69952    0.000
 5859.00    0.64307   0.70215    0.000
 5860.00    0.73832   0.70388    0.000
 5861.00    0.85614   0.70479    0.000
 5862.00    0.94163   0.70527    0.000
 5863.00    0.97338   0.70647    0.000
 5864.00    0.96338   0.70918    0.000
 5865.00    0.89255   0.71261    0.000
 5866.00    0.82801   0.71539    0.000
 5867.00    0.77151   0.71661    0.000
 5868.00    0.75965   0.71623    0.000
 5869.00    0.79816   0.71492    0.000
 5870.00    0.78332   0.71339    0.000
 5871.00    0.71535   0.71162    0.000
 5872.00    0.71482   0.70911    0.000
 5873.00    0.77350   0.70586    0.000
 5874.00    0.82658   0.70215    0.000
 5875.00    0.87535   0.69825    0.000
 5876.00    0.89483   0.69479    0.000
 5877.00    0.89439   0.69254    0.000
 5878.00    0.82967   0.69118    0.000
 5879.00    0.72664   0.68921    0.000
 5880.00    0.64722   0.68506    0.000
 5881.00    0.58008   0.67697    0.000
 5882.00    0.56160   0.66258    0.000
 5883.00    0.56505   0.64053    0.000
 5884.00    0.56951   0.61262    0.000
 5885.00    0.57436   0.58486    0.000
 5886.00    0.60028   0.56631    0.000
 5887.00    0.63316   0.56229    0.000
 5888.00    0.64692   0.56821    0.000
 5889.00    0.65539   0.57545    0.000
 5890.00    0.68031   0.57892    0.000
 5891.00    0.70896   0.57880    0.000
 5892.00    0.64364   0.58114    0.000
 5893.00    0.56122   0.59226    0.000
 5894.00    0.53033   0.61081    0.000
 5895.00    0.50664   0.63144    0.000
 5896.00    0.53705   0.65053    0.000
 5897.00    0.57288   0.66589    0.000
 5898.00    0.59206   0.67639    0.000
 5899.00    0.61017   0.68263    0.000
 5900.00    0.56755   0.68595    0.000
 5901.00    0.52340   0.68753    0.006
 5902.00    0.56621   0.68872    0.006
 5903.00    0.61037   0.69044    0.006
 5904.00    0.69278   0.69247    0.006
 5905.00    0.76917   0.69399    0.006
 5906.00    0.75982   0.69440    0.006
 5907.00    0.75246   0.69331    0.006
 5908.00    0.76351   0.69022    0.006
 5909.00    0.76226   0.68539    0.006
 5910.00    0.67752   0.68055    0.006
 5911.00    0.60143   0.67790    0.006
 5912.00    0.57088   0.67815    0.006
 5913.00    0.56311   0.68083    0.006
 5914.00    0.65178   0.68464    0.006
 5915.00    0.73237   0.68818    0.006
 5916.00    0.78476   0.69074    0.006
 5917.00    0.81318   0.69202    0.006
 5918.00    0.77114   0.69250    0.006
 5919.00    0.73956   0.69313    0.006
 5920.00    0.73424   0.69400    0.006
 5921.00    0.72842   0.69453    0.006
 5922.00    0.72157   0.69407    0.006
 5923.00    0.68181   0.69219    0.006
 5924.00    0.58039   0.68928    0.006
 5925.00    0.51573   0.68651    0.006
 5926.00    0.51125   0.68511    0.006
 5927.00    0.53505   0.68562    0.006
 5928.00    0.59946   0.68690    0.006
 5929.00    0.62136   0.68751    0.006
 5930.00    0.58958   0.68748    0.006
 5931.00    0.57136   0.68804    0.006
 5932.00    0.56823   0.68980    0.006
 5933.00    0.54252   0.69189    0.006
 5934.00    0.49465   0.69318    0.006
 5935.00    0.45381   0.69294    0.006
 5936.00    0.41906   0.69106    0.006
 5937.00    0.43154   0.68867    0.006
 5938.00    0.48005   0.68753    0.006
 5939.00    0.50085   0.68820    0.006
 5940.00    0.50309   0.68986    0.006
 5941.00    0.51278   0.69125    0.006
 5942.00    0.52685   0.69115    0.006
 5943.00    0.56203   0.68909    0.006
 5944.00    0.60801   0.68586    0.006
 5945.00    0.64618   0.68309    0.006
 5946.00    0.68088   0.68174    0.006
 5947.00    0.72184   0.68111    0.006
 5948.00    0.76518   0.68033    0.006
 5949.00    0.72654   0.67972    0.006
 5950.00    0.66136   0.67976    0.006
 5951.00    0.60438   0.67980    0.006
 5952.00    0.54961   0.67955    0.006
 5953.00    0.48565   0.67996    0.006
 5954.00    0.41963   0.68201    0.006
 5955.00    0.44366   0.68567    0.006
 5956.00    0.48361   0.69008    0.006
 5957.00    0.53962   0.69402    0.006
 5958.00    0.59779   0.69653    0.006
 5959.00    0.56469   0.69724    0.006
 5960.00    0.52282   0.69654    0.006
 5961.00    0.47110   0.69533    0.006
 5962.00    0.41880   0.69481    0.006
 5963.00    0.48154   0.69571    0.006
 5964.00    0.54702   0.69763    0.006
 5965.00    0.58392   0.69985    0.006
 5966.00    0.62034   0.70169    0.006
 5967.00    0.64452   0.70239    0.006
 5968.00    0.66579   0.70138    0.006
 5969.00    0.64782   0.69844    0.006
 5970.00    0.63224   0.69374    0.006
 5971.00    0.63797   0.68809    0.006
 5972.00    0.63974   0.68301    0.006
 5973.00    0.61541   0.68001    0.006
 5974.00    0.58306   0.67957    0.006
 5975.00    0.50960   0.68094    0.006
 5976.00    0.45282   0.68240    0.006
 5977.00    0.46509   0.68208    0.006
 5978.00    0.48534   0.67927    0.006
 5979.00    0.53299   0.67494    0.006
 5980.00    0.58149   0.67131    0.006
 5981.00    0.63245   0.67038    0.006
 5982.00    0.67823   0.67224    0.006
 5983.00    0.71120   0.67561    0.006
 5984.00    0.74501   0.67936    0.006
 5985.00    0.78059   0.68260    0.006
 5986.00    0.78471   0.68485    0.006
 5987.00    0.73075   0.68641    0.006
 5988.00    0.67270   0.68801    0.006
 5989.00    0.60806   0.68961    0.006
 5990.00    0.60423   0.69016    0.006
 5991.00    0.68645   0.68885    0.006
 5992.00    0.74266   0.68588    0.006
 5993.00    0.76649   0.68243    0.006
 5994.00    0.75875   0.67989    0.006
 5995.00    0.71637   0.67878    0.006
 5996.00    0.68201   0.67854    0.006
 5997.00    0.65540   0.67822    0.006
 5998.00    0.65493   0.67734    0.006
 5999.00    0.67677   0.67610    0.006
 6000.00    0.64944   0.67454    0.006
 6001.00    0.58515   0.67211    0.006
 6002.00    0.54849   0.66888    0.006
 6003.00    0.53008   0.66595    0.006
 6004.00    0.54076   0.66499    0.006
 6005.00    0.56827   0.66669    0.006
 6006.00    0.54550   0.66959    0.006
 6007.00    0.49741   0.67148    0.006
 6008.00    0.50875   0.67149    0.006
 6009.00    0.54601   0.67039    0.006
 6010.00    0.59035   0.66922    0.006
 6011.00    0.63734   0.66816    0.006
 6012.00    0.64225   0.66703    0.006
 6013.00    0.63381   0.66598    0.006
 6014.00    0.63587   0.66485    0.006
 6015.00    0.64071   0.66338    0.006
 6016.00    0.59743   0.66214    0.006
 6017.00    0.54371   0.66199    0.006
 6018.00    0.52601   0.66320    0.006
 6019.00    0.51450   0.66553    0.006
 6020.00    0.58166   0.66873    0.006
 6021.00    0.65909   0.67243    0.006
 6022.00    0.63536   0.67600    0.006
 6023.00    0.60235   0.67933    0.006
 6024.00    0.63999   0.68252    0.006
 6025.00    0.68157   0.68532    0.006
 6026.00    0.70158   0.68754    0.006
 6027.00    0.72043   0.68938    0.006
 6028.00    0.67164   0.69099    0.006
 6029.00    0.62116   0.69226    0.006
 6030.00    0.53146   0.69303    0.006
 6031.00    0.45044   0.69330    0.006
 6032.00    0.48002   0.69307    0.006
 6033.00    0.50432   0.69229    0.006
 6034.00    0.48306   0.69096    0.006
 6035.00    0.45916   0.68937    0.006
 6036.00    0.41838   0.68811    0.006
 6037.00    0.39106   0.68770    0.006
 6038.00    0.43091   0.68847    0.006
 6039.00    0.46398   0.69026    0.006
 6040.00    0.46958   0.69237    0.006
 6041.00    0.48622   0.69418    0.006
 6042.00    0.53993   0.69544    0.006
 6043.00    0.57390   0.69606    0.006
 6044.00    0.55197   0.69609    0.006
 6045.00    0.54271   0.69568    0.006
 6046.00    0.56413   0.69474    0.006
 6047.00    0.59319   0.69289    0.006
 6048.00    0.63823   0.68999    0.006
 6049.00    0.65470   0.68648    0.006
 6050.00    0.61924   0.68301    0.006
 6051.00    0.56626   0.68022    0.006
 6052.00    0.48545   0.67879    0.006
 6053.00    0.43921   0.67904    0.006
 6054.00    0.44120   0.68051    0.006
 6055.00    0.48149   0.68214    0.006
 6056.00    0.56879   0.68268    0.006
 6057.00    0.59337   0.68129    0.006
 6058.00    0.55010   0.67797    0.006
 6059.00    0.51973   0.67364    0.006
 6060.00    0.50168   0.66994    0.006
 6061.00    0.51624   0.66901    0.006
 6062.00    0.55824   0.67206    0.006
 6063.00    0.56938   0.67800    0.006
 6064.00    0.55766   0.68470    0.006
 6065.00    0.55149   0.69047    0.006
 6066.00    0.54893   0.69457    0.006
 6067.00    0.51156   0.69696    0.006
 6068.00    0.45438   0.69784    0.006
 6069.00    0.42757   0.69737    0.006
 6070.00    0.41580   0.69551    0.006
 6071.00    0.41450   0.69217    0.006
 6072.00    0.41768   0.68744    0.006
 6073.00    0.43232   0.68187    0.006
 6074.00    0.45116   0.67653    0.006
 6075.00    0.46084   0.67238    0.006
 6076.00    0.46767   0.66932    0.006
 6077.00    0.51498   0.66707    0.006
 6078.00    0.57280   0.66588    0.006
 6079.00    0.61228   0.66572    0.006
 6080.00    0.64787   0.66616    0.006
 6081.00    0.69750   0.66697    0.006
 6082.00    0.74947   0.66794    0.006
 6083.00    0.70117   0.66851    0.006
 6084.00    0.64023   0.66796    0.006
 6085.00    0.57001   0.66630    0.006
 6086.00    0.49899   0.66451    0.006
 6087.00    0.52325   0.66366    0.006
 6088.00    0.55244   0.66424    0.006
 6089.00    0.59468   0.66639    0.006
 6090.00    0.63600   0.66957    0.006
 6091.00    0.59311   0.67252    0.006
 6092.00    0.54999   0.67439    0.006
 6093.00    0.50208   0.67500    0.006
 6094.00    0.46228   0.67407    0.006
 6095.00    0.52093   0.67087    0.006
 6096.00    0.57655   0.66478    0.006
 6097.00    0.60705   0.65655    0.006
 6098.00    0.63410   0.64952    0.006
 6099.00    0.63977   0.64728    0.006
 6100.00    0.64889   0.65000    0.006
 6101.00    0.67480   0.65548    0.006
 6102.00    0.68650   0.66131    0.006
 6103.00    0.64193   0.66604    0.006
 6104.00    0.60577   0.66950    0.006
 6105.00    0.59727   0.67172    0.006
 6106.00    0.58604   0.67284    0.006
 6107.00    0.56718   0.67366    0.006
 6108.00    0.56011   0.67478    0.006
 6109.00    0.58110   0.67586    0.006
 6110.00    0.59200   0.67616    0.006
 6111.00    0.58214   0.67516    0.006
 6112.00    0.58714   0.67306    0.006
 6113.00    0.61872   0.66990    0.006
 6114.00    0.62944   0.66503    0.006
 6115.00    0.60750   0.65848    0.006
 6116.00    0.59592   0.65130    0.006
 6117.00    0.59857   0.64543    0.006
 6118.00    0.59386   0.64333    0.006
 6119.00    0.58024   0.64526    0.006
 6120.00    0.59407   0.64912    0.006
 6121.00    0.63720   0.65296    0.006
 6122.00    0.67116   0.65577    0.006
 6123.00    0.69650   0.65757    0.006
 6124.00    0.71097   0.65931    0.006
 6125.00    0.71642   0.66166    0.006
 6126.00    0.69131   0.66416    0.006
 6127.00    0.64390   0.66549    0.006
 6128.00    0.59898   0.66409    0.006
 6129.00    0.55565   0.65847    0.006
 6130.00    0.55438   0.64843    0.006
 6131.00    0.57671   0.63594    0.006
 6132.00    0.59180   0.62521    0.006
 6133.00    0.60335   0.62074    0.006
 6134.00    0.64726   0.62352    0.006
 6135.00    0.70480   0.63055    0.006
 6136.00    0.78206   0.63826    0.006
 6137.00    0.86644   0.64526    0.006
 6138.00    0.91166   0.65179    0.006
 6139.00    0.94494   0.65772    0.006
 6140.00    0.92640   0.66232    0.006
 6141.00    0.89470   0.66485    0.006
 6142.00    0.89606   0.66481    0.006
 6143.00    0.90426   0.66243    0.006
 6144.00    0.87587   0.65889    0.006
 6145.00    0.84154   0.65572    0.006
 6146.00    0.75960   0.65399    0.006
 6147.00    0.67186   0.65371    0.006
 6148.00    0.59815   0.65397    0.006
 6149.00    0.52560   0.65364    0.006
 6150.00    0.54132   0.65243    0.006
 6151.00    0.56125   0.65059    0.006
 6152.00    0.58105   0.64779    0.006
 6153.00    0.60167   0.64326    0.006
 6154.00    0.66953   0.63597    0.006
 6155.00    0.73794   0.62510    0.006
 6156.00    0.81703   0.61166    0.006
 6157.00    0.88348   0.59916    0.006
 6158.00    0.80401   0.59159    0.006
 6159.00    0.72870   0.59071    0.006
 6160.00    0.68668   0.59531    0.006
 6161.00    0.65947   0.60231    0.006
 6162.00    0.72151   0.60844    0.006
 6163.00    0.77320   0.61135    0.006
 6164.00    0.77574   0.61107    0.006
 6165.00    0.76731   0.61032    0.006
 6166.00    0.71638   0.61175    0.006
 6167.00    0.67488   0.61561    0.006
 6168.00    0.66381   0.62067    0.006
 6169.00    0.66659   0.62565    0.006
 6170.00    0.70721   0.62955    0.006
 6171.00    0.73596   0.63213    0.006
 6172.00    0.73695   0.63404    0.006
 6173.00    0.74149   0.63598    0.006
 6174.00    0.75322   0.63804    0.006
 6175.00    0.74958   0.64012    0.006
 6176.00    0.71883   0.64226    0.006
 6177.00    0.67321   0.64408    0.006
 6178.00    0.60467   0.64500    0.006
 6179.00    0.56553   0.64461    0.006
 6180.00    0.56621   0.64255    0.006
 6181.00    0.57979   0.63873    0.006
 6182.00    0.60873   0.63369    0.006
 6183.00    0.63716   0.62805    0.006
 6184.00    0.66503   0.62218    0.006
 6185.00    0.70646   0.61636    0.006
 6186.00    0.76046   0.61175    0.006
 6187.00    0.78611   0.61037    0.006
 6188.00    0.78856   0.61307    0.006
 6189.00    0.73511   0.61884    0.006
 6190.00    0.64142   0.62582    0.006
 6191.00    0.58599   0.63196    0.006
 6192.00    0.55473   0.63559    0.006
 6193.00    0.60441   0.63601    0.006
 6194.00    0.69878   0.63406    0.006
 6195.00    0.86602   0.63183    0.006
 6196.00    1.06824   0.63124   -2.000
 6197.00    1.47513   0.63283   -2.000
 6198.00    1.96686   0.63590   -2.000
 6199.00    2.06469   0.63930   -2.000
 6200.00    2.02291   0.64212   -2.000
 6201.00    1.47818   0.64394   -2.000
 6202.00    0.78294   0.64469   -2.000
 6203.00    0.26841   0.64436   -2.000
 6204.00   -0.20123   0.64283   -2.000
 6205.00   -0.07875   0.63980   -2.000
 6206.00    0.16295   0.63501   -2.000
 6207.00    0.33222   0.62833   -2.000
 6208.00    0.49007   0.62033    0.006
 6209.00    0.53583   0.61248    0.006
 6210.00    0.56846   0.60648    0.006
 6211.00    0.59362   0.60335    0.006
 6212.00    0.61818   0.60285    0.006
 6213.00    0.58764   0.60361    0.006
 6214.00    0.55467   0.60450    0.006
 6215.00    0.53758   0.60537    0.006
 6216.00    0.51932   0.60663    0.006
 6217.00    0.43669   0.60851    0.006
 6218.00    0.35891   0.61081    0.005
 6219.00    0.36976   0.61311    0.005
 6220.00    0.38676   0.61495    0.005
 6221.00    0.47141   0.61574    0.006
 6222.00    0.55046   0.61486    0.006
 6223.00    0.58616   0.61172    0.006
 6224.00    0.59981   0.60625    0.006
 6225.00    0.48442   0.59986    0.006
 6226.00    0.39091   0.59503    0.005
 6227.00    0.39885   0.59377    0.006
 6228.00    0.41383   0.59682    0.006
 6229.00    0.45551   0.60317    0.006
 6230.00    0.47971   0.61026    0.006
 6231.00    0.44856   0.61543    0.006
 6232.00    0.41658   0.61713    0.006
 6233.00    0.38237   0.61528    0.006
 6234.00    0.38251   0.61096    0.006
 6235.00    0.46173   0.60588    0.006
 6236.00    0.53694   0.60117    0.006
 6237.00    0.60414   0.59704    0.006
 6238.00    0.66687   0.59381    0.006
 6239.00    0.72181   0.59186    0.006
 6240.00    0.76397   0.59145    0.006
 6241.00    0.78670   0.59308    0.006
 6242.00    0.78278   0.59677    0.006
 6243.00    0.74328   0.60144    0.006
 6244.00    0.69358   0.60538    0.006
 6245.00    0.63189   0.60691    0.006
 6246.00    0.59044   0.60500    0.006
 6247.00    0.56996   0.60024    0.005
 6248.00    0.58028   0.59422    0.005
 6249.00    0.61877   0.58844    0.005
 6250.00    0.67732   0.58364    0.005
 6251.00    0.75205   0.57996    0.006
 6252.00    0.75836   0.57756    0.006
 6253.00    0.71613   0.57710    0.005
 6254.00    0.67687   0.57936    0.006
 6255.00    0.63945   0.58426    0.006
 6256.00    0.62201   0.59116    0.006
 6257.00    0.61544   0.59875    0.006
 6258.00    0.65709   0.60516    0.006
 6259.00    0.72153   0.60918    0.006
 6260.00    0.88985   0.61110    0.006
 6261.00    1.10050   0.61183    0.007
 6262.00    1.08007   0.61198    0.007
 6263.00    0.97924   0.61196    0.007
 6264.00    0.82864   0.61208    0.007
 6265.00    0.66345   0.61254    0.007
 6266.00    0.52539   0.61347    0.007
 6267.00    0.39392   0.61484    0.006
 6268.00    0.41990   0.61636    0.006
 6269.00    0.47679   0.61766    0.006
 6270.00    0.52021   0.61843    0.006
 6271.00    0.56156   0.61833    0.006
 6272.00    0.58723   0.61723    0.005
 6273.00    0.61113   0.61509    0.005
 6274.00    0.66492   0.61218    0.005
 6275.00    0.72095   0.60943    0.005
 6276.00    0.76287   0.60788    0.005
 6277.00    0.80422   0.60815    0.005
 6278.00    0.77877   0.61024    0.005
 6279.00    0.75082   0.61349    0.005
 6280.00    0.64176   0.61724    0.000
 6281.00    0.53490   0.62098    0.000
 6282.00    0.46551   0.62424    0.000
 6283.00    0.40879   0.62651    0.000
 6284.00    0.48533   0.62727    0.000
 6285.00    0.55528   0.62636    0.000
 6286.00    0.57598   0.62412    0.000
 6287.00    0.59203   0.62123    0.000
 6288.00    0.58158   0.61841    0.000
 6289.00    0.55652   0.61579    0.000
 6290.00    0.46536   0.61299    0.000
 6291.00    0.38000   0.60990    0.000
 6292.00    0.31616   0.60683    0.000
 6293.00    0.28674   0.60417    0.000
 6294.00    0.36419   0.60195    0.000
 6295.00    0.44447   0.60009    0.000
 6296.00    0.53217   0.59882    0.000
 6297.00    0.61438   0.59866    0.000
 6298.00    0.68413   0.59998    0.000
 6299.00    0.73313   0.60280    0.000
 6300.00    0.74141   0.60693    0.000
 6301.00    0.73558   0.61180    0.000
 6302.00    0.70561   0.61643    0.000
 6303.00    0.65647   0.61978    0.000
 6304.00    0.57864   0.62115    0.000
 6305.00    0.51725   0.62042    0.000
 6306.00    0.47751   0.61808    0.000
 6307.00    0.48484   0.61479    0.000
 6308.00    0.54673   0.61095    0.000
 6309.00    0.57586   0.60690    0.000
 6310.00    0.57148   0.60302    0.000
 6311.00    0.56545   0.59939    0.000
 6312.00    0.55792   0.59631    0.000
 6313.00    0.57649   0.59462    0.000
 6314.00    0.61578   0.59485    0.000
 6315.00    0.60214   0.59691    0.000
 6316.00    0.55148   0.60039    0.000
 6317.00    0.53248   0.60478    0.000
 6318.00    0.53289   0.60942    0.000
 6319.00    0.56444   0.61370    0.000
 6320.00    0.61266   0.61721    0.000
 6321.00    0.63689   0.61972    0.005
 6322.00    0.64995   0.62127    0.005
 6323.00    0.60329   0.62196    0.005
 6324.00    0.53270   0.62203    0.005
 6325.00    0.46832   0.62185    0.005
 6326.00    0.40606   0.62155    0.005
 6327.00    0.39213   0.62069    0.005
 6328.00    0.39208   0.61847    0.005
 6329.00    0.40887   0.61449    0.005
 6330.00    0.42966   0.60942    0.005
 6331.00    0.47785   0.60471    0.005
 6332.00    0.53127   0.60182    0.005
 6333.00    0.56983   0.60157    0.005
 6334.00    0.60618   0.60373    0.005
 6335.00    0.59520   0.60691    0.005
 6336.00    0.57909   0.60937    0.005
 6337.00    0.54776   0.61004    0.005
 6338.00    0.51535   0.60899    0.005
 6339.00    0.45616   0.60723    0.005
 6340.00    0.39600   0.60598    0.005
 6341.00    0.37934   0.60618    0.005
 6342.00    0.36487   0.60809    0.005
 6343.00    0.42179   0.61118    0.005
 6344.00    0.47642   0.61457    0.005
 6345.00    0.49447   0.61740    0.005
 6346.00    0.51274   0.61893    0.005
 6347.00    0.53313   0.61860    0.005
 6348.00    0.55449   0.61638    0.005
 6349.00    0.58286   0.61282    0.005
 6350.00    0.60742   0.60858    0.005
 6351.00    0.61086   0.60398    0.005
 6352.00    0.60063   0.59923    0.005
 6353.00    0.52990   0.59447    0.005
 6354.00    0.46366   0.58979    0.005
 6355.00    0.41370   0.58544    0.005
 6356.00    0.39084   0.58205    0.005
 6357.00    0.45054   0.58031    0.005
 6358.00    0.49931   0.58070    0.005
 6359.00    0.51979   0.58333    0.005
 6360.00    0.55364   0.58793    0.005
 6361.00    0.61724   0.59381    0.005
 6362.00    0.67476   0.59989    0.006
 6363.00    0.72052   0.60518    0.006
 6364.00    0.72982   0.60924    0.006
 6365.00    0.67775   0.61225    0.006
 6366.00    0.61173   0.61468    0.006
 6367.00    0.52514   0.61691    0.006
 6368.00    0.43617   0.61905    0.006
 6369.00    0.34410   0.62083    0.006
 6370.00    0.31578   0.62177    0.006
 6371.00    0.36032   0.62145    0.005
 6372.00    0.39398   0.61992    0.005
 6373.00    0.41670   0.61756    0.005
 6374.00    0.41016   0.61501    0.005
 6375.00    0.37761   0.61296    0.005
 6376.00    0.33584   0.61178    0.005
 6377.00    0.28684   0.61147    0.005
 6378.00    0.28815   0.61181    0.005
 6379.00    0.32413   0.61260    0.005
 6380.00    0.38816   0.61366    0.005
 6381.00    0.46913   0.61485    0.005
 6382.00    0.50151   0.61601    0.005
 6383.00    0.50830   0.61678    0.005
 6384.00    0.48235   0.61658    0.005
 6385.00    0.44145   0.61476    0.005
 6386.00    0.39251   0.61114    0.005
 6387.00    0.34042   0.60651    0.005
 6388.00    0.34999   0.60240    0.005
 6389.00    0.38023   0.60021    0.005
 6390.00    0.45253   0.60050    0.005
 6391.00    0.53667   0.60242    0.005
 6392.00    0.56720   0.60397    0.006
 6393.00    0.58530   0.60365    0.006
 6394.00    0.61294   0.60175    0.006
 6395.00    0.64237   0.59989    0.006
 6396.00    0.60326   0.59983    0.006
 6397.00    0.55429   0.60244    0.006
 6398.00    0.43538   0.60687    0.006
 6399.00    0.30919   0.61114    0.006
 6400.00    0.31812   0.61336    0.005
 6401.00    0.33612   0.61296    0.005
 6402.00    0.42090   0.61070    0.005
 6403.00    0.50786   0.60775    0.005
 6404.00    0.52954   0.60501    0.005
 6405.00    0.55035   0.60307    0.005
 6406.00    0.54451   0.60203    0.005
 6407.00    0.53947   0.60175    0.005
 6408.00    0.54655   0.60222    0.005
 6409.00    0.55434   0.60340    0.005
 6410.00    0.56908   0.60490    0.005
 6411.00    0.58419   0.60600    0.005
 6412.00    0.60188   0.60589    0.005
 6413.00    0.61513   0.60419    0.005
 6414.00    0.60441   0.60138    0.005
 6415.00    0.58728   0.59875    0.005
 6416.00    0.54247   0.59776    0.005
 6417.00    0.49920   0.59925    0.006
 6418.00    0.46144   0.60306    0.006
 6419.00    0.45356   0.60811    0.005
 6420.00    0.53501   0.61293    0.005
 6421.00    0.60624   0.61623    0.005
 6422.00    0.65146   0.61717    0.005
 6423.00    0.68510   0.61545    0.005
 6424.00    0.69338   0.61150    0.005
 6425.00    0.68442   0.60656    0.005
 6426.00    0.64267   0.60232    0.005
 6427.00    0.60113   0.60028    0.005
 6428.00    0.55993   0.60098    0.005
 6429.00    0.53868   0.60358    0.005
 6430.00    0.54645   0.60627    0.005
 6431.00    0.53905   0.60736    0.005
 6432.00    0.51226   0.60635    0.005
 6433.00    0.48631   0.60423    0.005
 6434.00    0.46132   0.60272    0.005
 6435.00    0.46828   0.60334    0.005
 6436.00    0.50701   0.60656    0.005
 6437.00    0.56651   0.61153    0.005
 6438.00    0.64423   0.61670    0.006
 6439.00    0.65357   0.62056    0.006
 6440.00    0.61011   0.62204    0.006
 6441.00    0.58082   0.62039    0.006
 6442.00    0.56117   0.61537    0.005
 6443.00    0.56243   0.60770    0.005
 6444.00    0.57614   0.59922    0.006
 6445.00    0.58848   0.59236    0.005
 6446.00    0.60011   0.58908    0.005
 6447.00    0.57047   0.58971    0.005
 6448.00    0.52227   0.59289    0.006
 6449.00    0.46083   0.59665    0.006
 6450.00    0.39427   0.59972    0.006
 6451.00    0.36539   0.60208    0.005
 6452.00    0.34891   0.60433    0.005
 6453.00    0.33628   0.60660    0.005
 6454.00    0.32471   0.60802    0.005
 6455.00    0.35984   0.60743    0.005
 6456.00    0.40555   0.60453    0.005
 6457.00    0.44845   0.60032    0.005
 6458.00    0.49084   0.59677    0.005
 6459.00    0.46780   0.59574    0.005
 6460.00    0.43566   0.59772    0.005
 6461.00    0.48132   0.60164    0.005
 6462.00    0.53474   0.60566    0.005
 6463.00    0.58537   0.60820    0.005
 6464.00    0.63583   0.60870    0.005
 6465.00    0.59740   0.60764    0.005
 6466.00    0.55652   0.60593    0.005
 6467.00    0.55060   0.60444    0.005
 6468.00    0.54573   0.60367    0.005
 6469.00    0.56995   0.60366    0.005
 6470.00    0.59271   0.60414    0.005
 6471.00    0.59490   0.60484    0.005
 6472.00    0.59605   0.60542    0.005
 6473.00    0.58751   0.60533    0.005
 6474.00    0.58356   0.60397    0.005
 6475.00    0.61074   0.60114    0.005
 6476.00    0.62585   0.59728    0.005
 6477.00    0.57762   0.59349    0.005
 6478.00    0.53163   0.59106    0.005
 6479.00    0.49504   0.59081    0.005
 6480.00    0.47601   0.59261    0.005
 6481.00    0.51821   0.59544    0.005
 6482.00    0.54612   0.59791    0.005
 6483.00    0.53207   0.59885    0.005
 6484.00    0.51751   0.59747    0.005
 6485.00    0.50164   0.59325    0.005
 6486.00    0.47764   0.58593    0.005
 6487.00    0.43609   0.57575    0.005
 6488.00    0.41845   0.56362    0.005
 6489.00    0.44551   0.55130    0.005
 6490.00    0.49396   0.54112    0.005
 6491.00    0.57736   0.53518    0.005
 6492.00    0.63376   0.53451    0.005
 6493.00    0.65147   0.53876    0.005
 6494.00    0.61854   0.54647    0.005
 6495.00    0.52177   0.55591    0.005
 6496.00    0.47745   0.56561    0.005
 6497.00    0.49140   0.57455    0.005
 6498.00    0.53275   0.58214    0.005
 6499.00    0.60094   0.58806    0.005
 6500.00    0.62260   0.59224    0.005
 6501.00    0.60404   0.59479    0.005
 6502.00    0.58303   0.59599    0.005
 6503.00    0.56015   0.59629    0.005
 6504.00    0.55735   0.59622    0.005
 6505.00    0.56799   0.59617    0.005
 6506.00    0.59272   0.59620    0.005
 6507.00    0.62570   0.59597    0.005
 6508.00    0.62606   0.59502    0.005
 6509.00    0.60975   0.59308    0.005
 6510.00    0.59830   0.59023    0.005
 6511.00    0.58900   0.58703    0.005
 6512.00    0.57179   0.58433    0.005
 6513.00    0.55158   0.58292    0.005
 6514.00    0.54410   0.58325    0.005
 6515.00    0.54074   0.58521    0.005
 6516.00    0.48479   0.58818    0.005
 6517.00    0.41463   0.59120    0.005
 6518.00    0.42598   0.59339    0.005
 6519.00    0.45537   0.59427    0.005
 6520.00    0.50871   0.59387    0.005
 6521.00    0.56628   0.59260    0.005
 6522.00    0.59257   0.59111    0.005
 6523.00    0.61466   0.58992    0.005
 6524.00    0.62762   0.58921    0.005
 6525.00    0.63970   0.58877    0.005
 6526.00    0.64274   0.58826    0.005
 6527.00    0.64524   0.58764    0.005
 6528.00    0.58919   0.58718    0.000
 6529.00    0.53181   0.58731    0.000
 6530.00    0.49362   0.58818    0.000
 6531.00    0.45726   0.58958    0.000
 6532.00    0.46724   0.59109    0.000
 6533.00    0.47759   0.59234    0.000
 6534.00    0.49293   0.59304    0.000
 6535.00    0.51375   0.59287    0.000
 6536.00    0.58337   0.59149    0.000
 6537.00    0.64420   0.58865    0.000
 6538.00    0.64739   0.58445    0.000
 6539.00    0.64564   0.57937    0.000
 6540.00    0.61862   0.57420    0.000
 6541.00    0.59616   0.56984    0.000
 6542.00    0.59251   0.56694    0.000
 6543.00    0.58693   0.56553    0.000
 6544.00    0.57477   0.56500    0.000
 6545.00    0.55989   0.56428    0.000
 6546.00    0.53714   0.56246    0.000
 6547.00    0.52717   0.55913    0.000
 6548.00    0.54863   0.55449    0.000
 6549.00    0.56306   0.54910    0.000
 6550.00    0.56259   0.54356    0.000
 6551.00    0.56680   0.53811    0.000
 6552.00    0.57962   0.53212    0.000
 6553.00    0.60185   0.52403    0.000
 6554.00    0.63922   0.51209    0.000
 6555.00    0.63789   0.49562    0.000
 6556.00    0.58191   0.47625    0.000
 6557.00    0.51548   0.45834    0.000
 6558.00    0.43607   0.44756    0.000
 6559.00    0.42963   0.44792    0.000
 6560.00    0.50313   0.45949    0.000
 6561.00    0.59594   0.47831    0.000
 6562.00    0.70739   0.49864    0.000
 6563.00    0.75249   0.51574    0.000
 6564.00    0.74106   0.52757    0.000
 6565.00    0.68113   0.53437    0.000
 6566.00    0.58481   0.53761    0.000
 6567.00    0.54711   0.53890    0.000
 6568.00    0.54806   0.53968    0.000
 6569.00    0.51923   0.54113    0.000
 6570.00    0.47322   0.54402    0.000
 6571.00    0.43071   0.54847    0.000
 6572.00    0.38997   0.55378    0.000
 6573.00    0.39251   0.55878    0.000
 6574.00    0.41390   0.56250    0.000
 6575.00    0.46331   0.56462    0.000
 6576.00    0.52318   0.56562    0.000
 6577.00    0.56288   0.56624    0.000
 6578.00    0.59621   0.56704    0.000
 6579.00    0.60593   0.56818    0.000
 6580.00    0.60940   0.56954    0.000
 6581.00    0.56488   0.57095    0.000
 6582.00    0.50998   0.57224    0.000
 6583.00    0.47654   0.57301    0.000
 6584.00    0.44679   0.57262    0.000
 6585.00    0.46374   0.57039    0.000
 6586.00    0.48676   0.56621    0.000
 6587.00    0.48755   0.56089    0.000
 6588.00    0.48630   0.55606    0.000
 6589.00    0.52788   0.55334    0.000
 6590.00    0.57182   0.55343    0.000
 6591.00    0.59709   0.55588    0.000
 6592.00    0.62116   0.55955    0.000
 6593.00    0.56867   0.56343    0.000
 6594.00    0.51887   0.56705    0.000
 6595.00    0.53072   0.57027    0.000
 6596.00    0.54314   0.57287    0.000
 6597.00    0.56282   0.57441    0.000
 6598.00    0.58332   0.57446    0.000
 6599.00    0.61085   0.57292    0.000
 6600.00    0.63763   0.57016    0.000
 6601.00    0.65966   0.56681    0.000
 6602.00    0.67504   0.56368    0.000
 6603.00    0.65733   0.56151    0.000
 6604.00    0.62498   0.56092    0.000
 6605.00    0.53349   0.56210    0.000
 6606.00    0.46472   0.56470    0.000
 6607.00    0.47208   0.56795    0.000
 6608.00    0.47265   0.57108    0.000
 6609.00    0.45404   0.57363    0.005
 6610.00    0.44399   0.57552    0.005
 6611.00    0.45463   0.57690    0.005
 6612.00    0.48364   0.57791    0.005
 6613.00    0.55095   0.57861    0.005
 6614.00    0.60945   0.57897    0.005
 6615.00    0.65200   0.57883    0.005
 6616.00    0.64302   0.57792    0.005
 6617.00    0.55236   0.57606    0.005
 6618.00    0.48204   0.57334    0.005
 6619.00    0.44002   0.57033    0.005
 6620.00    0.40840   0.56775    0.005
 6621.00    0.38953   0.56615    0.005
 6622.00    0.38906   0.56554    0.005
 6623.00    0.40846   0.56539    0.005
 6624.00    0.44252   0.56495    0.005
 6625.00    0.49056   0.56366    0.005
 6626.00    0.52360   0.56140    0.005
 6627.00    0.54403   0.55860    0.005
 6628.00    0.52071   0.55609    0.005
 6629.00    0.46503   0.55479    0.005
 6630.00    0.46816   0.55519    0.005
 6631.00    0.50950   0.55713    0.005
 6632.00    0.55990   0.55982    0.005
 6633.00    0.61544   0.56229    0.005
 6634.00    0.60472   0.56385    0.005
 6635.00    0.56120   0.56426    0.005
 6636.00    0.53264   0.56367    0.005
 6637.00    0.51048   0.56244    0.005
 6638.00    0.53389   0.56106    0.005
 6639.00    0.57401   0.56008    0.005
 6640.00    0.58207   0.55989    0.005
 6641.00    0.58018   0.56051    0.005
 6642.00    0.51988   0.56163    0.005
 6643.00    0.44447   0.56279    0.005
 6644.00    0.42599   0.56362    0.005
 6645.00    0.41953   0.56396    0.005
 6646.00    0.47248   0.56386    0.005
 6647.00    0.53533   0.56348    0.005
 6648.00    0.54149   0.56303    0.005
 6649.00    0.54054   0.56268    0.005
 6650.00    0.51118   0.56246    0.005
 6651.00    0.47935   0.56225    0.005
 6652.00    0.47284   0.56186    0.005
 6653.00    0.46763   0.56104    0.005
 6654.00    0.44689   0.55955    0.005
 6655.00    0.42586   0.55726    0.005
 6656.00    0.40298   0.55427    0.005
 6657.00    0.38344   0.55100    0.005
 6658.00    0.43441   0.54809    0.005
 6659.00    0.48242   0.54621    0.005
 6660.00    0.49481   0.54571    0.005
 6661.00    0.50415   0.54657    0.005
 6662.00    0.48837   0.54851    0.005
 6663.00    0.47128   0.55114    0.005
 6664.00    0.44608   0.55410    0.005
 6665.00    0.42167   0.55701    0.005
 6666.00    0.40109   0.55945    0.005
 6667.00    0.37434   0.56101    0.005
 6668.00    0.32324   0.56130    0.005
 6669.00    0.30001   0.56004    0.005
 6670.00    0.36828   0.55713    0.005
 6671.00    0.43563   0.55289    0.005
 6672.00    0.50040   0.54820    0.005
 6673.00    0.52390   0.54432    0.005
 6674.00    0.44931   0.54238    0.005
 6675.00    0.38431   0.54279    0.005
 6676.00    0.33898   0.54509    0.005
 6677.00    0.32992   0.54828    0.005
 6678.00    0.38565   0.55139    0.005
 6679.00    0.43948   0.55383    0.005
 6680.00    0.49032   0.55540    0.005
 6681.00    0.52659   0.55622    0.005
 6682.00    0.54287   0.55652    0.005
 6683.00    0.54192   0.55658    0.005
 6684.00    0.52016   0.55659    0.005
 6685.00    0.51094   0.55659    0.005
 6686.00    0.51509   0.55640    0.005
 6687.00    0.53113   0.55577    0.005
 6688.00    0.55832   0.55445    0.005
 6689.00    0.56984   0.55242    0.005
 6690.00    0.56839   0.54996    0.005
 6691.00    0.58474   0.54767    0.005
 6692.00    0.61406   0.54621    0.005
 6693.00    0.61172   0.54598    0.005
 6694.00    0.58910   0.54689    0.005
 6695.00    0.56951   0.54831    0.005
 6696.00    0.55161   0.54945    0.000
 6697.00    0.50684   0.54977    0.000
 6698.00    0.44897   0.54924    0.000
 6699.00    0.44329   0.54827    0.000
 6700.00    0.45957   0.54743    0.000
 6701.00    0.49489   0.54706    0.000
 6702.00    0.53707   0.54712    0.000
 6703.00    0.53161   0.54729    0.000
 6704.00    0.51164   0.54720    0.000
 6705.00    0.53928   0.54657    0.000
 6706.00    0.57899   0.54526    0.000
 6707.00    0.56938   0.54320    0.000
 6708.00    0.54963   0.54038    0.000
 6709.00    0.53777   0.53694    0.000
 6710.00    0.52719   0.53325    0.000
 6711.00    0.50222   0.53001    0.000
 6712.00    0.47551   0.52801    0.000
 6713.00    0.48745   0.52781    0.000
 6714.00    0.50260   0.52944    0.000
 6715.00    0.51227   0.53233    0.000
 6716.00    0.52167   0.53561    0.000
 6717.00    0.60041   0.53852    0.000
 6718.00    0.67903   0.54062    0.000
 6719.00    0.69685   0.54183    0.000
 6720.00    0.71340   0.54235    0.000
 6721.00    0.70528   0.54252    0.000
 6722.00    0.69721   0.54275    0.000
 6723.00    0.68982   0.54329    0.000
 6724.00    0.68290   0.54412    0.000
 6725.00    0.67968   0.54500    0.000
 6726.00    0.67075   0.54560    0.000
 6727.00    0.62754   0.54574    0.000
 6728.00    0.58284   0.54543    0.000
 6729.00    0.53107   0.54479    0.000
 6730.00    0.49051   0.54391    0.000
 6731.00    0.49329   0.54280    0.000
 6732.00    0.48882   0.54145    0.000
 6733.00    0.46103   0.53996    0.000
 6734.00    0.43788   0.53853    0.000
 6735.00    0.42739   0.53740    0.000
 6736.00    0.41613   0.53665    0.000
 6737.00    0.40308   0.53621    0.000
 6738.00    0.39496   0.53595    0.000
 6739.00    0.39680   0.53573    0.000
 6740.00    0.42520   0.53541    0.000
 6741.00    0.50032   0.53485    0.000
 6742.00    0.55024   0.53396    0.000
 6743.00    0.56137   0.53281    0.000
 6744.00    0.54475   0.53163    0.000
 6745.00    0.49060   0.53072    0.000
 6746.00    0.46634   0.53032    0.000
 6747.00    0.47765   0.53055    0.000
 6748.00    0.52305   0.53145    0.000
 6749.00    0.60424   0.53299    0.000
 6750.00    0.65877   0.53510    0.000
 6751.00    0.68862   0.53758    0.000
 6752.00    0.73455   0.54019    0.000
 6753.00    0.79358   0.54259    0.006
 6754.00    0.77312   0.54447    0.006
 6755.00    0.69555   0.54565    0.006
 6756.00    0.53299   0.54608    0.006
 6757.00    0.31683   0.54580    0.006
 6758.00    0.21679   0.54487    0.006
 6759.00    0.18074   0.54335    0.006
 6760.00    0.28745   0.54127    0.006
 6761.00    0.46257   0.53884    0.006
 6762.00    0.55712   0.53645    0.006
 6763.00    0.61834   0.53453    0.006
 6764.00    0.63230   0.53344    0.006
 6765.00    0.62954   0.53331    0.006
 6766.00    0.55146   0.53412    0.006
 6767.00    0.45090   0.53578    0.006
 6768.00    0.51083   0.53809    0.006
 6769.00    0.61051   0.54075    0.006
 6770.00    0.68433   0.54335    0.006
 6771.00    0.75295   0.54548    0.006
 6772.00    0.72424   0.54686    0.006
 6773.00    0.68024   0.54730    0.006
 6774.00    0.57108   0.54667    0.006
 6775.00    0.45433   0.54486    0.006
 6776.00    0.39240   0.54188    0.006
 6777.00    0.33480   0.53802    0.006
 6778.00    0.46640   0.53394    0.006
 6779.00    0.60624   0.53049    0.006
 6780.00    0.60385   0.52843    0.006
 6781.00    0.59883   0.52805    0.006
 6782.00    0.54077   0.52913    0.006
 6783.00    0.48647   0.53102    0.006
 6784.00    0.49997   0.53296    0.006
 6785.00    0.51111   0.53436    0.006
 6786.00    0.49642   0.53492    0.006
 6787.00    0.48414   0.53470    0.005
 6788.00    0.49038   0.53397    0.006
 6789.00    0.49854   0.53313    0.006
 6790.00    0.51783   0.53258    0.006
 6791.00    0.52290   0.53253    0.006
 6792.00    0.46216   0.53304    0.006
 6793.00    0.43442   0.53396    0.006
 6794.00    0.53153   0.53506    0.006
 6795.00    0.61197   0.53608    0.006
 6796.00    0.63981   0.53679    0.006
 6797.00    0.65735   0.53706    0.006
 6798.00    0.64733   0.53689    0.006
 6799.00    0.66930   0.53638    0.006
 6800.00    0.76477   0.53571    0.006
 6801.00    0.81567   0.53506    0.006
 6802.00    0.77789   0.53450    0.006
 6803.00    0.72811   0.53407    0.006
 6804.00    0.65753   0.53375    0.006
 6805.00    0.61619   0.53351    0.007
 6806.00    0.61920   0.53330    0.007
 6807.00    0.60513   0.53305    0.008
 6808.00    0.56831   0.53278    0.008
 6809.00    0.56347   0.53258    0.007
 6810.00    0.59618   0.53259    0.007
 6811.00    0.64091   0.53291    0.006
 6812.00    0.69810   0.53346    0.006
 6813.00    0.69236   0.53403    0.006
 6814.00    0.62919   0.53453    0.006
 6815.00    0.56410   0.53502    0.006
 6816.00    0.49748   0.53571    0.006
 6817.00    0.46027   0.53664    0.006
 6818.00    0.44390   0.53762    0.006
 6819.00    0.46795   0.53824    0.006
 6820.00    0.51710   0.53813    0.006
 6821.00    0.52764   0.53719    0.006
 6822.00    0.51723   0.53571    0.006
 6823.00    0.53735   0.53424    0.006
 6824.00    0.57188   0.53330    0.006
 6825.00    0.59363   0.53316    0.005
 6826.00    0.61018   0.53372    0.005
 6827.00    0.65460   0.53460    0.005
 6828.00    0.70868   0.53541    0.006
 6829.00    0.68750   0.53577    0.006
 6830.00    0.64430   0.53540    0.007
 6831.00    0.50522   0.53403    0.008
 6832.00    0.34291   0.53153    0.008
 6833.00    0.46567   0.52802    0.008
 6834.00    0.64420   0.52396    0.008
 6835.00    0.73760   0.52010    0.007
 6836.00    0.81803   0.51731    0.006
 6837.00    0.82359   0.51627    0.006
 6838.00    0.82076   0.51720    0.006
 6839.00    0.66001   0.51975    0.006
 6840.00    0.48746   0.52315    0.006
 6841.00    0.38200   0.52650    0.006
 6842.00    0.27919   0.52915    0.006
 6843.00    0.31251   0.53084    0.006
 6844.00    0.35030   0.53158    0.006
 6845.00    0.52837   0.53153    0.005
 6846.00    0.69159   0.53078    0.005
 6847.00    0.60408   0.52933    0.005
 6848.00    0.51977   0.52723    0.005
 6849.00    0.46904   0.52469    0.005
 6850.00    0.42102   0.52216    0.005
 6851.00    0.39324   0.52011    0.005
 6852.00    0.38496   0.51882    0.005
 6853.00    0.48722   0.51822    0.005
 6854.00    0.57430   0.51807    0.005
 6855.00    0.59292   0.51820    0.006
 6856.00    0.59298   0.51867    0.006
 6857.00    0.52438   0.51963    0.006
 6858.00    0.47093   0.52104    0.006
 6859.00    0.46441   0.52248    0.006
 6860.00    0.47620   0.52335    0.006
 6861.00    0.53617   0.52327    0.006
 6862.00    0.55911   0.52236    0.006
 6863.00    0.49837   0.52112    0.006
 6864.00    0.45836   0.52009    0.005
 6865.00    0.45893   0.51954    0.005
 6866.00    0.43000   0.51942    0.005
 6867.00    0.35072   0.51956    0.005
 6868.00    0.31078   0.51990    0.005
 6869.00    0.32966   0.52050    0.005
 6870.00    0.38374   0.52144    0.005
 6871.00    0.48406   0.52263    0.005
 6872.00    0.53304   0.52381    0.005
 6873.00    0.52260   0.52459    0.005
 6874.00    0.52041   0.52461    0.005
 6875.00    0.52664   0.52377    0.005
 6876.00    0.53629   0.52235    0.005
 6877.00    0.54904   0.52092    0.005
 6878.00    0.56394   0.52009    0.005
 6879.00    0.58055   0.52025    0.006
 6880.00    0.61124   0.52141    0.006
 6881.00    0.65176   0.52331    0.006
 6882.00    0.67795   0.52562    0.006
 6883.00    0.69535   0.52801    0.006
 6884.00    0.68186   0.53019    0.006
 6885.00    0.65186   0.53190    0.006
 6886.00    0.65231   0.53294    0.005
 6887.00    0.66690   0.53323    0.005
 6888.00    0.64035   0.53286    0.005
 6889.00    0.59736   0.53208    0.005
 6890.00    0.55004   0.53121    0.005
 6891.00    0.50124   0.53051    0.005
 6892.00    0.45587   0.53011    0.005
 6893.00    0.41147   0.53000    0.005
 6894.00    0.49822   0.53010    0.005
 6895.00    0.61601   0.53035    0.005
 6896.00    0.54917   0.53073    0.006
 6897.00    0.44714   0.53122    0.006
 6898.00    0.47538   0.53177    0.006
 6899.00    0.52288   0.53236    0.006
 6900.00    0.44850   0.53298    0.006
 6901.00    0.36098   0.53362    0.006
 6902.00    0.34330   0.53420    0.006
 6903.00    0.33055   0.53449    0.006
 6904.00    0.23816   0.53423    0.006
 6905.00    0.14291   0.53320    0.005
 6906.00    0.23483   0.53139    0.005
 6907.00    0.32401   0.52901    0.005
 6908.00    0.29679   0.52646    0.005
 6909.00    0.26887   0.52426    0.005
 6910.00    0.22973   0.52286    0.005
 6911.00    0.19969   0.52252    0.005
 6912.00    0.26073   0.52320    0.005
 6913.00    0.32246   0.52463    0.005
 6914.00    0.38916   0.52633    0.005
 6915.00    0.44365   0.52772    0.005
 6916.00    0.43089   0.52829    0.005
 6917.00    0.43050   0.52771    0.005
 6918.00    0.48466   0.52612    0.005
 6919.00    0.52661   0.52403    0.006
 6920.00    0.52435   0.52225    0.006
 6921.00    0.51693   0.52142    0.006
 6922.00    0.49381   0.52172    0.006
 6923.00    0.49200   0.52281    0.006
 6924.00    0.54523   0.52405    0.006
 6925.00    0.57964   0.52488    0.006
 6926.00    0.57221   0.52509    0.005
 6927.00    0.54643   0.52484    0.005
 6928.00    0.48532   0.52455    0.005
 6929.00    0.45324   0.52456    0.005
 6930.00    0.46995   0.52502    0.005
 6931.00    0.44835   0.52583    0.005
 6932.00    0.37032   0.52678    0.005
 6933.00    0.30250   0.52764    0.005
 6934.00    0.24789   0.52822    0.005
 6935.00    0.26620   0.52826    0.005
 6936.00    0.36768   0.52754    0.005
 6937.00    0.42488   0.52598    0.006
 6938.00    0.43753   0.52383    0.006
 6939.00    0.40274   0.52170    0.006
 6940.00    0.32585   0.52029    0.006
 6941.00    0.34884   0.52002    0.006
 6942.00    0.44994   0.52080    0.006
 6943.00    0.45591   0.52204    0.006
 6944.00    0.39647   0.52299    0.006
 6945.00    0.34440   0.52316    0.006
 6946.00    0.29678   0.52254    0.006
 6947.00    0.28090   0.52155    0.005
 6948.00    0.28172   0.52077    0.005
 6949.00    0.32150   0.52064    0.005
 6950.00    0.37905   0.52129    0.005
 6951.00    0.41711   0.52254    0.005
 6952.00    0.44751   0.52407    0.005
 6953.00    0.38137   0.52556    0.005
 6954.00    0.28293   0.52682    0.005
 6955.00    0.29725   0.52782    0.005
 6956.00    0.34323   0.52858    0.005
 6957.00    0.35780   0.52910    0.006
 6958.00    0.36510   0.52939    0.006
 6959.00    0.38084   0.52951    0.006
 6960.00    0.39816   0.52957    0.006
 6961.00    0.40116   0.52970    0.006
 6962.00    0.40213   0.52997    0.006
 6963.00    0.45679   0.53026    0.006
 6964.00    0.51700   0.53038    0.006
 6965.00    0.45673   0.53015    0.006
 6966.00    0.38843   0.52948    0.006
 6967.00    0.39511   0.52830    0.006
 6968.00    0.40419   0.52641    0.006
 6969.00    0.37233   0.52353    0.005
 6970.00    0.34430   0.51953    0.005
 6971.00    0.43364   0.51471    0.005
 6972.00    0.51943   0.51000    0.005
 6973.00    0.55244   0.50663    0.005
 6974.00    0.57243   0.50569    0.005
 6975.00    0.46741   0.50760    0.006
 6976.00    0.37122   0.51183    0.006
 6977.00    0.33647   0.51717    0.006
 6978.00    0.30371   0.52228    0.006
 6979.00    0.28158   0.52615    0.006
 6980.00    0.27071   0.52835    0.006
 6981.00    0.30836   0.52897    0.006
 6982.00    0.34241   0.52846    0.006
 6983.00    0.36370   0.52742    0.006
 6984.00    0.37213   0.52646    0.006
 6985.00    0.34224   0.52598    0.006
 6986.00    0.32976   0.52612    0.006
 6987.00    0.36148   0.52669    0.006
 6988.00    0.40563   0.52733    0.006
 6989.00    0.47697   0.52770    0.006
 6990.00    0.53181   0.52756    0.006
 6991.00    0.55535   0.52682    0.006
 6992.00    0.52847   0.52546    0.005
 6993.00    0.41813   0.52364    0.005
 6994.00    0.38306   0.52166    0.005
 6995.00    0.45726   0.51991    0.006
 6996.00    0.50344   0.51864    0.006
 6997.00    0.51387   0.51782    0.006
 6998.00    0.49904   0.51725    0.006
 6999.00    0.45580   0.51677    0.006
 7000.00    0.44932   0.51649    0.006
 7001.00    0.47931   0.51663    0.006
 7002.00    0.46677   0.51733    0.006
 7003.00    0.41703   0.51844    0.006
 7004.00    0.42612   0.51959    0.006
 7005.00    0.48055   0.52034    0.006
 7006.00    0.45638   0.52032    0.006
 7007.00    0.37893   0.51931    0.006
 7008.00    0.34682   0.51729    0.006
 7009.00    0.34163   0.51455    0.006
 7010.00    0.36820   0.51179    0.006
 7011.00    0.41122   0.50996    0.006
 7012.00    0.42000   0.50985    0.006
 7013.00    0.41342   0.51157    0.006
 7014.00    0.41034   0.51436    0.006
 7015.00    0.40861   0.51695    0.006
 7016.00    0.43028   0.51824    0.006
 7017.00    0.45963   0.51789    0.006
 7018.00    0.48903   0.51642    0.006
 7019.00    0.51844   0.51481    0.006
 7020.00    0.54089   0.51397    0.006
 7021.00    0.56175   0.51430    0.006
 7022.00    0.52798   0.51564    0.006
 7023.00    0.48435   0.51750    0.006
 7024.00    0.46237   0.51933    0.006
 7025.00    0.44339   0.52076    0.006
 7026.00    0.38806   0.52161    0.006
 7027.00    0.32912   0.52189    0.006
 7028.00    0.35657   0.52170    0.006
 7029.00    0.38942   0.52116    0.006
 7030.00    0.45295   0.52036    0.006
 7031.00    0.51686   0.51949    0.006
 7032.00    0.44886   0.51897    0.006
 7033.00    0.38488   0.51935    0.006
 7034.00    0.43110   0.52112    0.006
 7035.00    0.46736   0.52426    0.006
 7036.00    0.36384   0.52813    0.006
 7037.00    0.27744   0.53172    0.006
 7038.00    0.34898   0.53424    0.006
 7039.00    0.41187   0.53549    0.006
 7040.00    0.41636   0.53589    0.006
 7041.00    0.42364   0.53601    0.006
 7042.00    0.44548   0.53609    0.006
 7043.00    0.47111   0.53584    0.006
 7044.00    0.51270   0.53460    0.006
 7045.00    0.54545   0.53178    0.006
 7046.00    0.54744   0.52722    0.006
 7047.00    0.55225   0.52141    0.006
 7048.00    0.56533   0.51531    0.006
 7049.00    0.57476   0.50999    0.006
 7050.00    0.57510   0.50611   -2.000
 7051.00    0.56114   0.50371   -2.000
 7052.00    0.51644   0.50226   -2.000
 7053.00    0.49371   0.50110   -2.000
 7054.00    0.51198   0.49988   -2.000
 7055.00    0.47375   0.49868   -2.000
 7056.00    0.34336   0.49783   -2.000
 7057.00    0.32293   0.49752   -2.000
 7058.00    0.45980   0.49756   -2.000
 7059.00    0.53167   0.49746   -2.000
 7060.00    0.52177   0.49679   -2.000
 7061.00    0.52348   0.49548   -2.000
 7062.00    0.53807   0.49402   -2.000
 7063.00    0.53042   0.49318   -2.000
 7064.00    0.50102   0.49360   -2.000
 7065.00    0.50600   0.49540   -2.000
 7066.00    0.54061   0.49811   -2.000
 7067.00    0.50872   0.50100   -2.000
 7068.00    0.42630   0.50340   -2.000
 7069.00    0.39740   0.50502   -2.000
 7070.00    0.40423   0.50595   -2.000
 7071.00    0.48232   0.50646   -2.000
 7072.00    0.60210   0.50676   -2.000
 7073.00    0.65123   0.50689   -2.000
 7074.00    0.66436   0.50657   -2.000
 7075.00    0.64372   0.50537   -2.000
 7076.00    0.60817   0.50287   -2.000
 7077.00    0.59226   0.49896   -2.000
 7078.00    0.58379   0.49398   -2.000
 7079.00    0.50141   0.48865   -2.000
 7080.00    0.39522   0.48376   -2.000
 7081.00    0.39901   0.47982   -2.000
 7082.00    0.43242   0.47691   -2.000
 7083.00    0.46269   0.47480   -2.000
 7084.00    0.49227   0.47325   -2.000
 7085.00    0.52919   0.47211   -2.000
 7086.00    0.56740   0.47139   -2.000
 7087.00    0.48730   0.47109   -2.000
 7088.00    0.39135   0.47120   -2.000
 7089.00    0.44281   0.47168   -2.000
 7090.00    0.50829   0.47255   -2.000
 7091.00    0.58449   0.47381   -2.000
 7092.00    0.66132   0.47545   -2.000
 7093.00    0.67971   0.47730   -2.000
 7094.00    0.69562   0.47910   -2.000
 7095.00    0.57023   0.48058   -2.000
 7096.00    0.44641   0.48159   -2.000
 7097.00    0.36187   0.48220   -2.000
 7098.00    0.28670   0.48258   -2.000
 7099.00    0.33603   0.48282   -2.000
 7100.00    0.38536   0.48291   -2.000
 7101.00    0.43463   0.48270   -2.000
 7102.00    0.47108   0.48207   -2.000
 7103.00    0.42380   0.48104   -2.000
 7104.00    0.38344   0.47977   -2.000
 7105.00    0.37831   0.47856   -2.000
 7106.00    0.38587   0.47776   -2.000
 7107.00    0.44562   0.47766   -2.000
 7108.00    0.47257   0.47833   -2.000
 7109.00    0.38775   0.47958   -2.000
 7110.00    0.38728   0.48105   -2.000
 7111.00    0.62918   0.48232   -2.000
 7112.00    0.77343   0.48309   -2.000
 7113.00    0.67810   0.48326   -2.000
 7114.00    0.56394   0.48289   -2.000
 7115.00    0.40992   0.48213   -2.000
 7116.00    0.34933   0.48115   -2.000
 7117.00    0.46054   0.48007   -2.000
 7118.00    0.55742   0.47888   -2.000
 7119.00    0.63130   0.47747   -2.000
 7120.00    0.65084   0.47576   -2.000
 7121.00    0.59380   0.47373   -2.000
 7122.00    0.56891   0.47148   -2.000
 7123.00    0.58392   0.46921   -2.000
 7124.00    0.65036   0.46721   -2.000
 7125.00    0.77302   0.46585   -2.000
 7126.00    0.67570   0.46551   -2.000
 7127.00    0.36622   0.46640   -2.000
 7128.00    0.21199   0.46839   -2.000
 7129.00    0.18976   0.47100   -2.000
 7130.00    0.25395   0.47362   -2.000
 7131.00    0.38286   0.47570   -2.000
 7132.00    0.48752   0.47700   -2.000
 7133.00    0.57624   0.47759   -2.000
 7134.00    0.56685   0.47776   -2.000
 7135.00    0.50096   0.47779   -2.000
 7136.00    0.44736   0.47783   -2.000
 7137.00    0.39993   0.47778   -2.000
 7138.00    0.49928   0.47743   -2.000
 7139.00    0.66237   0.47651   -2.000
 7140.00    0.60751   0.47494   -2.000
 7141.00    0.47148   0.47288   -2.000
 7142.00    0.51584   0.47083   -2.000
 7143.00    0.61719   0.46944   -2.000
 7144.00    0.58136   0.46927   -2.000
 7145.00    0.50936   0.47054   -2.000
 7146.00    0.52766   0.47298   -2.000
 7147.00    0.56543   0.47596   -2.000
 7148.00    0.58265   0.47883   -2.000
 7149.00    0.59636   0.48112   -2.000
 7150.00    0.51775   0.48267   -2.000
 7151.00    0.42719   0.48353   -2.000
 7152.00    0.54439   0.48375   -2.000
 7153.00    0.68046   0.48337   -2.000
 7154.00    0.65888   0.48238   -2.000
 7155.00    0.62868   0.48076   -2.000
 7156.00    0.59329   0.47856   -2.000
 7157.00    0.55705   0.47591   -2.000
 7158.00    0.45297   0.47314   -2.000
 7159.00    0.37394   0.47086   -2.000
 7160.00    0.86340   0.46975   -2.000
 7161.00    1.30625   0.47025   -2.000
 7162.00    1.16190   0.47225   -2.000
 7163.00    1.03864   0.47515   -2.000
 7164.00    1.09533   0.47822   -2.000
 7165.00    1.08257   0.48085   -2.000
 7166.00    0.62963   0.48276   -2.000
 7167.00    0.28746   0.48383   -2.000
 7168.00    0.49524   0.48404   -2.000
 7169.00    0.67116   0.48347   -2.000
 7170.00    0.71882   0.48230   -2.000
 7171.00    0.70529   0.48076   -2.000
 7172.00    0.48735   0.47901   -2.000
 7173.00    0.35342   0.47715   -2.000
 7174.00    0.45650   0.47530   -2.000
 7175.00    0.54094   0.47373   -2.000
 7176.00    0.58040   0.47283   -2.000
 7177.00    0.61327   0.47276   -2.000
 7178.00    0.63242   0.47324   -2.000
 7179.00    0.67632   0.47354   -2.000
 7180.00    0.76505   0.47298   -2.000
 7181.00    0.76840   0.47135   -2.000
 7182.00    0.63660   0.46909   -2.000
 7183.00    0.54912   0.46702   -2.000
 7184.00    0.52318   0.46584   -2.000
 7185.00    0.48837   0.46579   -2.000
 7186.00    0.44269   0.46663   -2.000
 7187.00    0.46448   0.46792   -2.000
 7188.00    0.55899   0.46924   -2.000
 7189.00    0.53821   0.47039   -2.000
 7190.00    0.40782   0.47131   -2.000
 7191.00    0.40726   0.47204   -2.000
 7192.00    0.51554   0.47263   -2.000
 7193.00    0.47563   0.47313   -2.000
 7194.00    0.32635   0.47357   -2.000
 7195.00    0.40208   0.47398   -2.000
 7196.00    0.62368   0.47432   -2.000
 7197.00    0.54453   0.47450   -2.000
 7198.00    0.29477   0.47430   -2.000
 7199.00    0.48988   0.47341   -2.000
 7200.00    0.90469   0.47169   -2.000
 7201.00    1.07398   0.46942   -2.000
 7202.00    1.13844   0.46734   -2.000
 7203.00    0.85362   0.46632   -2.000
 7204.00    0.44102   0.46683   -2.000
 7205.00    0.30327   0.46865   -2.000
 7206.00    0.25067   0.47099   -2.000
 7207.00    0.36526   0.47304   -2.000
 7208.00    0.52302   0.47439   -2.000
 7209.00    0.51036   0.47515   -2.000
 7210.00    0.46186   0.47575   -2.000
 7211.00    0.53452   0.47654   -2.000
 7212.00    0.62730   0.47754   -2.000
 7213.00    0.71943   0.47849   -2.000
 7214.00    0.81148   0.47906   -2.000
 7215.00    0.79084   0.47913   -2.000
 7216.00    0.76045   0.47889   -2.000
 7217.00    0.54787   0.47875   -2.000
 7218.00    0.32604   0.47907   -2.000
