###################################################################
## OUTPUT of StarlightChains_v04.for    [Cid@UFSC - 01/Apr/2007] ##
###################################################################

## Some input info
KUG0210-078._28_46.txt                   [arq_obs]
Base.CB07.vall.4m                        [arq_base]
Masks.EmLines.NEW.gm                     [arq_masks]
StCv04.C11.config                        [arq_config]
   66                                    [N_base]
    0                                    [N_YAV_components = # of components with extra extinction!]
    0                                    [i_FitPowerLaw (1/0 = Yes/No)]
-9.99                                    [alpha_PowerLaw]
CCM                                      [red_law_option]
 1.458241                                [q_norm = A(l_norm)/A(V)]

## (Re)Sampling Parameters
 3741.00                                 [l_ini (A)]
 7218.00                                 [l_fin (A)]
    1.00                                 [dl    (A)]     (OBS: dl_cushion =    50.00 A)

## Normalization info
 4020.00                                 [l_norm (A) - for base]
 4010.00                                 [llow_norm (A) - window for f_obs]
 4060.00                                 [lupp_norm (A) - window for f_obs]
9.223184E-18                             [fobs_norm (in input units)]

## S/N
 3691.00                                 [llow_SN (A) - window for S/N]
 7268.00                                 [lupp_SN (A) - window for S/N]
   2.775                                 [S/N in S/N window]
   4.481                                 [S/N in norm. window]
   0.007                                 [S/N_err in S/N window]
   0.011                                 [S/N_err in norm. window]
  1.0000                                 [fscale_chi2]

## etc...
    -2007393                             [idum_orig]
  2391                                   [NOl_eff]
  2149                                   [Nl_eff]
   242    NSIGMA                         [Ntot_cliped & clip_method]
  5881330                                [Nglobal_steps]
   7                                     [N_chains]
  20                                     [NEX0s_base = N_base in EX0s-fits]
 0   0   1      242   2.0   6.396E+03    [Clip-Bug, RC-Crash & Burn-In warning-flags, n_censored_weights, wei_nsig_threshold & wei_limit]
    44     43.254     42.855      0.399  [idt_all, wdt_TotTime, wdt_UsrTime & wdt_SysTime (sec)]

## Synthesis Results - Best model ##

 2.65079E-05                             [chi2/Nl_eff]
    25.87596                             [adev (%)]

   130.00000                             [sum-of-x (%)]
 3.12988E-18                             [Flux_tot (units of input spectrum!)]
 9.95087E-14                             [Mini_tot (???)]
 4.94261E-14                             [Mcor_tot (???)]

 283.08                                  [v0_min  (km/s)]
 148.28                                  [vd_min  (km/s)]
-1.0000                                  [AV_min  (mag)]
 0.0000                                  [YAV_min (mag)]

# j     x_j(%)      Mini_j(%)     Mcor_j(%)     age_j(yr)     Z_j      (L/M)_j    YAV?  Mstars   component_j        a/Fe...       SSP_chi2r SSP_adev(%)   SSP_AV   SSP_x(%)
  1      0.0000     0.0000E+00    0.0000E+00    1.000000E+06  0.00400  1.094E-02    0   1.0000   age020_m42            0.0000     2.4396E-05    35.2166   0.6137   147.2323
  2      0.0000     0.0000E+00    0.0000E+00    3.160000E+06  0.00400  4.007E-02    0   0.9999   age045_m42            0.0000     2.2963E-05    34.0580  -0.0009   149.0643
  3      7.7632     7.3978E-03    1.4131E-02    5.010000E+06  0.00400  2.539E-02    0   0.9488   age055_m42            0.0000     2.3506E-05    34.4265   0.2726   148.8461
  4      0.0000     0.0000E+00    0.0000E+00    6.610000E+06  0.00400  2.620E-02    0   0.9220   age061_m42            0.0000     2.2902E-05    33.8294  -0.0646   149.0139
  5      0.0000     0.0000E+00    0.0000E+00    1.000000E+07  0.00400  1.322E-02    0   0.8862   age070_m42            0.0000     2.1827E-05    32.5439  -0.3101   149.8379
  6      0.0000     0.0000E+00    0.0000E+00    1.445000E+07  0.00400  7.883E-03    0   0.8571   age078_m42            0.0000     2.2606E-05    33.0703  -0.0218   148.9540
  7      0.0000     0.0000E+00    0.0000E+00    2.512000E+07  0.00400  5.251E-03    0   0.8174   age090_m42            0.0000     2.1804E-05    32.3439  -0.4300   149.9340
  8      0.0000     0.0000E+00    0.0000E+00    4.000000E+07  0.00400  3.649E-03    0   0.7851   age104_m42            0.0000     2.1636E-05    32.2552  -0.6405   149.9799
  9      9.2400     7.2163E-02    1.1084E-01    5.500000E+07  0.00400  3.098E-03    0   0.7629   age110_m42            0.0000     2.1914E-05    32.6245  -0.4834   149.7254
 10      0.8775     9.5295E-03    1.3827E-02    1.015200E+08  0.00400  2.228E-03    0   0.7207   age116_m42            0.0000     2.2005E-05    32.8550  -0.4606   149.6612
 11      0.0000     0.0000E+00    0.0000E+00    2.861200E+08  0.00400  1.093E-03    0   0.6648   age125_m42            0.0000     2.1299E-05    32.2799  -0.9919   150.9465
 12      0.0000     0.0000E+00    0.0000E+00    5.088000E+08  0.00400  6.597E-04    0   0.6365   age130_m42            0.0000     2.1442E-05    32.6304  -1.0000   151.6730
 13      0.0000     0.0000E+00    0.0000E+00    1.434000E+09  0.00400  2.132E-04    0   0.5798   age139_m42            0.0000     4.1503E-05    31.0508  -1.0000   125.8904
 14      0.0000     0.0000E+00    0.0000E+00    4.250000E+09  0.00400  5.895E-05    0   0.5377   age158_m42            0.0000     7.3318E-05    35.1665  -1.0000   106.0350
 15      0.0000     0.0000E+00    0.0000E+00    7.500000E+09  0.00400  3.510E-05    0   0.5212   age171_m42            0.0000     8.8133E-05    36.0331  -1.0000    98.0177
 16      0.0000     0.0000E+00    0.0000E+00    1.300000E+10  0.00400  2.005E-05    0   0.5034   age193_m42            0.0000     1.0180E-04    36.4393  -1.0000    90.9613
 17      0.0000     0.0000E+00    0.0000E+00    1.800000E+10  0.00400  1.525E-05    0   0.4967   age213_m42            0.0000     1.0458E-04    36.3146  -1.0000    89.5554
 18      0.0000     0.0000E+00    0.0000E+00    1.000000E+06  0.00800  1.238E-02    0   1.0000   age020_m52            0.0000     2.4199E-05    35.1257   0.6134   147.3577
 19      0.0000     0.0000E+00    0.0000E+00    3.160000E+06  0.00800  3.074E-02    0   0.9966   age045_m52            0.0000     2.3857E-05    34.9755   0.5454   147.9454
 20      0.0000     0.0000E+00    0.0000E+00    5.010000E+06  0.00800  2.668E-02    0   0.9443   age055_m52            0.0000     2.3406E-05    34.4076   0.3438   148.3632
 21      0.0000     0.0000E+00    0.0000E+00    6.610000E+06  0.00800  2.136E-02    0   0.9177   age061_m52            0.0000     2.1070E-05    32.3948  -0.8058   151.0969
 22      0.0000     0.0000E+00    0.0000E+00    1.000000E+07  0.00800  1.215E-02    0   0.8827   age070_m52            0.0000     2.1548E-05    32.3577  -0.1436   149.9749
 23      0.0000     0.0000E+00    0.0000E+00    1.445000E+07  0.00800  8.717E-03    0   0.8552   age078_m52            0.0000     2.2040E-05    32.7971  -0.0436   149.6865
 24     14.5068     6.2766E-02    1.0314E-01    2.512000E+07  0.00800  5.592E-03    0   0.8162   age090_m52            0.0000     2.1342E-05    32.1232  -0.3583   150.6375
 25      0.0000     0.0000E+00    0.0000E+00    4.000000E+07  0.00800  3.896E-03    0   0.7841   age104_m52            0.0000     2.1467E-05    32.2092  -0.4296   150.8525
 26      0.0000     0.0000E+00    0.0000E+00    1.015200E+08  0.00800  2.148E-03    0   0.7226   age116_m52            0.0000     2.1802E-05    32.6160  -0.4891   150.5615
 27      0.0000     0.0000E+00    0.0000E+00    2.861200E+08  0.00800  9.925E-04    0   0.6683   age125_m52            0.0000     2.0662E-05    32.0767  -0.9036   151.5929
 28      0.0000     0.0000E+00    0.0000E+00    9.047900E+08  0.00800  3.141E-04    0   0.6138   age135_m52            0.0000     3.0513E-05    29.6875  -1.0000   137.3813
 29      0.0000     0.0000E+00    0.0000E+00    1.434000E+09  0.00800  1.719E-04    0   0.5853   age139_m52            0.0000     6.1299E-05    33.5600  -1.0000   114.1146
 30      0.0000     0.0000E+00    0.0000E+00    2.500000E+09  0.00800  7.872E-05    0   0.5600   age150_m52            0.0000     8.3863E-05    35.4503  -1.0000   101.0988
 31      0.0000     0.0000E+00    0.0000E+00    4.250000E+09  0.00800  4.336E-05    0   0.5426   age158_m52            0.0000     8.5984E-05    35.9696  -1.0000    99.9495
 32      0.0000     0.0000E+00    0.0000E+00    6.250000E+09  0.00800  3.159E-05    0   0.5319   age166_m52            0.0000     1.0255E-04    36.3661  -1.0000    91.7947
 33      0.0000     0.0000E+00    0.0000E+00    1.300000E+10  0.00800  1.361E-05    0   0.5073   age193_m52            0.0000     1.4225E-04    36.0426  -1.0000    73.0235
 34      0.0000     0.0000E+00    0.0000E+00    1.800000E+10  0.00800  9.886E-06    0   0.4990   age213_m52            0.0000     1.5272E-04    35.7413  -1.0000    68.7345
 35      0.0000     0.0000E+00    0.0000E+00    1.000000E+06  0.02000  1.544E-02    0   1.0000   age020_m62            0.0000     2.3935E-05    35.0361   0.6117   147.5632
 36      0.0000     0.0000E+00    0.0000E+00    3.160000E+06  0.02000  3.762E-02    0   0.9858   age045_m62            0.0000     2.3425E-05    34.7843   0.5629   148.1729
 37      0.0000     0.0000E+00    0.0000E+00    5.010000E+06  0.02000  3.296E-02    0   0.9342   age055_m62            0.0000     2.2830E-05    34.0537   0.2644   148.8980
 38      0.0000     0.0000E+00    0.0000E+00    8.710000E+06  0.02000  1.154E-02    0   0.8861   age067_m62            0.0000     1.9683E-05    30.7019  -0.6704   151.6846
 39      0.0000     0.0000E+00    0.0000E+00    1.445000E+07  0.02000  7.663E-03    0   0.8472   age078_m62            0.0000     2.0681E-05    31.6286  -0.4714   151.2274
 40      0.0000     0.0000E+00    0.0000E+00    2.512000E+07  0.02000  4.532E-03    0   0.8099   age090_m62            0.0000     2.0965E-05    31.7541  -0.4868   150.8499
 41      0.0000     0.0000E+00    0.0000E+00    5.500000E+07  0.02000  2.733E-03    0   0.7595   age110_m62            0.0000     2.1394E-05    32.2777  -0.4590   150.4916
 42      0.0000     0.0000E+00    0.0000E+00    1.609000E+08  0.02000  1.369E-03    0   0.6985   age120_m62            0.0000     2.0812E-05    32.1324  -0.5678   151.0992
 43      1.7907     4.8070E-02    6.4977E-02    2.861200E+08  0.02000  9.013E-04    0   0.6714   age125_m62            0.0000     2.0233E-05    31.8597  -0.7771   152.2897
 44      0.0000     0.0000E+00    0.0000E+00    5.088000E+08  0.02000  5.028E-04    0   0.6449   age130_m62            0.0000     2.0385E-05    30.8166  -1.0000   151.5152
 45      0.0000     0.0000E+00    0.0000E+00    9.047900E+08  0.02000  2.428E-04    0   0.6179   age135_m62            0.0000     3.2916E-05    30.5519  -1.0000   135.4960
 46      0.0000     0.0000E+00    0.0000E+00    1.434000E+09  0.02000  1.263E-04    0   0.5908   age139_m62            0.0000     5.6513E-05    33.9544  -1.0000   118.0564
 47      0.0000     0.0000E+00    0.0000E+00    2.500000E+09  0.02000  5.985E-05    0   0.5673   age150_m62            0.0000     8.3647E-05    35.9231  -1.0000   102.0020
 48      1.8285     1.3525E+00    1.4889E+00    4.250000E+09  0.02000  3.271E-05    0   0.5468   age158_m62            0.0000     1.1011E-04    36.1124  -1.0000    88.5904
 49      0.0000     0.0000E+00    0.0000E+00    1.000000E+10  0.02000  1.360E-05    0   0.5167   age181_m62            0.0000     1.4083E-04    35.4950  -1.0000    74.4964
 50      0.0000     0.0000E+00    0.0000E+00    1.800000E+10  0.02000  7.124E-06    0   0.5013   age213_m62            0.0000     1.5987E-04    34.8984  -1.0000    66.2454
 51     12.4884     1.1657E-02    2.3465E-02    1.000000E+06  0.05000  2.592E-02    0   0.9998   age020_m72            0.0000     2.3653E-05    34.9815   0.5979   147.8810
 52     12.2997     6.1422E-03    1.1843E-02    3.160000E+06  0.05000  4.845E-02    0   0.9577   age045_m72            0.0000     2.3344E-05    34.6322   0.4708   148.4254
 53     11.2779     8.8824E-03    1.6357E-02    5.010000E+06  0.05000  3.072E-02    0   0.9147   age055_m72            0.0000     2.1858E-05    33.4971  -0.0000   150.9896
 54     16.5924     2.7591E-02    4.9311E-02    6.610000E+06  0.05000  1.455E-02    0   0.8877   age061_m72            0.0000     1.9404E-05    31.1505  -0.6293   152.0475
 55      0.0000     0.0000E+00    0.0000E+00    1.000000E+07  0.05000  9.074E-03    0   0.8524   age070_m72            0.0000     2.2201E-05    33.1428   0.2448   149.6616
 56      0.0000     0.0000E+00    0.0000E+00    2.512000E+07  0.05000  4.250E-03    0   0.7902   age090_m72            0.0000     2.2057E-05    32.7536  -0.0313   149.8060
 57      0.0000     0.0000E+00    0.0000E+00    4.000000E+07  0.05000  3.087E-03    0   0.7618   age104_m72            0.0000     2.1536E-05    32.4354  -0.2402   150.2216
 58     22.1136     3.1473E-01    4.4963E-01    1.015200E+08  0.05000  1.700E-03    0   0.7096   age116_m72            0.0000     2.0956E-05    32.0955  -0.4396   151.0294
 59      0.8757     2.8694E-02    3.8318E-02    2.861200E+08  0.05000  7.384E-04    0   0.6633   age125_m72            0.0000     2.0247E-05    32.1059  -0.9048   153.8292
 60      0.0000     0.0000E+00    0.0000E+00    5.088000E+08  0.05000  3.819E-04    0   0.6372   age130_m72            0.0000     2.3423E-05    29.7572  -1.0000   146.8016
 61      0.0000     0.0000E+00    0.0000E+00    9.047900E+08  0.05000  1.676E-04    0   0.6110   age135_m72            0.0000     5.1178E-05    33.9329  -1.0000   122.8405
 62      0.0000     0.0000E+00    0.0000E+00    1.434000E+09  0.05000  8.837E-05    0   0.5874   age139_m72            0.0000     8.3723E-05    35.6446  -1.0000   103.2234
 63      0.0000     0.0000E+00    0.0000E+00    2.500000E+09  0.05000  4.233E-05    0   0.5598   age150_m72            0.0000     1.1011E-04    35.8273  -1.0000    89.1473
 64      0.0000     0.0000E+00    0.0000E+00    6.250000E+09  0.05000  1.435E-05    0   0.5249   age166_m72            0.0000     1.5070E-04    34.7367  -1.0000    70.2476
 65      0.0000     0.0000E+00    0.0000E+00    1.300000E+10  0.05000  6.513E-06    0   0.5036   age193_m72            0.0000     1.7475E-04    33.7643  -1.0000    60.8581
 66     18.3457     9.8050E+01    9.7615E+01    1.800000E+10  0.05000  4.527E-06    0   0.4945   age213_m72            0.0000     1.8884E-04    33.1653  -1.0000    55.3822


## Synthesis Results - Average & Chains ##

# j      x_j: min, <> & last-chain-values for 1 ...  7 chains
  1      0.0000      0.0824      0.0767      0.1313      0.3117      0.0285      0.1178      0.1664      0.0839
  2      0.0000      0.0939      0.0417      0.1728      0.0877      0.0568      0.0168      0.1272      0.1900
  3      7.7632      0.1166      0.0167      0.1629      0.1484      0.1494      0.0749      0.1309      0.3576
  4      0.0000      0.1309      0.0747      0.0000      0.2320      0.0000      0.0609      0.0004      0.0165
  5      0.0000      0.1065      0.0825      0.2214      0.0389      0.0154      0.1703      0.1122      0.2354
  6      0.0000      0.1188      0.0458      0.0608      0.0819      0.0679      0.0000      0.0000      0.6303
  7      0.0000      0.4520      0.4373      0.4187      0.6370      0.7115      0.6594      0.4037      0.2919
  8      0.0000      0.1426      0.0116      0.2949      0.1420      0.2849      0.0783      0.0000      0.6303
  9      9.2400     34.6813     37.4554     35.1818     35.1246     36.3953     36.0353     36.0316     30.9424
 10      0.8775      0.6126      0.6153      0.7224      0.8398      0.9554      0.7117      0.5589      0.4030
 11      0.0000      0.1700      0.1246      0.0000      0.3053      0.0892      0.3200      0.1643      0.0000
 12      0.0000      0.1195      0.0642      0.1438      0.0867      0.0000      0.3011      0.0364      0.3442
 13      0.0000      0.1312      0.0361      0.0000      0.0435      0.0364      0.1287      0.2240      0.0000
 14      0.0000      0.1031      0.1027      0.0329      0.0000      0.0000      0.0955      0.0000      0.0000
 15      0.0000      0.1512      0.1134      0.2323      0.0844      0.0000      0.0000      0.0613      0.0568
 16      0.0000      0.0927      0.0155      0.1209      0.2332      0.2282      0.0000      0.0000      0.1395
 17      0.0000      0.1848      0.0077      0.1639      0.0000      0.0868      0.0348      0.1101      0.7984
 18      0.0000      0.1540      0.0262      0.0915      0.0000      0.0000      0.0000      0.1224      0.0000
 19      0.0000      0.1165      0.0082      0.3309      0.0901      0.0513      0.0746      0.0849      0.1398
 20      0.0000      0.2367      0.0874      0.0450      0.0000      0.1471      0.0105      0.2034      1.2630
 21      0.0000      0.1168      0.0292      0.0000      0.0389      0.1386      0.1819      0.0000      0.3232
 22      0.0000      0.1746      0.0881      0.3625      0.0745      0.0882      0.0000      0.0970      0.6975
 23      0.0000      0.0933      0.0206      0.0583      0.0825      0.0006      0.0000      0.0000      0.5868
 24     14.5068      0.1315      0.0418      0.2269      0.0379      0.1242      0.0000      0.0194      0.0497
 25      0.0000      0.1324      0.0000      0.2122      0.2482      0.1414      0.0250      0.1309      0.7081
 26      0.0000      0.1171      0.0000      0.0689      0.1078      0.0000      0.0000      0.1314      0.3706
 27      0.0000      0.1082      0.0303      0.0866      0.2285      0.0694      0.1354      0.0907      0.1075
 28      0.0000      0.1487      0.0179      0.3621      0.1275      0.0572      0.0593      0.0723      0.0532
 29      0.0000      0.1043      0.0159      0.0332      0.0770      0.0295      0.1102      0.0834      0.4205
 30      0.0000      0.1016      0.0000      0.1670      0.1076      0.0579      0.1844      0.0356      0.4215
 31      0.0000      0.1538      0.0345      0.0674      0.0000      0.0000      0.0000      0.0372      0.2643
 32      0.0000      0.1311      0.0067      0.0000      0.0854      0.0223      0.1024      0.2300      0.0000
 33      0.0000      0.0841      0.0522      0.0686      0.1969      0.0690      0.0000      0.0000      0.0302
 34      0.0000      0.1199      0.0298      0.0000      0.0000      0.0617      0.0476      0.0276      0.1619
 35      0.0000      0.2115      0.0284      0.9519      0.1546      0.1145      0.0832      0.0000      1.5288
 36      0.0000      0.1107      0.0291      0.2950      0.0000      0.0330      0.0000      0.1537      0.0000
 37      0.0000      0.1436      0.0000      0.0605      0.0607      0.0000      0.0938      0.0934      0.0692
 38      0.0000      0.1563      0.0407      0.1010      0.2324      0.0000      0.3050      0.0000      0.3403
 39      0.0000      0.1302      0.0106      0.0000      0.0797      0.0309      0.1429      0.0531      0.0000
 40      0.0000      0.1537      0.1157      0.0816      0.0000      0.0014      0.3755      0.0863      0.1769
 41      0.0000      0.1015      0.0000      0.0666      0.0188      0.0563      0.0241      0.0000      0.3626
 42      0.0000      0.1574      0.0324      0.0484      0.1077      0.0000      0.1487      0.0637      0.0000
 43      1.7907      1.3968      1.3889      1.4520      1.3707      1.3808      1.4798      1.6929      2.0662
 44      0.0000      0.1779      0.2449      0.1710      0.0732      0.0073      0.0000      0.2493      0.0000
 45      0.0000      0.1156      0.0068      0.1425      0.0000      0.1031      0.0949      0.0616      0.1581
 46      0.0000      0.1412      0.0946      0.3577      0.0783      0.0719      0.2609      0.0618      0.0185
 47      0.0000      0.1824      0.1168      0.3004      0.1668      0.0557      0.0950      0.2577      1.1010
 48      1.8285      0.1793      0.0228      0.0000      0.0785      0.1311      0.0000      0.0428      0.2950
 49      0.0000      0.1451      0.0026      0.0183      0.0589      0.0000      0.0885      0.0000      0.1294
 50      0.0000      0.1292      0.0260      0.2428      0.4032      0.0464      0.0000      0.0259      0.2194
 51     12.4884      0.1178      0.1129      0.0175      0.1017      0.1253      0.1333      0.0471      0.1020
 52     12.2997      0.1107      0.0586      0.0000      0.0944      0.2082      0.2303      0.1930      0.0041
 53     11.2779      0.0941      0.0506      0.0757      0.0849      0.1744      0.2372      0.1020      0.1294
 54     16.5924      0.1250      0.0397      0.3719      0.1529      0.1281      0.0147      0.2133      0.0000
 55      0.0000      0.1610      0.0827      0.1117      0.0861      0.0867      0.0934      0.2035      0.4566
 56      0.0000      0.1173      0.0019      0.1525      0.0430      0.0131      0.0000      0.1246      0.5577
 57      0.0000      0.0851      0.0000      0.0000      0.1554      0.0000      0.1645      0.0486      0.1890
 58     22.1136      0.1592      0.0000      0.1816      0.1507      0.1156      0.0908      0.0886      0.0000
 59      0.8757     34.2872     37.0194     33.7183     34.9398     36.8286     35.0974     35.6972     31.0402
 60      0.0000      0.1960      0.0512      0.2008      0.5399      0.1592      0.1687      0.0544      0.1208
 61      0.0000      0.1665      0.0170      0.1258      0.0000      0.0000      0.3152      0.2005      0.6590
 62      0.0000      0.1164      0.0000      0.0110      0.0518      0.0112      0.0000      0.1629      0.0000
 63      0.0000      0.1965      0.0669      0.0046      0.2605      0.0195      0.0371      0.0300      0.0781
 64      0.0000      0.1263      0.0585      0.0000      0.2879      0.0930      0.2009      0.0077      0.0000
 65      0.0000      0.1527      0.0354      0.1162      0.0000      0.0017      0.0099      0.0000      0.1299
 66     18.3457      1.8184      1.8862      1.9742      1.8009      1.5389      1.7884      1.8658      1.0098

# j      m_j: min, <> & last-chain-values for 1 ...  7 chains
  1  0.0000E+00  2.4447E-03  2.6189E-03  3.9102E-03  9.3277E-03  1.0927E-03  4.1057E-03  5.7041E-03  3.1120E-03
  2  0.0000E+00  7.6124E-04  3.8888E-04  1.4044E-03  7.1676E-04  5.9527E-04  1.6026E-04  1.1904E-03  1.9236E-03
  3  1.4131E-02  1.4146E-03  2.3287E-04  1.9828E-03  1.8150E-03  2.3455E-03  1.0669E-03  1.8353E-03  5.4226E-03
  4  0.0000E+00  1.4965E-03  9.8239E-04  0.0000E+00  2.6733E-03  0.0000E+00  8.1802E-04  4.8339E-06  2.3580E-04
  5  0.0000E+00  2.3179E-03  2.0659E-03  4.8328E-03  8.5394E-04  4.3435E-04  4.3537E-03  2.8206E-03  6.4037E-03
  6  0.0000E+00  4.1952E-03  1.8589E-03  2.1527E-03  2.9163E-03  3.0995E-03  0.0000E+00  0.0000E+00  2.7808E-02
  7  0.0000E+00  2.2853E-02  2.5435E-02  2.1229E-02  3.2462E-02  4.6530E-02  3.9154E-02  2.3573E-02  1.8439E-02
  8  0.0000E+00  9.9641E-03  9.3096E-04  2.0668E-02  1.0005E-02  2.5754E-02  6.4257E-03  0.0000E+00  5.5021E-02
  9  1.1084E-01  2.7736E+00  3.4464E+00  2.8217E+00  2.8317E+00  3.7655E+00  3.3848E+00  3.3282E+00  3.0916E+00
 10  1.3827E-02  6.4352E-02  7.4370E-02  7.6109E-02  8.8931E-02  1.2984E-01  8.7815E-02  6.7809E-02  5.2888E-02
 11  0.0000E+00  3.3589E-02  2.8327E-02  0.0000E+00  6.0796E-02  2.2787E-02  7.4231E-02  3.7474E-02  0.0000E+00
 12  0.0000E+00  3.7449E-02  2.3136E-02  4.5194E-02  2.7400E-02  0.0000E+00  1.1082E-01  1.3163E-02  1.3476E-01
 13  0.0000E+00  1.1583E-01  3.6732E-02  0.0000E+00  3.8693E-02  4.1545E-02  1.3352E-01  2.2850E-01  0.0000E+00
 14  0.0000E+00  3.0529E-01  3.5001E-01  9.7671E-02  0.0000E+00  0.0000E+00  3.3226E-01  0.0000E+00  0.0000E+00
 15  0.0000E+00  7.2902E-01  6.2915E-01  1.1236E+00  4.1020E-01  0.0000E+00  0.0000E+00  3.4154E-01  3.4192E-01
 16  0.0000E+00  7.5552E-01  1.4541E-01  9.8890E-01  1.9170E+00  2.4067E+00  0.0000E+00  0.0000E+00  1.4209E+00
 17  0.0000E+00  1.9547E+00  9.3949E-02  1.7388E+00  0.0000E+00  1.1878E+00  4.3212E-01  1.3449E+00  1.0551E+01
 18  0.0000E+00  4.0411E-03  7.9010E-04  2.4078E-03  0.0000E+00  0.0000E+00  0.0000E+00  3.7072E-03  0.0000E+00
 19  0.0000E+00  1.2270E-03  9.8915E-05  3.4937E-03  9.5668E-04  6.9913E-04  9.2200E-04  1.0328E-03  1.8389E-03
 20  0.0000E+00  2.7206E-03  1.1552E-03  5.1926E-04  0.0000E+00  2.1873E-03  1.4128E-04  2.7000E-03  1.8137E-02
 21  0.0000E+00  1.6293E-03  4.6887E-04  0.0000E+00  5.4700E-04  2.5018E-03  2.9816E-03  0.0000E+00  5.6339E-03
 22  0.0000E+00  4.1205E-03  2.3925E-03  8.5763E-03  1.7717E-03  2.6935E-03  0.0000E+00  2.6420E-03  2.0561E-02
 23  0.0000E+00  2.9727E-03  7.5495E-04  1.8617E-03  2.6512E-03  2.3393E-05  0.0000E+00  0.0000E+00  2.3359E-02
 24  1.0314E-01  6.2326E-03  2.2812E-03  1.0785E-02  1.8124E-03  7.6145E-03  0.0000E+00  1.0630E-03  2.9409E-03
 25  0.0000E+00  8.6563E-03  0.0000E+00  1.3909E-02  1.6355E-02  1.1954E-02  1.9204E-03  9.8837E-03  5.7825E-02
 26  0.0000E+00  1.2795E-02  0.0000E+00  7.5497E-03  1.1871E-02  0.0000E+00  0.0000E+00  1.6580E-02  5.0589E-02
 27  0.0000E+00  2.3665E-02  7.6276E-03  1.9002E-02  5.0363E-02  1.9620E-02  3.4774E-02  2.2897E-02  2.9378E-02
 28  0.0000E+00  9.4376E-02  1.3045E-02  2.3048E-01  8.1556E-02  4.6994E-02  4.4195E-02  5.3005E-02  4.2144E-02
 29  0.0000E+00  1.1538E-01  2.0218E-02  3.6822E-02  8.5859E-02  4.2207E-02  1.4308E-01  1.0655E-01  5.8086E-01
 30  0.0000E+00  2.3464E-01  0.0000E+00  3.8697E-01  2.5069E-01  1.7312E-01  5.0045E-01  9.4870E-02  1.2166E+00
 31  0.0000E+00  6.2498E-01  1.6129E-01  2.7481E-01  0.0000E+00  0.0000E+00  0.0000E+00  1.7459E-01  1.3422E+00
 32  0.0000E+00  7.1692E-01  4.2248E-02  0.0000E+00  4.7049E-01  1.5790E-01  6.5741E-01  1.4525E+00  0.0000E+00
 33  0.0000E+00  1.0178E+00  7.2703E-01  8.3322E-01  2.4029E+00  1.0800E+00  0.0000E+00  0.0000E+00  4.5627E-01
 34  0.0000E+00  1.9657E+00  5.6169E-01  0.0000E+00  0.0000E+00  1.3081E+00  9.1689E-01  5.2277E-01  3.3156E+00
 35  0.0000E+00  4.4488E-03  6.8750E-04  2.0079E-02  3.2774E-03  3.1165E-03  2.0551E-03  0.0000E+00  4.0176E-02
 36  0.0000E+00  9.4205E-04  2.8466E-04  2.5175E-03  0.0000E+00  3.6348E-04  0.0000E+00  1.5104E-03  0.0000E+00
 37  0.0000E+00  1.3222E-03  0.0000E+00  5.5824E-04  5.6302E-04  0.0000E+00  1.0143E-03  9.9244E-04  7.9526E-04
 38  0.0000E+00  3.8981E-03  1.1669E-03  2.5256E-03  5.8428E-03  0.0000E+00  8.9337E-03  0.0000E+00  1.0602E-02
 39  0.0000E+00  4.6765E-03  4.3864E-04  0.0000E+00  2.8853E-03  1.4354E-03  6.0240E-03  2.2004E-03  0.0000E+00
 40  0.0000E+00  8.9195E-03  7.7240E-03  4.7516E-03  0.0000E+00  1.0585E-04  2.5594E-02  5.7881E-03  1.2828E-02
 41  0.0000E+00  9.1619E-03  0.0000E+00  6.0282E-03  1.7107E-03  6.5679E-03  2.5588E-03  0.0000E+00  4.0886E-02
 42  0.0000E+00  2.6086E-02  6.1847E-03  8.0383E-03  1.7991E-02  0.0000E+00  2.8936E-02  1.2193E-02  0.0000E+00
 43  6.4977E-02  3.3790E-01  3.8659E-01  3.5228E-01  3.3427E-01  4.3214E-01  4.2045E-01  4.7303E-01  6.2450E-01
 44  0.0000E+00  7.4100E-02  1.1738E-01  7.1451E-02  3.0733E-02  3.9169E-03  0.0000E+00  1.1995E-01  0.0000E+00
 45  0.0000E+00  9.5503E-02  6.4780E-03  1.1812E-01  0.0000E+00  1.1027E-01  9.2126E-02  5.8844E-02  1.6325E-01
 46  0.0000E+00  2.1452E-01  1.6539E-01  5.4492E-01  1.1988E-01  1.4128E-01  4.6559E-01  1.0846E-01  3.5202E-02
 47  0.0000E+00  5.6143E-01  4.1383E-01  9.2737E-01  5.1746E-01  2.2197E-01  3.4358E-01  9.1633E-01  4.2344E+00
 48  1.4889E+00  9.7326E-01  1.4217E-01  0.0000E+00  4.2964E-01  9.2046E-01  0.0000E+00  2.6854E-01  2.0011E+00
 49  0.0000E+00  1.7908E+00  3.6427E-02  2.2603E-01  7.3310E-01  0.0000E+00  1.2828E+00  0.0000E+00  1.9948E+00
 50  0.0000E+00  2.9521E+00  6.8486E-01  5.5646E+00  9.2877E+00  1.3731E+00  0.0000E+00  6.8348E-01  6.2643E+00
 51  2.3465E-02  1.4751E-03  1.6267E-03  2.2046E-04  1.2840E-03  2.0311E-03  1.9616E-03  6.8141E-04  1.5969E-03
 52  1.1843E-02  7.1051E-04  4.3267E-04  0.0000E+00  6.1063E-04  1.7294E-03  1.7365E-03  1.4312E-03  3.3007E-05
 53  1.6357E-02  9.0999E-04  5.6314E-04  7.3414E-04  8.2720E-04  2.1819E-03  2.6945E-03  1.1387E-03  1.5633E-03
 54  4.9311E-02  2.4769E-03  9.0496E-04  7.3902E-03  3.0532E-03  3.2845E-03  3.4113E-04  4.8804E-03  0.0000E+00
 55  0.0000E+00  4.9107E-03  2.9036E-03  3.4165E-03  2.6492E-03  3.4228E-03  3.3451E-03  7.1703E-03  1.7402E-02
 56  0.0000E+00  7.0842E-03  1.3259E-04  9.2334E-03  2.6173E-03  1.0242E-03  0.0000E+00  8.6916E-03  4.2070E-02
 57  0.0000E+00  6.8168E-03  0.0000E+00  0.0000E+00  1.2552E-02  0.0000E+00  1.5480E-02  4.4979E-03  1.8925E-02
 58  4.4963E-01  2.1582E-02  0.0000E+00  2.4695E-02  2.0598E-02  2.0268E-02  1.4451E-02  1.3872E-02  0.0000E+00
 59  3.8318E-02  1.0002E+01  1.2426E+01  9.8649E+00  1.0275E+01  1.3899E+01  1.2026E+01  1.2028E+01  1.1313E+01
 60  0.0000E+00  1.0622E-01  3.1948E-02  1.0911E-01  2.9492E-01  1.1159E-01  1.0736E-01  3.4063E-02  8.1748E-02
 61  0.0000E+00  1.9718E-01  2.3208E-02  1.4931E-01  0.0000E+00  0.0000E+00  4.3833E-01  2.7412E-01  9.7483E-01
 62  0.0000E+00  2.5120E-01  0.0000E+00  2.3706E-02  1.1272E-01  3.1163E-02  0.0000E+00  4.0618E-01  0.0000E+00
 63  0.0000E+00  8.4400E-01  3.3034E-01  1.9877E-02  1.1277E+00  1.0852E-01  1.8703E-01  1.4858E-01  4.1932E-01
 64  0.0000E+00  1.5008E+00  7.9957E-01  0.0000E+00  3.4472E+00  1.4296E+00  2.8024E+00  1.0545E-01  0.0000E+00
 65  0.0000E+00  3.8341E+00  1.0235E+00  2.9259E+00  0.0000E+00  5.6619E-02  2.9065E-01  0.0000E+00  4.0755E+00
 66  9.7615E+01  6.4506E+01  7.6986E+01  7.0234E+01  6.4400E+01  7.0625E+01  7.4515E+01  7.6449E+01  4.4756E+01

# AV, chi2 & Mass for <> & i_chain = 1 ...  7 solutions
AV      -1.0000      0.4415      0.4129      0.3723      0.3503      0.4303      0.3992      0.4068      0.3723
chi2 2.6508E-05  9.4544E-05  9.3877E-05  9.3578E-05  9.3761E-05  9.3323E-05  9.3753E-05  9.4055E-05  9.3408E-05
Mass 4.9426E-14  5.1389E-14  4.2978E-14  4.6689E-14  4.5098E-14  3.9127E-14  4.1335E-14  4.2462E-14  3.7477E-14
 283.08                                  [v0_min (km/s) before EX0s...]
 148.28                                  [vd_min (km/s) before EX0s...]


## Synthetic spectrum (Best Model) ##l_obs f_obs f_syn wei
 3478    [Nl_obs]
 3741.00    0.14443   1.03551    0.000
 3742.00    0.29239   1.09729    0.000
 3743.00    0.14803   1.14991    0.000
 3744.00    0.11836   1.18556    0.000
 3745.00    0.15553   1.20102   -1.000
 3746.00    0.30325   1.19716   -1.000
 3747.00    0.50712   1.17618   -1.000
 3748.00    0.28456   1.14090   -1.000
 3749.00   -0.12550   1.09414    0.000
 3750.00   -0.04245   1.03834    0.000
 3751.00    0.22677   0.97969   -1.000
 3752.00    0.29563   0.93022   -1.000
 3753.00    0.30027   0.90358   -1.000
 3754.00    0.43887   0.90866   -1.000
 3755.00    0.61338   0.94524   -1.000
 3756.00    0.69629   1.00333   -1.000
 3757.00    0.75909   1.06729   -1.000
 3758.00    0.55248   1.12355   -1.000
 3759.00    0.29885   1.16500   -1.000
 3760.00    0.51816   1.19113   -1.000
 3761.00    0.80031   1.20579   -1.000
 3762.00    0.61563   1.21453   -1.000
 3763.00    0.38707   1.22168   -1.000
 3764.00    0.25612   1.22733   -1.000
 3765.00    0.13080   1.22880   -1.000
 3766.00    0.59531   1.22300   -1.000
 3767.00    1.06986   1.20736   -1.000
 3768.00    1.06489   1.18026   -1.000
 3769.00    1.05704   1.14152   -1.000
 3770.00    0.97900   1.09281   -1.000
 3771.00    0.88364   1.03764   -1.000
 3772.00    0.56126   0.98374   -1.000
 3773.00    0.30004   0.94364   -1.000
 3774.00    0.57570   0.92888   -1.000
 3775.00    0.81723   0.94411   -1.000
 3776.00    0.83743   0.98604   -1.000
 3777.00    0.81659   1.04448   -1.000
 3778.00    0.58810   1.10662   -1.000
 3779.00    0.42460   1.16375   -1.000
 3780.00    0.52710   1.21282   -1.000
 3781.00    0.61123   1.25387   -1.000
 3782.00    0.63308   1.28791   -1.000
 3783.00    0.61256   1.31535   -1.000
 3784.00    0.47086   1.33613   -1.000
 3785.00    0.25530   1.34996   -1.000
 3786.00   -0.14076   1.35627    0.000
 3787.00   -0.34272   1.35484    0.000
 3788.00   -0.13559   1.34619    0.000
 3789.00    0.14037   1.33171   -1.000
 3790.00    0.54241   1.31327   -1.000
 3791.00    0.74379   1.29267   -1.000
 3792.00    0.62395   1.27074   -1.000
 3793.00    0.47044   1.24665   -1.000
 3794.00    0.26962   1.21821   -1.000
 3795.00    0.20837   1.18235   -1.000
 3796.00    0.31962   1.13620   -1.000
 3797.00    0.29042   1.07894   -1.000
 3798.00    0.10822   1.01298   -1.000
 3799.00   -0.03231   0.94519    0.000
 3800.00   -0.13278   0.88803    0.000
 3801.00   -0.08824   0.85632    0.000
 3802.00    0.07917   0.85955   -1.000
 3803.00    0.14228   0.89739   -1.000
 3804.00    0.12754   0.96003   -1.000
 3805.00    0.13193   1.03217   -1.000
 3806.00    0.14887   1.09967   -1.000
 3807.00    0.31714   1.15427   -1.000
 3808.00    0.57225   1.19444   -1.000
 3809.00    0.79225   1.22395   -1.000
 3810.00    0.99471   1.24846   -1.000
 3811.00    0.72107   1.27168   -1.000
 3812.00    0.24155   1.29438   -1.000
 3813.00    0.24863   1.31407   -1.000
 3814.00    0.43617   1.32677   -1.000
 3815.00    0.33487   1.33053   -1.000
 3816.00    0.14277   1.32648   -1.000
 3817.00   -0.01602   1.31727    0.000
 3818.00   -0.16607   1.30497    0.000
 3819.00    0.01936   1.28994   -1.000
 3820.00    0.27667   1.27038   -1.000
 3821.00    0.20311   1.24509   -1.000
 3822.00    0.07339   1.21920   -1.000
 3823.00   -0.08355   1.20219    0.000
 3824.00   -0.24399   1.19921    0.000
 3825.00    0.01668   1.20836   -1.000
 3826.00    0.31515   1.22177   -1.000
 3827.00    0.51288   1.22956   -1.000
 3828.00    0.70519   1.22685   -1.000
 3829.00    0.65686   1.21458   -1.000
 3830.00    0.60331   1.19550   -1.000
 3831.00    0.51575   1.17098   -1.000
 3832.00    0.43038   1.14004   -1.000
 3833.00    0.39342   1.10018   -1.000
 3834.00    0.34937   1.04932   -1.000
 3835.00    0.21705   0.98805   -1.000
 3836.00    0.12152   0.92117   -1.000
 3837.00    0.33693   0.85842   -1.000
 3838.00    0.62386   0.81351   -1.000
 3839.00    1.36063   0.79764   -1.000
 3840.00    1.86100   0.81374   -1.000
 3841.00    1.19489   0.85685   -1.000
 3842.00    0.53534   0.91663   -1.000
 3843.00   -0.09794   0.98161    0.000
 3844.00   -0.37600   1.04414    0.000
 3845.00    0.52685   1.10029   -1.000
 3846.00    1.06712   1.14798   -1.000
 3847.00    0.58920   1.18658    0.000
 3848.00    0.28138   1.21648    0.000
 3849.00    0.38216   1.23867    0.000
 3850.00    0.62710   1.25444    0.000
 3851.00    1.17102   1.26508    0.000
 3852.00    1.34533   1.27206    0.000
 3853.00    0.85298   1.27736    0.000
 3854.00    0.53130   1.28250    0.000
 3855.00    0.47880   1.28704    0.000
 3856.00    0.33500   1.28962    0.000
 3857.00    0.06483   1.28932    0.000
 3858.00   -0.27847   1.28611    0.000
 3859.00   -0.71087   1.28213    0.000
 3860.00   -0.59324   1.27981    0.000
 3861.00    0.11524   1.27908    0.000
 3862.00    0.67856   1.27926    0.000
 3863.00    1.10436   1.28033    0.000
 3864.00    1.36198   1.28195    0.000
 3865.00    1.47912   1.28376    0.000
 3866.00    1.01533   1.28559    0.000
 3867.00    0.12425   1.28654    0.000
 3868.00   -0.43224   1.28557    0.000
 3869.00   -0.77264   1.28258    0.000
 3870.00   -0.48172   1.27859    0.000
 3871.00    0.16596   1.27485    0.000
 3872.00    0.39292   1.27072    0.000
 3873.00    0.41291   1.26457    0.000
 3874.00    0.11866   1.25668    0.000
 3875.00   -0.30921   1.24931    0.000
 3876.00   -0.00505   1.24453    0.000
 3877.00    0.56576   1.24200    0.000
 3878.00    0.22943   1.23907    0.000
 3879.00   -0.38654   1.23294    0.000
 3880.00   -0.59005   1.22222    0.000
 3881.00   -0.68768   1.20779    0.000
 3882.00   -0.02661   1.19178    0.000
 3883.00    0.79306   1.17439   -1.000
 3884.00    0.42486   1.15369   -1.000
 3885.00   -0.13922   1.12829    0.000
 3886.00   -0.09482   1.09680    0.000
 3887.00    0.02493   1.05640   -1.000
 3888.00    0.00381   1.00516   -1.000
 3889.00   -0.02937   0.94498    0.000
 3890.00   -0.12856   0.88209    0.000
 3891.00   -0.23104   0.82759    0.000
 3892.00    0.02206   0.79639   -1.000
 3893.00    0.27353   0.79876   -1.000
 3894.00    0.04351   0.83333   -1.000
 3895.00   -0.18194   0.89002    0.000
 3896.00   -0.31375   0.95538    0.000
 3897.00   -0.40292   1.01700    0.000
 3898.00    0.01216   1.06861   -1.000
 3899.00    0.36885   1.10998   -1.000
 3900.00    0.24988   1.14252   -1.000
 3901.00    0.11919   1.16750   -1.000
 3902.00   -0.08305   1.18725    0.000
 3903.00   -0.25663   1.20444    0.000
 3904.00   -0.29235   1.22009    0.000
 3905.00   -0.22963   1.23383    0.000
 3906.00    0.21855   1.24528   -1.000
 3907.00    0.63754   1.25401   -1.000
 3908.00    0.96141   1.26015   -1.000
 3909.00    1.05466   1.26632   -1.000
 3910.00    0.51201   1.27531   -1.000
 3911.00    0.31943   1.28677   -1.000
 3912.00    0.95355   1.29867   -1.000
 3913.00    1.19471   1.30873   -1.000
 3914.00    0.63389   1.31509   -1.000
 3915.00    0.23887   1.31777   -1.000
 3916.00    0.13833   1.31809   -1.000
 3917.00    0.10979   1.31707   -1.000
 3918.00    0.19310   1.31446   -1.000
 3919.00    0.48355   1.30880   -1.000
 3920.00    1.05662   1.29875   -1.000
 3921.00    1.35154   1.28408   -1.000
 3922.00    1.31234   1.26670   -1.000
 3923.00    1.12595   1.25102   -1.000
 3924.00    0.78367   1.24099   -1.000
 3925.00    0.68992   1.23722   -1.000
 3926.00    0.82835   1.23711   -1.000
 3927.00    0.86006   1.23725   -1.000
 3928.00    0.80388   1.23431   -1.000
 3929.00    0.37580   1.22709   -1.000
 3930.00   -0.32188   1.21797    0.000
 3931.00   -0.28974   1.20869    0.000
 3932.00    0.20685   1.19892   -1.000
 3933.00    0.74792   1.18800   -1.000
 3934.00    1.31373   1.17442   -1.000
 3935.00    1.30365   1.15786   -1.000
 3936.00    1.01477   1.14188   -1.000
 3937.00    0.88877   1.13261   -1.000
 3938.00    0.83086   1.13407   -1.000
 3939.00    0.33806   1.14587   -1.000
 3940.00   -0.31030   1.16486    0.000
 3941.00   -0.21714   1.18605    0.000
 3942.00    0.10014   1.20494   -1.000
 3943.00    0.70867   1.21909   -1.000
 3944.00    1.39034   1.22758   -1.000
 3945.00    1.75439   1.23096   -1.000
 3946.00    2.05367   1.23087   -1.000
 3947.00    1.37314   1.22993   -1.000
 3948.00    0.53571   1.23116   -1.000
 3949.00   -0.21622   1.23523    0.000
 3950.00   -0.95794   1.24049    0.000
 3951.00   -0.20750   1.24581    0.000
 3952.00    0.66445   1.25065   -1.000
 3953.00    0.99466   1.25391   -1.000
 3954.00    1.29998   1.25457   -1.000
 3955.00    0.72082   1.25227   -1.000
 3956.00    0.15214   1.24750   -1.000
 3957.00    0.71946   1.24082   -1.000
 3958.00    1.24897   1.23220   -1.000
 3959.00    1.06198   1.22184   -1.000
 3960.00    0.90379   1.21012    0.000
 3961.00    1.07013   1.19623    0.000
 3962.00    1.15773   1.17805    0.000
 3963.00    0.62635   1.15329    0.000
 3964.00    0.21944   1.12135    0.000
 3965.00    0.55106   1.08415    0.000
 3966.00    0.82522   1.04309    0.000
 3967.00    0.82951   0.99790    0.000
 3968.00    0.78560   0.94863    0.000
 3969.00    0.55690   0.89469    0.000
 3970.00    0.48362   0.83567    0.000
 3971.00    0.90710   0.77566    0.000
 3972.00    1.19287   0.72388    0.000
 3973.00    1.10565   0.69241    0.000
 3974.00    1.09329   0.69087    0.000
 3975.00    1.25472   0.72007    0.000
 3976.00    1.39915   0.77295    0.000
 3977.00    1.50941   0.83915    0.000
 3978.00    1.32469   0.90790    0.000
 3979.00    0.62402   0.97129    0.000
 3980.00    0.21438   1.02628    0.000
 3981.00    0.25028   1.07254   -1.000
 3982.00    0.43743   1.11030   -1.000
 3983.00    0.82797   1.14004   -1.000
 3984.00    1.06481   1.16219   -1.000
 3985.00    1.11965   1.17808   -1.000
 3986.00    1.14175   1.19052   -1.000
 3987.00    1.12968   1.20222   -1.000
 3988.00    1.03512   1.21449   -1.000
 3989.00    0.86459   1.22715   -1.000
 3990.00    0.78489   1.23939   -1.000
 3991.00    0.77893   1.24994   -1.000
 3992.00    0.89181   1.25732   -1.000
 3993.00    1.08960   1.26196   -1.000
 3994.00    1.18759   1.26549   -1.000
 3995.00    1.22302   1.26828   -1.000
 3996.00    1.03234   1.26956   -1.000
 3997.00    0.71775   1.26854   -1.000
 3998.00    0.24544   1.26577   -1.000
 3999.00   -0.30200   1.26262    0.000
 4000.00    0.04850   1.26062   -1.000
 4001.00    0.76807   1.26160   -1.000
 4002.00    0.87389   1.26667   -1.000
 4003.00    0.76415   1.27374   -1.000
 4004.00    0.29002   1.27922   -1.000
 4005.00   -0.29207   1.28094    0.000
 4006.00   -0.00113   1.27775    0.000
 4007.00    0.50427   1.26906   -1.000
 4008.00    0.83164   1.25692   -1.000
 4009.00    1.12362   1.24582   -1.000
 4010.00    1.00000   1.23830   -1.000
 4011.00    0.81180   1.23393   -1.000
 4012.00    0.80351   1.23303   -1.000
 4013.00    0.81591   1.23707   -1.000
 4014.00    1.07630   1.24542   -1.000
 4015.00    1.35588   1.25588   -1.000
 4016.00    0.99511   1.26682   -1.000
 4017.00    0.60738   1.27665   -1.000
 4018.00    0.53683   1.28403   -1.000
 4019.00    0.47448   1.28831   -1.000
 4020.00    0.64500   1.28985   -1.000
 4021.00    0.83053   1.29017   -1.000
 4022.00    1.28075   1.28983   -1.000
 4023.00    1.66889   1.28698    0.497
 4024.00    1.38905   1.27954    0.039
 4025.00    1.14372   1.26645    0.021
 4026.00    1.16040   1.24703    0.021
 4027.00    1.20881   1.22212    0.021
 4028.00    1.44029   1.19646    0.021
 4029.00    1.60050   1.17813    0.021
 4030.00    1.43407   1.17379    0.021
 4031.00    1.25213   1.18192    0.021
 4032.00    1.01198   1.19441    0.021
 4033.00    0.79815   1.20374    0.020
 4034.00    0.66683   1.20723    0.020
 4035.00    0.58653   1.20624    0.020
 4036.00    0.64199   1.20453    0.020
 4037.00    0.78690   1.20689    0.020
 4038.00    1.13603   1.21612    0.020
 4039.00    1.32887   1.23166    0.020
 4040.00    1.21274   1.24948    0.021
 4041.00    1.03768   1.26431    0.021
 4042.00    0.76108   1.27259    0.020
 4043.00    0.67503   1.27344    0.020
 4044.00    0.87643   1.26804    0.021
 4045.00    1.04036   1.25821    0.021
 4046.00    1.15464   1.24438    0.021
 4047.00    1.11617   1.22719    0.021
 4048.00    0.89939   1.21042    0.021
 4049.00    0.83877   1.20012    0.021
 4050.00    0.93894   1.20031    0.021
 4051.00    1.09225   1.20994    0.021
 4052.00    1.29383   1.22462    0.021
 4053.00    1.09594   1.23932    0.021
 4054.00    0.57833   1.24951    0.021
 4055.00    0.53643   1.25263    0.021
 4056.00    0.82951   1.24918    0.021
 4057.00    1.01155   1.24144    0.021
 4058.00    1.12502   1.23217    0.021
 4059.00    0.87451   1.22366    0.021
 4060.00    0.42761   1.21682    0.021
 4061.00    0.32376   1.21215    0.021
 4062.00    0.38071   1.20977    0.021
 4063.00    0.27162   1.20817    0.021
 4064.00    0.09546   1.20465    0.021
 4065.00    0.15350   1.19749    0.021
 4066.00    0.29230   1.18801    0.021
 4067.00    0.50132   1.18047    0.021
 4068.00    0.73073   1.17808    0.021
 4069.00    1.15966   1.17967    0.021
 4070.00    1.63653   1.18230    0.021
 4071.00    1.34512   1.18415    0.021
 4072.00    0.90486   1.18355    0.021
 4073.00    0.55179   1.17910    0.021
 4074.00    0.21185   1.17201    0.020
 4075.00    0.12790   1.16606    0.020
 4076.00    0.07227   1.16376    0.020
 4077.00    0.62125   1.16295    0.020
 4078.00    1.21452   1.15999    0.020
 4079.00    1.09638   1.15467    0.020
 4080.00    0.95100   1.15007    0.020
 4081.00    0.59039   1.14978    0.020
 4082.00    0.24620   1.15574    0.020
 4083.00    0.56570   1.16668    0.020
 4084.00    0.86526   1.17827    0.019
 4085.00    0.83618   1.18554    0.019
 4086.00    0.81991   1.18631    0.019
 4087.00    0.93557   1.18208    0.019
 4088.00    1.02371   1.17612    0.019
 4089.00    0.90997   1.17140    0.019
 4090.00    0.77370   1.16879    0.019
 4091.00    0.51103   1.16678    0.019
 4092.00    0.36004   1.16320    0.000
 4093.00    0.70882   1.15685    0.000
 4094.00    0.96043   1.14681    0.000
 4095.00    0.85514   1.13213    0.000
 4096.00    0.74706   1.11254    0.000
 4097.00    0.63041   1.08744    0.000
 4098.00    0.66052   1.05524    0.000
 4099.00    1.07419   1.01569    0.000
 4100.00    1.33287   0.97060    0.000
 4101.00    1.24344   0.92187    0.000
 4102.00    1.12068   0.87083    0.000
 4103.00    0.93302   0.81992    0.000
 4104.00    0.83211   0.77569    0.000
 4105.00    0.87839   0.74894    0.000
 4106.00    0.95695   0.74840    0.000
 4107.00    1.08347   0.77425    0.000
 4108.00    1.09305   0.81925    0.000
 4109.00    0.94983   0.87315    0.000
 4110.00    0.75997   0.92562    0.000
 4111.00    0.51641   0.96956    0.000
 4112.00    0.49271   1.00289    0.000
 4113.00    0.69217   1.02716    0.020
 4114.00    0.95992   1.04568    0.020
 4115.00    1.28882   1.06184    0.020
 4116.00    1.22033   1.07749    0.020
 4117.00    0.83830   1.09217    0.020
 4118.00    0.71603   1.10423    0.020
 4119.00    0.77401   1.11242    0.020
 4120.00    0.83455   1.11612    0.020
 4121.00    0.89664   1.11492    0.020
 4122.00    0.94400   1.10986    0.020
 4123.00    0.98354   1.10428    0.020
 4124.00    1.25180   1.10199    0.020
 4125.00    1.62551   1.10532    0.020
 4126.00    1.69300   1.11395    0.020
 4127.00    1.63890   1.12518    0.020
 4128.00    1.25427   1.13509    0.020
 4129.00    0.75777   1.13983    0.019
 4130.00    0.66157   1.13750    0.019
 4131.00    0.67927   1.12948    0.019
 4132.00    0.79553   1.11914    0.019
 4133.00    0.93493   1.10898    0.019
 4134.00    1.06335   1.10048    0.019
 4135.00    1.18969   1.09568    0.019
 4136.00    1.15895   1.09640    0.019
 4137.00    1.10528   1.10284    0.019
 4138.00    0.89494   1.11358    0.019
 4139.00    0.66795   1.12593    0.019
 4140.00    0.88112   1.13652    0.019
 4141.00    1.12473   1.14288    0.019
 4142.00    0.99076   1.14371    0.019
 4143.00    0.84376   1.13785    0.019
 4144.00    1.19376   1.12442    0.019
 4145.00    1.53619   1.10410    0.019
 4146.00    1.59579   1.08112    0.019
 4147.00    1.62417   1.06374    0.018
 4148.00    1.16969   1.05925    0.018
 4149.00    0.75357   1.06763    0.018
 4150.00    0.71564   1.08238    0.018
 4151.00    0.69981   1.09651    0.018
 4152.00    0.84083   1.10566    0.018
 4153.00    0.94334   1.10871    0.018
 4154.00    0.83559   1.10746    0.018
 4155.00    0.77402   1.10440    0.018
 4156.00    0.91428   1.10114    0.018
 4157.00    1.07570   1.09886    0.018
 4158.00    1.31321   1.09843    0.018
 4159.00    1.39358   1.10006    0.018
 4160.00    0.99980   1.10380    0.017
 4161.00    0.64676   1.10979    0.017
 4162.00    0.39832   1.11713    0.017
 4163.00    0.35269   1.12384    0.017
 4164.00    0.75508   1.12835    0.018
 4165.00    0.96128   1.13029    0.018
 4166.00    0.79168   1.12981    0.018
 4167.00    0.55135   1.12698    0.018
 4168.00    0.19284   1.12228    0.018
 4169.00    0.08557   1.11666    0.018
 4170.00    0.34631   1.11095    0.018
 4171.00    0.62190   1.10576    0.018
 4172.00    0.91662   1.10166    0.018
 4173.00    1.01038   1.09818    0.018
 4174.00    0.87609   1.09360    0.018
 4175.00    0.94168   1.08678    0.018
 4176.00    1.20731   1.07920    0.018
 4177.00    1.20705   1.07376    0.018
 4178.00    0.97208   1.07188    0.018
 4179.00    0.96713   1.07269    0.018
 4180.00    1.14109   1.07459    0.018
 4181.00    1.09313   1.07671    0.018
 4182.00    0.89341   1.07916    0.018
 4183.00    0.74762   1.08221    0.018
 4184.00    0.63417   1.08544    0.018
 4185.00    0.66984   1.08837    0.018
 4186.00    0.78350   1.09105    0.018
 4187.00    1.09476   1.09338    0.018
 4188.00    1.49566   1.09432    0.018
 4189.00    1.28436   1.09278    0.018
 4190.00    0.83417   1.08882    0.018
 4191.00    0.52515   1.08458    0.018
 4192.00    0.26302   1.08289    0.018
 4193.00    0.37978   1.08428    0.018
 4194.00    0.60215   1.08768    0.018
 4195.00    0.70325   1.09184    0.018
 4196.00    0.77653   1.09526    0.018
 4197.00    0.64359   1.09567    0.018
 4198.00    0.47276   1.09106    0.018
 4199.00    0.49379   1.08173    0.018
 4200.00    0.54195   1.07012    0.018
 4201.00    0.91468   1.05884    0.018
 4202.00    1.32051   1.04974    0.018
 4203.00    1.01290   1.04426    0.018
 4204.00    0.65880   1.04294    0.017
 4205.00    0.55272   1.04528    0.018
 4206.00    0.45445   1.05097    0.018
 4207.00    0.47628   1.05953    0.018
 4208.00    0.50666   1.06936    0.018
 4209.00    0.78808   1.07891    0.018
 4210.00    1.05363   1.08717    0.018
 4211.00    1.08810   1.09306    0.018
 4212.00    1.12280   1.09589    0.018
 4213.00    1.15968   1.09562    0.018
 4214.00    1.16918   1.09305    0.018
 4215.00    0.99040   1.08921    0.017
 4216.00    0.86009   1.08411    0.017
 4217.00    0.98733   1.07775    0.017
 4218.00    1.06067   1.07174    0.017
 4219.00    0.90383   1.06914    0.017
 4220.00    0.78756   1.07291    0.017
 4221.00    0.81420   1.08254    0.017
 4222.00    0.80819   1.09345    0.017
 4223.00    0.70548   1.10086    0.017
 4224.00    0.58288   1.10165    0.016
 4225.00    0.41009   1.09420    0.016
 4226.00    0.42683   1.07839    0.017
 4227.00    0.85540   1.05645    0.017
 4228.00    1.11534   1.03222    0.016
 4229.00    1.05730   1.01054    0.016
 4230.00    0.96433   0.99698    0.016
 4231.00    0.81387   0.99594    0.016
 4232.00    0.76398   1.00754    0.016
 4233.00    0.85926   1.02606    0.016
 4234.00    0.86837   1.04384    0.016
 4235.00    0.76805   1.05561    0.016
 4236.00    0.78045   1.05930    0.016
 4237.00    0.91897   1.05694    0.015
 4238.00    1.02442   1.05293    0.015
 4239.00    1.09726   1.04965    0.015
 4240.00    1.00105   1.04797    0.015
 4241.00    0.75775   1.04913    0.015
 4242.00    0.69946   1.05294    0.016
 4243.00    0.78302   1.05841    0.016
 4244.00    0.89454   1.06525    0.016
 4245.00    1.02492   1.07311    0.016
 4246.00    1.07103   1.08110    0.016
 4247.00    1.06738   1.08832    0.016
 4248.00    0.88080   1.09307    0.017
 4249.00    0.60004   1.09247    0.017
 4250.00    0.66704   1.08523    0.017
 4251.00    0.88919   1.07322    0.017
 4252.00    0.92846   1.05958    0.017
 4253.00    0.89762   1.04663    0.017
 4254.00    0.81924   1.03588    0.017
 4255.00    0.72539   1.02887    0.017
 4256.00    0.72495   1.02554    0.017
 4257.00    0.75001   1.02421    0.016
 4258.00    0.66803   1.02485    0.016
 4259.00    0.56206   1.02860    0.016
 4260.00    0.51245   1.03425    0.017
 4261.00    0.47294   1.03816    0.017
 4262.00    0.72966   1.03771    0.017
 4263.00    1.02691   1.03441    0.017
 4264.00    1.07682   1.03254    0.017
 4265.00    1.10256   1.03583    0.017
 4266.00    1.01571   1.04476    0.017
 4267.00    0.92196   1.05548    0.017
 4268.00    0.73203   1.06258    0.017
 4269.00    0.54124   1.06266    0.017
 4270.00    0.68983   1.05507    0.016
 4271.00    0.82965   1.04197    0.016
 4272.00    0.73799   1.02712    0.016
 4273.00    0.65373   1.01240    0.016
 4274.00    0.67125   0.99781    0.016
 4275.00    0.69703   0.98473    0.017
 4276.00    0.79794   0.97616    0.017
 4277.00    0.87999   0.97425    0.017
 4278.00    0.83637   0.97857    0.017
 4279.00    0.77971   0.98822    0.017
 4280.00    0.65557   1.00205    0.017
 4281.00    0.51744   1.01687    0.017
 4282.00    0.32088   1.02856   -2.000
 4283.00    0.25314   1.03430   -2.000
 4284.00    0.63015   1.03399   -2.000
 4285.00    0.92315   1.03024   -2.000
 4286.00    0.97196   1.02570   -2.000
 4287.00    0.90865   1.02162   -2.000
 4288.00    0.56722   1.01794   -2.000
 4289.00    0.29567   1.01368   -2.000
 4290.00    0.17352   1.00813   -2.000
 4291.00    0.17058   1.00101   -2.000
 4292.00    0.38898   0.99237   -2.000
 4293.00    0.62300   0.98381   -2.000
 4294.00    0.88235   0.97874   -2.000
 4295.00    1.04535   0.97944   -2.000
 4296.00    1.07125   0.98463   -2.000
 4297.00    1.04741   0.99033   -2.000
 4298.00    0.96131   0.99291    0.017
 4299.00    0.94724   0.99135    0.017
 4300.00    1.01264   0.98588    0.017
 4301.00    1.10517   0.97643    0.017
 4302.00    1.22409   0.96387    0.017
 4303.00    1.02118   0.95051    0.016
 4304.00    0.54213   0.93945    0.016
 4305.00    0.36726   0.93270    0.016
 4306.00    0.42227   0.92951    0.016
 4307.00    0.43190   0.92780    0.016
 4308.00    0.41140   0.92610    0.016
 4309.00    0.63178   0.92312    0.016
 4310.00    0.99225   0.91842    0.016
 4311.00    1.09501   0.91349    0.016
 4312.00    1.06716   0.91116    0.016
 4313.00    1.02421   0.91398    0.016
 4314.00    0.97461   0.92256    0.016
 4315.00    0.84375   0.93536    0.016
 4316.00    0.68227   0.95034    0.016
 4317.00    0.65766   0.96642    0.016
 4318.00    0.67681   0.98350    0.016
 4319.00    0.77629   1.00144    0.016
 4320.00    0.89724   1.01864    0.016
 4321.00    0.77742   1.03155    0.016
 4322.00    0.60490   1.03709    0.016
 4323.00    0.51664   1.03477    0.016
 4324.00    0.44304   1.02574    0.016
 4325.00    0.47902   1.01115    0.016
 4326.00    0.52949   0.99197    0.016
 4327.00    0.86727   0.96968    0.016
 4328.00    1.23189   0.94768    0.016
 4329.00    1.32569   0.93137    0.016
 4330.00    1.40401   0.92565    0.000
 4331.00    1.28909   0.93134    0.000
 4332.00    1.16831   0.94360    0.000
 4333.00    0.89034   0.95470    0.000
 4334.00    0.63106   0.95930    0.000
 4335.00    0.82036   0.95652    0.000
 4336.00    0.98971   0.94776    0.000
 4337.00    0.89932   0.93338    0.000
 4338.00    0.82533   0.91172    0.000
 4339.00    0.89467   0.88042    0.000
 4340.00    0.96590   0.83832    0.000
 4341.00    1.04934   0.78773    0.000
 4342.00    1.08459   0.73618    0.000
 4343.00    0.87673   0.69444    0.000
 4344.00    0.70669   0.67166    0.000
 4345.00    0.69106   0.67263    0.000
 4346.00    0.66922   0.69630    0.000
 4347.00    0.62641   0.73482    0.000
 4348.00    0.53114   0.77796    0.000
 4349.00    0.28617   0.81905    0.000
 4350.00    0.17368   0.85495    0.000
 4351.00    0.38421   0.88368    0.016
 4352.00    0.56688   0.90439    0.016
 4353.00    0.69098   0.91703    0.016
 4354.00    0.87131   0.92208    0.016
 4355.00    1.15443   0.92206    0.016
 4356.00    1.25174   0.92240    0.016
 4357.00    1.05218   0.92847    0.016
 4358.00    0.95726   0.94106    0.016
 4359.00    1.00906   0.95642    0.016
 4360.00    1.02794   0.97048    0.016
 4361.00    1.00623   0.98111    0.016
 4362.00    0.99473   0.98784    0.016
 4363.00    0.99433   0.99205    0.016
 4364.00    0.97969   0.99650    0.016
 4365.00    0.95137   1.00303    0.016
 4366.00    0.91317   1.01084    0.016
 4367.00    0.86660   1.01760    0.016
 4368.00    0.81759   1.02136    0.016
 4369.00    0.76677   1.02122    0.016
 4370.00    0.88957   1.01691    0.016
 4371.00    1.12596   1.00937    0.016
 4372.00    1.06655   1.00131    0.016
 4373.00    0.83772   0.99528    0.016
 4374.00    0.78211   0.99128    0.016
 4375.00    0.81291   0.98735    0.016
 4376.00    1.03177   0.98203    0.016
 4377.00    1.33178   0.97560    0.016
 4378.00    1.18690   0.96983    0.016
 4379.00    0.87740   0.96724    0.016
 4380.00    0.69807   0.96944    0.016
 4381.00    0.55956   0.97515    0.016
 4382.00    0.43920   0.97991    0.016
 4383.00    0.32360   0.97851    0.016
 4384.00    0.55659   0.96824    0.016
 4385.00    0.86404   0.95006    0.016
 4386.00    0.93732   0.92756    0.016
 4387.00    0.97099   0.90571    0.016
 4388.00    0.80783   0.88995    0.016
 4389.00    0.61952   0.88417    0.016
 4390.00    0.78295   0.88787    0.016
 4391.00    0.97776   0.89661    0.016
 4392.00    0.96689   0.90608    0.016
 4393.00    0.94506   0.91577    0.016
 4394.00    0.75419   0.92650    0.016
 4395.00    0.56316   0.93747    0.016
 4396.00    0.62856   0.94762    0.015
 4397.00    0.69384   0.95649    0.015
 4398.00    0.75663   0.96395    0.015
 4399.00    0.80428   0.97063    0.016
 4400.00    0.66509   0.97732    0.016
 4401.00    0.55106   0.98350    0.015
 4402.00    0.64882   0.98673    0.016
 4403.00    0.73172   0.98486    0.016
 4404.00    0.72146   0.97820    0.015
 4405.00    0.71321   0.96851    0.015
 4406.00    0.71481   0.95737    0.016
 4407.00    0.68862   0.94544    0.016
 4408.00    0.55147   0.93331    0.016
 4409.00    0.45308   0.92366    0.016
 4410.00    0.48321   0.92058    0.015
 4411.00    0.55871   0.92563    0.015
 4412.00    0.76127   0.93652    0.015
 4413.00    0.92691   0.94998    0.015
 4414.00    1.00403   0.96323    0.015
 4415.00    1.03351   0.97285    0.016
 4416.00    0.96440   0.97552    0.015
 4417.00    0.86069   0.97067    0.015
 4418.00    0.69470   0.96093    0.015
 4419.00    0.63040   0.95096    0.015
 4420.00    0.72620   0.94616    0.015
 4421.00    0.87101   0.94938    0.015
 4422.00    1.08354   0.95850    0.015
 4423.00    1.13474   0.96846    0.015
 4424.00    0.98968   0.97494    0.015
 4425.00    0.82804   0.97613    0.015
 4426.00    0.64859   0.97311    0.015
 4427.00    0.65143   0.96867    0.015
 4428.00    0.82666   0.96543    0.015
 4429.00    0.92387   0.96415    0.015
 4430.00    0.95601   0.96379    0.015
 4431.00    0.84030   0.96328    0.022
 4432.00    0.61606   0.96224    0.078
 4433.00    0.43199   0.96059   -1.000
 4434.00    0.27383   0.95791   -1.000
 4435.00    0.34658   0.95382   -1.000
 4436.00    0.54957   0.94866   -1.000
 4437.00    0.63576   0.94305   -1.000
 4438.00    0.66459   0.93786   -1.000
 4439.00    0.67753   0.93522   -1.000
 4440.00    0.68372   0.93756   -1.000
 4441.00    0.69296   0.94509   -1.000
 4442.00    0.70330   0.95476   -1.000
 4443.00    0.82778   0.96200    0.039
 4444.00    0.98735   0.96368    0.017
 4445.00    0.92763   0.96000    0.015
 4446.00    0.81177   0.95438    0.015
 4447.00    0.71379   0.95138    0.015
 4448.00    0.61953   0.95361    0.015
 4449.00    0.75128   0.96030    0.015
 4450.00    0.92016   0.96836    0.015
 4451.00    0.89970   0.97448    0.015
 4452.00    0.85590   0.97701    0.015
 4453.00    0.69928   0.97628    0.015
 4454.00    0.53306   0.97301    0.015
 4455.00    0.67507   0.96708    0.015
 4456.00    0.83229   0.95852    0.015
 4457.00    0.86398   0.94808    0.015
 4458.00    0.89262   0.93688    0.015
 4459.00    0.85480   0.92647    0.015
 4460.00    0.81381   0.91842    0.015
 4461.00    0.70874   0.91335    0.000
 4462.00    0.62674   0.91053    0.000
 4463.00    0.81579   0.90870    0.000
 4464.00    0.98806   0.90763    0.000
 4465.00    1.02425   0.90840    0.000
 4466.00    1.01686   0.91178    0.000
 4467.00    0.74429   0.91722    0.000
 4468.00    0.53470   0.92311    0.000
 4469.00    0.62732   0.92701    0.000
 4470.00    0.67851   0.92655    0.000
 4471.00    0.56787   0.92131    0.000
 4472.00    0.49098   0.91286    0.000
 4473.00    0.52381   0.90363    0.000
 4474.00    0.60560   0.89667    0.000
 4475.00    0.82212   0.89532    0.000
 4476.00    0.93143   0.90164    0.000
 4477.00    0.78807   0.91508    0.000
 4478.00    0.73319   0.93265    0.000
 4479.00    0.85855   0.94954    0.000
 4480.00    0.94657   0.96100    0.000
 4481.00    0.96843   0.96464    0.000
 4482.00    0.95103   0.96038    0.014
 4483.00    0.87275   0.94977    0.015
 4484.00    0.84045   0.93655    0.015
 4485.00    0.87078   0.92632    0.015
 4486.00    0.92724   0.92401    0.015
 4487.00    1.01502   0.93104    0.015
 4488.00    0.99317   0.94417    0.015
 4489.00    0.85544   0.95711    0.015
 4490.00    0.75472   0.96433    0.015
 4491.00    0.68851   0.96404    0.015
 4492.00    0.62130   0.95801    0.015
 4493.00    0.55326   0.94984    0.015
 4494.00    0.63188   0.94289    0.015
 4495.00    0.81663   0.93876    0.015
 4496.00    1.01617   0.93675    0.015
 4497.00    1.22509   0.93507    0.015
 4498.00    1.10956   0.93279    0.015
 4499.00    0.81381   0.93082    0.015
 4500.00    0.68828   0.93114    0.015
 4501.00    0.64500   0.93510    0.015
 4502.00    0.55818   0.94192    0.015
 4503.00    0.45320   0.94954    0.015
 4504.00    0.60895   0.95656    0.015
 4505.00    0.85776   0.96297    0.015
 4506.00    0.89790   0.96947    0.015
 4507.00    0.87514   0.97627    0.015
 4508.00    0.86878   0.98241    0.015
 4509.00    0.86654   0.98611    0.015
 4510.00    0.82828   0.98607    0.014
 4511.00    0.78270   0.98292    0.014
 4512.00    0.72137   0.97859    0.014
 4513.00    0.65753   0.97436    0.015
 4514.00    0.73250   0.97020    0.015
 4515.00    0.82396   0.96523    0.015
 4516.00    0.88224   0.95889    0.015
 4517.00    0.93782   0.95171    0.015
 4518.00    0.92386   0.94518    0.015
 4519.00    0.90673   0.94087    0.015
 4520.00    0.74735   0.93945    0.015
 4521.00    0.58856   0.94062    0.015
 4522.00    0.54946   0.94348    0.015
 4523.00    0.51141   0.94671    0.014
 4524.00    0.49325   0.94887    0.014
 4525.00    0.48878   0.94864    0.015
 4526.00    0.63762   0.94489    0.015
 4527.00    0.78360   0.93721    0.015
 4528.00    0.90715   0.92619    0.015
 4529.00    1.00383   0.91324    0.015
 4530.00    0.94167   0.90006    0.015
 4531.00    0.86646   0.88819    0.014
 4532.00    0.73008   0.87913    0.015
 4533.00    0.62351   0.87416    0.015
 4534.00    0.63084   0.87346    0.014
 4535.00    0.63841   0.87582    0.014
 4536.00    0.64674   0.87938    0.014
 4537.00    0.70803   0.88291    0.014
 4538.00    0.91246   0.88669    0.015
 4539.00    1.00927   0.89198    0.015
 4540.00    0.85671   0.89942    0.015
 4541.00    0.74405   0.90804    0.015
 4542.00    0.71134   0.91542    0.015
 4543.00    0.71702   0.91925    0.015
 4544.00    0.78970   0.91907    0.015
 4545.00    0.81681   0.91646    0.015
 4546.00    0.77427   0.91386    0.015
 4547.00    0.75731   0.91253    0.015
 4548.00    0.77469   0.91209    0.015
 4549.00    0.86792   0.91146    0.015
 4550.00    1.05079   0.90974    0.000
 4551.00    1.13993   0.90680    0.000
 4552.00    1.13136   0.90331    0.000
 4553.00    1.04114   0.89993    0.000
 4554.00    0.87584   0.89691    0.000
 4555.00    0.75835   0.89432    0.000
 4556.00    0.67960   0.89238    0.000
 4557.00    0.74488   0.89165    0.000
 4558.00    0.91286   0.89286    0.000
 4559.00    0.99481   0.89676    0.000
 4560.00    1.02291   0.90392    0.000
 4561.00    0.95069   0.91341    0.000
 4562.00    0.82360   0.92301    0.000
 4563.00    0.87021   0.93048    0.000
 4564.00    0.99940   0.93419    0.000
 4565.00    0.90946   0.93353    0.000
 4566.00    0.72966   0.92924    0.000
 4567.00    0.69320   0.92305    0.000
 4568.00    0.70698   0.91723    0.000
 4569.00    0.76141   0.91389    0.000
 4570.00    0.82784   0.91395    0.000
 4571.00    0.87148   0.91675    0.000
 4572.00    0.90954   0.92021    0.000
 4573.00    0.81261   0.92212    0.000
 4574.00    0.68893   0.92163    0.000
 4575.00    0.82881   0.91968    0.000
 4576.00    1.00950   0.91803    0.000
 4577.00    1.04976   0.91779    0.000
 4578.00    1.07395   0.91857    0.000
 4579.00    0.85199   0.91911    0.000
 4580.00    0.61113   0.91790    0.000
 4581.00    0.68763   0.91396    0.000
 4582.00    0.77735   0.90763    0.000
 4583.00    0.68363   0.90036    0.000
 4584.00    0.59134   0.89373    0.000
 4585.00    0.62868   0.88898    0.000
 4586.00    0.67270   0.88654    0.000
 4587.00    0.83350   0.88609    0.000
 4588.00    0.98309   0.88700    0.000
 4589.00    1.01283   0.88889    0.000
 4590.00    1.04355   0.89177    0.000
 4591.00    1.08163   0.89553    0.000
 4592.00    1.09224   0.89933    0.000
 4593.00    0.94493   0.90169    0.000
 4594.00    0.88328   0.90132    0.000
 4595.00    1.21309   0.89799    0.000
 4596.00    1.44133   0.89263    0.000
 4597.00    1.28955   0.88674    0.000
 4598.00    1.11528   0.88172    0.000
 4599.00    0.87062   0.87841    0.000
 4600.00    0.74707   0.87700    0.000
 4601.00    0.94497   0.87710    0.000
 4602.00    1.07401   0.87799    0.000
 4603.00    1.04617   0.87893    0.000
 4604.00    0.95414   0.87941    0.000
 4605.00    0.73548   0.87938    0.000
 4606.00    0.63058   0.87923    0.000
 4607.00    0.72128   0.87954    0.000
 4608.00    0.71252   0.88099    0.000
 4609.00    0.55399   0.88425    0.000
 4610.00    0.48506   0.88972    0.000
 4611.00    0.53469   0.89701    0.000
 4612.00    0.57586   0.90483    0.000
 4613.00    0.60719   0.91126    0.000
 4614.00    0.68235   0.91475    0.000
 4615.00    0.80255   0.91498    0.000
 4616.00    0.88982   0.91306    0.000
 4617.00    0.94725   0.91075    0.000
 4618.00    0.90992   0.90940    0.000
 4619.00    0.79688   0.90929    0.000
 4620.00    0.96446   0.90966    0.000
 4621.00    1.32928   0.90949    0.000
 4622.00    1.22320   0.90847    0.000
 4623.00    0.82680   0.90702    0.000
 4624.00    0.72765   0.90590    0.000
 4625.00    0.78859   0.90567    0.000
 4626.00    0.79683   0.90610    0.000
 4627.00    0.78041   0.90647    0.000
 4628.00    0.84840   0.90612    0.000
 4629.00    0.95043   0.90471    0.000
 4630.00    0.97019   0.90234    0.000
 4631.00    0.96166   0.89954    0.000
 4632.00    0.96330   0.89679    0.000
 4633.00    0.96789   0.89440    0.000
 4634.00    0.98922   0.89243    0.000
 4635.00    1.01457   0.89054    0.000
 4636.00    0.97227   0.88814    0.000
 4637.00    0.91691   0.88475    0.000
 4638.00    0.73648   0.88035    0.000
 4639.00    0.53727   0.87517    0.000
 4640.00    0.53527   0.86947    0.000
 4641.00    0.55498   0.86360    0.000
 4642.00    0.79367   0.85813    0.000
 4643.00    1.04828   0.85384    0.000
 4644.00    0.95990   0.85127    0.000
 4645.00    0.85855   0.85028    0.000
 4646.00    0.86531   0.84975    0.000
 4647.00    0.86945   0.84799    0.000
 4648.00    0.75624   0.84367    0.000
 4649.00    0.65307   0.83674    0.000
 4650.00    0.71394   0.82871    0.000
 4651.00    0.77471   0.82208    0.000
 4652.00    0.83448   0.81916    0.000
 4653.00    0.88990   0.82098    0.000
 4654.00    0.91353   0.82683    0.000
 4655.00    0.95789   0.83464    0.000
 4656.00    1.11816   0.84202    0.000
 4657.00    1.22450   0.84727    0.000
 4658.00    1.09021   0.85024    0.000
 4659.00    0.98760   0.85230    0.000
 4660.00    1.00104   0.85547    0.000
 4661.00    0.95273   0.86095    0.000
 4662.00    0.71493   0.86821    0.000
 4663.00    0.57134   0.87499    0.000
 4664.00    0.67344   0.87861    0.000
 4665.00    0.82446   0.87726    0.000
 4666.00    1.08509   0.87082    0.000
 4667.00    1.15446   0.86056    0.000
 4668.00    0.85237   0.84821    0.000
 4669.00    0.64515   0.83543    0.000
 4670.00    0.59859   0.82390    0.000
 4671.00    0.67706   0.81553    0.000
 4672.00    0.94105   0.81209    0.000
 4673.00    1.02916   0.81419    0.000
 4674.00    0.88789   0.82064    0.000
 4675.00    0.82400   0.82885    0.000
 4676.00    0.84903   0.83622    0.000
 4677.00    0.90839   0.84135    0.000
 4678.00    1.00255   0.84427    0.000
 4679.00    0.90514   0.84565    0.000
 4680.00    0.63650   0.84593    0.000
 4681.00    0.58146   0.84496    0.000
 4682.00    0.69464   0.84248    0.000
 4683.00    0.71678   0.83874    0.000
 4684.00    0.67587   0.83469    0.000
 4685.00    0.71763   0.83148    0.000
 4686.00    0.80960   0.82983    0.000
 4687.00    0.90818   0.82962    0.000
 4688.00    1.01025   0.83016    0.000
 4689.00    0.99217   0.83066    0.000
 4690.00    0.91881   0.83078    0.000
 4691.00    0.94919   0.83065    0.000
 4692.00    1.02068   0.83055    0.000
 4693.00    0.95632   0.83068    0.000
 4694.00    0.84608   0.83111    0.000
 4695.00    0.82338   0.83196    0.000
 4696.00    0.82553   0.83341    0.000
 4697.00    0.77746   0.83548    0.000
 4698.00    0.71763   0.83769    0.000
 4699.00    0.63552   0.83900    0.000
 4700.00    0.54923   0.83818    0.000
 4701.00    0.71584   0.83459    0.000
 4702.00    0.91923   0.82870    0.000
 4703.00    0.90963   0.82189    0.000
 4704.00    0.87751   0.81575    0.000
 4705.00    0.75375   0.81140    0.000
 4706.00    0.62371   0.80912    0.000
 4707.00    0.84535   0.80857    0.000
 4708.00    1.07896   0.80911    0.000
 4709.00    0.99863   0.80998    0.000
 4710.00    0.91954   0.81056    0.000
 4711.00    0.89661   0.81068    0.000
 4712.00    0.86828   0.81062    0.000
 4713.00    0.75724   0.81075    0.000
 4714.00    0.64570   0.81108    0.000
 4715.00    0.52917   0.81114    0.000
 4716.00    0.44942   0.81059    0.000
 4717.00    0.62970   0.80987    0.000
 4718.00    0.78483   0.81033    0.000
 4719.00    0.80309   0.81343    0.000
 4720.00    0.81502   0.81979    0.000
 4721.00    0.79938   0.82863    0.000
 4722.00    0.80676   0.83816    0.000
 4723.00    0.89675   0.84647    0.000
 4724.00    0.94734   0.85228    0.000
 4725.00    0.87932   0.85528    0.000
 4726.00    0.85343   0.85585    0.000
 4727.00    0.93547   0.85454    0.000
 4728.00    0.95915   0.85140    0.000
 4729.00    0.85415   0.84596    0.000
 4730.00    0.76509   0.83778    0.000
 4731.00    0.70649   0.82740    0.000
 4732.00    0.66804   0.81662    0.000
 4733.00    0.66319   0.80788    0.000
 4734.00    0.65386   0.80306    0.000
 4735.00    0.63798   0.80261    0.000
 4736.00    0.62627   0.80554    0.000
 4737.00    0.61993   0.81008    0.000
 4738.00    0.62035   0.81460    0.000
 4739.00    0.62844   0.81818    0.000
 4740.00    0.56849   0.82077    0.000
 4741.00    0.44054   0.82281    0.000
 4742.00    0.38949   0.82468    0.000
 4743.00    0.40618   0.82642    0.000
 4744.00    0.37537   0.82781    0.000
 4745.00    0.30769   0.82877    0.000
 4746.00    0.42576   0.82955    0.000
 4747.00    0.67065   0.83052    0.000
 4748.00    0.85797   0.83194    0.000
 4749.00    1.01084   0.83381    0.000
 4750.00    0.93803   0.83588    0.000
 4751.00    0.74741   0.83772    0.000
 4752.00    0.73977   0.83880    0.000
 4753.00    0.81496   0.83866    0.000
 4754.00    0.81703   0.83701    0.000
 4755.00    0.79063   0.83387    0.000
 4756.00    0.79988   0.82962    0.000
 4757.00    0.82094   0.82496    0.000
 4758.00    1.01505   0.82070    0.000
 4759.00    1.25726   0.81749    0.000
 4760.00    1.18758   0.81560    0.000
 4761.00    1.04655   0.81479    0.014
 4762.00    0.89916   0.81438    0.014
 4763.00    0.75060   0.81343    0.013
 4764.00    0.83624   0.81103    0.013
 4765.00    0.95486   0.80668    0.013
 4766.00    0.82360   0.80054    0.013
 4767.00    0.66699   0.79347    0.013
 4768.00    0.81899   0.78681    0.013
 4769.00    0.99095   0.78199    0.013
 4770.00    0.88309   0.78009    0.013
 4771.00    0.76692   0.78147    0.013
 4772.00    0.72817   0.78554    0.013
 4773.00    0.68804   0.79092    0.013
 4774.00    0.60763   0.79614    0.013
 4775.00    0.54278   0.80036    0.013
 4776.00    0.70264   0.80368    0.013
 4777.00    0.84808   0.80673    0.013
 4778.00    0.85781   0.80998    0.013
 4779.00    0.85213   0.81329    0.013
 4780.00    0.74095   0.81599    0.013
 4781.00    0.67324   0.81737    0.013
 4782.00    0.83585   0.81696    0.013
 4783.00    0.93313   0.81469    0.013
 4784.00    0.75217   0.81079    0.013
 4785.00    0.63114   0.80578    0.013
 4786.00    0.72070   0.80032    0.013
 4787.00    0.75728   0.79516    0.013
 4788.00    0.63734   0.79091    0.013
 4789.00    0.58805   0.78788    0.013
 4790.00    0.71667   0.78606    0.013
 4791.00    0.74767   0.78529    0.013
 4792.00    0.56697   0.78550    0.013
 4793.00    0.51326   0.78682    0.013
 4794.00    0.69858   0.78954    0.013
 4795.00    0.80132   0.79394    0.013
 4796.00    0.76835   0.79988    0.013
 4797.00    0.72158   0.80659    0.013
 4798.00    0.65492   0.81265    0.013
 4799.00    0.64865   0.81644    0.013
 4800.00    0.71890   0.81692    0.013
 4801.00    0.78955   0.81418    0.013
 4802.00    0.86065   0.80956    0.013
 4803.00    0.82577   0.80503    0.013
 4804.00    0.68650   0.80222    0.014
 4805.00    0.71003   0.80161    0.014
 4806.00    0.87498   0.80235    0.014
 4807.00    0.87116   0.80285    0.013
 4808.00    0.73821   0.80174    0.013
 4809.00    0.66385   0.79867    0.013
 4810.00    0.62893   0.79437    0.014
 4811.00    0.61983   0.79016    0.013
 4812.00    0.62594   0.78723    0.013
 4813.00    0.66832   0.78604    0.013
 4814.00    0.72932   0.78637    0.013
 4815.00    0.75848   0.78753    0.013
 4816.00    0.77347   0.78890    0.013
 4817.00    0.66909   0.79027    0.013
 4818.00    0.51904   0.79186    0.013
 4819.00    0.57191   0.79402    0.013
 4820.00    0.69076   0.79684    0.013
 4821.00    0.87933   0.79993    0.013
 4822.00    1.08687   0.80248    0.013
 4823.00    1.02773   0.80347    0.013
 4824.00    0.90900   0.80213    0.013
 4825.00    0.75775   0.79829    0.013
 4826.00    0.60071   0.79261    0.013
 4827.00    0.68108   0.78648    0.013
 4828.00    0.79379   0.78143    0.013
 4829.00    0.86535   0.77837    0.013
 4830.00    0.93291   0.77716    0.013
 4831.00    0.85485   0.77683    0.013
 4832.00    0.76796   0.77629    0.013
 4833.00    0.67797   0.77499    0.013
 4834.00    0.58848   0.77306    0.013
 4835.00    0.60533   0.77110    0.013
 4836.00    0.62754   0.76983    0.013
 4837.00    0.78988   0.76971    0.013
 4838.00    0.94118   0.77059    0.013
 4839.00    0.94166   0.77177    0.013
 4840.00    0.92256   0.77222    0.013
 4841.00    0.72649   0.77114    0.013
 4842.00    0.56074   0.76836    0.013
 4843.00    0.59623   0.76435    0.013
 4844.00    0.64224   0.76000    0.013
 4845.00    0.74259   0.75622    0.013
 4846.00    0.80620   0.75361    0.013
 4847.00    0.71682   0.75230    0.013
 4848.00    0.65617   0.75190    0.000
 4849.00    0.69443   0.75159    0.000
 4850.00    0.74261   0.75037    0.000
 4851.00    0.81956   0.74756    0.000
 4852.00    0.79615   0.74311    0.000
 4853.00    0.52439   0.73752    0.000
 4854.00    0.40308   0.73126    0.000
 4855.00    0.60278   0.72418    0.000
 4856.00    0.75854   0.71550    0.000
 4857.00    0.83287   0.70434    0.000
 4858.00    0.78909   0.69031    0.000
 4859.00    0.55411   0.67362    0.000
 4860.00    0.47726   0.65461    0.000
 4861.00    0.62494   0.63344    0.000
 4862.00    0.70396   0.61023    0.000
 4863.00    0.69719   0.58611    0.000
 4864.00    0.62985   0.56398    0.000
 4865.00    0.49580   0.54820    0.000
 4866.00    0.49801   0.54272    0.000
 4867.00    0.63258   0.54909    0.000
 4868.00    0.70831   0.56556    0.000
 4869.00    0.73364   0.58793    0.000
 4870.00    0.74608   0.61139    0.000
 4871.00    0.74881   0.63211    0.000
 4872.00    0.74150   0.64796    0.000
 4873.00    0.72755   0.65853    0.000
 4874.00    0.65740   0.66486    0.000
 4875.00    0.55462   0.66901    0.013
 4876.00    0.57306   0.67328    0.013
 4877.00    0.65281   0.67936    0.013
 4878.00    0.77692   0.68770    0.013
 4879.00    0.92045   0.69770    0.013
 4880.00    0.84300   0.70822    0.013
 4881.00    0.68248   0.71816    0.013
 4882.00    0.65786   0.72661    0.013
 4883.00    0.67657   0.73284    0.013
 4884.00    0.62924   0.73637    0.013
 4885.00    0.56429   0.73715    0.013
 4886.00    0.54306   0.73563    0.013
 4887.00    0.53138   0.73250    0.013
 4888.00    0.45807   0.72844    0.013
 4889.00    0.37409   0.72407    0.013
 4890.00    0.56299   0.71988    0.013
 4891.00    0.78784   0.71622    0.013
 4892.00    0.83109   0.71327    0.013
 4893.00    0.85746   0.71130    0.013
 4894.00    0.82043   0.71103    0.013
 4895.00    0.77979   0.71371    0.013
 4896.00    0.73958   0.72043    0.013
 4897.00    0.69970   0.73121    0.013
 4898.00    0.69453   0.74446    0.013
 4899.00    0.69388   0.75746    0.013
 4900.00    0.80039   0.76752    0.013
 4901.00    0.90366   0.77303    0.013
 4902.00    0.96499   0.77385    0.013
 4903.00    1.00315   0.77107    0.013
 4904.00    0.83987   0.76641    0.013
 4905.00    0.70685   0.76158    0.013
 4906.00    0.76847   0.75788    0.013
 4907.00    0.80332   0.75597    0.013
 4908.00    0.70357   0.75582    0.013
 4909.00    0.64255   0.75668    0.013
 4910.00    0.73915   0.75725    0.013
 4911.00    0.79357   0.75624    0.013
 4912.00    0.70560   0.75309    0.013
 4913.00    0.67029   0.74844    0.013
 4914.00    0.78487   0.74386    0.013
 4915.00    0.85812   0.74105    0.013
 4916.00    0.83083   0.74090    0.013
 4917.00    0.84069   0.74293    0.013
 4918.00    0.92856   0.74539    0.013
 4919.00    0.87183   0.74586    0.013
 4920.00    0.55127   0.74208    0.013
 4921.00    0.30779   0.73293    0.014
 4922.00    0.18726   0.71917    0.014
 4923.00    0.18884   0.70341    0.014
 4924.00    0.36133   0.68933    0.014
 4925.00    0.35308   0.68030    0.014
 4926.00    0.12223   0.67807    0.014
 4927.00    0.03503   0.68248    0.014
 4928.00    0.10378   0.69201    0.014
 4929.00    0.25076   0.70467    0.013
 4930.00    0.47265   0.71869    0.013
 4931.00    0.63300   0.73251    0.013
 4932.00    0.74140   0.74470    0.013
 4933.00    0.76447   0.75391    0.013
 4934.00    0.72411   0.75912    0.013
 4935.00    0.73703   0.75995    0.013
 4936.00    0.78474   0.75686    0.013
 4937.00    0.76358   0.75109    0.013
 4938.00    0.70305   0.74404    0.013
 4939.00    0.70835   0.73678    0.013
 4940.00    0.74644   0.72984    0.000
 4941.00    0.84350   0.72363    0.000
 4942.00    0.96595   0.71895    0.000
 4943.00    0.79252   0.71704    0.000
 4944.00    0.50985   0.71887    0.000
 4945.00    0.72751   0.72435    0.000
 4946.00    1.10167   0.73215    0.000
 4947.00    1.07823   0.74032    0.000
 4948.00    0.95104   0.74723    0.000
 4949.00    0.82487   0.75222    0.000
 4950.00    0.69892   0.75553    0.000
 4951.00    0.90559   0.75789    0.000
 4952.00    1.16831   0.75986    0.000
 4953.00    0.87479   0.76151    0.000
 4954.00    0.51051   0.76236    0.000
 4955.00    0.66598   0.76158    0.000
 4956.00    0.86756   0.75832    0.000
 4957.00    0.88072   0.75198    0.000
 4958.00    0.88393   0.74252    0.000
 4959.00    0.91724   0.73070    0.000
 4960.00    0.95002   0.71831    0.000
 4961.00    0.89706   0.70788    0.000
 4962.00    0.84173   0.70192    0.000
 4963.00    0.73488   0.70163    0.000
 4964.00    0.63902   0.70618    0.000
 4965.00    0.67814   0.71296    0.000
 4966.00    0.72252   0.71892    0.000
 4967.00    0.81094   0.72185    0.000
 4968.00    0.87622   0.72115    0.000
 4969.00    0.79693   0.71770    0.000
 4970.00    0.74804   0.71323    0.000
 4971.00    0.84818   0.70956    0.000
 4972.00    0.88833   0.70796    0.000
 4973.00    0.68969   0.70889    0.000
 4974.00    0.56201   0.71202    0.000
 4975.00    0.66912   0.71654    0.000
 4976.00    0.77061   0.72140    0.000
 4977.00    0.85642   0.72554    0.000
 4978.00    0.86510   0.72801    0.000
 4979.00    0.68931   0.72814    0.000
 4980.00    0.58587   0.72562    0.000
 4981.00    0.63187   0.72054    0.000
 4982.00    0.66852   0.71333    0.000
 4983.00    0.68840   0.70460    0.000
 4984.00    0.71558   0.69503    0.000
 4985.00    0.75424   0.68547    0.000
 4986.00    0.71574   0.67708    0.000
 4987.00    0.57081   0.67127    0.000
 4988.00    0.53204   0.66924    0.000
 4989.00    0.62218   0.67135    0.000
 4990.00    0.74297   0.67682    0.000
 4991.00    0.89657   0.68393    0.000
 4992.00    0.91019   0.69072    0.000
 4993.00    0.79163   0.69576    0.000
 4994.00    0.70461   0.69862    0.000
 4995.00    0.64385   0.69975    0.000
 4996.00    0.67928   0.70003    0.000
 4997.00    0.78521   0.70018    0.000
 4998.00    0.83863   0.70046    0.000
 4999.00    0.85826   0.70061    0.000
 5000.00    0.83624   0.69997    0.000
 5001.00    0.79077   0.69780    0.000
 5002.00    0.80260   0.69362    0.000
 5003.00    0.84250   0.68757    0.000
 5004.00    0.79772   0.68040    0.000
 5005.00    0.71708   0.67317    0.000
 5006.00    0.72865   0.66672    0.000
 5007.00    0.77365   0.66143    0.000
 5008.00    0.84110   0.65736    0.000
 5009.00    0.91542   0.65463    0.000
 5010.00    0.92638   0.65362    0.000
 5011.00    0.92115   0.65462    0.000
 5012.00    0.81218   0.65722    0.000
 5013.00    0.68165   0.66010    0.000
 5014.00    0.66925   0.66142    0.000
 5015.00    0.67618   0.65980    0.000
 5016.00    0.60583   0.65506    0.000
 5017.00    0.52600   0.64837    0.000
 5018.00    0.51736   0.64171    0.000
 5019.00    0.51475   0.63698    0.000
 5020.00    0.61915   0.63522    0.000
 5021.00    0.72879   0.63637    0.000
 5022.00    0.75568   0.63957    0.000
 5023.00    0.78023   0.64366    0.000
 5024.00    0.74046   0.64774    0.000
 5025.00    0.70265   0.65138    0.000
 5026.00    0.70392   0.65461    0.000
 5027.00    0.70440   0.65766    0.000
 5028.00    0.69581   0.66060    0.000
 5029.00    0.68821   0.66329    0.013
 5030.00    0.68863   0.66556    0.012
 5031.00    0.70120   0.66758    0.012
 5032.00    0.78743   0.66987    0.012
 5033.00    0.82008   0.67305    0.012
 5034.00    0.59647   0.67728    0.012
 5035.00    0.45629   0.68202    0.012
 5036.00    0.64105   0.68607    0.012
 5037.00    0.78668   0.68807    0.012
 5038.00    0.80537   0.68700    0.012
 5039.00    0.83178   0.68261    0.012
 5040.00    0.87943   0.67537    0.012
 5041.00    0.88787   0.66625    0.012
 5042.00    0.80412   0.65628    0.012
 5043.00    0.72262   0.64668    0.012
 5044.00    0.64570   0.63904    0.012
 5045.00    0.60339   0.63524    0.012
 5046.00    0.62231   0.63677    0.012
 5047.00    0.64517   0.64367    0.012
 5048.00    0.67411   0.65408    0.012
 5049.00    0.71310   0.66478    0.012
 5050.00    0.76575   0.67256    0.012
 5051.00    0.73913   0.67554    0.012
 5052.00    0.61762   0.67385    0.012
 5053.00    0.56766   0.66927    0.012
 5054.00    0.59321   0.66429    0.012
 5055.00    0.61664   0.66099    0.012
 5056.00    0.63808   0.66040    0.012
 5057.00    0.70471   0.66240    0.012
 5058.00    0.80842   0.66617    0.012
 5059.00    0.78936   0.67076    0.012
 5060.00    0.68162   0.67553    0.012
 5061.00    0.62416   0.68016    0.012
 5062.00    0.59858   0.68454    0.012
 5063.00    0.62432   0.68840    0.012
 5064.00    0.67852   0.69114    0.012
 5065.00    0.61703   0.69196    0.012
 5066.00    0.49977   0.69012    0.012
 5067.00    0.51609   0.68547    0.012
 5068.00    0.58804   0.67869    0.012
 5069.00    0.67130   0.67121    0.012
 5070.00    0.75859   0.66466    0.012
 5071.00    0.76770   0.66016    0.012
 5072.00    0.75329   0.65798    0.012
 5073.00    0.68493   0.65763    0.012
 5074.00    0.60309   0.65825    0.012
 5075.00    0.59009   0.65907    0.012
 5076.00    0.59105   0.65965    0.012
 5077.00    0.67534   0.65985    0.012
 5078.00    0.77288   0.65961    0.012
 5079.00    0.67455   0.65872    0.012
 5080.00    0.55306   0.65673    0.012
 5081.00    0.55371   0.65318    0.012
 5082.00    0.56419   0.64799    0.012
 5083.00    0.62742   0.64177    0.012
 5084.00    0.69301   0.63580    0.012
 5085.00    0.77888   0.63158    0.012
 5086.00    0.86144   0.63016    0.012
 5087.00    0.76756   0.63175    0.012
 5088.00    0.67784   0.63572    0.011
 5089.00    0.66558   0.64101    0.012
 5090.00    0.66008   0.64660    0.012
 5091.00    0.72993   0.65177    0.012
 5092.00    0.78418   0.65625    0.012
 5093.00    0.71680   0.66004    0.012
 5094.00    0.66507   0.66328    0.012
 5095.00    0.70547   0.66603    0.012
 5096.00    0.73468   0.66806    0.012
 5097.00    0.71164   0.66885    0.012
 5098.00    0.70182   0.66777    0.012
 5099.00    0.74233   0.66438    0.012
 5100.00    0.77117   0.65882    0.012
 5101.00    0.76288   0.65195    0.012
 5102.00    0.72888   0.64518    0.012
 5103.00    0.62559   0.64004    0.012
 5104.00    0.52775   0.63753    0.012
 5105.00    0.44253   0.63766    0.012
 5106.00    0.37556   0.63948    0.012
 5107.00    0.34508   0.64153    0.012
 5108.00    0.40303   0.64255    0.012
 5109.00    0.61507   0.64194    0.012
 5110.00    0.74390   0.63983    0.012
 5111.00    0.74584   0.63694    0.012
 5112.00    0.74070   0.63414    0.012
 5113.00    0.72606   0.63229    0.012
 5114.00    0.69934   0.63202    0.012
 5115.00    0.65833   0.63360    0.012
 5116.00    0.64150   0.63689    0.012
 5117.00    0.64981   0.64147    0.012
 5118.00    0.63106   0.64672    0.012
 5119.00    0.58747   0.65201    0.012
 5120.00    0.59952   0.65667    0.012
 5121.00    0.65658   0.66003    0.012
 5122.00    0.74444   0.66137    0.012
 5123.00    0.85421   0.66010    0.012
 5124.00    0.86390   0.65597    0.012
 5125.00    0.81105   0.64928    0.012
 5126.00    0.72299   0.64091    0.012
 5127.00    0.61571   0.63213    0.012
 5128.00    0.68506   0.62425    0.012
 5129.00    0.83822   0.61821    0.012
 5130.00    0.81146   0.61443    0.012
 5131.00    0.71106   0.61281    0.012
 5132.00    0.80115   0.61305    0.012
 5133.00    0.95782   0.61485    0.012
 5134.00    0.92305   0.61796    0.012
 5135.00    0.83183   0.62208    0.012
 5136.00    0.83819   0.62671    0.012
 5137.00    0.86838   0.63116    0.012
 5138.00    0.71895   0.63470    0.012
 5139.00    0.53403   0.63664    0.012
 5140.00    0.54619   0.63659    0.012
 5141.00    0.58876   0.63458    0.011
 5142.00    0.65765   0.63117    0.011
 5143.00    0.72954   0.62721    0.011
 5144.00    0.78650   0.62354    0.012
 5145.00    0.84231   0.62056    0.012
 5146.00    0.76559   0.61822    0.012
 5147.00    0.68342   0.61629    0.012
 5148.00    0.72643   0.61456    0.012
 5149.00    0.76691   0.61298    0.012
 5150.00    0.65780   0.61162    0.012
 5151.00    0.55313   0.61053    0.012
 5152.00    0.52536   0.60970    0.012
 5153.00    0.51166   0.60905    0.012
 5154.00    0.64765   0.60844    0.012
 5155.00    0.76578   0.60789    0.012
 5156.00    0.74944   0.60769    0.012
 5157.00    0.71325   0.60843    0.012
 5158.00    0.56333   0.61074    0.012
 5159.00    0.45145   0.61493    0.012
 5160.00    0.51285   0.62070    0.012
 5161.00    0.59136   0.62716    0.012
 5162.00    0.73377   0.63303    0.012
 5163.00    0.80870   0.63708    0.012
 5164.00    0.67312   0.63837    0.012
 5165.00    0.55707   0.63630    0.012
 5166.00    0.49276   0.63051    0.012
 5167.00    0.47893   0.62084    0.012
 5168.00    0.57993   0.60743    0.012
 5169.00    0.60898   0.59102    0.012
 5170.00    0.49638   0.57319    0.012
 5171.00    0.48779   0.55617    0.015
 5172.00    0.65769   0.54219    0.039
 5173.00    0.71150   0.53252   -1.000
 5174.00    0.59084   0.52718   -1.000
 5175.00    0.47084   0.52534   -1.000
 5176.00    0.35172   0.52636   -1.000
 5177.00    0.31055   0.53032   -1.000
 5178.00    0.36007   0.53766   -1.000
 5179.00    0.37190   0.54818   -1.000
 5180.00    0.34506   0.56038   -1.000
 5181.00    0.45790   0.57173    0.044
 5182.00    0.69712   0.57965    0.015
 5183.00    0.78681   0.58233    0.012
 5184.00    0.75725   0.57930    0.012
 5185.00    0.65337   0.57149    0.012
 5186.00    0.49735   0.56128    0.011
 5187.00    0.46840   0.55202    0.011
 5188.00    0.51766   0.54710    0.011
 5189.00    0.53840   0.54869    0.012
 5190.00    0.54381   0.55675    0.000
 5191.00    0.55581   0.56893    0.000
 5192.00    0.57089   0.58166    0.000
 5193.00    0.61630   0.59167    0.000
 5194.00    0.67391   0.59704    0.000
 5195.00    0.69988   0.59774    0.000
 5196.00    0.71500   0.59528    0.000
 5197.00    0.60855   0.59202    0.000
 5198.00    0.46698   0.59007    0.000
 5199.00    0.48656   0.59065    0.000
 5200.00    0.54464   0.59383    0.000
 5201.00    0.59142   0.59884    0.000
 5202.00    0.63603   0.60439    0.000
 5203.00    0.57126   0.60903    0.000
 5204.00    0.49013   0.61160    0.000
 5205.00    0.50785   0.61126    0.000
 5206.00    0.53639   0.60755    0.000
 5207.00    0.53920   0.60059    0.000
 5208.00    0.54016   0.59109    0.000
 5209.00    0.53378   0.58039    0.000
 5210.00    0.52713   0.57027    0.000
 5211.00    0.56895   0.56255    0.011
 5212.00    0.60556   0.55868    0.011
 5213.00    0.44447   0.55947    0.011
 5214.00    0.29905   0.56481    0.011
 5215.00    0.40764   0.57357    0.011
 5216.00    0.50919   0.58393    0.011
 5217.00    0.53903   0.59390    0.012
 5218.00    0.56513   0.60184    0.012
 5219.00    0.56405   0.60714    0.012
 5220.00    0.57825   0.61036    0.012
 5221.00    0.67761   0.61275    0.012
 5222.00    0.73078   0.61540    0.012
 5223.00    0.57849   0.61857    0.012
 5224.00    0.45606   0.62146    0.012
 5225.00    0.44273   0.62259    0.012
 5226.00    0.41815   0.62053    0.012
 5227.00    0.35914   0.61470    0.012
 5228.00    0.38038   0.60574    0.012
 5229.00    0.61044   0.59548    0.012
 5230.00    0.74279   0.58649    0.012
 5231.00    0.65662   0.58128    0.012
 5232.00    0.62094   0.58122    0.012
 5233.00    0.68311   0.58587    0.012
 5234.00    0.68128   0.59324    0.012
 5235.00    0.57129   0.60068    0.012
 5236.00    0.52534   0.60610    0.012
 5237.00    0.57423   0.60909    0.012
 5238.00    0.60886   0.61080    0.012
 5239.00    0.62492   0.61282    0.012
 5240.00    0.64136   0.61621    0.012
 5241.00    0.65823   0.62094    0.012
 5242.00    0.63350   0.62601    0.012
 5243.00    0.56668   0.63029    0.012
 5244.00    0.50660   0.63311    0.011
 5245.00    0.45252   0.63444    0.011
 5246.00    0.50862   0.63462    0.011
 5247.00    0.65133   0.63381    0.012
 5248.00    0.66881   0.63181    0.012
 5249.00    0.59972   0.62823    0.011
 5250.00    0.53534   0.62298    0.011
 5251.00    0.47382   0.61639    0.012
 5252.00    0.49139   0.60935    0.012
 5253.00    0.55081   0.60319    0.014
 5254.00    0.57081   0.59908    0.014
 5255.00    0.57272   0.59727    0.014
 5256.00    0.70753   0.59741    0.014
 5257.00    0.89487   0.59927    0.014
 5258.00    0.89409   0.60259    0.013
 5259.00    0.82993   0.60691    0.012
 5260.00    0.76604   0.61186    0.012
 5261.00    0.70223   0.61694    0.012
 5262.00    0.66636   0.62115    0.012
 5263.00    0.63701   0.62275    0.012
 5264.00    0.55886   0.62011    0.012
 5265.00    0.47156   0.61265    0.012
 5266.00    0.48229   0.60108    0.012
 5267.00    0.50723   0.58715    0.012
 5268.00    0.52533   0.57299    0.012
 5269.00    0.54272   0.56056    0.012
 5270.00    0.55275   0.55106    0.012
 5271.00    0.56228   0.54473    0.012
 5272.00    0.54619   0.54124    0.012
 5273.00    0.52923   0.54015    0.012
 5274.00    0.58464   0.54130    0.012
 5275.00    0.63736   0.54527    0.011
 5276.00    0.60125   0.55264    0.012
 5277.00    0.57152   0.56254    0.012
 5278.00    0.63889   0.57322    0.012
 5279.00    0.69326   0.58337    0.012
 5280.00    0.62087   0.59256    0.012
 5281.00    0.55893   0.60072    0.012
 5282.00    0.57069   0.60757    0.012
 5283.00    0.59955   0.61222    0.011
 5284.00    0.72117   0.61388    0.012
 5285.00    0.81166   0.61274    0.012
 5286.00    0.76686   0.61018    0.012
 5287.00    0.71729   0.60819    0.012
 5288.00    0.65068   0.60851    0.012
 5289.00    0.61570   0.61199    0.012
 5290.00    0.67568   0.61829    0.012
 5291.00    0.73137   0.62587    0.012
 5292.00    0.77613   0.63281    0.012
 5293.00    0.79449   0.63790    0.012
 5294.00    0.75479   0.64084    0.012
 5295.00    0.67528   0.64172    0.012
 5296.00    0.51979   0.64049    0.012
 5297.00    0.42658   0.63703    0.012
 5298.00    0.43704   0.63135    0.012
 5299.00    0.49509   0.62375    0.012
 5300.00    0.62260   0.61481    0.012
 5301.00    0.73895   0.60564    0.012
 5302.00    0.84096   0.59795    0.011
 5303.00    0.79390   0.59355    0.011
 5304.00    0.57828   0.59333    0.011
 5305.00    0.50056   0.59673    0.011
 5306.00    0.56035   0.60265    0.011
 5307.00    0.62172   0.61017    0.011
 5308.00    0.68446   0.61832    0.011
 5309.00    0.67135   0.62590    0.011
 5310.00    0.59945   0.63193    0.011
 5311.00    0.61174   0.63600    0.011
 5312.00    0.68140   0.63840    0.011
 5313.00    0.66808   0.63974    0.011
 5314.00    0.60521   0.64030    0.011
 5315.00    0.56013   0.64002    0.011
 5316.00    0.52431   0.63873    0.011
 5317.00    0.52235   0.63644    0.011
 5318.00    0.53568   0.63339    0.011
 5319.00    0.57742   0.62998    0.011
 5320.00    0.63019   0.62659    0.011
 5321.00    0.61485   0.62358    0.011
 5322.00    0.57700   0.62120    0.011
 5323.00    0.58564   0.61928    0.011
 5324.00    0.60718   0.61731    0.011
 5325.00    0.66011   0.61475    0.011
 5326.00    0.72020   0.61109    0.011
 5327.00    0.70407   0.60592    0.011
 5328.00    0.67402   0.59912    0.011
 5329.00    0.68475   0.59101    0.011
 5330.00    0.70120   0.58214    0.011
 5331.00    0.63332   0.57319    0.011
 5332.00    0.55692   0.56562    0.011
 5333.00    0.62657   0.56172    0.011
 5334.00    0.70557   0.56316    0.011
 5335.00    0.80612   0.56952    0.011
 5336.00    0.90679   0.57889    0.011
 5337.00    0.79301   0.58919    0.011
 5338.00    0.68227   0.59872    0.011
 5339.00    0.65819   0.60621    0.011
 5340.00    0.63524   0.61074    0.011
 5341.00    0.62860   0.61198    0.011
 5342.00    0.62408   0.61026    0.011
 5343.00    0.63949   0.60632    0.011
 5344.00    0.64382   0.60142    0.011
 5345.00    0.57261   0.59734    0.011
 5346.00    0.52078   0.59538    0.011
 5347.00    0.57124   0.59552    0.011
 5348.00    0.61253   0.59678    0.011
 5349.00    0.61481   0.59801    0.011
 5350.00    0.62826   0.59865    0.011
 5351.00    0.68085   0.59880    0.011
 5352.00    0.71217   0.59888    0.011
 5353.00    0.68081   0.59961    0.011
 5354.00    0.67409   0.60198    0.011
 5355.00    0.72928   0.60637    0.011
 5356.00    0.73668   0.61233    0.011
 5357.00    0.64067   0.61907    0.011
 5358.00    0.59863   0.62588    0.011
 5359.00    0.65799   0.63203    0.011
 5360.00    0.67181   0.63679    0.011
 5361.00    0.61094   0.63978    0.011
 5362.00    0.60549   0.64082    0.011
 5363.00    0.67976   0.63988    0.011
 5364.00    0.71514   0.63709    0.011
 5365.00    0.70133   0.63272    0.011
 5366.00    0.69970   0.62732    0.011
 5367.00    0.71162   0.62160    0.011
 5368.00    0.71269   0.61592   -2.000
 5369.00    0.70307   0.61043   -2.000
 5370.00    0.67090   0.60516   -2.000
 5371.00    0.61916   0.59984   -2.000
 5372.00    0.60625   0.59416   -2.000
 5373.00    0.62301   0.58811   -2.000
 5374.00    0.61190   0.58241   -2.000
 5375.00    0.58206   0.57869   -2.000
 5376.00    0.63380   0.57862   -2.000
 5377.00    0.73353   0.58270   -2.000
 5378.00    0.82289   0.58983   -2.000
 5379.00    0.90692   0.59813   -2.000
 5380.00    0.82421   0.60573   -2.000
 5381.00    0.66741   0.61150   -2.000
 5382.00    0.69363   0.61514   -2.000
 5383.00    0.78971   0.61675    0.011
 5384.00    0.76111   0.61663    0.011
 5385.00    0.69206   0.61534    0.011
 5386.00    0.74644   0.61346    0.011
 5387.00    0.83433   0.61153    0.011
 5388.00    0.88254   0.61003    0.011
 5389.00    0.92192   0.60897    0.011
 5390.00    0.85768   0.60790    0.011
 5391.00    0.77504   0.60630    0.011
 5392.00    0.62438   0.60373    0.011
 5393.00    0.46449   0.60006    0.011
 5394.00    0.44838   0.59561    0.011
 5395.00    0.44616   0.59095    0.011
 5396.00    0.61642   0.58653    0.011
 5397.00    0.79705   0.58249    0.011
 5398.00    0.65612   0.57876    0.011
 5399.00    0.50753   0.57520    0.011
 5400.00    0.47777   0.57188    0.011
 5401.00    0.45124   0.56955    0.011
 5402.00    0.50776   0.56908    0.011
 5403.00    0.57268   0.57036    0.011
 5404.00    0.75137   0.57249    0.011
 5405.00    0.89245   0.57436    0.011
 5406.00    0.69520   0.57470    0.011
 5407.00    0.53923   0.57248    0.011
 5408.00    0.65610   0.56776    0.011
 5409.00    0.73457   0.56182    0.011
 5410.00    0.61547   0.55653    0.011
 5411.00    0.53390   0.55322    0.010
 5412.00    0.60808   0.55224    0.010
 5413.00    0.66606   0.55341    0.010
 5414.00    0.66836   0.55666    0.011
 5415.00    0.68374   0.56185    0.011
 5416.00    0.73700   0.56841    0.010
 5417.00    0.75257   0.57560    0.010
 5418.00    0.67506   0.58275    0.010
 5419.00    0.61536   0.58942    0.010
 5420.00    0.59358   0.59518    0.011
 5421.00    0.57989   0.59951    0.011
 5422.00    0.58116   0.60203    0.010
 5423.00    0.60722   0.60270    0.010
 5424.00    0.67336   0.60189    0.010
 5425.00    0.68759   0.60022    0.010
 5426.00    0.62826   0.59814    0.010
 5427.00    0.60459   0.59596    0.010
 5428.00    0.62542   0.59419    0.010
 5429.00    0.61112   0.59312    0.010
 5430.00    0.55821   0.59230    0.010
 5431.00    0.63921   0.59074    0.010
 5432.00    0.85003   0.58756    0.010
 5433.00    0.91367   0.58297    0.010
 5434.00    0.85148   0.57793    0.010
 5435.00    0.82180   0.57308    0.010
 5436.00    0.81659   0.56875    0.011
 5437.00    0.72306   0.56541    0.011
 5438.00    0.57109   0.56360    0.010
 5439.00    0.52400   0.56385    0.010
 5440.00    0.53768   0.56659    0.010
 5441.00    0.56575   0.57198    0.010
 5442.00    0.60109   0.57949    0.010
 5443.00    0.66811   0.58798    0.010
 5444.00    0.74898   0.59600    0.010
 5445.00    0.79585   0.60213    0.010
 5446.00    0.82998   0.60529    0.010
 5447.00    0.79568   0.60480    0.011
 5448.00    0.73962   0.60055    0.011
 5449.00    0.67149   0.59330    0.011
 5450.00    0.60015   0.58483    0.011
 5451.00    0.63249   0.57744    0.011
 5452.00    0.68738   0.57266    0.010
 5453.00    0.61204   0.57074    0.010
 5454.00    0.51420   0.57087    0.010
 5455.00    0.51781   0.57163    0.010
 5456.00    0.53471   0.57154    0.010
 5457.00    0.66063   0.56974    0.011
 5458.00    0.79662   0.56641    0.011
 5459.00    0.79154   0.56292    0.011
 5460.00    0.77853   0.56092    0.011
 5461.00    0.68437   0.56119    0.010
 5462.00    0.58845   0.56336    0.010
 5463.00    0.49806   0.56633    0.010
 5464.00    0.41720   0.56886    0.010
 5465.00    0.56013   0.57009    0.010
 5466.00    0.69327   0.56990    0.010
 5467.00    0.70068   0.56905    0.010
 5468.00    0.70436   0.56837    0.010
 5469.00    0.67565   0.56824    0.010
 5470.00    0.65195   0.56881    0.010
 5471.00    0.66037   0.56986    0.010
 5472.00    0.65980   0.57072    0.010
 5473.00    0.61418   0.57081    0.010
 5474.00    0.57145   0.56998    0.010
 5475.00    0.54046   0.56818    0.010
 5476.00    0.53301   0.56533    0.010
 5477.00    0.60478   0.56174    0.010
 5478.00    0.67077   0.55776   -2.000
 5479.00    0.72033   0.55354   -2.000
 5480.00    0.77080   0.54981   -2.000
 5481.00    0.82350   0.54760   -2.000
 5482.00    0.82453   0.54711   -2.000
 5483.00    0.71730   0.54778   -2.000
 5484.00    0.51991   0.54909   -2.000
 5485.00    0.15834   0.55094   -2.000
 5486.00   -0.11947   0.55335   -2.000
 5487.00   -0.26398   0.55632   -2.000
 5488.00   -0.11571   0.55962   -2.000
 5489.00    0.44156   0.56264   -2.000
 5490.00    0.95928   0.56475   -2.000
 5491.00    1.42837   0.56587   -2.000
 5492.00    1.69509   0.56623   -2.000
 5493.00    1.74249   0.56610   -2.000
 5494.00    1.61287   0.56596   -2.000
 5495.00    1.31403   0.56606   -2.000
 5496.00    1.00040   0.56625   -2.000
 5497.00    0.67432   0.56644   -2.000
 5498.00    0.53996   0.56657   -2.000
 5499.00    0.54788   0.56638   -2.000
 5500.00    0.55939   0.56585   -2.000
 5501.00    0.57323   0.56537   -2.000
 5502.00    0.61467   0.56516   -1.000
 5503.00    0.67185   0.56483   -1.000
 5504.00    0.64764   0.56400    0.030
 5505.00    0.58299   0.56265    0.012
 5506.00    0.58661   0.56086    0.010
 5507.00    0.61956   0.55873    0.010
 5508.00    0.65916   0.55639    0.010
 5509.00    0.70122   0.55411    0.010
 5510.00    0.67713   0.55243    0.010
 5511.00    0.63239   0.55164    0.010
 5512.00    0.65875   0.55144    0.010
 5513.00    0.70361   0.55131    0.010
 5514.00    0.68783   0.55074    0.010
 5515.00    0.65918   0.54939    0.010
 5516.00    0.64197   0.54752    0.010
 5517.00    0.62668   0.54575    0.010
 5518.00    0.64795   0.54482    0.010
 5519.00    0.67385   0.54541    0.010
 5520.00    0.70740   0.54785    0.010
 5521.00    0.74164   0.55202    0.010
 5522.00    0.69696   0.55716    0.010
 5523.00    0.64815   0.56228    0.010
 5524.00    0.60839   0.56662    0.010
 5525.00    0.56883   0.56964    0.010
 5526.00    0.53095   0.57109    0.010
 5527.00    0.49894   0.57092    0.010
 5528.00    0.59315   0.56923    0.010
 5529.00    0.68443   0.56624    0.010
 5530.00    0.73994   0.56228    0.010
 5531.00    0.78698   0.55808    0.010
 5532.00    0.76344   0.55469    0.010
 5533.00    0.73516   0.55278    0.010
 5534.00    0.67733   0.55241    0.010
 5535.00    0.63853   0.55324    0.010
 5536.00    0.69272   0.55467    0.010
 5537.00    0.72068   0.55604    0.010
 5538.00    0.64455   0.55695    0.010
 5539.00    0.59339   0.55747    0.010
 5540.00    0.62458   0.55787    0.010
 5541.00    0.67105   0.55847    0.011
 5542.00    0.76012   0.55965    0.027
 5543.00    0.81785   0.56144   -1.000
 5544.00    0.80080   0.56344   -1.000
 5545.00    0.80111   0.56514   -1.000
 5546.00    0.83722   0.56617   -1.000
 5547.00    0.81707   0.56651    0.053
 5548.00    0.69602   0.56633    0.014
 5549.00    0.62014   0.56600    0.010
 5550.00    0.61511   0.56609    0.010
 5551.00    0.61785   0.56696    0.010
 5552.00    0.63130   0.56851    0.010
 5553.00    0.67342   0.57037    0.010
 5554.00    0.75028   0.57201    0.010
 5555.00    0.77480   0.57288    0.010
 5556.00    0.74337   0.57263    0.010
 5557.00    0.67568   0.57134    0.010
 5558.00    0.57382   0.56940    0.010
 5559.00    0.55305   0.56721    0.010
 5560.00    0.59967   0.56511    0.010
 5561.00    0.64314   0.56336    0.009
 5562.00    0.68431   0.56202    0.010
 5563.00    0.66616   0.56089    0.010
 5564.00    0.60992   0.55969    0.010
 5565.00    0.61143   0.55824    0.010
 5566.00    0.64538   0.55654    0.010
 5567.00    0.68748   0.55465    0.010
 5568.00    0.73357   0.55258    0.010
 5569.00    0.70193   0.55049    0.009
 5570.00    0.63745   0.54864    0.009
 5571.00    0.66104   0.54714    0.009
 5572.00    0.71650   0.54608    0.010
 5573.00    0.69296   0.54560    0.010
 5574.00    0.64524   0.54558    0.010
 5575.00    0.60700   0.54577    0.010
 5576.00    0.57117   0.54623    0.010
 5577.00    0.56006   0.54709    0.010
 5578.00    0.55406   0.54821    0.010
 5579.00    0.54049   0.54952    0.010
 5580.00    0.52567   0.55099    0.010
 5581.00    0.52363   0.55240    0.010
 5582.00    0.52314   0.55362    0.010
 5583.00    0.52551   0.55447    0.010
 5584.00    0.52812   0.55468    0.010
 5585.00    0.53591   0.55410    0.010
 5586.00    0.54395   0.55258    0.010
 5587.00    0.64948   0.54992    0.010
 5588.00    0.75439   0.54590    0.010
 5589.00    0.73528   0.54058    0.010
 5590.00    0.71446   0.53441    0.010
 5591.00    0.65989   0.52822    0.010
 5592.00    0.61498   0.52296    0.010
 5593.00    0.68232   0.51940    0.010
 5594.00    0.74481   0.51789    0.010
 5595.00    0.76827   0.51834    0.010
 5596.00    0.77278   0.52034    0.010
 5597.00    0.66281   0.52346    0.010
 5598.00    0.56949   0.52723    0.010
 5599.00    0.55559   0.53098    0.010
 5600.00    0.55179   0.53385    0.010
 5601.00    0.58721   0.53537    0.010
 5602.00    0.62081   0.53544    0.010
 5603.00    0.64858   0.53414    0.010
 5604.00    0.67225   0.53195    0.010
 5605.00    0.68472   0.52972    0.010
 5606.00    0.72382   0.52852    0.010
 5607.00    0.82541   0.52912    0.010
 5608.00    0.86670   0.53175    0.010
 5609.00    0.78570   0.53610    0.010
 5610.00    0.70044   0.54139    0.009
 5611.00    0.60765   0.54673    0.009
 5612.00    0.55329   0.55131    0.009
 5613.00    0.55831   0.55464    0.009
 5614.00    0.56735   0.55649    0.009
 5615.00    0.58183   0.55671    0.009
 5616.00    0.58048   0.55501    0.009
 5617.00    0.56021   0.55122    0.009
 5618.00    0.58924   0.54588    0.009
 5619.00    0.67022   0.54008    0.009
 5620.00    0.68110   0.53481    0.009
 5621.00    0.62684   0.53076    0.009
 5622.00    0.56609   0.52840    0.009
 5623.00    0.50003   0.52781    0.009
 5624.00    0.49485   0.52852    0.009
 5625.00    0.53357   0.52959    0.009
 5626.00    0.58129   0.53006    0.009
 5627.00    0.63470   0.52954    0.009
 5628.00    0.65492   0.52842    0.009
 5629.00    0.65678   0.52733    0.010
 5630.00    0.68747   0.52688    0.010
 5631.00    0.73204   0.52764    0.010
 5632.00    0.69111   0.52978    0.009
 5633.00    0.61465   0.53297    0.009
 5634.00    0.60044   0.53651    0.009
 5635.00    0.60836   0.53966    0.009
 5636.00    0.59899   0.54174    0.009
 5637.00    0.58443   0.54240    0.009
 5638.00    0.58000   0.54159    0.009
 5639.00    0.57810   0.53955    0.009
 5640.00    0.61511   0.53680    0.009
 5641.00    0.65998   0.53389    0.009
 5642.00    0.62172   0.53118    0.009
 5643.00    0.57029   0.52884    0.009
 5644.00    0.55876   0.52707    0.009
 5645.00    0.55194   0.52596    0.009
 5646.00    0.53445   0.52549    0.009
 5647.00    0.51611   0.52559    0.009
 5648.00    0.58812   0.52621    0.009
 5649.00    0.66416   0.52725    0.009
 5650.00    0.66923   0.52856    0.009
 5651.00    0.67395   0.52992    0.009
 5652.00    0.70067   0.53127    0.009
 5653.00    0.72660   0.53263    0.009
 5654.00    0.73797   0.53402    0.009
 5655.00    0.74536   0.53526    0.009
 5656.00    0.70868   0.53602    0.009
 5657.00    0.67244   0.53608    0.009
 5658.00    0.63961   0.53535    0.009
 5659.00    0.61175   0.53357    0.009
 5660.00    0.61312   0.53048    0.009
 5661.00    0.60747   0.52652    0.009
 5662.00    0.56922   0.52259    0.009
 5663.00    0.56560   0.51920    0.009
 5664.00    0.69362   0.51665    0.009
 5665.00    0.76253   0.51534    0.009
 5666.00    0.64385   0.51551    0.009
 5667.00    0.55737   0.51695    0.009
 5668.00    0.55752   0.51913    0.009
 5669.00    0.57738   0.52142    0.009
 5670.00    0.64268   0.52345    0.009
 5671.00    0.68887   0.52504    0.009
 5672.00    0.69690   0.52618    0.009
 5673.00    0.65531   0.52710    0.009
 5674.00    0.52745   0.52826    0.009
 5675.00    0.45884   0.53000    0.009
 5676.00    0.48041   0.53228    0.009
 5677.00    0.52043   0.53484    0.009
 5678.00    0.58513   0.53745    0.009
 5679.00    0.62185   0.53980    0.009
 5680.00    0.62560   0.54142    0.009
 5681.00    0.60670   0.54205    0.009
 5682.00    0.56428   0.54171    0.009
 5683.00    0.53346   0.54050    0.009
 5684.00    0.51325   0.53847    0.009
 5685.00    0.52630   0.53592    0.009
 5686.00    0.56619   0.53336    0.009
 5687.00    0.60380   0.53105    0.009
 5688.00    0.63979   0.52897    0.009
 5689.00    0.60000   0.52713    0.009
 5690.00    0.51297   0.52567    0.009
 5691.00    0.46861   0.52481    0.009
 5692.00    0.44749   0.52473    0.009
 5693.00    0.51824   0.52554    0.009
 5694.00    0.63249   0.52730    0.009
 5695.00    0.68872   0.52979    0.009
 5696.00    0.72126   0.53250    0.009
 5697.00    0.68272   0.53489    0.009
 5698.00    0.61938   0.53655    0.009
 5699.00    0.58271   0.53712    0.009
 5700.00    0.55386   0.53635    0.009
 5701.00    0.61737   0.53439    0.009
 5702.00    0.70337   0.53155    0.009
 5703.00    0.73485   0.52812    0.009
 5704.00    0.75560   0.52451    0.009
 5705.00    0.70243   0.52125    0.009
 5706.00    0.63790   0.51865    0.009
 5707.00    0.56772   0.51666    0.009
 5708.00    0.49690   0.51494    0.009
 5709.00    0.51883   0.51321    0.009
 5710.00    0.54779   0.51118    0.009
 5711.00    0.52282   0.50870    0.009
 5712.00    0.49566   0.50607    0.009
 5713.00    0.53792   0.50368    0.009
 5714.00    0.58088   0.50201    0.009
 5715.00    0.63089   0.50180    0.009
 5716.00    0.67589   0.50332    0.009
 5717.00    0.63483   0.50645    0.009
 5718.00    0.59846   0.51083    0.009
 5719.00    0.61166   0.51581    0.009
 5720.00    0.62519   0.52077    0.009
 5721.00    0.64121   0.52531    0.009
 5722.00    0.64142   0.52917    0.009
 5723.00    0.55144   0.53237    0.009
 5724.00    0.48469   0.53503    0.009
 5725.00    0.52351   0.53722    0.009
 5726.00    0.56529   0.53895    0.009
 5727.00    0.61810   0.54013    0.009
 5728.00    0.65875   0.54047    0.009
 5729.00    0.66159   0.53984    0.009
 5730.00    0.65714   0.53848    0.009
 5731.00    0.63343   0.53679    0.009
 5732.00    0.62712   0.53493    0.009
 5733.00    0.66027   0.53306    0.009
 5734.00    0.65369   0.53158    0.009
 5735.00    0.56902   0.53082    0.009
 5736.00    0.51991   0.53077    0.009
 5737.00    0.53171   0.53127    0.009
 5738.00    0.56380   0.53207    0.009
 5739.00    0.62634   0.53289    0.009
 5740.00    0.65780   0.53347    0.000
 5741.00    0.64830   0.53369    0.000
 5742.00    0.64799   0.53360    0.000
 5743.00    0.65837   0.53322    0.000
 5744.00    0.67673   0.53260    0.000
 5745.00    0.70325   0.53192    0.000
 5746.00    0.72577   0.53152    0.000
 5747.00    0.74469   0.53157    0.000
 5748.00    0.75099   0.53191    0.000
 5749.00    0.74724   0.53217    0.000
 5750.00    0.73367   0.53208    0.000
 5751.00    0.71321   0.53174    0.000
 5752.00    0.66814   0.53123    0.000
 5753.00    0.60796   0.53045    0.000
 5754.00    0.58376   0.52927    0.000
 5755.00    0.57887   0.52765    0.000
 5756.00    0.56964   0.52580    0.000
 5757.00    0.55838   0.52419    0.000
 5758.00    0.56228   0.52327    0.000
 5759.00    0.57226   0.52320    0.000
 5760.00    0.60480   0.52382    0.000
 5761.00    0.64507   0.52472    0.000
 5762.00    0.61715   0.52543    0.000
 5763.00    0.56959   0.52546    0.000
 5764.00    0.60203   0.52457    0.000
 5765.00    0.65353   0.52296    0.000
 5766.00    0.68077   0.52129    0.000
 5767.00    0.70336   0.52022    0.000
 5768.00    0.69744   0.52029    0.000
 5769.00    0.68729   0.52170    0.000
 5770.00    0.69435   0.52418    0.000
 5771.00    0.70330   0.52710    0.000
 5772.00    0.65637   0.52973    0.000
 5773.00    0.60544   0.53152    0.000
 5774.00    0.55472   0.53218    0.000
 5775.00    0.50401   0.53176    0.000
 5776.00    0.51571   0.53061    0.000
 5777.00    0.52908   0.52919    0.000
 5778.00    0.59250   0.52786    0.000
 5779.00    0.65161   0.52670    0.000
 5780.00    0.64142   0.52560    0.000
 5781.00    0.63507   0.52420    0.000
 5782.00    0.66774   0.52197    0.000
 5783.00    0.69373   0.51859    0.000
 5784.00    0.67132   0.51418    0.000
 5785.00    0.64899   0.50917    0.000
 5786.00    0.62712   0.50395    0.000
 5787.00    0.61101   0.49911    0.000
 5788.00    0.62050   0.49550    0.000
 5789.00    0.62269   0.49379    0.000
 5790.00    0.59832   0.49408    0.000
 5791.00    0.58809   0.49614   -2.000
 5792.00    0.62104   0.49934   -2.000
 5793.00    0.64084   0.50296   -2.000
 5794.00    0.62653   0.50666   -2.000
 5795.00    0.59021   0.51028   -2.000
 5796.00    0.50478   0.51368   -2.000
 5797.00    0.44646   0.51669   -2.000
 5798.00    0.44060   0.51912   -2.000
 5799.00    0.47858   0.52091   -2.000
 5800.00    0.59053   0.52220   -2.000
 5801.00    0.67981   0.52336   -2.000
 5802.00    0.73558   0.52451   -2.000
 5803.00    0.74105   0.52565   -2.000
 5804.00    0.68116   0.52689   -2.000
 5805.00    0.65588   0.52812   -2.000
 5806.00    0.67022   0.52904   -2.000
 5807.00    0.69736   0.52951   -2.000
 5808.00    0.73742   0.52943   -2.000
 5809.00    0.74827   0.52870   -2.000
 5810.00    0.73311   0.52741   -2.000
 5811.00    0.71071   0.52604    0.000
 5812.00    0.68263   0.52499    0.000
 5813.00    0.64861   0.52442    0.000
 5814.00    0.61048   0.52427    0.000
 5815.00    0.59262   0.52433    0.000
 5816.00    0.58701   0.52417    0.000
 5817.00    0.60294   0.52350    0.000
 5818.00    0.63024   0.52235    0.000
 5819.00    0.63189   0.52111    0.000
 5820.00    0.62177   0.52020    0.000
 5821.00    0.58893   0.51988    0.000
 5822.00    0.54712   0.52033    0.000
 5823.00    0.57868   0.52150    0.000
 5824.00    0.63490   0.52308    0.000
 5825.00    0.73104   0.52479    0.000
 5826.00    0.83846   0.52634    0.000
 5827.00    0.80823   0.52748    0.000
 5828.00    0.74597   0.52803    0.000
 5829.00    0.67787   0.52813    0.000
 5830.00    0.60869   0.52808    0.000
 5831.00    0.65624   0.52810    0.000
 5832.00    0.72062   0.52823    0.000
 5833.00    0.68433   0.52838    0.000
 5834.00    0.63750   0.52844    0.000
 5835.00    0.62283   0.52822    0.000
 5836.00    0.61034   0.52759    0.000
 5837.00    0.59567   0.52665    0.000
 5838.00    0.58093   0.52561    0.000
 5839.00    0.59574   0.52449    0.000
 5840.00    0.60950   0.52337    0.000
 5841.00    0.58984   0.52255    0.000
 5842.00    0.57520   0.52225    0.000
 5843.00    0.63643   0.52250    0.000
 5844.00    0.69160   0.52324    0.000
 5845.00    0.68795   0.52430    0.000
 5846.00    0.68848   0.52523    0.000
 5847.00    0.71834   0.52570    0.000
 5848.00    0.74363   0.52556    0.000
 5849.00    0.74419   0.52465    0.000
 5850.00    0.74455   0.52288    0.000
 5851.00    0.74400   0.52047    0.000
 5852.00    0.74274   0.51773    0.000
 5853.00    0.73893   0.51485    0.000
 5854.00    0.73116   0.51192    0.000
 5855.00    0.71149   0.50900    0.000
 5856.00    0.69032   0.50623    0.000
 5857.00    0.66531   0.50365    0.000
 5858.00    0.62447   0.50103    0.000
 5859.00    0.54891   0.49822    0.000
 5860.00    0.49613   0.49551    0.000
 5861.00    0.48673   0.49332    0.000
 5862.00    0.49188   0.49196    0.000
 5863.00    0.52121   0.49153    0.000
 5864.00    0.52214   0.49179    0.000
 5865.00    0.48167   0.49251    0.000
 5866.00    0.47122   0.49373    0.000
 5867.00    0.49924   0.49534    0.000
 5868.00    0.52885   0.49689    0.000
 5869.00    0.56026   0.49800    0.000
 5870.00    0.57389   0.49880    0.000
 5871.00    0.56981   0.49954    0.000
 5872.00    0.57272   0.50043    0.000
 5873.00    0.58176   0.50144    0.000
 5874.00    0.57916   0.50224    0.000
 5875.00    0.56755   0.50260    0.000
 5876.00    0.57521   0.50241    0.000
 5877.00    0.59597   0.50149    0.000
 5878.00    0.57665   0.49971    0.000
 5879.00    0.53343   0.49732    0.000
 5880.00    0.51924   0.49474    0.000
 5881.00    0.52013   0.49223    0.000
 5882.00    0.54867   0.49007    0.000
 5883.00    0.58967   0.48845    0.000
 5884.00    0.58948   0.48741    0.000
 5885.00    0.57331   0.48667    0.000
 5886.00    0.59457   0.48592    0.000
 5887.00    0.62816   0.48478    0.000
 5888.00    0.64083   0.48273    0.000
 5889.00    0.64771   0.47919    0.000
 5890.00    0.62943   0.47320    0.000
 5891.00    0.60542   0.46398    0.000
 5892.00    0.61693   0.45203    0.000
 5893.00    0.63490   0.43912    0.000
 5894.00    0.59502   0.42693    0.000
 5895.00    0.54706   0.41656    0.000
 5896.00    0.54678   0.40870    0.000
 5897.00    0.55130   0.40359    0.000
 5898.00    0.57276   0.40174    0.000
 5899.00    0.59530   0.40357    0.000
 5900.00    0.58739   0.40802    0.000
 5901.00    0.57861   0.41357    0.008
 5902.00    0.57644   0.41995    0.008
 5903.00    0.57225   0.42762    0.008
 5904.00    0.51136   0.43680    0.008
 5905.00    0.45762   0.44733    0.008
 5906.00    0.50554   0.45783    0.008
 5907.00    0.54592   0.46653    0.008
 5908.00    0.51597   0.47297    0.008
 5909.00    0.48793   0.47762    0.008
 5910.00    0.47289   0.48084    0.008
 5911.00    0.46171   0.48299    0.008
 5912.00    0.47086   0.48449    0.008
 5913.00    0.48893   0.48560    0.008
 5914.00    0.54480   0.48636    0.008
 5915.00    0.57859   0.48668    0.008
 5916.00    0.53520   0.48638    0.008
 5917.00    0.48839   0.48541    0.008
 5918.00    0.43153   0.48400    0.008
 5919.00    0.40477   0.48254    0.008
 5920.00    0.45345   0.48130    0.008
 5921.00    0.51173   0.48050    0.008
 5922.00    0.59073   0.48038    0.008
 5923.00    0.64576   0.48103    0.008
 5924.00    0.65586   0.48220    0.008
 5925.00    0.65557   0.48357    0.008
 5926.00    0.63829   0.48484    0.008
 5927.00    0.62897   0.48584    0.008
 5928.00    0.63110   0.48658    0.008
 5929.00    0.60863   0.48702    0.008
 5930.00    0.55508   0.48712    0.008
 5931.00    0.52700   0.48696    0.008
 5932.00    0.52725   0.48660    0.008
 5933.00    0.53529   0.48612    0.008
 5934.00    0.55097   0.48560    0.008
 5935.00    0.55855   0.48498    0.008
 5936.00    0.55912   0.48431    0.008
 5937.00    0.58671   0.48384    0.008
 5938.00    0.63490   0.48378    0.008
 5939.00    0.62768   0.48412    0.008
 5940.00    0.58331   0.48462    0.008
 5941.00    0.53454   0.48498    0.008
 5942.00    0.48318   0.48511    0.008
 5943.00    0.44860   0.48520    0.008
 5944.00    0.42260   0.48539    0.008
 5945.00    0.43388   0.48547    0.008
 5946.00    0.46170   0.48538    0.008
 5947.00    0.46097   0.48536    0.008
 5948.00    0.44938   0.48545    0.008
 5949.00    0.44285   0.48563    0.008
 5950.00    0.43796   0.48596    0.008
 5951.00    0.45789   0.48626    0.008
 5952.00    0.48454   0.48627    0.008
 5953.00    0.50772   0.48579    0.008
 5954.00    0.53013   0.48469    0.008
 5955.00    0.53864   0.48317    0.008
 5956.00    0.54469   0.48166    0.008
 5957.00    0.55316   0.48046    0.008
 5958.00    0.56196   0.47961    0.008
 5959.00    0.53609   0.47888    0.008
 5960.00    0.50688   0.47819    0.008
 5961.00    0.50289   0.47791    0.008
 5962.00    0.50040   0.47842    0.008
 5963.00    0.46691   0.47945    0.008
 5964.00    0.43259   0.48069    0.008
 5965.00    0.39175   0.48228    0.008
 5966.00    0.35443   0.48422    0.008
 5967.00    0.40660   0.48604    0.008
 5968.00    0.45603   0.48741    0.008
 5969.00    0.46861   0.48829    0.008
 5970.00    0.48173   0.48879    0.008
 5971.00    0.49964   0.48916    0.008
 5972.00    0.51110   0.48964    0.008
 5973.00    0.48006   0.49027    0.008
 5974.00    0.45614   0.49106    0.008
 5975.00    0.46868   0.49193    0.008
 5976.00    0.48973   0.49236    0.008
 5977.00    0.54604   0.49197    0.008
 5978.00    0.58762   0.49075    0.008
 5979.00    0.57873   0.48879    0.008
 5980.00    0.56272   0.48631    0.008
 5981.00    0.52611   0.48376    0.008
 5982.00    0.49238   0.48150    0.008
 5983.00    0.46572   0.47968    0.008
 5984.00    0.46024   0.47835    0.008
 5985.00    0.49978   0.47745    0.008
 5986.00    0.54834   0.47677    0.008
 5987.00    0.61355   0.47628    0.008
 5988.00    0.64831   0.47586    0.008
 5989.00    0.63396   0.47535    0.008
 5990.00    0.60442   0.47493    0.008
 5991.00    0.55338   0.47500    0.008
 5992.00    0.53816   0.47579    0.008
 5993.00    0.56754   0.47736    0.008
 5994.00    0.59526   0.47924    0.008
 5995.00    0.62116   0.48096    0.008
 5996.00    0.64159   0.48245    0.008
 5997.00    0.65671   0.48365    0.008
 5998.00    0.63283   0.48430    0.008
 5999.00    0.57567   0.48431    0.008
 6000.00    0.52468   0.48398    0.008
 6001.00    0.47833   0.48341    0.008
 6002.00    0.43379   0.48241    0.008
 6003.00    0.39045   0.48100    0.008
 6004.00    0.38081   0.47943    0.008
 6005.00    0.39067   0.47809    0.008
 6006.00    0.42279   0.47724    0.008
 6007.00    0.46614   0.47668    0.008
 6008.00    0.50382   0.47600    0.008
 6009.00    0.53902   0.47491    0.008
 6010.00    0.56016   0.47355    0.008
 6011.00    0.57603   0.47248    0.008
 6012.00    0.57464   0.47191    0.008
 6013.00    0.56776   0.47148    0.008
 6014.00    0.59820   0.47104    0.008
 6015.00    0.63854   0.47086    0.008
 6016.00    0.60590   0.47118    0.008
 6017.00    0.55744   0.47181    0.008
 6018.00    0.53427   0.47207    0.008
 6019.00    0.51546   0.47156    0.008
 6020.00    0.50699   0.47064    0.008
 6021.00    0.49987   0.46982    0.008
 6022.00    0.49113   0.46926    0.008
 6023.00    0.48225   0.46881    0.008
 6024.00    0.53244   0.46841    0.008
 6025.00    0.58591   0.46834    0.008
 6026.00    0.58736   0.46872    0.008
 6027.00    0.58723   0.46946    0.008
 6028.00    0.54428   0.47059    0.008
 6029.00    0.50415   0.47220    0.008
 6030.00    0.52978   0.47419    0.008
 6031.00    0.55418   0.47630    0.008
 6032.00    0.56288   0.47839    0.008
 6033.00    0.57450   0.48036    0.008
 6034.00    0.61129   0.48208    0.008
 6035.00    0.64297   0.48362    0.008
 6036.00    0.64209   0.48503    0.008
 6037.00    0.63522   0.48615    0.008
 6038.00    0.59843   0.48693    0.008
 6039.00    0.57525   0.48755    0.008
 6040.00    0.60717   0.48804    0.008
 6041.00    0.64270   0.48822    0.008
 6042.00    0.69040   0.48805    0.008
 6043.00    0.73297   0.48767    0.008
 6044.00    0.76099   0.48728    0.008
 6045.00    0.79436   0.48702    0.008
 6046.00    0.84068   0.48697    0.008
 6047.00    0.84771   0.48720    0.008
 6048.00    0.77260   0.48782    0.008
 6049.00    0.69420   0.48875    0.008
 6050.00    0.60981   0.48979    0.008
 6051.00    0.54535   0.49077    0.008
 6052.00    0.51256   0.49148    0.008
 6053.00    0.49752   0.49179    0.008
 6054.00    0.50721   0.49162    0.008
 6055.00    0.52047   0.49096    0.008
 6056.00    0.53809   0.48988    0.008
 6057.00    0.53725   0.48855    0.008
 6058.00    0.51645   0.48695    0.008
 6059.00    0.54270   0.48509    0.008
 6060.00    0.61385   0.48324    0.008
 6061.00    0.65759   0.48179    0.008
 6062.00    0.67826   0.48084    0.008
 6063.00    0.65559   0.48022    0.008
 6064.00    0.60082   0.47983    0.008
 6065.00    0.58395   0.47952    0.008
 6066.00    0.59174   0.47903    0.008
 6067.00    0.59696   0.47818    0.008
 6068.00    0.60072   0.47717    0.008
 6069.00    0.59635   0.47636    0.008
 6070.00    0.58794   0.47608    0.008
 6071.00    0.60664   0.47660    0.008
 6072.00    0.63696   0.47807    0.008
 6073.00    0.65591   0.48065    0.008
 6074.00    0.67067   0.48403    0.008
 6075.00    0.60847   0.48720    0.008
 6076.00    0.52232   0.48949    0.008
 6077.00    0.47004   0.49086    0.008
 6078.00    0.42654   0.49140    0.008
 6079.00    0.44118   0.49107    0.008
 6080.00    0.46811   0.48983    0.008
 6081.00    0.47469   0.48786    0.008
 6082.00    0.47786   0.48536    0.008
 6083.00    0.50878   0.48243    0.008
 6084.00    0.54321   0.47937    0.008
 6085.00    0.56006   0.47653    0.008
 6086.00    0.57538   0.47424    0.008
 6087.00    0.58970   0.47265    0.008
 6088.00    0.60397   0.47153    0.008
 6089.00    0.57002   0.47084    0.008
 6090.00    0.53541   0.47078    0.008
 6091.00    0.51753   0.47097    0.008
 6092.00    0.49901   0.47088    0.008
 6093.00    0.46692   0.47060    0.008
 6094.00    0.43738   0.47032    0.008
 6095.00    0.43884   0.47003    0.008
 6096.00    0.44240   0.46969    0.008
 6097.00    0.46354   0.46951    0.008
 6098.00    0.48923   0.46985    0.008
 6099.00    0.54318   0.47074    0.008
 6100.00    0.58347   0.47186    0.008
 6101.00    0.55718   0.47308    0.008
 6102.00    0.52982   0.47403    0.008
 6103.00    0.49822   0.47389    0.008
 6104.00    0.47439   0.47249    0.008
 6105.00    0.47613   0.47058    0.008
 6106.00    0.47213   0.46870    0.008
 6107.00    0.45219   0.46685    0.008
 6108.00    0.44317   0.46492    0.008
 6109.00    0.46016   0.46327    0.008
 6110.00    0.48173   0.46310    0.008
 6111.00    0.51270   0.46502    0.008
 6112.00    0.52384   0.46764    0.008
 6113.00    0.49944   0.46973    0.008
 6114.00    0.49802   0.47132    0.008
 6115.00    0.53255   0.47282    0.008
 6116.00    0.54574   0.47440    0.008
 6117.00    0.52960   0.47550    0.008
 6118.00    0.49378   0.47580    0.008
 6119.00    0.43416   0.47586    0.008
 6120.00    0.39779   0.47586    0.008
 6121.00    0.38620   0.47516    0.008
 6122.00    0.40262   0.47323    0.008
 6123.00    0.44536   0.47021    0.008
 6124.00    0.47020   0.46695    0.008
 6125.00    0.48017   0.46408    0.008
 6126.00    0.50816   0.46142    0.008
 6127.00    0.54929   0.45913    0.008
 6128.00    0.53478   0.45772    0.008
 6129.00    0.48459   0.45749    0.008
 6130.00    0.44754   0.45882    0.008
 6131.00    0.41786   0.46105    0.008
 6132.00    0.41618   0.46288    0.008
 6133.00    0.42818   0.46419    0.008
 6134.00    0.48185   0.46537    0.008
 6135.00    0.55310   0.46628    0.008
 6136.00    0.61559   0.46666    0.008
 6137.00    0.67491   0.46606    0.008
 6138.00    0.65539   0.46388    0.008
 6139.00    0.61180   0.46036    0.008
 6140.00    0.55142   0.45639    0.008
 6141.00    0.48676   0.45253    0.008
 6142.00    0.50249   0.44914    0.008
 6143.00    0.53482   0.44688    0.008
 6144.00    0.54862   0.44686    0.014
 6145.00    0.55942   0.44985    0.141
 6146.00    0.55362   0.45465   -1.000
 6147.00    0.54581   0.45903   -1.000
 6148.00    0.53176   0.46222   -1.000
 6149.00    0.51718   0.46487   -1.000
 6150.00    0.53705   0.46728   -1.000
 6151.00    0.55856   0.46861   -1.000
 6152.00    0.51073   0.46837   -1.000
 6153.00    0.46265   0.46708    0.908
 6154.00    0.45837   0.46536    0.015
 6155.00    0.45471   0.46345    0.008
 6156.00    0.46344   0.46149    0.008
 6157.00    0.47053   0.45988    0.008
 6158.00    0.45876   0.45880    0.008
 6159.00    0.45287   0.45782    0.008
 6160.00    0.49397   0.45631    0.008
 6161.00    0.53397   0.45379    0.008
 6162.00    0.56737   0.45026    0.008
 6163.00    0.58813   0.44582    0.008
 6164.00    0.54876   0.44046    0.008
 6165.00    0.51139   0.43466    0.008
 6166.00    0.48172   0.42903    0.008
 6167.00    0.45887   0.42386    0.008
 6168.00    0.45799   0.41980    0.008
 6169.00    0.45569   0.41798    0.008
 6170.00    0.44954   0.41853    0.008
 6171.00    0.45133   0.42038    0.007
 6172.00    0.47174   0.42252    0.008
 6173.00    0.49796   0.42455    0.008
 6174.00    0.53593   0.42637    0.008
 6175.00    0.55165   0.42761    0.008
 6176.00    0.52813   0.42847    0.008
 6177.00    0.52657   0.43005    0.008
 6178.00    0.55889   0.43259    0.008
 6179.00    0.56473   0.43511    0.008
 6180.00    0.53471   0.43705    0.008
 6181.00    0.52757   0.43877    0.008
 6182.00    0.54773   0.44043    0.008
 6183.00    0.57342   0.44191    0.008
 6184.00    0.60494   0.44325    0.008
 6185.00    0.59299   0.44452    0.008
 6186.00    0.54073   0.44541    0.008
 6187.00    0.50549   0.44570    0.008
 6188.00    0.48417   0.44547    0.008
 6189.00    0.48702   0.44460    0.008
 6190.00    0.50728   0.44287    0.008
 6191.00    0.53673   0.44038    0.008
 6192.00    0.57199   0.43708    0.008
 6193.00    0.56123   0.43325    0.008
 6194.00    0.52504   0.42982    0.008
 6195.00    0.48940   0.42735    0.008
 6196.00    0.45401   0.42582   -2.000
 6197.00    0.35453   0.42506   -2.000
 6198.00    0.22848   0.42542   -2.000
 6199.00    0.13355   0.42746   -2.000
 6200.00    0.04966   0.43043   -2.000
 6201.00    0.19796   0.43291   -2.000
 6202.00    0.41574   0.43463   -2.000
 6203.00    0.67777   0.43593   -2.000
 6204.00    0.95078   0.43678   -2.000
 6205.00    0.96387   0.43700   -2.000
 6206.00    0.92462   0.43697   -2.000
 6207.00    0.82419   0.43757   -2.000
 6208.00    0.71411   0.43902    0.008
 6209.00    0.65465   0.44061    0.008
 6210.00    0.60112   0.44173    0.008
 6211.00    0.60873   0.44230    0.008
 6212.00    0.62119   0.44240    0.008
 6213.00    0.61513   0.44192    0.008
 6214.00    0.60824   0.44049    0.008
 6215.00    0.57577   0.43799    0.008
 6216.00    0.54396   0.43461    0.008
 6217.00    0.55656   0.43065    0.008
 6218.00    0.56875   0.42656    0.008
 6219.00    0.57362   0.42257    0.007
 6220.00    0.57861   0.41886    0.007
 6221.00    0.58498   0.41598    0.007
 6222.00    0.59061   0.41435    0.007
 6223.00    0.59060   0.41394    0.007
 6224.00    0.58860   0.41429    0.007
 6225.00    0.57502   0.41469    0.007
 6226.00    0.55242   0.41504    0.007
 6227.00    0.48793   0.41578    0.008
 6228.00    0.42053   0.41693    0.008
 6229.00    0.34208   0.41800    0.008
 6230.00    0.29916   0.41844    0.008
 6231.00    0.36868   0.41813    0.008
 6232.00    0.43156   0.41735    0.008
 6233.00    0.47660   0.41619    0.008
 6234.00    0.50843   0.41466    0.008
 6235.00    0.50983   0.41301    0.008
 6236.00    0.52431   0.41158    0.008
 6237.00    0.56485   0.41107    0.008
 6238.00    0.57886   0.41207    0.008
 6239.00    0.54684   0.41419    0.008
 6240.00    0.53170   0.41656    0.008
 6241.00    0.54223   0.41850    0.008
 6242.00    0.56322   0.41945    0.008
 6243.00    0.59818   0.41913    0.008
 6244.00    0.61165   0.41754    0.008
 6245.00    0.59985   0.41505    0.007
 6246.00    0.59203   0.41237    0.007
 6247.00    0.58833   0.41022    0.007
 6248.00    0.57178   0.40883    0.007
 6249.00    0.54350   0.40806    0.007
 6250.00    0.49230   0.40820    0.007
 6251.00    0.42265   0.40947    0.007
 6252.00    0.38089   0.41122    0.007
 6253.00    0.35891   0.41291    0.007
 6254.00    0.34550   0.41426    0.007
 6255.00    0.33742   0.41479    0.008
 6256.00    0.38081   0.41421    0.008
 6257.00    0.45219   0.41249    0.008
 6258.00    0.48473   0.40978    0.008
 6259.00    0.49891   0.40668    0.008
 6260.00    0.42669   0.40398    0.009
 6261.00    0.31927   0.40199    0.009
 6262.00    0.28329   0.40061    0.010
 6263.00    0.27218   0.39996    0.010
 6264.00    0.35732   0.40053    0.010
 6265.00    0.47069   0.40264    0.010
 6266.00    0.56260   0.40593    0.009
 6267.00    0.64930   0.40951    0.009
 6268.00    0.63607   0.41295    0.008
 6269.00    0.60323   0.41612    0.008
 6270.00    0.56559   0.41838    0.008
 6271.00    0.52721   0.41943    0.007
 6272.00    0.51094   0.41999    0.007
 6273.00    0.49717   0.42069    0.007
 6274.00    0.52950   0.42129    0.007
 6275.00    0.56531   0.42154    0.007
 6276.00    0.57280   0.42181    0.007
 6277.00    0.57915   0.42247    0.007
 6278.00    0.51847   0.42331    0.007
 6279.00    0.45836   0.42399    0.008
 6280.00    0.44118   0.42426    0.000
 6281.00    0.42654   0.42417    0.000
 6282.00    0.45511   0.42391    0.000
 6283.00    0.48409   0.42350    0.000
 6284.00    0.51725   0.42303    0.000
 6285.00    0.54480   0.42254    0.000
 6286.00    0.53038   0.42204    0.000
 6287.00    0.51585   0.42200    0.000
 6288.00    0.50064   0.42283    0.000
 6289.00    0.48340   0.42437    0.000
 6290.00    0.45696   0.42622    0.000
 6291.00    0.43637   0.42788    0.000
 6292.00    0.43750   0.42936    0.000
 6293.00    0.44228   0.43072    0.000
 6294.00    0.45836   0.43160    0.000
 6295.00    0.47707   0.43178    0.000
 6296.00    0.50268   0.43108    0.000
 6297.00    0.51805   0.42958    0.000
 6298.00    0.51022   0.42764    0.000
 6299.00    0.50399   0.42561    0.000
 6300.00    0.50093   0.42384    0.000
 6301.00    0.50497   0.42216    0.000
 6302.00    0.52115   0.42017    0.000
 6303.00    0.53070   0.41829    0.000
 6304.00    0.53033   0.41726    0.000
 6305.00    0.51837   0.41709    0.000
 6306.00    0.49118   0.41709    0.000
 6307.00    0.46345   0.41698    0.000
 6308.00    0.43510   0.41738    0.000
 6309.00    0.42137   0.41885    0.000
 6310.00    0.42260   0.42088    0.000
 6311.00    0.45689   0.42269    0.000
 6312.00    0.52099   0.42427    0.000
 6313.00    0.54965   0.42594    0.000
 6314.00    0.55015   0.42732    0.000
 6315.00    0.52816   0.42765    0.000
 6316.00    0.49044   0.42674    0.000
 6317.00    0.47066   0.42513    0.000
 6318.00    0.46189   0.42341    0.000
 6319.00    0.48041   0.42160    0.000
 6320.00    0.51355   0.41949    0.000
 6321.00    0.51452   0.41742    0.007
 6322.00    0.50054   0.41615    0.007
 6323.00    0.47263   0.41556    0.007
 6324.00    0.43914   0.41520    0.007
 6325.00    0.42159   0.41572    0.007
 6326.00    0.40948   0.41746    0.007
 6327.00    0.42783   0.41965    0.007
 6328.00    0.45495   0.42166    0.007
 6329.00    0.47999   0.42368    0.007
 6330.00    0.50455   0.42594    0.007
 6331.00    0.46122   0.42788    0.007
 6332.00    0.40491   0.42913    0.007
 6333.00    0.39921   0.42991    0.007
 6334.00    0.40102   0.43061    0.007
 6335.00    0.41419   0.43107    0.007
 6336.00    0.42860   0.43056    0.007
 6337.00    0.42474   0.42940    0.007
 6338.00    0.41959   0.42826    0.007
 6339.00    0.46450   0.42702    0.007
 6340.00    0.51123   0.42522    0.007
 6341.00    0.50585   0.42288    0.008
 6342.00    0.49954   0.42119    0.008
 6343.00    0.46763   0.42087    0.008
 6344.00    0.43796   0.42112    0.008
 6345.00    0.44418   0.42115    0.008
 6346.00    0.45346   0.42129    0.007
 6347.00    0.49343   0.42165    0.007
 6348.00    0.53123   0.42163    0.007
 6349.00    0.55337   0.42106    0.007
 6350.00    0.56914   0.42054    0.007
 6351.00    0.54961   0.42082    0.007
 6352.00    0.53443   0.42163    0.007
 6353.00    0.53843   0.42262    0.007
 6354.00    0.54132   0.42378    0.007
 6355.00    0.54015   0.42494    0.007
 6356.00    0.54017   0.42557    0.007
 6357.00    0.54380   0.42554    0.007
 6358.00    0.54346   0.42486    0.007
 6359.00    0.53285   0.42318    0.007
 6360.00    0.51631   0.42045    0.007
 6361.00    0.48658   0.41731    0.008
 6362.00    0.46270   0.41443    0.008
 6363.00    0.45010   0.41141    0.008
 6364.00    0.44925   0.40795    0.008
 6365.00    0.46820   0.40495    0.008
 6366.00    0.48828   0.40320    0.008
 6367.00    0.51004   0.40240    0.008
 6368.00    0.52186   0.40234    0.008
 6369.00    0.52080   0.40350    0.008
 6370.00    0.51942   0.40600    0.008
 6371.00    0.51770   0.40921    0.008
 6372.00    0.51618   0.41260    0.008
 6373.00    0.51487   0.41619    0.007
 6374.00    0.52216   0.41983    0.007
 6375.00    0.53709   0.42290    0.007
 6376.00    0.54548   0.42506    0.007
 6377.00    0.54872   0.42698    0.007
 6378.00    0.53584   0.42891    0.007
 6379.00    0.51185   0.43034    0.007
 6380.00    0.49923   0.43085    0.007
 6381.00    0.49349   0.43073    0.007
 6382.00    0.48370   0.43050    0.007
 6383.00    0.47179   0.42997    0.007
 6384.00    0.46968   0.42887    0.007
 6385.00    0.47205   0.42762    0.007
 6386.00    0.48633   0.42678    0.007
 6387.00    0.50529   0.42639    0.007
 6388.00    0.49925   0.42637    0.007
 6389.00    0.48483   0.42651    0.008
 6390.00    0.50023   0.42666    0.008
 6391.00    0.52403   0.42708    0.008
 6392.00    0.53528   0.42772    0.008
 6393.00    0.54362   0.42798    0.008
 6394.00    0.53359   0.42744    0.008
 6395.00    0.52015   0.42650    0.008
 6396.00    0.49958   0.42555    0.008
 6397.00    0.47800   0.42435    0.008
 6398.00    0.45315   0.42266    0.008
 6399.00    0.42796   0.42100    0.008
 6400.00    0.43515   0.42024    0.007
 6401.00    0.44452   0.42027    0.007
 6402.00    0.46179   0.42046    0.007
 6403.00    0.47932   0.42068    0.007
 6404.00    0.50441   0.42084    0.007
 6405.00    0.52872   0.42067    0.007
 6406.00    0.52894   0.42065    0.007
 6407.00    0.52661   0.42183    0.007
 6408.00    0.48619   0.42362    0.007
 6409.00    0.44699   0.42477    0.007
 6410.00    0.41953   0.42550    0.007
 6411.00    0.39693   0.42614    0.007
 6412.00    0.40831   0.42623    0.007
 6413.00    0.41686   0.42539    0.008
 6414.00    0.41014   0.42426    0.008
 6415.00    0.40346   0.42363    0.007
 6416.00    0.39695   0.42302    0.008
 6417.00    0.38603   0.42207    0.008
 6418.00    0.35936   0.42154    0.008
 6419.00    0.34917   0.42171    0.008
 6420.00    0.38825   0.42188    0.008
 6421.00    0.41766   0.42169    0.008
 6422.00    0.42246   0.42132    0.007
 6423.00    0.44582   0.42087    0.007
 6424.00    0.50987   0.42031    0.007
 6425.00    0.55820   0.41962    0.007
 6426.00    0.57666   0.41904    0.007
 6427.00    0.56425   0.41926    0.007
 6428.00    0.50066   0.42068    0.007
 6429.00    0.45096   0.42268    0.007
 6430.00    0.42146   0.42420    0.007
 6431.00    0.41754   0.42512    0.007
 6432.00    0.44633   0.42581    0.007
 6433.00    0.49300   0.42611    0.007
 6434.00    0.55981   0.42552    0.007
 6435.00    0.57964   0.42395    0.007
 6436.00    0.55279   0.42205    0.007
 6437.00    0.51958   0.42083    0.008
 6438.00    0.48079   0.42073    0.008
 6439.00    0.47536   0.42099    0.008
 6440.00    0.49570   0.42108    0.008
 6441.00    0.52388   0.42139    0.008
 6442.00    0.55739   0.42214    0.008
 6443.00    0.58196   0.42271    0.008
 6444.00    0.60122   0.42277    0.008
 6445.00    0.59641   0.42321    0.008
 6446.00    0.57911   0.42480    0.008
 6447.00    0.53938   0.42688    0.007
 6448.00    0.48956   0.42849    0.007
 6449.00    0.46219   0.42946    0.008
 6450.00    0.44352   0.42969    0.008
 6451.00    0.45943   0.42890    0.008
 6452.00    0.48673   0.42705    0.007
 6453.00    0.51454   0.42426    0.007
 6454.00    0.54250   0.42059    0.007
 6455.00    0.54488   0.41670    0.007
 6456.00    0.54145   0.41402    0.007
 6457.00    0.51202   0.41334    0.007
 6458.00    0.47787   0.41404    0.007
 6459.00    0.49243   0.41535    0.007
 6460.00    0.51377   0.41708    0.007
 6461.00    0.49334   0.41916    0.007
 6462.00    0.46874   0.42134    0.007
 6463.00    0.43477   0.42312    0.007
 6464.00    0.40020   0.42410    0.008
 6465.00    0.44309   0.42433    0.008
 6466.00    0.48818   0.42400    0.008
 6467.00    0.52201   0.42298    0.008
 6468.00    0.55483   0.42160    0.007
 6469.00    0.55958   0.42096    0.007
 6470.00    0.56263   0.42141    0.008
 6471.00    0.54154   0.42213    0.008
 6472.00    0.51700   0.42278    0.008
 6473.00    0.46047   0.42374    0.008
 6474.00    0.41302   0.42486    0.008
 6475.00    0.42702   0.42537    0.007
 6476.00    0.44175   0.42510    0.007
 6477.00    0.46032   0.42463    0.007
 6478.00    0.47564   0.42441    0.007
 6479.00    0.47720   0.42419    0.007
 6480.00    0.47634   0.42361    0.007
 6481.00    0.46703   0.42300    0.007
 6482.00    0.46070   0.42266    0.007
 6483.00    0.46309   0.42209    0.007
 6484.00    0.47667   0.42083    0.007
 6485.00    0.51824   0.41925    0.007
 6486.00    0.53324   0.41765    0.007
 6487.00    0.49097   0.41579    0.007
 6488.00    0.45471   0.41406    0.008
 6489.00    0.42970   0.41325    0.008
 6490.00    0.41953   0.41327    0.008
 6491.00    0.43361   0.41336    0.008
 6492.00    0.43769   0.41336    0.008
 6493.00    0.42743   0.41334    0.007
 6494.00    0.42492   0.41263    0.007
 6495.00    0.43219   0.41032    0.007
 6496.00    0.44100   0.40657    0.007
 6497.00    0.45154   0.40210    0.007
 6498.00    0.47321   0.39703    0.007
 6499.00    0.50578   0.39122    0.007
 6500.00    0.52379   0.38561    0.007
 6501.00    0.52921   0.38184    0.007
 6502.00    0.51732   0.38039    0.007
 6503.00    0.49226   0.38064    0.007
 6504.00    0.49748   0.38228    0.007
 6505.00    0.52294   0.38555    0.007
 6506.00    0.54092   0.39023    0.007
 6507.00    0.55450   0.39530    0.007
 6508.00    0.53639   0.39994    0.007
 6509.00    0.50209   0.40385    0.007
 6510.00    0.48093   0.40719    0.007
 6511.00    0.46558   0.40994    0.007
 6512.00    0.46214   0.41183    0.007
 6513.00    0.46321   0.41281    0.007
 6514.00    0.49741   0.41329    0.007
 6515.00    0.54228   0.41374    0.008
 6516.00    0.54752   0.41414    0.007
 6517.00    0.54204   0.41412    0.007
 6518.00    0.53244   0.41376    0.007
 6519.00    0.52192   0.41329    0.008
 6520.00    0.50171   0.41263    0.007
 6521.00    0.47978   0.41177    0.007
 6522.00    0.49893   0.41095    0.007
 6523.00    0.52360   0.41033    0.007
 6524.00    0.53212   0.40998    0.007
 6525.00    0.53910   0.41024    0.007
 6526.00    0.49718   0.41119    0.007
 6527.00    0.45236   0.41221    0.007
 6528.00    0.42717   0.41291    0.000
 6529.00    0.40268   0.41358    0.000
 6530.00    0.40762   0.41429    0.000
 6531.00    0.41215   0.41447    0.000
 6532.00    0.40614   0.41394    0.000
 6533.00    0.40098   0.41326    0.000
 6534.00    0.40728   0.41288    0.000
 6535.00    0.41461   0.41261    0.000
 6536.00    0.43117   0.41222    0.000
 6537.00    0.44869   0.41179    0.000
 6538.00    0.47247   0.41158    0.000
 6539.00    0.49517   0.41182    0.000
 6540.00    0.51240   0.41253    0.000
 6541.00    0.52526   0.41331    0.000
 6542.00    0.52006   0.41380    0.000
 6543.00    0.51989   0.41413    0.000
 6544.00    0.53696   0.41456    0.000
 6545.00    0.55905   0.41474    0.000
 6546.00    0.59564   0.41399    0.000
 6547.00    0.61859   0.41222    0.000
 6548.00    0.60802   0.41002    0.000
 6549.00    0.60099   0.40778    0.000
 6550.00    0.60146   0.40526    0.000
 6551.00    0.60294   0.40237    0.000
 6552.00    0.60627   0.39973    0.000
 6553.00    0.59723   0.39794    0.000
 6554.00    0.56830   0.39659    0.000
 6555.00    0.52904   0.39496    0.000
 6556.00    0.47520   0.39293    0.000
 6557.00    0.45696   0.39084    0.000
 6558.00    0.48295   0.38862    0.000
 6559.00    0.52729   0.38569    0.000
 6560.00    0.59171   0.38198    0.000
 6561.00    0.60643   0.37799    0.000
 6562.00    0.57312   0.37372    0.000
 6563.00    0.53770   0.36825    0.000
 6564.00    0.50048   0.36150    0.000
 6565.00    0.47247   0.35469    0.000
 6566.00    0.45138   0.34807    0.000
 6567.00    0.46147   0.34095    0.000
 6568.00    0.49211   0.33487    0.000
 6569.00    0.52040   0.33308    0.000
 6570.00    0.54734   0.33575    0.000
 6571.00    0.53759   0.34041    0.000
 6572.00    0.50941   0.34631    0.000
 6573.00    0.48130   0.35381    0.000
 6574.00    0.45323   0.36155    0.000
 6575.00    0.48993   0.36774    0.000
 6576.00    0.55081   0.37218    0.000
 6577.00    0.58564   0.37533    0.000
 6578.00    0.61223   0.37733    0.000
 6579.00    0.60324   0.37876    0.000
 6580.00    0.58483   0.38033    0.000
 6581.00    0.58927   0.38226    0.000
 6582.00    0.59864   0.38435    0.000
 6583.00    0.58128   0.38645    0.000
 6584.00    0.55934   0.38852    0.000
 6585.00    0.55717   0.39035    0.000
 6586.00    0.55756   0.39180    0.000
 6587.00    0.54387   0.39302    0.000
 6588.00    0.52888   0.39431    0.000
 6589.00    0.52199   0.39557    0.000
 6590.00    0.51554   0.39666    0.000
 6591.00    0.52026   0.39765    0.000
 6592.00    0.52492   0.39869    0.000
 6593.00    0.50146   0.39940    0.000
 6594.00    0.47950   0.39921    0.000
 6595.00    0.49194   0.39833    0.000
 6596.00    0.50552   0.39704    0.000
 6597.00    0.53359   0.39507    0.000
 6598.00    0.55803   0.39253    0.000
 6599.00    0.55140   0.39053    0.000
 6600.00    0.54359   0.38978    0.000
 6601.00    0.52825   0.38975    0.000
 6602.00    0.51304   0.39008    0.000
 6603.00    0.49854   0.39103    0.000
 6604.00    0.49041   0.39269    0.000
 6605.00    0.50799   0.39461    0.000
 6606.00    0.52242   0.39620    0.000
 6607.00    0.52628   0.39713    0.000
 6608.00    0.53012   0.39746    0.000
 6609.00    0.53389   0.39724    0.007
 6610.00    0.54173   0.39635    0.007
 6611.00    0.55941   0.39503    0.008
 6612.00    0.57521   0.39371    0.008
 6613.00    0.58711   0.39244    0.008
 6614.00    0.58321   0.39128    0.008
 6615.00    0.55066   0.39096    0.008
 6616.00    0.52160   0.39190    0.007
 6617.00    0.49807   0.39330    0.008
 6618.00    0.47026   0.39445    0.008
 6619.00    0.43651   0.39577    0.007
 6620.00    0.42996   0.39767    0.007
 6621.00    0.45673   0.39936    0.008
 6622.00    0.49272   0.40016    0.008
 6623.00    0.53867   0.40051    0.008
 6624.00    0.56509   0.40084    0.008
 6625.00    0.57291   0.40080    0.007
 6626.00    0.57391   0.40007    0.008
 6627.00    0.56919   0.39897    0.008
 6628.00    0.57769   0.39760    0.008
 6629.00    0.59597   0.39584    0.008
 6630.00    0.58479   0.39402    0.008
 6631.00    0.55449   0.39270    0.008
 6632.00    0.52313   0.39169    0.008
 6633.00    0.49116   0.39060    0.008
 6634.00    0.48669   0.38953    0.007
 6635.00    0.49583   0.38872    0.007
 6636.00    0.50668   0.38802    0.008
 6637.00    0.51826   0.38715    0.008
 6638.00    0.50894   0.38612    0.008
 6639.00    0.49196   0.38536    0.008
 6640.00    0.51775   0.38524    0.008
 6641.00    0.55682   0.38562    0.008
 6642.00    0.59629   0.38625    0.008
 6643.00    0.63587   0.38700    0.008
 6644.00    0.61530   0.38761    0.008
 6645.00    0.58205   0.38805    0.007
 6646.00    0.54908   0.38858    0.007
 6647.00    0.51617   0.38879    0.007
 6648.00    0.47529   0.38819    0.007
 6649.00    0.43342   0.38754    0.008
 6650.00    0.43458   0.38763    0.007
 6651.00    0.43950   0.38780    0.007
 6652.00    0.42942   0.38742    0.007
 6653.00    0.41856   0.38711    0.007
 6654.00    0.42356   0.38733    0.007
 6655.00    0.42914   0.38747    0.007
 6656.00    0.45579   0.38709    0.008
 6657.00    0.48062   0.38659    0.008
 6658.00    0.46710   0.38629    0.008
 6659.00    0.45641   0.38603    0.008
 6660.00    0.47976   0.38565    0.008
 6661.00    0.49819   0.38515    0.008
 6662.00    0.47607   0.38463    0.008
 6663.00    0.45765   0.38413    0.008
 6664.00    0.46206   0.38336    0.008
 6665.00    0.47183   0.38220    0.008
 6666.00    0.50755   0.38098    0.008
 6667.00    0.54265   0.37974    0.008
 6668.00    0.57522   0.37824    0.008
 6669.00    0.59297   0.37701    0.008
 6670.00    0.56203   0.37660    0.008
 6671.00    0.53454   0.37659    0.008
 6672.00    0.51663   0.37675    0.008
 6673.00    0.51084   0.37754    0.008
 6674.00    0.53382   0.37905    0.008
 6675.00    0.53757   0.38064    0.008
 6676.00    0.50180   0.38190    0.008
 6677.00    0.47951   0.38280    0.008
 6678.00    0.48128   0.38312    0.008
 6679.00    0.50133   0.38268    0.008
 6680.00    0.54993   0.38166    0.008
 6681.00    0.57838   0.38009    0.008
 6682.00    0.57919   0.37760    0.008
 6683.00    0.57028   0.37492    0.008
 6684.00    0.54964   0.37343    0.008
 6685.00    0.51670   0.37303    0.008
 6686.00    0.47064   0.37263    0.008
 6687.00    0.44836   0.37268    0.008
 6688.00    0.44840   0.37398    0.008
 6689.00    0.45666   0.37579    0.008
 6690.00    0.47172   0.37710    0.008
 6691.00    0.49505   0.37805    0.008
 6692.00    0.52440   0.37894    0.008
 6693.00    0.53181   0.37954    0.008
 6694.00    0.52518   0.37984    0.008
 6695.00    0.51487   0.37997    0.008
 6696.00    0.50249   0.37982    0.000
 6697.00    0.50936   0.37933    0.000
 6698.00    0.52561   0.37872    0.000
 6699.00    0.52422   0.37805    0.000
 6700.00    0.51540   0.37707    0.000
 6701.00    0.53421   0.37589    0.000
 6702.00    0.56297   0.37506    0.000
 6703.00    0.57615   0.37468    0.000
 6704.00    0.58459   0.37452    0.000
 6705.00    0.53601   0.37464    0.000
 6706.00    0.47298   0.37505    0.000
 6707.00    0.42581   0.37553    0.000
 6708.00    0.38190   0.37582    0.000
 6709.00    0.40551   0.37595    0.000
 6710.00    0.44005   0.37605    0.000
 6711.00    0.45713   0.37607    0.000
 6712.00    0.47210   0.37588    0.000
 6713.00    0.48775   0.37559    0.000
 6714.00    0.50345   0.37526    0.000
 6715.00    0.44978   0.37460    0.000
 6716.00    0.39282   0.37361    0.000
 6717.00    0.38690   0.37236    0.000
 6718.00    0.38167   0.37064    0.000
 6719.00    0.37459   0.36853    0.000
 6720.00    0.36646   0.36656    0.000
 6721.00    0.33782   0.36477    0.000
 6722.00    0.31441   0.36309    0.000
 6723.00    0.35097   0.36207    0.000
 6724.00    0.39532   0.36217    0.000
 6725.00    0.50172   0.36280    0.000
 6726.00    0.59144   0.36349    0.000
 6727.00    0.58113   0.36453    0.000
 6728.00    0.57093   0.36615    0.000
 6729.00    0.56120   0.36758    0.000
 6730.00    0.54341   0.36828    0.000
 6731.00    0.49448   0.36873    0.000
 6732.00    0.44835   0.36948    0.000
 6733.00    0.41118   0.37018    0.000
 6734.00    0.38869   0.37046    0.000
 6735.00    0.40618   0.37071    0.000
 6736.00    0.42417   0.37115    0.000
 6737.00    0.44329   0.37148    0.000
 6738.00    0.46447   0.37142    0.000
 6739.00    0.48981   0.37119    0.000
 6740.00    0.50302   0.37091    0.000
 6741.00    0.49490   0.37052    0.000
 6742.00    0.49461   0.36982    0.000
 6743.00    0.50638   0.36885    0.000
 6744.00    0.50646   0.36797    0.000
 6745.00    0.49074   0.36740    0.000
 6746.00    0.47164   0.36685    0.000
 6747.00    0.44850   0.36601    0.000
 6748.00    0.45973   0.36524    0.000
 6749.00    0.50704   0.36499    0.000
 6750.00    0.48653   0.36479    0.000
 6751.00    0.40323   0.36414    0.000
 6752.00    0.27678   0.36347    0.000
 6753.00    0.11510   0.36308    0.011
 6754.00    0.07104   0.36264    0.012
 6755.00    0.11146   0.36209    0.012
 6756.00    0.29433   0.36190    0.013
 6757.00    0.56702   0.36193    0.013
 6758.00    0.63859   0.36210    0.013
 6759.00    0.59932   0.36283    0.011
 6760.00    0.49595   0.36404    0.010
 6761.00    0.36186   0.36534    0.010
 6762.00    0.37789   0.36680    0.010
 6763.00    0.45602   0.36845    0.010
 6764.00    0.49628   0.36992    0.010
 6765.00    0.52315   0.37108    0.010
 6766.00    0.45715   0.37184    0.010
 6767.00    0.36342   0.37204    0.010
 6768.00    0.42786   0.37183    0.009
 6769.00    0.53148   0.37139    0.009
 6770.00    0.51758   0.37058    0.009
 6771.00    0.48010   0.36936    0.009
 6772.00    0.41758   0.36810    0.009
 6773.00    0.35111   0.36723    0.009
 6774.00    0.34392   0.36672    0.009
 6775.00    0.34364   0.36626    0.009
 6776.00    0.40921   0.36611    0.009
 6777.00    0.47997   0.36678    0.009
 6778.00    0.57522   0.36801    0.009
 6779.00    0.67154   0.36923    0.009
 6780.00    0.63447   0.37048    0.009
 6781.00    0.59780   0.37183    0.009
 6782.00    0.64500   0.37288    0.009
 6783.00    0.68874   0.37338    0.010
 6784.00    0.67002   0.37330    0.010
 6785.00    0.64971   0.37253    0.010
 6786.00    0.61196   0.37106    0.010
 6787.00    0.57297   0.36908    0.010
 6788.00    0.52457   0.36680    0.009
 6789.00    0.47921   0.36455    0.009
 6790.00    0.45164   0.36265    0.009
 6791.00    0.43864   0.36128    0.009
 6792.00    0.49305   0.36066    0.009
 6793.00    0.54183   0.36072    0.009
 6794.00    0.56927   0.36108    0.009
 6795.00    0.58751   0.36165    0.009
 6796.00    0.57674   0.36247    0.009
 6797.00    0.56393   0.36304    0.009
 6798.00    0.54565   0.36312    0.009
 6799.00    0.52012   0.36319    0.009
 6800.00    0.47792   0.36338    0.009
 6801.00    0.45149   0.36344    0.009
 6802.00    0.45644   0.36358    0.009
 6803.00    0.46590   0.36398    0.009
 6804.00    0.48318   0.36446    0.009
 6805.00    0.48853   0.36497    0.009
 6806.00    0.47580   0.36559    0.009
 6807.00    0.47502   0.36608    0.009
 6808.00    0.49016   0.36626    0.009
 6809.00    0.51800   0.36635    0.009
 6810.00    0.56076   0.36647    0.009
 6811.00    0.55287   0.36628    0.009
 6812.00    0.49256   0.36588    0.009
 6813.00    0.49660   0.36569    0.009
 6814.00    0.55938   0.36553    0.009
 6815.00    0.56170   0.36510    0.010
 6816.00    0.51539   0.36478    0.009
 6817.00    0.51742   0.36472    0.009
 6818.00    0.55369   0.36458    0.009
 6819.00    0.56444   0.36428    0.009
 6820.00    0.55933   0.36413    0.009
 6821.00    0.53808   0.36432    0.009
 6822.00    0.50806   0.36461    0.009
 6823.00    0.49174   0.36482    0.009
 6824.00    0.48187   0.36510    0.009
 6825.00    0.43227   0.36560    0.009
 6826.00    0.36650   0.36622    0.009
 6827.00    0.35094   0.36681    0.009
 6828.00    0.35281   0.36726    0.009
 6829.00    0.42337   0.36758    0.009
 6830.00    0.51403   0.36785    0.009
 6831.00    0.47474   0.36800    0.009
 6832.00    0.40397   0.36778    0.009
 6833.00    0.40469   0.36724    0.009
 6834.00    0.41938   0.36681    0.009
 6835.00    0.45359   0.36663    0.009
 6836.00    0.49076   0.36648    0.009
 6837.00    0.38600   0.36630    0.010
 6838.00    0.26531   0.36632    0.010
 6839.00    0.28721   0.36659    0.010
 6840.00    0.31977   0.36662    0.010
 6841.00    0.44971   0.36611    0.010
 6842.00    0.58351   0.36526    0.010
 6843.00    0.51313   0.36421    0.009
 6844.00    0.44476   0.36280    0.009
 6845.00    0.51196   0.36115    0.009
 6846.00    0.57315   0.35969    0.009
 6847.00    0.53271   0.35868    0.009
 6848.00    0.49440   0.35830    0.009
 6849.00    0.47845   0.35860    0.009
 6850.00    0.46294   0.35936    0.009
 6851.00    0.45079   0.36042    0.009
 6852.00    0.44527   0.36172    0.009
 6853.00    0.47734   0.36294    0.009
 6854.00    0.50662   0.36367    0.009
 6855.00    0.52330   0.36388    0.009
 6856.00    0.54161   0.36369    0.009
 6857.00    0.56593   0.36319    0.009
 6858.00    0.57838   0.36230    0.009
 6859.00    0.55410   0.36097    0.009
 6860.00    0.53720   0.35955    0.009
 6861.00    0.53974   0.35841    0.009
 6862.00    0.51581   0.35733    0.009
 6863.00    0.43208   0.35625    0.009
 6864.00    0.35297   0.35568    0.009
 6865.00    0.28291   0.35551    0.009
 6866.00    0.25478   0.35532    0.009
 6867.00    0.29822   0.35550    0.009
 6868.00    0.36561   0.35614    0.009
 6869.00    0.46881   0.35658    0.009
 6870.00    0.52247   0.35684    0.009
 6871.00    0.51107   0.35728    0.009
 6872.00    0.48974   0.35740    0.009
 6873.00    0.45692   0.35700    0.009
 6874.00    0.41691   0.35675    0.009
 6875.00    0.36956   0.35666    0.009
 6876.00    0.42266   0.35620    0.009
 6877.00    0.56616   0.35590    0.009
 6878.00    0.58431   0.35631    0.009
 6879.00    0.50304   0.35687    0.009
 6880.00    0.46434   0.35717    0.009
 6881.00    0.45534   0.35776    0.009
 6882.00    0.44588   0.35874    0.009
 6883.00    0.43614   0.35946    0.009
 6884.00    0.39479   0.35975    0.009
 6885.00    0.33656   0.36001    0.009
 6886.00    0.36101   0.36013    0.009
 6887.00    0.42383   0.35983    0.009
 6888.00    0.40768   0.35957    0.009
 6889.00    0.35997   0.35972    0.009
 6890.00    0.38968   0.35994    0.009
 6891.00    0.44577   0.36032    0.009
 6892.00    0.42102   0.36134    0.009
 6893.00    0.37308   0.36264    0.009
 6894.00    0.39972   0.36368    0.009
 6895.00    0.44403   0.36476    0.009
 6896.00    0.41737   0.36589    0.009
 6897.00    0.37719   0.36650    0.009
 6898.00    0.40410   0.36679    0.009
 6899.00    0.44093   0.36709    0.009
 6900.00    0.48419   0.36702    0.010
 6901.00    0.52814   0.36665    0.010
 6902.00    0.37678   0.36657    0.009
 6903.00    0.21162   0.36664    0.009
 6904.00    0.35571   0.36645    0.009
 6905.00    0.51090   0.36632    0.009
 6906.00    0.41614   0.36666    0.009
 6907.00    0.32286   0.36709    0.009
 6908.00    0.30933   0.36726    0.009
 6909.00    0.29809   0.36750    0.009
 6910.00    0.32309   0.36805    0.009
 6911.00    0.35013   0.36857    0.009
 6912.00    0.39764   0.36879    0.009
 6913.00    0.44183   0.36889    0.009
 6914.00    0.46219   0.36901    0.009
 6915.00    0.46995   0.36888    0.009
 6916.00    0.40819   0.36837    0.009
 6917.00    0.35837   0.36767    0.009
 6918.00    0.36114   0.36682    0.009
 6919.00    0.34978   0.36592    0.009
 6920.00    0.28715   0.36523    0.009
 6921.00    0.26344   0.36471    0.009
 6922.00    0.35798   0.36430    0.009
 6923.00    0.42527   0.36435    0.009
 6924.00    0.42215   0.36467    0.009
 6925.00    0.40076   0.36480    0.009
 6926.00    0.33877   0.36481    0.009
 6927.00    0.33403   0.36476    0.009
 6928.00    0.43960   0.36435    0.010
 6929.00    0.49507   0.36352    0.010
 6930.00    0.46635   0.36263    0.009
 6931.00    0.42134   0.36191    0.009
 6932.00    0.35232   0.36131    0.009
 6933.00    0.32136   0.36088    0.009
 6934.00    0.33967   0.36079    0.009
 6935.00    0.32267   0.36110    0.009
 6936.00    0.26540   0.36150    0.009
 6937.00    0.27202   0.36170    0.009
 6938.00    0.34292   0.36190    0.010
 6939.00    0.37590   0.36234    0.010
 6940.00    0.37523   0.36277    0.010
 6941.00    0.40522   0.36296    0.010
 6942.00    0.45919   0.36334    0.010
 6943.00    0.44759   0.36395    0.010
 6944.00    0.39090   0.36437    0.010
 6945.00    0.37543   0.36454    0.010
 6946.00    0.38480   0.36451    0.010
 6947.00    0.38476   0.36429    0.010
 6948.00    0.37976   0.36386    0.010
 6949.00    0.39460   0.36319    0.010
 6950.00    0.41850   0.36244    0.010
 6951.00    0.34711   0.36198    0.009
 6952.00    0.23830   0.36174    0.009
 6953.00    0.29976   0.36155    0.009
 6954.00    0.41818   0.36166    0.009
 6955.00    0.48374   0.36187    0.009
 6956.00    0.53444   0.36180    0.010
 6957.00    0.47195   0.36169    0.009
 6958.00    0.38326   0.36158    0.009
 6959.00    0.36949   0.36133    0.009
 6960.00    0.36962   0.36136    0.009
 6961.00    0.47245   0.36179    0.010
 6962.00    0.58997   0.36231    0.010
 6963.00    0.50814   0.36305    0.010
 6964.00    0.40567   0.36409    0.010
 6965.00    0.42281   0.36515    0.010
 6966.00    0.44793   0.36601    0.010
 6967.00    0.37613   0.36673    0.010
 6968.00    0.30124   0.36746    0.010
 6969.00    0.34734   0.36809    0.010
 6970.00    0.39163   0.36839    0.010
 6971.00    0.38042   0.36861    0.010
 6972.00    0.36939   0.36898    0.010
 6973.00    0.36088   0.36924    0.010
 6974.00    0.36243   0.36920    0.010
 6975.00    0.46049   0.36909    0.010
 6976.00    0.53713   0.36893    0.010
 6977.00    0.46474   0.36855    0.010
 6978.00    0.40876   0.36768    0.009
 6979.00    0.44081   0.36613    0.009
 6980.00    0.45907   0.36442    0.010
 6981.00    0.41791   0.36283    0.010
 6982.00    0.38692   0.36073    0.009
 6983.00    0.39204   0.35843    0.010
 6984.00    0.38938   0.35719    0.010
 6985.00    0.36348   0.35698    0.010
 6986.00    0.36097   0.35706    0.010
 6987.00    0.41790   0.35803    0.010
 6988.00    0.42981   0.36025    0.010
 6989.00    0.34333   0.36260    0.010
 6990.00    0.29708   0.36448    0.010
 6991.00    0.32715   0.36616    0.010
 6992.00    0.35284   0.36744    0.010
 6993.00    0.37130   0.36796    0.010
 6994.00    0.39269   0.36796    0.010
 6995.00    0.41833   0.36784    0.010
 6996.00    0.40901   0.36766    0.010
 6997.00    0.35509   0.36733    0.010
 6998.00    0.31637   0.36705    0.010
 6999.00    0.29476   0.36699    0.010
 7000.00    0.38243   0.36691    0.010
 7001.00    0.57852   0.36661    0.010
 7002.00    0.60667   0.36615    0.010
 7003.00    0.48790   0.36554    0.010
 7004.00    0.40265   0.36477    0.010
 7005.00    0.34326   0.36397    0.010
 7006.00    0.31819   0.36335    0.010
 7007.00    0.31639   0.36268    0.010
 7008.00    0.42070   0.36193    0.010
 7009.00    0.58803   0.36158    0.010
 7010.00    0.57229   0.36164    0.010
 7011.00    0.46175   0.36164    0.010
 7012.00    0.43541   0.36148    0.010
 7013.00    0.44688   0.36165    0.010
 7014.00    0.44465   0.36210    0.010
 7015.00    0.43714   0.36229    0.010
 7016.00    0.46074   0.36222    0.010
 7017.00    0.49455   0.36215    0.010
 7018.00    0.42484   0.36189    0.010
 7019.00    0.32664   0.36114    0.010
 7020.00   -0.01279   0.36015    0.000
 7021.00   -0.40675   0.35941    0.000
 7022.00   -0.11619   0.35919    0.000
 7023.00    0.29805   0.35908    0.143
 7024.00    0.39434   0.35895   -1.000
 7025.00    0.44659   0.35952   -1.000
 7026.00    0.47876   0.36067   -1.000
 7027.00    0.50894   0.36126   -1.000
 7028.00    0.46884   0.36127   -1.000
 7029.00    0.42433   0.36139   -1.000
 7030.00    0.47954   0.36150   -1.000
 7031.00    0.53699   0.36126   -1.000
 7032.00    0.43801   0.36111   -1.000
 7033.00    0.34276   0.36153   -1.000
 7034.00    0.34986   0.36230   -1.000
 7035.00    0.36068   0.36296   -1.000
 7036.00    0.42380   0.36360   -1.000
 7037.00    0.47385   0.36436   -1.000
 7038.00    0.40333   0.36492   -1.000
 7039.00    0.33531   0.36506   -1.000
 7040.00    0.28410   0.36514   -1.000
 7041.00    0.25282   0.36530   -1.000
 7042.00    0.32565   0.36517   -1.000
 7043.00    0.40301   0.36507   -1.000
 7044.00    0.49948   0.36581   -1.000
 7045.00    0.55194   0.36685   -1.000
 7046.00    0.45133   0.36761   -1.000
 7047.00    0.35710   0.36900   -1.000
 7048.00    0.28158   0.37103   -1.000
 7049.00    0.24314   0.37253   -1.000
 7050.00    0.29723   0.37359   -2.000
 7051.00    0.33310   0.37465   -2.000
 7052.00    0.32978   0.37520   -2.000
 7053.00    0.34431   0.37494   -2.000
 7054.00    0.39218   0.37425   -2.000
 7055.00    0.39973   0.37302   -2.000
 7056.00    0.34150   0.37081   -2.000
 7057.00    0.34390   0.36764   -2.000
 7058.00    0.43302   0.36391   -2.000
 7059.00    0.44215   0.35985   -2.000
 7060.00    0.35065   0.35553   -2.000
 7061.00    0.31182   0.35145   -2.000
 7062.00    0.33140   0.34806   -2.000
 7063.00    0.38340   0.34515   -2.000
 7064.00    0.46710   0.34273   -2.000
 7065.00    0.48625   0.34102   -2.000
 7066.00    0.44973   0.33977   -2.000
 7067.00    0.47363   0.33854   -2.000
 7068.00    0.54342   0.33756   -2.000
 7069.00    0.52263   0.33703   -2.000
 7070.00    0.44138   0.33653   -2.000
 7071.00    0.47836   0.33597   -2.000
 7072.00    0.58449   0.33568   -2.000
 7073.00    0.49536   0.33558   -2.000
 7074.00    0.30668   0.33575   -2.000
 7075.00    0.25198   0.33639   -2.000
 7076.00    0.25644   0.33727   -2.000
 7077.00    0.33602   0.33849   -2.000
 7078.00    0.44408   0.34020   -2.000
 7079.00    0.43985   0.34184   -2.000
 7080.00    0.39946   0.34312   -2.000
 7081.00    0.37915   0.34431   -2.000
 7082.00    0.36425   0.34536   -2.000
 7083.00    0.42740   0.34589   -2.000
 7084.00    0.50777   0.34599   -2.000
 7085.00    0.51342   0.34582   -2.000
 7086.00    0.50594   0.34511   -2.000
 7087.00    0.48789   0.34371   -2.000
 7088.00    0.46844   0.34166   -2.000
 7089.00    0.50035   0.33911   -2.000
 7090.00    0.53716   0.33628   -2.000
 7091.00    0.49486   0.33319   -2.000
 7092.00    0.44793   0.32991   -2.000
 7093.00    0.41038   0.32706   -2.000
 7094.00    0.37365   0.32480   -2.000
 7095.00    0.41767   0.32274   -2.000
 7096.00    0.45206   0.32111   -2.000
 7097.00    0.24683   0.32012   -2.000
 7098.00    0.05571   0.31949   -2.000
 7099.00    0.05202   0.31924   -2.000
 7100.00    0.05035   0.31940   -2.000
 7101.00    0.06658   0.31971   -2.000
 7102.00    0.10466   0.32029   -2.000
 7103.00    0.28546   0.32106   -2.000
 7104.00    0.43017   0.32180   -2.000
 7105.00    0.39097   0.32253   -2.000
 7106.00    0.37001   0.32318   -2.000
 7107.00    0.42411   0.32367   -2.000
 7108.00    0.46999   0.32405   -2.000
 7109.00    0.48786   0.32438   -2.000
 7110.00    0.50848   0.32451   -2.000
 7111.00    0.53699   0.32437   -2.000
 7112.00    0.53582   0.32429   -2.000
 7113.00    0.46185   0.32425   -2.000
 7114.00    0.44498   0.32390   -2.000
 7115.00    0.54895   0.32337   -2.000
 7116.00    0.58561   0.32313   -2.000
 7117.00    0.49851   0.32313   -2.000
 7118.00    0.48317   0.32307   -2.000
 7119.00    0.58313   0.32313   -2.000
 7120.00    0.70404   0.32362   -2.000
 7121.00    0.85450   0.32427   -2.000
 7122.00    0.78347   0.32470   -2.000
 7123.00    0.43771   0.32499   -2.000
 7124.00    0.06179   0.32528   -2.000
 7125.00   -0.34711   0.32530   -2.000
 7126.00   -0.55356   0.32477   -2.000
 7127.00   -0.56478   0.32400   -2.000
 7128.00   -0.42566   0.32317   -2.000
 7129.00   -0.15871   0.32191   -2.000
 7130.00   -0.06767   0.32015   -2.000
 7131.00   -0.10837   0.31840   -2.000
 7132.00    0.01905   0.31679   -2.000
 7133.00    0.25708   0.31492   -2.000
 7134.00    0.33260   0.31302   -2.000
 7135.00    0.31451   0.31168   -2.000
 7136.00    0.32322   0.31088   -2.000
 7137.00    0.34537   0.31034   -2.000
 7138.00    0.39554   0.31029   -2.000
 7139.00    0.45788   0.31090   -2.000
 7140.00    0.37617   0.31175   -2.000
 7141.00    0.24080   0.31280   -2.000
 7142.00    0.21573   0.31400   -2.000
 7143.00    0.22550   0.31486   -2.000
 7144.00    0.29188   0.31556   -2.000
 7145.00    0.37319   0.31645   -2.000
 7146.00    0.26677   0.31691   -2.000
 7147.00    0.11988   0.31691   -2.000
 7148.00    0.24328   0.31715   -2.000
 7149.00    0.41287   0.31728   -2.000
 7150.00    0.43834   0.31698   -2.000
 7151.00    0.44515   0.31663   -2.000
 7152.00    0.46346   0.31617   -2.000
 7153.00    0.48281   0.31573   -2.000
 7154.00    0.47796   0.31560   -2.000
 7155.00    0.47179   0.31553   -2.000
 7156.00    0.45670   0.31568   -2.000
 7157.00    0.44018   0.31660   -2.000
 7158.00    0.31032   0.31777   -2.000
 7159.00    0.17989   0.31861   -2.000
 7160.00    0.03642   0.31967   -2.000
 7161.00   -0.10690   0.32097   -2.000
 7162.00   -0.24838   0.32160   -2.000
 7163.00   -0.35347   0.32167   -2.000
 7164.00   -0.14803   0.32174   -2.000
 7165.00    0.08655   0.32154   -2.000
 7166.00    0.50581   0.32082   -2.000
 7167.00    0.79668   0.32003   -2.000
 7168.00    0.45007   0.31928   -2.000
 7169.00    0.16892   0.31849   -2.000
 7170.00    0.15121   0.31804   -2.000
 7171.00    0.18409   0.31795   -2.000
 7172.00    0.38602   0.31816   -2.000
 7173.00    0.53101   0.31888   -2.000
 7174.00    0.51536   0.31998   -2.000
 7175.00    0.49488   0.32125   -2.000
 7176.00    0.46270   0.32257   -2.000
 7177.00    0.45273   0.32373   -2.000
 7178.00    0.48899   0.32468   -2.000
 7179.00    0.49103   0.32539   -2.000
 7180.00    0.43113   0.32554   -2.000
 7181.00    0.29948   0.32527   -2.000
 7182.00    0.05423   0.32499   -2.000
 7183.00   -0.00940   0.32447   -2.000
 7184.00    0.17929   0.32359   -2.000
 7185.00    0.28623   0.32282   -2.000
 7186.00    0.29322   0.32235   -2.000
 7187.00    0.31227   0.32196   -2.000
 7188.00    0.34432   0.32151   -2.000
 7189.00    0.31843   0.32126   -2.000
 7190.00    0.23746   0.32118   -2.000
 7191.00    0.21945   0.32078   -2.000
 7192.00    0.25425   0.32007   -2.000
 7193.00    0.33742   0.31946   -2.000
 7194.00    0.45632   0.31886   -2.000
 7195.00    0.40224   0.31823   -2.000
 7196.00    0.23604   0.31785   -2.000
 7197.00    0.36005   0.31774   -2.000
 7198.00    0.64870   0.31791   -2.000
 7199.00    0.49644   0.31848   -2.000
 7200.00    0.12644   0.31905   -2.000
 7201.00    0.16395   0.31943   -2.000
 7202.00    0.37548   0.32000   -2.000
 7203.00    0.42647   0.32057   -2.000
 7204.00    0.41873   0.32079   -2.000
 7205.00    0.40159   0.32094   -2.000
 7206.00    0.38154   0.32122   -2.000
 7207.00    0.31440   0.32141   -2.000
 7208.00    0.23511   0.32137   -2.000
 7209.00    0.29096   0.32127   -2.000
 7210.00    0.37524   0.32096   -2.000
 7211.00    0.17158   0.32030   -2.000
 7212.00   -0.07990   0.31970   -2.000
 7213.00    0.15014   0.31915   -2.000
 7214.00    0.44035   0.31855   -2.000
 7215.00    0.35998   0.31843   -2.000
 7216.00    0.24751   0.31875   -2.000
 7217.00    0.25759   0.31910   -2.000
 7218.00    0.27391   0.31976   -2.000
