###################################################################
## OUTPUT of StarlightChains_v04.for    [Cid@UFSC - 01/Apr/2007] ##
###################################################################

## Some input info
KUG0210-078._21_32.txt                   [arq_obs]
Base.CB07.vall.4m                        [arq_base]
Masks.EmLines.NEW.gm                     [arq_masks]
StCv04.C11.config                        [arq_config]
   66                                    [N_base]
    0                                    [N_YAV_components = # of components with extra extinction!]
    0                                    [i_FitPowerLaw (1/0 = Yes/No)]
-9.99                                    [alpha_PowerLaw]
CCM                                      [red_law_option]
 1.458241                                [q_norm = A(l_norm)/A(V)]

## (Re)Sampling Parameters
 3741.00                                 [l_ini (A)]
 7218.00                                 [l_fin (A)]
    1.00                                 [dl    (A)]     (OBS: dl_cushion =    50.00 A)

## Normalization info
 4020.00                                 [l_norm (A) - for base]
 4010.00                                 [llow_norm (A) - window for f_obs]
 4060.00                                 [lupp_norm (A) - window for f_obs]
1.121598E-17                             [fobs_norm (in input units)]

## S/N
 3691.00                                 [llow_SN (A) - window for S/N]
 7268.00                                 [lupp_SN (A) - window for S/N]
   2.461                                 [S/N in S/N window]
   3.605                                 [S/N in norm. window]
   0.011                                 [S/N_err in S/N window]
   0.017                                 [S/N_err in norm. window]
  1.0000                                 [fscale_chi2]

## etc...
    -2007231                             [idum_orig]
  2377                                   [NOl_eff]
  1981                                   [Nl_eff]
   396    NSIGMA                         [Ntot_cliped & clip_method]
  1847580                                [Nglobal_steps]
   7                                     [N_chains]
  42                                     [NEX0s_base = N_base in EX0s-fits]
 0   0   1      396   2.0   1.007E+04    [Clip-Bug, RC-Crash & Burn-In warning-flags, n_censored_weights, wei_nsig_threshold & wei_limit]
    33     32.605     32.113      0.492  [idt_all, wdt_TotTime, wdt_UsrTime & wdt_SysTime (sec)]

## Synthesis Results - Best model ##

 1.17028E-05                             [chi2/Nl_eff]
    21.77629                             [adev (%)]

    97.49554                             [sum-of-x (%)]
 1.44355E-17                             [Flux_tot (units of input spectrum!)]
 2.18166E-13                             [Mini_tot (???)]
 1.10382E-13                             [Mcor_tot (???)]

-118.90                                  [v0_min  (km/s)]
 148.41                                  [vd_min  (km/s)]
 0.2068                                  [AV_min  (mag)]
 0.0000                                  [YAV_min (mag)]

# j     x_j(%)      Mini_j(%)     Mcor_j(%)     age_j(yr)     Z_j      (L/M)_j    YAV?  Mstars   component_j        a/Fe...       SSP_chi2r SSP_adev(%)   SSP_AV   SSP_x(%)
  1      0.0098     6.0940E-05    1.2045E-04    1.000000E+06  0.00400  1.094E-02    0   1.0000   age020_m42            0.0000     1.3658E-05    25.5742   2.2144    84.8483
  2      0.0000     0.0000E+00    0.0000E+00    3.160000E+06  0.00400  4.007E-02    0   0.9999   age045_m42            0.0000     1.3186E-05    24.6885   1.5817    87.3691
  3      0.0000     0.0000E+00    0.0000E+00    5.010000E+06  0.00400  2.539E-02    0   0.9488   age055_m42            0.0000     1.3337E-05    24.9994   1.8604    86.6774
  4      3.9087     1.0125E-02    1.8450E-02    6.610000E+06  0.00400  2.620E-02    0   0.9220   age061_m42            0.0000     1.3062E-05    24.4863   1.5092    87.5954
  5      0.0000     0.0000E+00    0.0000E+00    1.000000E+07  0.00400  1.322E-02    0   0.8862   age070_m42            0.0000     1.2534E-05    23.3994   1.2195    90.3896
  6      0.0000     0.0000E+00    0.0000E+00    1.445000E+07  0.00400  7.883E-03    0   0.8571   age078_m42            0.0000     1.2726E-05    23.7587   1.5301    88.6070
  7      0.0000     0.0000E+00    0.0000E+00    2.512000E+07  0.00400  5.251E-03    0   0.8174   age090_m42            0.0000     1.2415E-05    23.1018   1.0998    90.6662
  8      0.0000     0.0000E+00    0.0000E+00    4.000000E+07  0.00400  3.649E-03    0   0.7851   age104_m42            0.0000     1.2374E-05    23.0466   0.8861    90.8570
  9      0.2755     6.0349E-03    9.0997E-03    5.500000E+07  0.00400  3.098E-03    0   0.7629   age110_m42            0.0000     1.2551E-05    23.3857   1.0569    89.9136
 10      0.1721     5.2438E-03    7.4695E-03    1.015200E+08  0.00400  2.228E-03    0   0.7207   age116_m42            0.0000     1.2640E-05    23.5770   1.0880    89.5232
 11      0.0000     0.0000E+00    0.0000E+00    2.861200E+08  0.00400  1.093E-03    0   0.6648   age125_m42            0.0000     1.2344E-05    22.9935   0.5352    91.8316
 12      0.0288     2.9621E-03    3.7264E-03    5.088000E+08  0.00400  6.597E-04    0   0.6365   age130_m42            0.0000     1.2466E-05    23.2771   0.5412    91.7241
 13      0.0000     0.0000E+00    0.0000E+00    1.434000E+09  0.00400  2.132E-04    0   0.5798   age139_m42            0.0000     1.2235E-05    22.9845  -0.4148    92.8207
 14      0.0000     0.0000E+00    0.0000E+00    4.250000E+09  0.00400  5.895E-05    0   0.5377   age158_m42            0.0000     1.2661E-05    23.9208  -0.8878    89.9205
 15      0.0000     0.0000E+00    0.0000E+00    7.500000E+09  0.00400  3.510E-05    0   0.5212   age171_m42            0.0000     1.2826E-05    24.0342  -1.0000    87.2702
 16      3.1747     1.0746E+01    1.0692E+01    1.300000E+10  0.00400  2.005E-05    0   0.5034   age193_m42            0.0000     1.3204E-05    24.2061  -1.0000    82.5837
 17      0.3254     1.4482E+00    1.4217E+00    1.800000E+10  0.00400  1.525E-05    0   0.4967   age213_m42            0.0000     1.3232E-05    24.2006  -1.0000    81.7079
 18      0.0001     7.9816E-07    1.5775E-06    1.000000E+06  0.00800  1.238E-02    0   1.0000   age020_m52            0.0000     1.3657E-05    25.5824   2.2121    84.9773
 19      0.0568     1.2542E-04    2.4705E-04    3.160000E+06  0.00800  3.074E-02    0   0.9966   age045_m52            0.0000     1.3613E-05    25.5366   2.1427    85.4688
 20      0.6266     1.5938E-03    2.9746E-03    5.010000E+06  0.00800  2.668E-02    0   0.9443   age055_m52            0.0000     1.3346E-05    25.0539   1.9312    86.3308
 21      0.0000     0.0000E+00    0.0000E+00    6.610000E+06  0.00800  2.136E-02    0   0.9177   age061_m52            0.0000     1.2529E-05    23.5186   0.7029    91.9624
 22      0.0000     0.0000E+00    0.0000E+00    1.000000E+07  0.00800  1.215E-02    0   0.8827   age070_m52            0.0000     1.2439E-05    23.2013   1.3917    90.6447
 23      0.0000     0.0000E+00    0.0000E+00    1.445000E+07  0.00800  8.717E-03    0   0.8552   age078_m52            0.0000     1.2642E-05    23.5985   1.5032    89.5875
 24      5.4881     6.6606E-02    1.0745E-01    2.512000E+07  0.00800  5.592E-03    0   0.8162   age090_m52            0.0000     1.2321E-05    22.9027   1.1729    91.4283
 25      0.0000     0.0000E+00    0.0000E+00    4.000000E+07  0.00800  3.896E-03    0   0.7841   age104_m52            0.0000     1.2341E-05    22.9388   1.1058    91.2268
 26      0.0000     0.0000E+00    0.0000E+00    1.015200E+08  0.00800  2.148E-03    0   0.7226   age116_m52            0.0000     1.2493E-05    23.3195   1.0569    90.3280
 27      1.4166     9.6870E-02    1.2795E-01    2.861200E+08  0.00800  9.925E-04    0   0.6683   age125_m52            0.0000     1.2383E-05    23.1303   0.6097    92.4541
 28      0.0000     0.0000E+00    0.0000E+00    9.047900E+08  0.00800  3.141E-04    0   0.6138   age135_m52            0.0000     1.2278E-05    23.0703  -0.1379    93.8958
 29      0.0326     1.2877E-02    1.4896E-02    1.434000E+09  0.00800  1.719E-04    0   0.5853   age139_m52            0.0000     1.2364E-05    23.3140  -0.7500    93.1036
 30      0.0000     0.0000E+00    0.0000E+00    2.500000E+09  0.00800  7.872E-05    0   0.5600   age150_m52            0.0000     1.2765E-05    23.9611  -1.0000    89.8142
 31      0.0000     0.0000E+00    0.0000E+00    4.250000E+09  0.00800  4.336E-05    0   0.5426   age158_m52            0.0000     1.2840E-05    24.0399  -1.0000    88.5907
 32      0.0000     0.0000E+00    0.0000E+00    6.250000E+09  0.00800  3.159E-05    0   0.5319   age166_m52            0.0000     1.3263E-05    24.1990  -1.0000    83.2830
 33      0.0000     0.0000E+00    0.0000E+00    1.300000E+10  0.00800  1.361E-05    0   0.5073   age193_m52            0.0000     1.5145E-05    25.6217  -1.0000    70.8357
 34      0.0000     0.0000E+00    0.0000E+00    1.800000E+10  0.00800  9.886E-06    0   0.4990   age213_m52            0.0000     1.5935E-05    26.1890  -1.0000    67.6750
 35      0.0001     5.8385E-07    1.1539E-06    1.000000E+06  0.02000  1.544E-02    0   1.0000   age020_m62            0.0000     1.3661E-05    25.6229   2.2011    85.3763
 36      4.3886     7.9172E-03    1.5426E-02    3.160000E+06  0.02000  3.762E-02    0   0.9858   age045_m62            0.0000     1.3613E-05    25.6205   2.1441    85.9881
 37      0.0000     0.0000E+00    0.0000E+00    5.010000E+06  0.02000  3.296E-02    0   0.9342   age055_m62            0.0000     1.3288E-05    24.9748   1.8330    87.2416
 38      3.4277     2.0159E-02    3.5305E-02    8.710000E+06  0.02000  1.154E-02    0   0.8861   age067_m62            0.0000     1.1575E-05    21.2786   0.8011    96.2629
 39      0.0000     0.0000E+00    0.0000E+00    1.445000E+07  0.02000  7.663E-03    0   0.8472   age078_m62            0.0000     1.2106E-05    22.4834   1.0355    93.1916
 40      0.0000     0.0000E+00    0.0000E+00    2.512000E+07  0.02000  4.532E-03    0   0.8099   age090_m62            0.0000     1.2055E-05    22.3169   1.0363    92.7282
 41     14.8920     3.6981E-01    5.5512E-01    5.500000E+07  0.02000  2.733E-03    0   0.7595   age110_m62            0.0000     1.2358E-05    23.0273   1.0733    91.1415
 42      0.0000     0.0000E+00    0.0000E+00    1.609000E+08  0.02000  1.369E-03    0   0.6985   age120_m62            0.0000     1.2432E-05    23.1860   0.9505    91.8621
 43      0.7779     5.8572E-02    7.7724E-02    2.861200E+08  0.02000  9.013E-04    0   0.6714   age125_m62            0.0000     1.2391E-05    23.0857   0.7300    93.2216
 44      0.0000     0.0000E+00    0.0000E+00    5.088000E+08  0.02000  5.028E-04    0   0.6449   age130_m62            0.0000     1.2483E-05    23.3491   0.3946    93.6259
 45      0.0000     0.0000E+00    0.0000E+00    9.047900E+08  0.02000  2.428E-04    0   0.6179   age135_m62            0.0000     1.2469E-05    23.5204  -0.1946    92.9029
 46      0.0000     0.0000E+00    0.0000E+00    1.434000E+09  0.02000  1.263E-04    0   0.5908   age139_m62            0.0000     1.2535E-05    23.7027  -0.6544    91.9730
 47      0.0000     0.0000E+00    0.0000E+00    2.500000E+09  0.02000  5.985E-05    0   0.5673   age150_m62            0.0000     1.2924E-05    24.2193  -1.0000    89.9699
 48      0.1562     3.2405E-01    3.5021E-01    4.250000E+09  0.02000  3.271E-05    0   0.5468   age158_m62            0.0000     1.3711E-05    24.5199  -1.0000    81.2474
 49      0.0000     0.0000E+00    0.0000E+00    1.000000E+10  0.02000  1.360E-05    0   0.5167   age181_m62            0.0000     1.5260E-05    25.5263  -1.0000    71.8407
 50      8.7915     8.3752E+01    8.2981E+01    1.800000E+10  0.02000  7.124E-06    0   0.5013   age213_m62            0.0000     1.6636E-05    26.4261  -1.0000    65.9605
 51      0.1657     4.3396E-04    8.5752E-04    1.000000E+06  0.05000  2.592E-02    0   0.9998   age020_m72            0.0000     1.3682E-05    25.6600   2.1893    85.5855
 52      0.0000     0.0000E+00    0.0000E+00    3.160000E+06  0.05000  4.845E-02    0   0.9577   age045_m72            0.0000     1.3555E-05    25.4902   2.0540    86.1472
 53      0.0000     0.0000E+00    0.0000E+00    5.010000E+06  0.05000  3.072E-02    0   0.9147   age055_m72            0.0000     1.2665E-05    23.7276   1.6032    89.8198
 54     46.8814     2.1867E-01    3.8366E-01    6.610000E+06  0.05000  1.455E-02    0   0.8877   age061_m72            0.0000     1.1612E-05    21.3683   0.8458    97.8381
 55      0.0000     0.0000E+00    0.0000E+00    1.000000E+07  0.05000  9.074E-03    0   0.8524   age070_m72            0.0000     1.2809E-05    24.0066   1.7997    89.1526
 56      0.0000     0.0000E+00    0.0000E+00    2.512000E+07  0.05000  4.250E-03    0   0.7902   age090_m72            0.0000     1.2545E-05    23.3525   1.5270    89.8041
 57      0.0000     0.0000E+00    0.0000E+00    4.000000E+07  0.05000  3.087E-03    0   0.7618   age104_m72            0.0000     1.2373E-05    22.9745   1.3136    90.9085
 58      0.0000     0.0000E+00    0.0000E+00    1.015200E+08  0.05000  1.700E-03    0   0.7096   age116_m72            0.0000     1.2364E-05    22.9960   1.0876    91.8621
 59      0.0000     0.0000E+00    0.0000E+00    2.861200E+08  0.05000  7.384E-04    0   0.6633   age125_m72            0.0000     1.2363E-05    23.1189   0.6228    93.2955
 60      0.0000     0.0000E+00    0.0000E+00    5.088000E+08  0.05000  3.819E-04    0   0.6372   age130_m72            0.0000     1.2408E-05    23.4050   0.1529    93.5462
 61      0.9576     3.8776E-01    4.6826E-01    9.047900E+08  0.05000  1.676E-04    0   0.6110   age135_m72            0.0000     1.2767E-05    24.1734  -0.5580    91.8760
 62      0.0082     6.2695E-03    7.2787E-03    1.434000E+09  0.05000  8.837E-05    0   0.5874   age139_m72            0.0000     1.2838E-05    24.1343  -1.0000    91.0620
 63      1.5327     2.4573E+00    2.7189E+00    2.500000E+09  0.05000  4.233E-05    0   0.5598   age150_m72            0.0000     1.3763E-05    24.5990  -1.0000    81.7399
 64      0.0000     0.0000E+00    0.0000E+00    6.250000E+09  0.05000  1.435E-05    0   0.5249   age166_m72            0.0000     1.5815E-05    25.9667  -1.0000    69.1021
 65      0.0000     0.0000E+00    0.0000E+00    1.300000E+10  0.05000  6.513E-06    0   0.5036   age193_m72            0.0000     1.7910E-05    27.2689  -1.0000    62.7420
 66      0.0000     0.0000E+00    0.0000E+00    1.800000E+10  0.05000  4.527E-06    0   0.4945   age213_m72            0.0000     1.9262E-05    28.0201  -1.0000    58.7320


## Synthesis Results - Average & Chains ##

# j      x_j: min, <> & last-chain-values for 1 ...  7 chains
  1      0.0098      1.0281      0.3935      0.1703      1.9070      1.0218      0.2382      0.6377      1.7439
  2      0.0000      0.8652      0.4092      0.0000      0.0000      0.0074      0.8794      0.0000      0.0000
  3      0.0000      1.1168      0.0000      1.7297      0.4914      0.2557      2.0152      0.5228      0.3106
  4      3.9087      1.2512      0.3519      0.1579      0.0000      0.0000      3.0490      0.0000      1.2208
  5      0.0000      1.0057      0.0000      0.0000      4.9864      0.0076      0.6438      0.0000      0.4148
  6      0.0000      0.9145      0.0396      0.0000      0.6173      0.7228      0.0000      0.0929      0.4202
  7      0.0000      0.7291      0.0779      0.1161      2.6659      0.0000      3.0077      0.5067      0.0000
  8      0.0000      1.0920      0.7035      0.4454      2.5542      1.1835      0.7383      1.4987      0.0000
  9      0.2755      0.7393      1.3317      0.9986      0.0000      0.1283      0.0000      0.0189      2.9435
 10      0.1721      1.2843      0.0000      0.0000      0.6458      1.0912      1.1933      1.0781      2.4689
 11      0.0000      1.2002      0.0000      0.8308      2.4436      0.0195      0.0000      0.5459      0.0926
 12      0.0288      1.0630      0.0000      0.1875      3.3113      0.4674      0.3007      0.4721      1.6292
 13      0.0000      1.0881      0.0000      0.1655      0.2158      0.2605      0.7399      0.3627      1.4122
 14      0.0000      0.9641      0.0000      0.0000      1.1941      0.6384      3.9177      0.0000      5.2681
 15      0.0000      1.1871      0.0000      0.5504      3.1777      0.6062      2.0030      0.0000      0.5696
 16      3.1747      1.1813      0.1603      0.0129      3.4926      0.0000      0.0385      0.4663      2.5112
 17      0.3254      1.1994      0.6881      2.1602      0.0000      0.0000      2.1175      0.0000      0.8905
 18      0.0001      2.8066      3.4054      3.0294      0.0000      3.5164      1.2484      4.0317      2.0328
 19      0.0568      0.6826      0.1725      0.3262      0.0000      0.0857      1.4069      0.6272      0.5979
 20      0.6266      0.9826      0.0000      1.4320      1.0548      0.0000      0.8198      0.7362      5.2852
 21      0.0000      1.3922      1.7371      1.9060      2.1305      0.4474      0.5453      0.5157      0.6158
 22      0.0000      1.3429      1.1380      0.0000      0.0000      0.0639      3.5947      0.0761      0.2891
 23      0.0000      0.9161      0.2237      0.2314      0.0000      0.0000      1.0974      0.0000      0.0000
 24      5.4881      0.9846      0.0000      0.3703      3.2482      0.9678      0.0000      1.4057      1.5132
 25      0.0000      1.0705      0.0698      0.0201      0.0000      0.4615      1.6978      0.4144      0.1666
 26      0.0000      1.1014      1.1573      1.3916      0.8996      0.0000      1.8173      1.2883      3.5898
 27      1.4166      1.2674      0.0000      0.3406      1.8687      0.2822      1.0350      0.3889      0.4886
 28      0.0000      1.3097      0.2661      0.0000      0.0000      0.0000      0.7746      0.3815      0.0000
 29      0.0326      0.7745      0.0000      0.0000      0.9921      0.0783      0.0000      0.0000      2.8425
 30      0.0000      1.1252      0.1050      0.6964      3.0740      0.1686      5.1151      0.0781      0.0000
 31      0.0000      0.9229      0.1262      0.0000      2.0234      0.1926      2.3550      0.3823      0.6386
 32      0.0000      0.7136      0.0000      0.3385      1.0235      0.4934      2.3052      2.1409      0.0000
 33      0.0000      1.0548      0.0000      0.7034      4.6104      1.1620      3.0796      0.4258      0.3912
 34      0.0000      1.1378      2.2206      1.9187      2.9846      1.3311      0.0000      0.9479      2.9906
 35      0.0001      3.9107      9.8852      8.1373      2.5036      9.5931      0.9091      6.1670      6.7593
 36      4.3886      1.1621      0.6466      0.1885      2.6181      0.1082      1.5551      0.0000      1.0454
 37      0.0000      0.6421      0.0000      0.7568      0.0000      0.6867      1.2924      0.0000      0.0214
 38      3.4277      0.6870      0.8000      0.4095      3.1122      0.0000      0.4603      0.0944      1.5120
 39      0.0000      1.0758      0.6474      0.3622      0.0000      1.1444      0.0000      2.0558      1.5130
 40      0.0000      0.8295      1.1382      0.0000      0.0983      0.0000      1.0175      0.3020      0.0000
 41     14.8920      1.0744      0.0935      0.2763      1.8417      0.2036      1.7137      0.5065      0.5737
 42      0.0000      1.1306      0.9948      0.9148      1.1087      0.3677      0.0000      1.2356      3.6888
 43      0.7779      1.0190      0.0000      0.0000      0.0000      0.9328      1.3955      0.0014      1.1746
 44      0.0000      0.9723      0.0000      0.0756      0.0000      0.3051      2.5270      0.7824      0.1033
 45      0.0000      0.7503      0.9388      0.0000      0.8425      0.0110      1.2051      0.0000      0.0000
 46      0.0000      0.8876      0.0000      0.0000      0.0000      0.2320      0.0000      0.0417      0.2439
 47      0.0000      1.0903      0.1777      0.2941      3.2694      0.0000      0.7596      0.1431      0.2706
 48      0.1562      1.3081      0.0000      0.4162      1.5309      0.0000      1.9971      0.0000      0.7756
 49      0.0000      3.5550      4.7498      4.8170      2.1073      6.1257      2.0473      5.8936      9.3494
 50      8.7915      0.8992      0.4740      0.9922      1.2185      0.0000      1.0613      0.7523      1.5939
 51      0.1657     10.0851     18.6976     19.1714      3.8945     22.7563      4.4949     18.1744      6.0585
 52      0.0000      1.0600      0.6462      0.7067      0.7120      0.2121      0.2302      0.3162      0.0000
 53      0.0000      1.0700      0.6566      0.1461      1.7581      0.0000      2.9701      0.0000      0.0000
 54     46.8814      1.3266      0.1412      0.0000      0.6643      0.5391      0.3065      0.6722      1.6175
 55      0.0000      0.8455      0.0000      0.0000      0.5195      0.4081      0.0000      0.1560      0.0000
 56      0.0000      0.7492      0.0000      0.1596      2.1679      0.0000      1.4859      1.2302      0.0000
 57      0.0000      1.1580      1.4627      0.9828      2.0756      0.0000      1.1304      0.1832      1.7349
 58      0.0000      1.2303      0.5605      1.3049      0.3853      0.0000      1.3897      0.2113      3.2405
 59      0.0000      1.2449      0.7244      0.5938      1.8810      0.0000      1.3145      0.2818      0.6807
 60      0.0000      1.1268      0.2471      0.8121      0.0000      0.0000      0.8853      0.0000      0.1463
 61      0.9576      0.7896      0.4524      0.0000      0.2804      0.1511      2.5099      0.0961      4.5117
 62      0.0082      0.9771      0.6333      0.2752      1.0633      0.0000      2.7750      0.5716      0.5119
 63      1.5327     12.1939     23.3287     23.0417      9.8331     25.0923      5.0048     24.9420      5.2382
 64      0.0000      9.8123     20.9134     17.2425      4.1810     18.8152      8.8243     19.1194      8.7959
 65      0.0000      1.2463      0.6379      0.7679      0.9488      0.1488      3.9014      0.0000      0.3938
 66      0.0000      0.7800      0.1436      1.1866      2.3061      0.7987      1.3759      0.1158      0.0000

# j      m_j: min, <> & last-chain-values for 1 ...  7 chains
  1  1.2045E-04  7.8804E-03  2.3835E-03  9.6748E-04  1.2534E-02  6.2413E-03  1.5160E-03  4.0204E-03  1.2519E-02
  2  0.0000E+00  1.8105E-03  6.7674E-04  0.0000E+00  0.0000E+00  1.2281E-05  1.5282E-03  0.0000E+00  0.0000E+00
  3  0.0000E+00  3.4994E-03  0.0000E+00  4.0176E-03  1.3204E-03  6.3841E-04  5.2440E-03  1.3475E-03  9.1164E-04
  4  1.8450E-02  3.6922E-03  8.2068E-04  3.4542E-04  0.0000E+00  0.0000E+00  7.4718E-03  0.0000E+00  3.3738E-03
  5  0.0000E+00  5.6530E-03  0.0000E+00  0.0000E+00  2.4035E-02  3.4252E-05  3.0053E-03  0.0000E+00  2.1837E-03
  6  0.0000E+00  8.3375E-03  2.8532E-04  0.0000E+00  4.8262E-03  5.2511E-03  0.0000E+00  6.9695E-04  3.5879E-03
  7  0.0000E+00  9.5168E-03  8.0354E-04  1.1233E-03  2.9839E-02  0.0000E+00  3.2603E-02  5.4406E-03  0.0000E+00
  8  0.0000E+00  1.9700E-02  1.0031E-02  5.9566E-03  3.9515E-02  1.7015E-02  1.1062E-02  2.2241E-02  0.0000E+00
  9  9.0997E-03  1.5266E-02  2.1733E-02  1.5284E-02  0.0000E+00  2.1118E-03  0.0000E+00  3.2136E-04  5.6924E-02
 10  7.4695E-03  3.4835E-02  0.0000E+00  0.0000E+00  1.5020E-02  2.3587E-02  2.6879E-02  2.4054E-02  6.2718E-02
 11  0.0000E+00  6.1213E-02  0.0000E+00  3.1410E-02  1.0687E-01  7.9130E-04  0.0000E+00  2.2902E-02  4.4251E-03
 12  3.7264E-03  8.6003E-02  0.0000E+00  1.1243E-02  2.2972E-01  3.0133E-02  2.0204E-02  3.1417E-02  1.2345E-01
 13  0.0000E+00  2.4813E-01  0.0000E+00  2.7973E-02  4.2189E-02  4.7339E-02  1.4013E-01  6.8032E-02  3.0160E-01
 14  0.0000E+00  7.3735E-01  0.0000E+00  0.0000E+00  7.8317E-01  3.8913E-01  2.4884E+00  0.0000E+00  3.7735E+00
 15  0.0000E+00  1.4781E+00  0.0000E+00  5.0799E-01  3.3928E+00  6.0147E-01  2.0711E+00  0.0000E+00  6.6426E-01
 16  1.0692E+01  2.4871E+00  2.6675E-01  2.0063E-02  6.3052E+00  0.0000E+00  6.7228E-02  8.0754E-01  4.9513E+00
 17  1.4217E+00  3.2756E+00  1.4853E+00  4.3732E+00  0.0000E+00  0.0000E+00  4.8027E+00  0.0000E+00  2.2777E+00
 18  1.5775E-06  1.9009E-02  1.8229E-02  1.5210E-02  0.0000E+00  1.8980E-02  7.0221E-03  2.2463E-02  1.2895E-02
 19  2.4705E-04  1.8557E-03  3.7066E-04  6.5733E-04  0.0000E+00  1.8557E-04  3.1762E-03  1.4024E-03  1.5223E-03
 20  2.9746E-03  2.9161E-03  0.0000E+00  3.1502E-03  2.6844E-03  0.0000E+00  2.0206E-03  1.7972E-03  1.4690E-02
 21  0.0000E+00  5.0157E-03  4.9460E-03  5.0899E-03  6.5816E-03  1.2846E-03  1.6315E-03  1.5282E-03  2.0777E-03
 22  0.0000E+00  8.1807E-03  5.4791E-03  0.0000E+00  0.0000E+00  3.1020E-04  1.8186E-02  3.8121E-04  1.6494E-03
 23  0.0000E+00  7.5366E-03  1.4543E-03  1.4111E-03  0.0000E+00  0.0000E+00  7.4973E-03  0.0000E+00  0.0000E+00
 24  1.0745E-01  1.2051E-02  0.0000E+00  3.3595E-03  3.4089E-02  9.4390E-03  0.0000E+00  1.4152E-02  1.7345E-02
 25  0.0000E+00  1.8065E-02  9.3032E-04  2.5132E-04  0.0000E+00  6.2060E-03  2.3795E-02  5.7532E-03  2.6338E-03
 26  0.0000E+00  3.1069E-02  2.5800E-02  2.9097E-02  2.1759E-02  0.0000E+00  4.2573E-02  2.9892E-02  9.4837E-02
 27  1.2795E-01  7.1561E-02  0.0000E+00  1.4254E-02  9.0476E-02  1.2699E-02  4.8534E-02  1.8064E-02  2.5835E-02
 28  0.0000E+00  2.1461E-01  3.4461E-02  0.0000E+00  0.0000E+00  0.0000E+00  1.0540E-01  5.1424E-02  0.0000E+00
 29  1.4896E-02  2.2113E-01  0.0000E+00  0.0000E+00  2.4288E-01  1.7814E-02  0.0000E+00  0.0000E+00  7.6006E-01
 30  0.0000E+00  6.7121E-01  4.9519E-02  3.0794E-01  1.5724E+00  8.0141E-02  2.5340E+00  3.8314E-02  0.0000E+00
 31  0.0000E+00  9.6845E-01  1.0468E-01  0.0000E+00  1.8207E+00  1.6105E-01  2.0522E+00  3.3001E-01  6.2756E-01
 32  0.0000E+00  1.0076E+00  0.0000E+00  3.5428E-01  1.2391E+00  5.5516E-01  2.7029E+00  2.4864E+00  0.0000E+00
 33  0.0000E+00  3.2969E+00  0.0000E+00  1.6296E+00  1.2357E+01  2.8943E+00  7.9937E+00  1.0947E+00  1.1452E+00
 34  0.0000E+00  4.8156E+00  7.4279E+00  6.0195E+00  1.0832E+01  4.4897E+00  0.0000E+00  3.3000E+00  1.1854E+01
 35  1.1539E-06  2.1238E-02  4.2428E-02  3.2758E-02  1.1659E-02  4.1518E-02  4.1000E-03  2.7550E-02  3.4379E-02
 36  1.5426E-02  2.5534E-03  1.1229E-03  3.0699E-04  4.9329E-03  1.8941E-04  2.8377E-03  0.0000E+00  2.1513E-03
 37  0.0000E+00  1.5260E-03  0.0000E+00  1.3333E-03  0.0000E+00  1.3006E-03  2.5509E-03  0.0000E+00  4.7602E-05
 38  3.5305E-02  4.4235E-03  4.0709E-03  1.9544E-03  1.7183E-02  0.0000E+00  2.4613E-03  5.0023E-04  9.1171E-03
 39  0.0000E+00  9.9732E-03  4.7432E-03  2.4886E-03  0.0000E+00  8.4543E-03  0.0000E+00  1.5677E-02  1.3136E-02
 40  0.0000E+00  1.2431E-02  1.3479E-02  0.0000E+00  1.2629E-03  0.0000E+00  1.2662E-02  3.7224E-03  0.0000E+00
 41  5.5512E-01  2.5035E-02  1.7221E-03  4.7728E-03  3.6800E-02  3.7815E-03  3.3164E-02  9.7081E-03  1.2521E-02
 42  0.0000E+00  4.8370E-02  3.3637E-02  2.9010E-02  4.0676E-02  1.2536E-02  0.0000E+00  4.3483E-02  1.4781E-01
 43  7.7724E-02  6.3651E-02  0.0000E+00  0.0000E+00  0.0000E+00  4.6430E-02  7.2392E-02  7.3195E-05  6.8712E-02
 44  0.0000E+00  1.0458E-01  0.0000E+00  6.0278E-03  0.0000E+00  2.6147E-02  2.2570E-01  6.9217E-02  1.0406E-02
 45  0.0000E+00  1.6011E-01  1.5832E-01  0.0000E+00  1.5416E-01  1.8742E-03  2.1356E-01  0.0000E+00  0.0000E+00
 46  0.0000E+00  3.4814E-01  0.0000E+00  0.0000E+00  0.0000E+00  7.2513E-02  0.0000E+00  1.3468E-02  8.9590E-02
 47  0.0000E+00  8.6662E-01  1.1164E-01  1.7328E-01  2.2282E+00  0.0000E+00  5.0141E-01  9.3570E-02  2.0147E-01
 48  3.5021E-01  1.8337E+00  0.0000E+00  4.3240E-01  1.8401E+00  0.0000E+00  2.3248E+00  0.0000E+00  1.0182E+00
 49  0.0000E+00  1.1326E+01  1.1959E+01  1.1375E+01  5.7566E+00  1.5552E+01  5.4167E+00  1.5444E+01  2.7895E+01
 50  8.2981E+01  5.3059E+00  2.2103E+00  4.3396E+00  6.1650E+00  0.0000E+00  5.2004E+00  3.6514E+00  8.8080E+00
 51  8.5752E-04  3.2619E-02  4.7795E-02  4.5963E-02  1.0801E-02  5.8655E-02  1.2074E-02  4.8354E-02  1.8352E-02
 52  0.0000E+00  1.7569E-03  8.4645E-04  8.6825E-04  1.0120E-03  2.8012E-04  3.1687E-04  4.3105E-04  0.0000E+00
 53  0.0000E+00  2.6715E-03  1.2955E-03  2.7041E-04  3.7640E-03  0.0000E+00  6.1585E-03  0.0000E+00  0.0000E+00
 54  3.8366E-01  6.7866E-03  5.7074E-04  0.0000E+00  2.9144E-03  2.1978E-03  1.3021E-03  2.8286E-03  7.7500E-03
 55  0.0000E+00  6.6603E-03  0.0000E+00  0.0000E+00  3.5088E-03  2.5615E-03  0.0000E+00  1.0105E-03  0.0000E+00
 56  0.0000E+00  1.1680E-02  0.0000E+00  1.8445E-03  2.8982E-02  0.0000E+00  1.9239E-02  1.5776E-02  0.0000E+00
 57  0.0000E+00  2.3963E-02  2.3921E-02  1.5075E-02  3.6830E-02  0.0000E+00  1.9426E-02  3.1182E-03  3.3622E-02
 58  0.0000E+00  4.3062E-02  1.5505E-02  3.3856E-02  1.1564E-02  0.0000E+00  4.0394E-02  6.0835E-03  1.0622E-01
 59  0.0000E+00  9.3770E-02  4.3126E-02  3.3152E-02  1.2149E-01  0.0000E+00  8.2229E-02  1.7462E-02  4.8017E-02
 60  0.0000E+00  1.5765E-01  2.7324E-02  8.4215E-02  0.0000E+00  0.0000E+00  1.0287E-01  0.0000E+00  1.9172E-02
 61  4.6826E-01  2.4136E-01  1.0930E-01  0.0000E+00  7.3501E-02  3.6818E-02  6.3718E-01  2.4156E-02  1.2917E+00
 62  7.2787E-03  5.4459E-01  2.7896E-01  1.1369E-01  5.0819E-01  0.0000E+00  1.2845E+00  2.6206E-01  2.6723E-01
 63  2.7189E+00  1.3522E+01  2.0445E+01  1.8940E+01  9.3503E+00  2.2174E+01  4.6091E+00  2.2751E+01  5.4402E+00
 64  0.0000E+00  3.0096E+01  5.0695E+01  3.9202E+01  1.0996E+01  4.5989E+01  2.2477E+01  4.8238E+01  2.5267E+01
 65  0.0000E+00  8.0807E+00  3.2689E+00  3.6907E+00  5.2753E+00  7.6872E-01  2.1007E+01  0.0000E+00  2.3915E+00
 66  0.0000E+00  7.1441E+00  1.0392E+00  8.0563E+00  1.8113E+01  5.8298E+00  1.0466E+01  8.7238E-01  0.0000E+00

# AV, chi2 & Mass for <> & i_chain = 1 ...  7 solutions
AV       0.2068     -0.9761     -0.9636     -0.9698     -0.8204     -0.9545     -0.8425     -0.9747     -0.7255
chi2 1.1703E-05  1.3411E-05  1.2648E-05  1.2646E-05  1.2570E-05  1.2630E-05  1.2585E-05  1.2659E-05  1.2529E-05
Mass 1.1038E-13  3.6055E-14  4.6391E-14  4.9053E-14  5.1826E-14  4.6573E-14  5.1945E-14  4.3913E-14  5.3906E-14
-118.90                                  [v0_min (km/s) before EX0s...]
 148.41                                  [vd_min (km/s) before EX0s...]


## Synthetic spectrum (Best Model) ##l_obs f_obs f_syn wei
 3478    [Nl_obs]
 3741.00   -1.22908   0.88738    0.000
 3742.00   -1.23638   0.87319    0.000
 3743.00   -0.79062   0.84878    0.000
 3744.00    0.40547   0.81592    0.000
 3745.00    2.03873   0.77607   -1.000
 3746.00    2.44124   0.73373   -1.000
 3747.00    2.21875   0.69801   -1.000
 3748.00    1.11301   0.67922   -1.000
 3749.00   -0.38111   0.68387    0.000
 3750.00   -0.28963   0.71174    0.000
 3751.00    0.40047   0.75535   -1.000
 3752.00    0.86974   0.80253   -1.000
 3753.00    1.26825   0.84310   -1.000
 3754.00    1.00840   0.87245   -1.000
 3755.00    0.57212   0.89060   -1.000
 3756.00    0.48717   0.90089   -1.000
 3757.00    0.47934   0.90734   -1.000
 3758.00    0.24027   0.91234   -1.000
 3759.00   -0.03917   0.91564    0.000
 3760.00   -0.02285   0.91556    0.000
 3761.00    0.03277   0.91044   -1.000
 3762.00    0.48921   0.89880   -1.000
 3763.00    0.98332   0.87936   -1.000
 3764.00    0.79740   0.85171   -1.000
 3765.00    0.57225   0.81650   -1.000
 3766.00    0.31048   0.77589   -1.000
 3767.00    0.04999   0.73601   -1.000
 3768.00    0.05139   0.70686   -1.000
 3769.00    0.03009   0.69692   -1.000
 3770.00   -0.54264   0.70905    0.000
 3771.00   -0.99493   0.74060    0.000
 3772.00    0.13106   0.78341   -1.000
 3773.00    1.11003   0.82726   -1.000
 3774.00    0.79837   0.86591   -1.000
 3775.00    0.52231   0.89790   -1.000
 3776.00    0.47713   0.92422   -1.000
 3777.00    0.28690   0.94617   -1.000
 3778.00   -0.63745   0.96420    0.000
 3779.00   -1.15207   0.97824    0.000
 3780.00    0.01039   0.98761   -1.000
 3781.00    1.09286   0.99128   -1.000
 3782.00    1.90403   0.98922   -1.000
 3783.00    2.62229   0.98264   -1.000
 3784.00    3.07483   0.97285   -1.000
 3785.00    3.37156   0.96121   -1.000
 3786.00    3.28757   0.94876   -1.000
 3787.00    2.75542   0.93552   -1.000
 3788.00    1.27871   0.92041   -1.000
 3789.00    0.32671   0.90178   -1.000
 3790.00    0.33583   0.87743   -1.000
 3791.00    0.45527   0.84530   -1.000
 3792.00    0.75130   0.80483   -1.000
 3793.00    0.78122   0.75759   -1.000
 3794.00    0.43736   0.70877   -1.000
 3795.00    0.55152   0.66844   -1.000
 3796.00    1.23179   0.64781   -1.000
 3797.00    1.43018   0.65293   -1.000
 3798.00    1.10358   0.68284   -1.000
 3799.00    1.15865   0.72972   -1.000
 3800.00    1.58053   0.78149   -1.000
 3801.00    1.37777   0.82771   -1.000
 3802.00    0.64572   0.86288   -1.000
 3803.00    0.43735   0.88697   -1.000
 3804.00    0.61976   0.90437   -1.000
 3805.00    0.50800   0.91972   -1.000
 3806.00    0.20341   0.93554   -1.000
 3807.00    0.43654   0.95245   -1.000
 3808.00    0.97825   0.96746   -1.000
 3809.00    1.19921   0.97653   -1.000
 3810.00    1.25984   0.97861   -1.000
 3811.00    0.66866   0.97495   -1.000
 3812.00   -0.20439   0.96709    0.000
 3813.00   -0.35142   0.95624    0.000
 3814.00   -0.22918   0.94241    0.000
 3815.00   -0.28004   0.92354    0.000
 3816.00   -0.38531   0.89969    0.000
 3817.00   -0.89105   0.87753    0.000
 3818.00   -1.50184   0.86477    0.000
 3819.00   -0.91073   0.86471    0.000
 3820.00   -0.06211   0.87648    0.000
 3821.00    0.30792   0.89254   -1.000
 3822.00    0.59673   0.90327   -1.000
 3823.00    0.62128   0.90497   -1.000
 3824.00    0.61191   0.89890   -1.000
 3825.00    0.44812   0.88753   -1.000
 3826.00    0.27046   0.87183   -1.000
 3827.00   -0.23777   0.85077    0.000
 3828.00   -0.76376   0.82242    0.000
 3829.00   -0.30604   0.78551    0.000
 3830.00    0.17103   0.74105   -1.000
 3831.00    0.61686   0.69285   -1.000
 3832.00    1.04845   0.64876   -1.000
 3833.00    1.16371   0.61913   -1.000
 3834.00    1.22560   0.61070   -1.000
 3835.00    0.62388   0.62492   -1.000
 3836.00    0.09079   0.65855   -1.000
 3837.00    0.13768   0.70321   -1.000
 3838.00    0.23157   0.75038   -1.000
 3839.00    0.62112   0.79525   -1.000
 3840.00    0.92131   0.83467   -1.000
 3841.00    0.78050   0.86728   -1.000
 3842.00    0.71046   0.89309   -1.000
 3843.00    0.92370   0.91240   -1.000
 3844.00    0.91586   0.92612   -1.000
 3845.00    0.17298   0.93506   -1.000
 3846.00   -0.24388   0.94014    0.000
 3847.00    0.25472   0.94262    0.000
 3848.00    0.71404   0.94426    0.000
 3849.00    1.07904   0.94625    0.000
 3850.00    1.12789   0.94815    0.000
 3851.00    0.52110   0.94935    0.000
 3852.00    0.18234   0.94870    0.000
 3853.00    0.32701   0.94584    0.000
 3854.00    0.72317   0.94280    0.000
 3855.00    1.51592   0.94076    0.000
 3856.00    1.76364   0.93962    0.000
 3857.00    1.25683   0.93960    0.000
 3858.00    0.80081   0.94008    0.000
 3859.00    0.40668   0.94058    0.000
 3860.00    0.39983   0.94138    0.000
 3861.00    0.80898   0.94228    0.000
 3862.00    0.78396   0.94236    0.000
 3863.00    0.34758   0.94085    0.000
 3864.00    0.06219   0.93811    0.000
 3865.00   -0.09708   0.93572    0.000
 3866.00    0.11226   0.93382    0.000
 3867.00    0.59269   0.93077    0.000
 3868.00    0.78013   0.92634    0.000
 3869.00    0.77831   0.92113    0.000
 3870.00    0.58240   0.91631    0.000
 3871.00    0.27680   0.91324    0.000
 3872.00    0.02548   0.91176    0.000
 3873.00   -0.19915   0.91030    0.000
 3874.00   -0.07583   0.90669    0.000
 3875.00    0.19544   0.90027    0.000
 3876.00    0.16343   0.89267    0.000
 3877.00    0.02095   0.88509    0.000
 3878.00    0.23749   0.87583    0.000
 3879.00    0.56471   0.86335    0.000
 3880.00    0.44606   0.84696    0.000
 3881.00    0.21296   0.82507   -1.000
 3882.00    0.16657   0.79617   -1.000
 3883.00    0.15921   0.75982   -1.000
 3884.00    0.05449   0.71666   -1.000
 3885.00   -0.06629   0.67095    0.000
 3886.00    0.13247   0.63301   -1.000
 3887.00    0.37081   0.61415   -1.000
 3888.00    0.66845   0.61960   -1.000
 3889.00    0.97117   0.64806   -1.000
 3890.00    0.55992   0.69220   -1.000
 3891.00    0.11309   0.74036   -1.000
 3892.00    0.73288   0.78370   -1.000
 3893.00    1.35633   0.81913   -1.000
 3894.00    1.08752   0.84658   -1.000
 3895.00    0.82159   0.86699   -1.000
 3896.00    0.61465   0.88248   -1.000
 3897.00    0.45500   0.89518   -1.000
 3898.00    0.85451   0.90615   -1.000
 3899.00    1.16319   0.91621   -1.000
 3900.00    0.73198   0.92556   -1.000
 3901.00    0.31153   0.93305   -1.000
 3902.00   -0.04320   0.93763    0.000
 3903.00   -0.30554   0.94076    0.000
 3904.00   -0.12325   0.94461    0.000
 3905.00    0.03439   0.94976   -1.000
 3906.00    0.09545   0.95609   -1.000
 3907.00    0.11880   0.96245   -1.000
 3908.00    0.01918   0.96695   -1.000
 3909.00   -0.04968   0.96907    0.000
 3910.00   -0.03373   0.96965    0.000
 3911.00    0.02678   0.96957   -1.000
 3912.00    0.19251   0.96910   -1.000
 3913.00    0.40631   0.96727   -1.000
 3914.00    0.71820   0.96207   -1.000
 3915.00    0.86754   0.95204   -1.000
 3916.00    0.72815   0.93788   -1.000
 3917.00    0.42091   0.92304   -1.000
 3918.00   -0.14713   0.91157    0.000
 3919.00   -0.17888   0.90607    0.000
 3920.00    0.52112   0.90627   -1.000
 3921.00    0.85644   0.90906   -1.000
 3922.00    0.75369   0.90992   -1.000
 3923.00    0.61877   0.90610   -1.000
 3924.00    0.44979   0.89918   -1.000
 3925.00    0.39599   0.89167   -1.000
 3926.00    0.44980   0.88495   -1.000
 3927.00    0.24925   0.87953   -1.000
 3928.00   -0.16079   0.87375    0.000
 3929.00    0.01391   0.86562   -1.000
 3930.00    0.61248   0.85585   -1.000
 3931.00    1.01181   0.84738   -1.000
 3932.00    1.28433   0.84353   -1.000
 3933.00    1.44021   0.84636   -1.000
 3934.00    1.53116   0.85626   -1.000
 3935.00    1.34743   0.87060   -1.000
 3936.00    1.03073   0.88555   -1.000
 3937.00    0.73305   0.89865   -1.000
 3938.00    0.44334   0.90842   -1.000
 3939.00    0.25944   0.91430   -1.000
 3940.00    0.11340   0.91657   -1.000
 3941.00    0.21834   0.91655   -1.000
 3942.00    0.39913   0.91656   -1.000
 3943.00    0.43510   0.91800   -1.000
 3944.00    0.43470   0.92106   -1.000
 3945.00    0.54912   0.92565   -1.000
 3946.00    0.68695   0.93068   -1.000
 3947.00    0.51705   0.93444   -1.000
 3948.00    0.29786   0.93626   -1.000
 3949.00   -0.01124   0.93611    0.000
 3950.00   -0.33107   0.93379    0.000
 3951.00    0.02346   0.92940   -1.000
 3952.00    0.43290   0.92374   -1.000
 3953.00    0.59637   0.91812   -1.000
 3954.00    0.74853   0.91301   -1.000
 3955.00    0.76140   0.90761   -1.000
 3956.00    0.76218   0.90024   -1.000
 3957.00    0.22350   0.88894   -1.000
 3958.00   -0.28808   0.87226    0.000
 3959.00   -0.28615   0.84984    0.000
 3960.00   -0.20697   0.82203    0.000
 3961.00    0.74271   0.79010    0.000
 3962.00    1.52990   0.75574    0.000
 3963.00    1.03995   0.71853    0.000
 3964.00    0.62199   0.67722    0.000
 3965.00    0.63117   0.63336    0.000
 3966.00    0.57474   0.59133    0.000
 3967.00    0.21022   0.55803    0.000
 3968.00    0.03369   0.54179    0.000
 3969.00    0.57756   0.54772    0.000
 3970.00    0.94805   0.57572    0.000
 3971.00    0.76437   0.62016    0.000
 3972.00    0.62043   0.67135    0.000
 3973.00    0.58413   0.72121    0.000
 3974.00    0.54390   0.76585    0.000
 3975.00    0.49455   0.80353    0.000
 3976.00    0.42070   0.83384    0.000
 3977.00    0.29765   0.85751    0.000
 3978.00    0.28565   0.87507    0.000
 3979.00    0.46788   0.88736    0.000
 3980.00    0.47191   0.89617    0.000
 3981.00    0.20313   0.90342   -1.000
 3982.00   -0.05335   0.91072    0.000
 3983.00   -0.29330   0.91921    0.000
 3984.00   -0.33736   0.92857    0.000
 3985.00   -0.14943   0.93711    0.000
 3986.00    0.05842   0.94357   -1.000
 3987.00    0.28708   0.94817   -1.000
 3988.00    0.46295   0.95133   -1.000
 3989.00    0.59021   0.95300   -1.000
 3990.00    0.75476   0.95325   -1.000
 3991.00    0.94958   0.95218   -1.000
 3992.00    1.12583   0.94987   -1.000
 3993.00    1.28880   0.94688   -1.000
 3994.00    1.20109   0.94437   -1.000
 3995.00    0.95620   0.94427   -1.000
 3996.00    1.00802   0.94711   -1.000
 3997.00    1.22243   0.95152   -1.000
 3998.00    1.29884   0.95609   -1.000
 3999.00    1.30951   0.95958   -1.000
 4000.00    1.10240   0.95986   -1.000
 4001.00    0.80579   0.95583   -1.000
 4002.00    0.83516   0.94869   -1.000
 4003.00    0.97903   0.94014   -1.000
 4004.00    1.03448   0.93105   -1.000
 4005.00    1.06372   0.92283   -1.000
 4006.00    1.09054   0.91787   -1.000
 4007.00    1.11676   0.91723   -1.000
 4008.00    0.87186   0.92065   -1.000
 4009.00    0.57306   0.92833   -1.000
 4010.00    0.82352   0.93948   -1.000
 4011.00    1.15934   0.95097   -1.000
 4012.00    0.94287   0.95983   -1.000
 4013.00    0.66289   0.96534   -1.000
 4014.00    0.83352   0.96821   -1.000
 4015.00    1.03899   0.96948   -1.000
 4016.00    1.21681   0.96938   -1.000
 4017.00    1.39346   0.96774   -1.000
 4018.00    1.30357   0.96415   -1.000
 4019.00    1.20915   0.95708   -1.000
 4020.00    1.02250   0.94448   -1.000
 4021.00    0.84746   0.92603   -1.000
 4022.00    0.87696   0.90455   -1.000
 4023.00    0.88472   0.88574   -1.000
 4024.00    0.65856   0.87507   -1.000
 4025.00    0.45179   0.87502   -1.000
 4026.00    0.39221   0.88449   -1.000
 4027.00    0.44215   0.89868   -1.000
 4028.00    1.12378   0.91054   -1.000
 4029.00    1.52611   0.91612   -1.000
 4030.00    0.64847   0.91729   -1.000
 4031.00    0.07679   0.91830   -1.000
 4032.00    0.65281   0.92240   -1.000
 4033.00    1.02892   0.93046   -1.000
 4034.00    0.77830   0.94128   -1.000
 4035.00    0.70681   0.95232   -1.000
 4036.00    1.11188   0.96070   -1.000
 4037.00    1.51458   0.96417   -1.000
 4038.00    1.91189   0.96252   -1.000
 4039.00    1.95374   0.95689   -1.000
 4040.00    1.29287   0.94835   -1.000
 4041.00    1.00000   0.93818   -1.000
 4042.00    1.34108   0.92838   -1.000
 4043.00    1.54679   0.92108   -1.000
 4044.00    1.54828   0.91850   -1.000
 4045.00    1.36147   0.92214   -1.000
 4046.00    0.92508   0.93118   -1.000
 4047.00    0.84121   0.94203   -1.000
 4048.00    1.16893   0.95033   -1.000
 4049.00    1.23069   0.95401   -1.000
 4050.00    1.01865   0.95319   -1.000
 4051.00    0.81112   0.94894   -1.000
 4052.00    0.60770   0.94297   -1.000
 4053.00    0.66067   0.93699   -1.000
 4054.00    0.91886   0.93215   -1.000
 4055.00    1.02327   0.92902   -1.000
 4056.00    1.01942   0.92728   -1.000
 4057.00    0.91154   0.92584   -1.000
 4058.00    0.73942   0.92371   -1.000
 4059.00    0.83461   0.92022   -1.000
 4060.00    1.07403   0.91577   -1.000
 4061.00    0.96880   0.91182   -1.000
 4062.00    0.70204   0.90966   -1.000
 4063.00    0.50304   0.91016   -1.000
 4064.00    0.33142   0.91320   -1.000
 4065.00    0.79301   0.91620   -1.000
 4066.00    1.47292   0.91601   -1.000
 4067.00    1.47627   0.91207   -1.000
 4068.00    1.28315   0.90619   -1.000
 4069.00    1.05517   0.90042   -1.000
 4070.00    0.81880   0.89581   -1.000
 4071.00    1.01841   0.89244   -1.000
 4072.00    1.30249   0.88992   -1.000
 4073.00    0.55417   0.88745   -1.000
 4074.00   -0.34972   0.88429    0.000
 4075.00   -0.25924   0.88248    0.000
 4076.00   -0.05877   0.88522    0.000
 4077.00    0.61165   0.89271   -1.000
 4078.00    1.31649   0.90198   -1.000
 4079.00    1.35835   0.90954   -1.000
 4080.00    1.37483   0.91302   -1.000
 4081.00    0.84851   0.91204   -1.000
 4082.00    0.34706   0.90836   -1.000
 4083.00    0.89629   0.90469   -1.000
 4084.00    1.39323   0.90266   -1.000
 4085.00    1.02848   0.90225   -1.000
 4086.00    0.71375   0.90230   -1.000
 4087.00    0.91379   0.90102   -1.000
 4088.00    1.15375   0.89702   -1.000
 4089.00    1.68662   0.89000   -1.000
 4090.00    2.11103   0.87971   -1.000
 4091.00    1.92698   0.86490   -1.000
 4092.00    1.71774   0.84478    0.000
 4093.00    1.39575   0.81995    0.000
 4094.00    1.03827   0.79070    0.000
 4095.00    0.55039   0.75694    0.000
 4096.00    0.20018   0.71944    0.000
 4097.00    0.27337   0.68023    0.000
 4098.00    0.28506   0.64355    0.000
 4099.00    0.13605   0.61591    0.000
 4100.00    0.18483   0.60403    0.000
 4101.00    0.67781   0.61243    0.000
 4102.00    1.11262   0.64054    0.000
 4103.00    1.43424   0.68081    0.000
 4104.00    1.72982   0.72296    0.000
 4105.00    1.98121   0.76014    0.000
 4106.00    1.98374   0.78949    0.000
 4107.00    1.61633   0.81084    0.000
 4108.00    1.30316   0.82641    0.000
 4109.00    1.06087   0.83896    0.000
 4110.00    1.12619   0.85026    0.000
 4111.00    1.54560   0.86097    0.000
 4112.00    1.33072   0.87061    0.000
 4113.00    0.47198   0.87773   -1.000
 4114.00    0.26232   0.88060   -1.000
 4115.00    0.63379   0.87865   -1.000
 4116.00    0.59214   0.87295   -1.000
 4117.00    0.22456   0.86575   -1.000
 4118.00    0.39695   0.86012   -1.000
 4119.00    0.94406   0.85943   -1.000
 4120.00    1.01697   0.86525   -1.000
 4121.00    0.80134   0.87593   -1.000
 4122.00    0.49104   0.88753   -1.000
 4123.00    0.13044   0.89573   -1.000
 4124.00    0.65322   0.89832   -1.000
 4125.00    1.58333   0.89560   -1.000
 4126.00    1.98090   0.88902   -1.000
 4127.00    2.16701   0.88095   -1.000
 4128.00    1.56734   0.87382   -1.000
 4129.00    0.70173   0.86929   -1.000
 4130.00    0.33729   0.86793   -1.000
 4131.00    0.11544   0.87046   -1.000
 4132.00    0.83675   0.87691   -1.000
 4133.00    1.77948   0.88575   -1.000
 4134.00    1.63648   0.89455   -1.000
 4135.00    1.28853   0.90109   -1.000
 4136.00    1.23148   0.90354   -1.000
 4137.00    1.21691   0.90049   -1.000
 4138.00    0.91050   0.89114   -1.000
 4139.00    0.57308   0.87579   -1.000
 4140.00   -0.09322   0.85752    0.000
 4141.00   -0.78227   0.84166    0.000
 4142.00   -0.05752   0.83327    0.000
 4143.00    0.71599   0.83543   -1.000
 4144.00    1.18852   0.84723   -1.000
 4145.00    1.64470   0.86269   -1.000
 4146.00    1.58040   0.87482   -1.000
 4147.00    1.53473   0.88103   -1.000
 4148.00    1.77721   0.88229   -1.000
 4149.00    1.92560   0.88062   -1.000
 4150.00    1.14649   0.87831   -1.000
 4151.00    0.40791   0.87676   -1.000
 4152.00   -0.04294   0.87621    0.000
 4153.00   -0.35483   0.87732    0.000
 4154.00    0.09178   0.88070   -1.000
 4155.00    0.58799   0.88575   -1.000
 4156.00    1.30100   0.89132   -1.000
 4157.00    1.83248   0.89668   -1.000
 4158.00    1.71103   0.90084   -1.000
 4159.00    1.54416   0.90279   -1.000
 4160.00    1.24023   0.90245   -1.000
 4161.00    0.98916   0.90049   -1.000
 4162.00    0.87382   0.89742   -1.000
 4163.00    0.74309   0.89342   -1.000
 4164.00    0.57839   0.88890   -1.000
 4165.00    0.41114   0.88471   -1.000
 4166.00    0.23902   0.88109   -1.000
 4167.00    0.02180   0.87762   -1.000
 4168.00   -0.27079   0.87404    0.000
 4169.00    0.15450   0.87029   -1.000
 4170.00    1.63134   0.86636   -1.000
 4171.00    1.88297   0.86271   -1.000
 4172.00    0.55654   0.86060   -1.000
 4173.00   -0.22957   0.86102    0.000
 4174.00   -0.40252   0.86346    0.000
 4175.00   -0.21784   0.86671    0.000
 4176.00    0.32479   0.86996   -1.000
 4177.00    0.63977   0.87301   -1.000
 4178.00    0.75381   0.87584   -1.000
 4179.00    0.76987   0.87826   -1.000
 4180.00    0.70972   0.87988   -1.000
 4181.00    1.08336   0.88040   -1.000
 4182.00    1.75367   0.87988   -1.000
 4183.00    1.74920   0.87850   -1.000
 4184.00    1.34027   0.87624   -1.000
 4185.00    0.89460   0.87358   -1.000
 4186.00    0.42972   0.87155   -1.000
 4187.00    0.48012   0.87136    0.083
 4188.00    0.76425   0.87371    0.034
 4189.00    1.04270   0.87766    0.029
 4190.00    1.31893   0.88155    0.029
 4191.00    1.26646   0.88392    0.029
 4192.00    1.10481   0.88356    0.029
 4193.00    1.25189   0.87978    0.029
 4194.00    1.48500   0.87313    0.029
 4195.00    1.40072   0.86554    0.029
 4196.00    1.24363   0.85906    0.028
 4197.00    0.80672   0.85468    0.028
 4198.00    0.31840   0.85265    0.029
 4199.00    0.61506   0.85308    0.028
 4200.00    1.02273   0.85575    0.028
 4201.00    1.01126   0.86015    0.028
 4202.00    0.95705   0.86588    0.028
 4203.00    0.96268   0.87240    0.027
 4204.00    0.97220   0.87850    0.027
 4205.00    1.27456   0.88332    0.026
 4206.00    1.58489   0.88659    0.025
 4207.00    1.23737   0.88809    0.025
 4208.00    0.89302   0.88787    0.025
 4209.00    0.64173   0.88610    0.025
 4210.00    0.43283   0.88301    0.025
 4211.00    0.84080   0.87909    0.026
 4212.00    1.24317   0.87500    0.026
 4213.00    1.59250   0.87184    0.026
 4214.00    1.81957   0.87116    0.026
 4215.00    1.20615   0.87374    0.026
 4216.00    0.70690   0.87881    0.026
 4217.00    0.81440   0.88370    0.026
 4218.00    0.86890   0.88516    0.026
 4219.00    0.69704   0.88151    0.026
 4220.00    0.49142   0.87258    0.026
 4221.00    0.16684   0.85909    0.025
 4222.00    0.06366   0.84299    0.025
 4223.00    0.61610   0.82788    0.025
 4224.00    0.93885   0.81743    0.026
 4225.00    0.68192   0.81434    0.026
 4226.00    0.53701   0.81951    0.026
 4227.00    0.63549   0.83096    0.025
 4228.00    0.74039   0.84429    0.025
 4229.00    0.85738   0.85462    0.026
 4230.00    0.96878   0.85952    0.026
 4231.00    1.07097   0.85962    0.025
 4232.00    0.99757   0.85693    0.025
 4233.00    0.67067   0.85373    0.024
 4234.00    0.57225   0.85178    0.024
 4235.00    0.76391   0.85141    0.024
 4236.00    0.85093   0.85259    0.024
 4237.00    0.82089   0.85563    0.024
 4238.00    0.92122   0.86008    0.024
 4239.00    1.15019   0.86524    0.025
 4240.00    1.31358   0.87078    0.025
 4241.00    1.41990   0.87598    0.024
 4242.00    1.39400   0.87962    0.024
 4243.00    1.26674   0.88055    0.025
 4244.00    1.06437   0.87789    0.025
 4245.00    0.81140   0.87161    0.025
 4246.00    0.63167   0.86335    0.025
 4247.00    0.49517   0.85538    0.025
 4248.00    0.55657   0.84877    0.025
 4249.00    0.71984   0.84349    0.026
 4250.00    0.55758   0.83955    0.025
 4251.00    0.25008   0.83754    0.025
 4252.00    0.19365   0.83763    0.025
 4253.00    0.23348   0.83942    0.025
 4254.00    0.80445   0.84275    0.025
 4255.00    1.54851   0.84645    0.025
 4256.00    1.29995   0.84837    0.025
 4257.00    0.78043   0.84796    0.025
 4258.00    0.76950   0.84705    0.025
 4259.00    0.87253   0.84834    0.025
 4260.00    1.10998   0.85268    0.025
 4261.00    1.37147   0.85815    0.025
 4262.00    1.26181   0.86137    0.025
 4263.00    1.10137   0.85965    0.024
 4264.00    0.95597   0.85282    0.024
 4265.00    0.81204   0.84311    0.024
 4266.00    0.82074   0.83314    0.024
 4267.00    0.83878   0.82496    0.024
 4268.00    1.26472   0.81925    0.024
 4269.00    1.69991   0.81449    0.024
 4270.00    1.79362   0.80986    0.024
 4271.00    1.85994   0.80698    0.024
 4272.00    1.20208   0.80768    0.023
 4273.00    0.58310   0.81227    0.023
 4274.00    0.49857   0.81968    0.023
 4275.00    0.42476   0.82870    0.023
 4276.00    0.44825   0.83761    0.023
 4277.00    0.44780   0.84392    0.023
 4278.00    0.28786   0.84617    0.023
 4279.00    0.21351   0.84462    0.024
 4280.00    0.58223   0.84094    0.024
 4281.00    0.93582   0.83721    0.024
 4282.00    1.22627   0.83412   -2.000
 4283.00    1.41535   0.83137   -2.000
 4284.00    1.25453   0.82824   -2.000
 4285.00    1.11549   0.82409   -2.000
 4286.00    1.03979   0.81929   -2.000
 4287.00    0.89242   0.81483   -2.000
 4288.00    0.56731   0.81193   -2.000
 4289.00    0.25295   0.81197   -2.000
 4290.00   -0.03842   0.81520   -2.000
 4291.00   -0.00302   0.81978   -2.000
 4292.00    0.63911   0.82293   -2.000
 4293.00    1.18959   0.82276   -2.000
 4294.00    1.59143   0.81897   -2.000
 4295.00    1.68274   0.81277   -2.000
 4296.00    1.33229   0.80492   -2.000
 4297.00    0.90301   0.79603   -2.000
 4298.00    0.37504   0.78765    0.024
 4299.00    0.22819   0.78117    0.024
 4300.00    0.50173   0.77720    0.024
 4301.00    0.70776   0.77515    0.024
 4302.00    0.84811   0.77348    0.024
 4303.00    0.85471   0.77149    0.024
 4304.00    0.74657   0.76936    0.023
 4305.00    0.75683   0.76727    0.023
 4306.00    0.85656   0.76628    0.023
 4307.00    0.78760   0.76796    0.024
 4308.00    0.60662   0.77331    0.024
 4309.00    0.55518   0.78206    0.024
 4310.00    0.57908   0.79287    0.024
 4311.00    0.88155   0.80443    0.024
 4312.00    1.32519   0.81624    0.024
 4313.00    1.19626   0.82814    0.024
 4314.00    0.81607   0.83943    0.023
 4315.00    0.75050   0.84875    0.023
 4316.00    0.80343   0.85444    0.024
 4317.00    0.53978   0.85531    0.023
 4318.00    0.17492   0.85156    0.023
 4319.00    0.16013   0.84383    0.023
 4320.00    0.23890   0.83252    0.023
 4321.00    0.36547   0.81860    0.023
 4322.00    0.50249   0.80433    0.023
 4323.00    0.71826   0.79307    0.023
 4324.00    0.94773   0.78822    0.023
 4325.00    0.67900   0.79083    0.023
 4326.00    0.34438   0.79875    0.023
 4327.00    0.78615   0.80735    0.023
 4328.00    1.30046   0.81197    0.023
 4329.00    1.13554   0.81076    0.023
 4330.00    0.93178   0.80440    0.000
 4331.00    0.88615   0.79360    0.000
 4332.00    0.84309   0.77751    0.000
 4333.00    0.67084   0.75404    0.000
 4334.00    0.50728   0.72197    0.000
 4335.00    0.55237   0.68276    0.000
 4336.00    0.60732   0.64127    0.000
 4337.00    0.79070   0.60531    0.000
 4338.00    0.91422   0.58339    0.000
 4339.00    0.51477   0.58036    0.000
 4340.00    0.20979   0.59583    0.000
 4341.00    0.51495   0.62536    0.000
 4342.00    0.78008   0.66113    0.000
 4343.00    0.84324   0.69541    0.000
 4344.00    0.86786   0.72462    0.000
 4345.00    0.73518   0.74790    0.000
 4346.00    0.68836   0.76471    0.000
 4347.00    0.93203   0.77516    0.000
 4348.00    1.13063   0.78044    0.000
 4349.00    1.20061   0.78266    0.000
 4350.00    1.14429   0.78482    0.000
 4351.00    0.78005   0.79004    0.023
 4352.00    0.59503   0.79979    0.023
 4353.00    0.78699   0.81227    0.023
 4354.00    1.04326   0.82387    0.023
 4355.00    1.41707   0.83234    0.023
 4356.00    1.47127   0.83760    0.023
 4357.00    1.01481   0.84076    0.022
 4358.00    0.87236   0.84346    0.022
 4359.00    1.17017   0.84722    0.022
 4360.00    1.34655   0.85218    0.022
 4361.00    1.37309   0.85680    0.023
 4362.00    1.43987   0.85924    0.023
 4363.00    1.55041   0.85856    0.023
 4364.00    1.52734   0.85505    0.022
 4365.00    1.37611   0.84977    0.022
 4366.00    1.22200   0.84407    0.022
 4367.00    1.06545   0.83940    0.022
 4368.00    1.05471   0.83613    0.022
 4369.00    1.15258   0.83313    0.022
 4370.00    1.19347   0.82934    0.022
 4371.00    1.19708   0.82504    0.022
 4372.00    0.99660   0.82171    0.022
 4373.00    0.67923   0.82092    0.022
 4374.00    0.68206   0.82331    0.022
 4375.00    0.84462   0.82798    0.022
 4376.00    0.91699   0.83234    0.022
 4377.00    0.95045   0.83296    0.022
 4378.00    0.95667   0.82745    0.022
 4379.00    0.95281   0.81581    0.022
 4380.00    1.01907   0.80030    0.022
 4381.00    1.10733   0.78430    0.021
 4382.00    1.08185   0.77129    0.021
 4383.00    1.02662   0.76384    0.021
 4384.00    0.99138   0.76269    0.021
 4385.00    0.96041   0.76641    0.021
 4386.00    0.86146   0.77272    0.021
 4387.00    0.75102   0.78047    0.021
 4388.00    0.86210   0.79007    0.021
 4389.00    1.00148   0.80107    0.021
 4390.00    0.72131   0.81123    0.021
 4391.00    0.40370   0.81927    0.021
 4392.00    0.42393   0.82548    0.021
 4393.00    0.46215   0.83048    0.021
 4394.00    0.68401   0.83495    0.021
 4395.00    0.90462   0.83904    0.021
 4396.00    0.73152   0.84190    0.021
 4397.00    0.56703   0.84200    0.021
 4398.00    0.59163   0.83868    0.021
 4399.00    0.61215   0.83285    0.021
 4400.00    0.58223   0.82559    0.021
 4401.00    0.54988   0.81768    0.021
 4402.00    0.49704   0.80994    0.021
 4403.00    0.46513   0.80354    0.021
 4404.00    0.56436   0.80063    0.021
 4405.00    0.67583   0.80305    0.021
 4406.00    0.84744   0.81004    0.021
 4407.00    1.01450   0.81893    0.021
 4408.00    1.16335   0.82731    0.021
 4409.00    1.23833   0.83331    0.022
 4410.00    1.06838   0.83481    0.021
 4411.00    0.90202   0.83092    0.021
 4412.00    0.74571   0.82358    0.021
 4413.00    0.66752   0.81634    0.021
 4414.00    0.77658   0.81267    0.021
 4415.00    0.87045   0.81499    0.021
 4416.00    0.93290   0.82256    0.021
 4417.00    0.96150   0.83156    0.021
 4418.00    0.92917   0.83843    0.021
 4419.00    0.95064   0.84157    0.021
 4420.00    1.05678   0.84132    0.021
 4421.00    1.14906   0.83941    0.021
 4422.00    1.22220   0.83740    0.021
 4423.00    1.16262   0.83611    0.021
 4424.00    0.94162   0.83526    0.021
 4425.00    0.81794   0.83414    0.021
 4426.00    0.79862   0.83261    0.021
 4427.00    0.83258   0.83086    0.021
 4428.00    0.91693   0.82885    0.021
 4429.00    0.93524   0.82614    0.022
 4430.00    0.89848   0.82254    0.022
 4431.00    0.91806   0.81870    0.022
 4432.00    0.97900   0.81540    0.022
 4433.00    0.93625   0.81374    0.022
 4434.00    0.82664   0.81538    0.021
 4435.00    0.82057   0.82071    0.022
 4436.00    0.87291   0.82788    0.022
 4437.00    0.83217   0.83370    0.022
 4438.00    0.74572   0.83575    0.022
 4439.00    0.77259   0.83388    0.022
 4440.00    0.84754   0.83015    0.022
 4441.00    0.88035   0.82775    0.022
 4442.00    0.89785   0.82877    0.022
 4443.00    0.65110   0.83293    0.022
 4444.00    0.32308   0.83826    0.022
 4445.00    0.55005   0.84255    0.022
 4446.00    0.91911   0.84457    0.022
 4447.00    1.05487   0.84454    0.022
 4448.00    1.14200   0.84307    0.022
 4449.00    1.30240   0.83985    0.022
 4450.00    1.47483   0.83450    0.021
 4451.00    1.53422   0.82761    0.022
 4452.00    1.57968   0.82009    0.022
 4453.00    1.20843   0.81314    0.022
 4454.00    0.80173   0.80787    0.021
 4455.00    0.75534   0.80469    0.021
 4456.00    0.72674   0.80323    0.021
 4457.00    0.86117   0.80254    0.021
 4458.00    0.99306   0.80223    0.021
 4459.00    0.80274   0.80294    0.021
 4460.00    0.62854   0.80521    0.021
 4461.00    0.78059   0.80857    0.000
 4462.00    0.91033   0.81187    0.000
 4463.00    0.77786   0.81345    0.000
 4464.00    0.66252   0.81149    0.000
 4465.00    0.68607   0.80550    0.000
 4466.00    0.73296   0.79662    0.000
 4467.00    0.92190   0.78682    0.000
 4468.00    1.05119   0.77898    0.000
 4469.00    0.89429   0.77645    0.000
 4470.00    0.81286   0.78149    0.000
 4471.00    1.02613   0.79386    0.000
 4472.00    1.16010   0.81084    0.000
 4473.00    1.03622   0.82758    0.000
 4474.00    0.98997   0.83923    0.000
 4475.00    1.15731   0.84360    0.000
 4476.00    1.17337   0.84093    0.000
 4477.00    0.83298   0.83292    0.000
 4478.00    0.62605   0.82297    0.000
 4479.00    0.69095   0.81572    0.000
 4480.00    0.70143   0.81492    0.000
 4481.00    0.61543   0.82142    0.000
 4482.00    0.65181   0.83237    0.019
 4483.00    0.87797   0.84269    0.020
 4484.00    1.03583   0.84820    0.020
 4485.00    1.10066   0.84793    0.020
 4486.00    1.09043   0.84359    0.020
 4487.00    0.99019   0.83804    0.020
 4488.00    0.95410   0.83385    0.020
 4489.00    0.98582   0.83204    0.020
 4490.00    0.86063   0.83178    0.020
 4491.00    0.58912   0.83148    0.020
 4492.00    0.58585   0.83031    0.020
 4493.00    0.80308   0.82907    0.020
 4494.00    0.88979   0.82937    0.020
 4495.00    0.88205   0.83229    0.020
 4496.00    1.00110   0.83729    0.020
 4497.00    1.20069   0.84290    0.020
 4498.00    1.15457   0.84821    0.020
 4499.00    0.97197   0.85320    0.020
 4500.00    0.85708   0.85831    0.020
 4501.00    0.77490   0.86359    0.020
 4502.00    0.74024   0.86829    0.020
 4503.00    0.72541   0.87099    0.020
 4504.00    0.69309   0.87074    0.020
 4505.00    0.65452   0.86829    0.020
 4506.00    0.84009   0.86513    0.020
 4507.00    1.09324   0.86206    0.020
 4508.00    1.15266   0.85896    0.020
 4509.00    1.16356   0.85518    0.019
 4510.00    1.08000   0.85048    0.019
 4511.00    0.97724   0.84540    0.019
 4512.00    0.86538   0.84110    0.019
 4513.00    0.75207   0.83866    0.019
 4514.00    0.80925   0.83828    0.019
 4515.00    0.88669   0.83953    0.019
 4516.00    1.02871   0.84173    0.019
 4517.00    1.17596   0.84395    0.019
 4518.00    0.98964   0.84527    0.019
 4519.00    0.78816   0.84481    0.019
 4520.00    0.88734   0.84162    0.019
 4521.00    0.98943   0.83547    0.019
 4522.00    1.05123   0.82696    0.019
 4523.00    1.10453   0.81729    0.019
 4524.00    0.99836   0.80756    0.019
 4525.00    0.89310   0.79861    0.019
 4526.00    0.79790   0.79170    0.019
 4527.00    0.72535   0.78807    0.019
 4528.00    0.83002   0.78794    0.019
 4529.00    0.88722   0.79041    0.019
 4530.00    0.66379   0.79386    0.019
 4531.00    0.51372   0.79711    0.019
 4532.00    0.70706   0.80034    0.019
 4533.00    0.88821   0.80464    0.019
 4534.00    1.02273   0.81092    0.019
 4535.00    1.08606   0.81870    0.019
 4536.00    0.92238   0.82597    0.019
 4537.00    0.83081   0.83055    0.019
 4538.00    0.93412   0.83166    0.019
 4539.00    0.98719   0.83062    0.019
 4540.00    0.92388   0.82918    0.019
 4541.00    0.93061   0.82813    0.018
 4542.00    1.07772   0.82725    0.018
 4543.00    1.17930   0.82587    0.018
 4544.00    1.20139   0.82359    0.019
 4545.00    1.13627   0.82080    0.019
 4546.00    0.93790   0.81789    0.019
 4547.00    0.84353   0.81482    0.018
 4548.00    0.88878   0.81162    0.019
 4549.00    0.88172   0.80864    0.019
 4550.00    0.81283   0.80654    0.000
 4551.00    0.76857   0.80575    0.000
 4552.00    0.75000   0.80693    0.000
 4553.00    0.72380   0.81122    0.000
 4554.00    0.69057   0.81858    0.000
 4555.00    0.75382   0.82752    0.000
 4556.00    0.89527   0.83610    0.000
 4557.00    0.93659   0.84243    0.000
 4558.00    0.90651   0.84526    0.000
 4559.00    0.79832   0.84457    0.000
 4560.00    0.64126   0.84120    0.000
 4561.00    0.70691   0.83656    0.000
 4562.00    0.89439   0.83226    0.000
 4563.00    0.89112   0.82974    0.000
 4564.00    0.79717   0.82984    0.000
 4565.00    0.70494   0.83203    0.000
 4566.00    0.61343   0.83466    0.000
 4567.00    0.74339   0.83611    0.000
 4568.00    0.95095   0.83590    0.000
 4569.00    0.95587   0.83486    0.000
 4570.00    0.90089   0.83413    0.000
 4571.00    0.95844   0.83436    0.000
 4572.00    1.04356   0.83561    0.000
 4573.00    1.15419   0.83674    0.000
 4574.00    1.26988   0.83620    0.000
 4575.00    1.09864   0.83360    0.000
 4576.00    0.88298   0.82941    0.000
 4577.00    0.77240   0.82430    0.000
 4578.00    0.67385   0.81937    0.000
 4579.00    0.82822   0.81581    0.000
 4580.00    1.00202   0.81415    0.000
 4581.00    1.03907   0.81410    0.000
 4582.00    1.07042   0.81496    0.000
 4583.00    1.07176   0.81636    0.000
 4584.00    1.07139   0.81846    0.000
 4585.00    1.00899   0.82117    0.000
 4586.00    0.95724   0.82360    0.000
 4587.00    1.09161   0.82463    0.000
 4588.00    1.21524   0.82342    0.000
 4589.00    1.22393   0.82009    0.000
 4590.00    1.20667   0.81566    0.000
 4591.00    0.99324   0.81149    0.000
 4592.00    0.81961   0.80855    0.000
 4593.00    0.87474   0.80705    0.000
 4594.00    0.91463   0.80676    0.000
 4595.00    0.88490   0.80741    0.000
 4596.00    0.85364   0.80852    0.000
 4597.00    0.81669   0.80938    0.000
 4598.00    0.80210   0.80955    0.000
 4599.00    0.85745   0.80925    0.000
 4600.00    0.85557   0.80913    0.000
 4601.00    0.70180   0.80993    0.000
 4602.00    0.58986   0.81204    0.000
 4603.00    0.57321   0.81531    0.000
 4604.00    0.58724   0.81961    0.000
 4605.00    0.66176   0.82474    0.000
 4606.00    0.75375   0.83009    0.000
 4607.00    0.87576   0.83457    0.000
 4608.00    0.93675   0.83713    0.000
 4609.00    0.90584   0.83751    0.000
 4610.00    0.86338   0.83651    0.000
 4611.00    0.80563   0.83549    0.000
 4612.00    0.84538   0.83520    0.000
 4613.00    0.99875   0.83547    0.000
 4614.00    1.02383   0.83571    0.000
 4615.00    0.91706   0.83519    0.000
 4616.00    0.76497   0.83378    0.000
 4617.00    0.57181   0.83237    0.000
 4618.00    0.58032   0.83178    0.000
 4619.00    0.74994   0.83239    0.000
 4620.00    0.83081   0.83397    0.000
 4621.00    0.84930   0.83539    0.000
 4622.00    0.87882   0.83564    0.000
 4623.00    0.91513   0.83461    0.000
 4624.00    0.91066   0.83254    0.000
 4625.00    0.88424   0.82982    0.000
 4626.00    0.84187   0.82711    0.000
 4627.00    0.79204   0.82489    0.000
 4628.00    0.83197   0.82319    0.000
 4629.00    0.90807   0.82174    0.000
 4630.00    0.93712   0.82030    0.000
 4631.00    0.94999   0.81836    0.000
 4632.00    0.94792   0.81534    0.000
 4633.00    0.94153   0.81124    0.000
 4634.00    1.01376   0.80651    0.000
 4635.00    1.10483   0.80147    0.000
 4636.00    1.06250   0.79655    0.000
 4637.00    0.99441   0.79256    0.000
 4638.00    0.85826   0.79030    0.000
 4639.00    0.71189   0.78987    0.000
 4640.00    0.83648   0.79024    0.000
 4641.00    0.99089   0.78987    0.000
 4642.00    1.09015   0.78741    0.000
 4643.00    1.18540   0.78260    0.000
 4644.00    0.96380   0.77654    0.000
 4645.00    0.73022   0.77114    0.000
 4646.00    0.74552   0.76837    0.000
 4647.00    0.76085   0.76949    0.000
 4648.00    0.73069   0.77424    0.000
 4649.00    0.71119   0.78094    0.000
 4650.00    0.86590   0.78763    0.000
 4651.00    1.01424   0.79292    0.000
 4652.00    1.09729   0.79661    0.000
 4653.00    1.13865   0.79961    0.000
 4654.00    0.87539   0.80335    0.000
 4655.00    0.66168   0.80876    0.000
 4656.00    0.72502   0.81516    0.000
 4657.00    0.75439   0.82052    0.000
 4658.00    0.63225   0.82279    0.000
 4659.00    0.57003   0.82093    0.000
 4660.00    0.72732   0.81534    0.000
 4661.00    0.85066   0.80734    0.000
 4662.00    0.86983   0.79829    0.000
 4663.00    0.86012   0.78917    0.000
 4664.00    0.77510   0.78093    0.000
 4665.00    0.73534   0.77488    0.000
 4666.00    0.79703   0.77244    0.000
 4667.00    0.79189   0.77431    0.000
 4668.00    0.65696   0.77963    0.000
 4669.00    0.58054   0.78607    0.000
 4670.00    0.60323   0.79136    0.000
 4671.00    0.61077   0.79460    0.000
 4672.00    0.59585   0.79613    0.000
 4673.00    0.60815   0.79684    0.000
 4674.00    0.65598   0.79721    0.000
 4675.00    0.74015   0.79699    0.000
 4676.00    0.86609   0.79582    0.000
 4677.00    0.88430   0.79373    0.000
 4678.00    0.79334   0.79146    0.000
 4679.00    0.72991   0.79003    0.000
 4680.00    0.69109   0.78995    0.000
 4681.00    0.75280   0.79102    0.000
 4682.00    0.89368   0.79261    0.000
 4683.00    0.88402   0.79400    0.000
 4684.00    0.77007   0.79471    0.000
 4685.00    0.69678   0.79481    0.000
 4686.00    0.64820   0.79472    0.000
 4687.00    0.75330   0.79466    0.000
 4688.00    0.93989   0.79485    0.000
 4689.00    1.01130   0.79557    0.000
 4690.00    1.02969   0.79695    0.000
 4691.00    0.96755   0.79891    0.000
 4692.00    0.87350   0.80089    0.000
 4693.00    0.78369   0.80168    0.000
 4694.00    0.69530   0.80021    0.000
 4695.00    0.70685   0.79624    0.000
 4696.00    0.74676   0.79052    0.000
 4697.00    0.72011   0.78445    0.000
 4698.00    0.67788   0.77949    0.000
 4699.00    0.58855   0.77651    0.000
 4700.00    0.49035   0.77544    0.000
 4701.00    0.53420   0.77547    0.000
 4702.00    0.59870   0.77598    0.000
 4703.00    0.54079   0.77663    0.000
 4704.00    0.46993   0.77710    0.000
 4705.00    0.48772   0.77722    0.000
 4706.00    0.51160   0.77712    0.000
 4707.00    0.66124   0.77709    0.000
 4708.00    0.81516   0.77705    0.000
 4709.00    0.68092   0.77667    0.000
 4710.00    0.55162   0.77591    0.000
 4711.00    0.59758   0.77543    0.000
 4712.00    0.64333   0.77633    0.000
 4713.00    0.68586   0.77991    0.000
 4714.00    0.72067   0.78649    0.000
 4715.00    0.67988   0.79486    0.000
 4716.00    0.63798   0.80315    0.000
 4717.00    0.58826   0.80987    0.000
 4718.00    0.53361   0.81429    0.000
 4719.00    0.45221   0.81644    0.000
 4720.00    0.40137   0.81674    0.000
 4721.00    0.48371   0.81554    0.000
 4722.00    0.57716   0.81282    0.000
 4723.00    0.71048   0.80825    0.000
 4724.00    0.80437   0.80162    0.000
 4725.00    0.77958   0.79353    0.000
 4726.00    0.76277   0.78560    0.000
 4727.00    0.76644   0.77983    0.000
 4728.00    0.77348   0.77759    0.000
 4729.00    0.78797   0.77880    0.000
 4730.00    0.80340   0.78221    0.000
 4731.00    0.82064   0.78634    0.000
 4732.00    0.80687   0.79004    0.000
 4733.00    0.74139   0.79270    0.000
 4734.00    0.73194   0.79438    0.000
 4735.00    0.80439   0.79545    0.000
 4736.00    0.89405   0.79614    0.000
 4737.00    1.00584   0.79669    0.000
 4738.00    0.94127   0.79719    0.000
 4739.00    0.67692   0.79761    0.000
 4740.00    0.60315   0.79825    0.000
 4741.00    0.71977   0.79953    0.000
 4742.00    0.66814   0.80149    0.000
 4743.00    0.46825   0.80378    0.000
 4744.00    0.47631   0.80590    0.000
 4745.00    0.64581   0.80752    0.000
 4746.00    0.72592   0.80838    0.000
 4747.00    0.74502   0.80813    0.000
 4748.00    0.75822   0.80664    0.000
 4749.00    0.76789   0.80414    0.000
 4750.00    0.69913   0.80105    0.000
 4751.00    0.58944   0.79783    0.000
 4752.00    0.58575   0.79501    0.000
 4753.00    0.63004   0.79296    0.000
 4754.00    0.73502   0.79165    0.000
 4755.00    0.86363   0.79076    0.000
 4756.00    0.87316   0.78969    0.000
 4757.00    0.84324   0.78779    0.000
 4758.00    0.70935   0.78451    0.000
 4759.00    0.54655   0.77973    0.000
 4760.00    0.63133   0.77386    0.000
 4761.00    0.77274   0.76777    0.016
 4762.00    0.62794   0.76273    0.016
 4763.00    0.43071   0.75984    0.016
 4764.00    0.42504   0.75958    0.016
 4765.00    0.44636   0.76174    0.016
 4766.00    0.55557   0.76560    0.016
 4767.00    0.67370   0.76999    0.016
 4768.00    0.45149   0.77384    0.016
 4769.00    0.20727   0.77681    0.016
 4770.00    0.60215   0.77925    0.016
 4771.00    1.01551   0.78172    0.016
 4772.00    1.01042   0.78449    0.016
 4773.00    1.00013   0.78721    0.016
 4774.00    0.83966   0.78907    0.016
 4775.00    0.68879   0.78944    0.016
 4776.00    0.67683   0.78823    0.016
 4777.00    0.66183   0.78573    0.016
 4778.00    0.61816   0.78233    0.016
 4779.00    0.58291   0.77850    0.016
 4780.00    0.60537   0.77484    0.016
 4781.00    0.63770   0.77172    0.016
 4782.00    0.72233   0.76930    0.016
 4783.00    0.78254   0.76761    0.016
 4784.00    0.73876   0.76667    0.015
 4785.00    0.69925   0.76635    0.015
 4786.00    0.67478   0.76674    0.015
 4787.00    0.63255   0.76828    0.015
 4788.00    0.53785   0.77126    0.015
 4789.00    0.47823   0.77566    0.015
 4790.00    0.50694   0.78120    0.016
 4791.00    0.54629   0.78699    0.016
 4792.00    0.60872   0.79173    0.016
 4793.00    0.63431   0.79426    0.016
 4794.00    0.59055   0.79401    0.016
 4795.00    0.56734   0.79134    0.016
 4796.00    0.57789   0.78760    0.016
 4797.00    0.65978   0.78436    0.016
 4798.00    0.84448   0.78263    0.016
 4799.00    0.90937   0.78236    0.016
 4800.00    0.82244   0.78266    0.016
 4801.00    0.74724   0.78230    0.016
 4802.00    0.68514   0.78051    0.016
 4803.00    0.60425   0.77743    0.016
 4804.00    0.50487   0.77397    0.016
 4805.00    0.52006   0.77119    0.016
 4806.00    0.63480   0.76973    0.016
 4807.00    0.64327   0.76959    0.016
 4808.00    0.57044   0.77031    0.016
 4809.00    0.53432   0.77141    0.016
 4810.00    0.52290   0.77251    0.016
 4811.00    0.58072   0.77367    0.016
 4812.00    0.67935   0.77521    0.016
 4813.00    0.75334   0.77737    0.016
 4814.00    0.81467   0.78000    0.016
 4815.00    0.88354   0.78255    0.016
 4816.00    0.95576   0.78425    0.016
 4817.00    0.84539   0.78447    0.016
 4818.00    0.66516   0.78285    0.016
 4819.00    0.70134   0.77964    0.016
 4820.00    0.80787   0.77559    0.016
 4821.00    0.77682   0.77176    0.016
 4822.00    0.70831   0.76898    0.016
 4823.00    0.64387   0.76754    0.016
 4824.00    0.58034   0.76708    0.016
 4825.00    0.74939   0.76676    0.016
 4826.00    0.95989   0.76584    0.016
 4827.00    0.91813   0.76432    0.016
 4828.00    0.84201   0.76277    0.016
 4829.00    0.78703   0.76188    0.016
 4830.00    0.73411   0.76197    0.016
 4831.00    0.67552   0.76296    0.016
 4832.00    0.61658   0.76443    0.016
 4833.00    0.68035   0.76573    0.016
 4834.00    0.74680   0.76597    0.016
 4835.00    0.71276   0.76468    0.016
 4836.00    0.67582   0.76207    0.016
 4837.00    0.56324   0.75880    0.016
 4838.00    0.46074   0.75557    0.016
 4839.00    0.49571   0.75300    0.016
 4840.00    0.53698   0.75147    0.016
 4841.00    0.63516   0.75089    0.016
 4842.00    0.71853   0.75073    0.016
 4843.00    0.70362   0.75024    0.016
 4844.00    0.66435   0.74878    0.016
 4845.00    0.49936   0.74591    0.016
 4846.00    0.41653   0.74168    0.016
 4847.00    0.67568   0.73653    0.016
 4848.00    0.83808   0.73075    0.000
 4849.00    0.66727   0.72401    0.000
 4850.00    0.54965   0.71545    0.000
 4851.00    0.58625   0.70429    0.000
 4852.00    0.61611   0.69035    0.000
 4853.00    0.62930   0.67382    0.000
 4854.00    0.62616   0.65467    0.000
 4855.00    0.58819   0.63288    0.000
 4856.00    0.63336   0.60896    0.000
 4857.00    0.83261   0.58489    0.000
 4858.00    0.89952   0.56456    0.000
 4859.00    0.75221   0.55285    0.000
 4860.00    0.65484   0.55322    0.000
 4861.00    0.62842   0.56589    0.000
 4862.00    0.55848   0.58754    0.000
 4863.00    0.43419   0.61277    0.000
 4864.00    0.43767   0.63656    0.000
 4865.00    0.58183   0.65599    0.000
 4866.00    0.67643   0.67004    0.000
 4867.00    0.72288   0.67908    0.000
 4868.00    0.77824   0.68470    0.000
 4869.00    0.84122   0.68905    0.000
 4870.00    0.83234   0.69398    0.000
 4871.00    0.76924   0.70056    0.000
 4872.00    0.71170   0.70884    0.000
 4873.00    0.65784   0.71790    0.000
 4874.00    0.62187   0.72661    0.000
 4875.00    0.59627   0.73418    0.015
 4876.00    0.55160   0.74015    0.015
 4877.00    0.49729   0.74406    0.015
 4878.00    0.57600   0.74573    0.015
 4879.00    0.71297   0.74539    0.015
 4880.00    0.63233   0.74352    0.015
 4881.00    0.46991   0.74074    0.015
 4882.00    0.37595   0.73767    0.015
 4883.00    0.30382   0.73465    0.015
 4884.00    0.36715   0.73182    0.015
 4885.00    0.46658   0.72938    0.016
 4886.00    0.47412   0.72755    0.016
 4887.00    0.46160   0.72673    0.015
 4888.00    0.45758   0.72778    0.016
 4889.00    0.45503   0.73184    0.016
 4890.00    0.48478   0.73957    0.015
 4891.00    0.51877   0.75035    0.015
 4892.00    0.56391   0.76222    0.015
 4893.00    0.61008   0.77254    0.015
 4894.00    0.69093   0.77926    0.015
 4895.00    0.77375   0.78172    0.015
 4896.00    0.69333   0.78050    0.015
 4897.00    0.60983   0.77695    0.016
 4898.00    0.59734   0.77265    0.015
 4899.00    0.58880   0.76895    0.015
 4900.00    0.67387   0.76670    0.016
 4901.00    0.74547   0.76616    0.016
 4902.00    0.64300   0.76681    0.015
 4903.00    0.54878   0.76775    0.015
 4904.00    0.52632   0.76794    0.015
 4905.00    0.52156   0.76660    0.015
 4906.00    0.63078   0.76373    0.015
 4907.00    0.72142   0.76029    0.015
 4908.00    0.71870   0.75779    0.015
 4909.00    0.71424   0.75727    0.015
 4910.00    0.70267   0.75880    0.015
 4911.00    0.66803   0.76130    0.015
 4912.00    0.55550   0.76284    0.015
 4913.00    0.46426   0.76129    0.015
 4914.00    0.43364   0.75514    0.015
 4915.00    0.44385   0.74415    0.015
 4916.00    0.55338   0.72974    0.015
 4917.00    0.61872   0.71484    0.015
 4918.00    0.59129   0.70293    0.015
 4919.00    0.58874   0.69683    0.015
 4920.00    0.63161   0.69766    0.015
 4921.00    0.64734   0.70479    0.015
 4922.00    0.61979   0.71650    0.015
 4923.00    0.61759   0.73059    0.015
 4924.00    0.65086   0.74510    0.015
 4925.00    0.62208   0.75838    0.015
 4926.00    0.51688   0.76902    0.015
 4927.00    0.47861   0.77579    0.015
 4928.00    0.51300   0.77821    0.015
 4929.00    0.59064   0.77662    0.015
 4930.00    0.70967   0.77207    0.015
 4931.00    0.74088   0.76604    0.015
 4932.00    0.69792   0.75980    0.015
 4933.00    0.65487   0.75402    0.015
 4934.00    0.61176   0.74896    0.015
 4935.00    0.63904   0.74484    0.015
 4936.00    0.71229   0.74226    0.015
 4937.00    0.67467   0.74220    0.015
 4938.00    0.57366   0.74523    0.015
 4939.00    0.59946   0.75089    0.015
 4940.00    0.68839   0.75785    0.000
 4941.00    0.70309   0.76459    0.000
 4942.00    0.68584   0.77022    0.000
 4943.00    0.58427   0.77461    0.000
 4944.00    0.45156   0.77807    0.000
 4945.00    0.54932   0.78096    0.000
 4946.00    0.71917   0.78340    0.000
 4947.00    0.70804   0.78506    0.000
 4948.00    0.64969   0.78516    0.000
 4949.00    0.77509   0.78285    0.000
 4950.00    0.93962   0.77746    0.000
 4951.00    0.89308   0.76881    0.000
 4952.00    0.81097   0.75743    0.000
 4953.00    0.82359   0.74482    0.000
 4954.00    0.84825   0.73332    0.000
 4955.00    0.76103   0.72541    0.000
 4956.00    0.66388   0.72267    0.000
 4957.00    0.69210   0.72500    0.000
 4958.00    0.72692   0.73049    0.000
 4959.00    0.75059   0.73631    0.000
 4960.00    0.77162   0.74000    0.000
 4961.00    0.60328   0.74058    0.000
 4962.00    0.45251   0.73857    0.000
 4963.00    0.68390   0.73529    0.000
 4964.00    0.87921   0.73226    0.000
 4965.00    0.63158   0.73069    0.000
 4966.00    0.42049   0.73119    0.000
 4967.00    0.51533   0.73369    0.000
 4968.00    0.61357   0.73763    0.000
 4969.00    0.73308   0.74221    0.000
 4970.00    0.82233   0.74657    0.000
 4971.00    0.76320   0.74986    0.000
 4972.00    0.71462   0.75137    0.000
 4973.00    0.70800   0.75062    0.000
 4974.00    0.71676   0.74751    0.000
 4975.00    0.77639   0.74226    0.000
 4976.00    0.80519   0.73532    0.000
 4977.00    0.74780   0.72729    0.000
 4978.00    0.64198   0.71893    0.000
 4979.00    0.42033   0.71128    0.000
 4980.00    0.33654   0.70558    0.000
 4981.00    0.53749   0.70301    0.000
 4982.00    0.67036   0.70413    0.000
 4983.00    0.68089   0.70852    0.000
 4984.00    0.63846   0.71475    0.000
 4985.00    0.51280   0.72099    0.000
 4986.00    0.45265   0.72581    0.000
 4987.00    0.48284   0.72865    0.000
 4988.00    0.50235   0.72979    0.000
 4989.00    0.50889   0.73003    0.000
 4990.00    0.58518   0.73015    0.000
 4991.00    0.73613   0.73054    0.000
 4992.00    0.78342   0.73101    0.000
 4993.00    0.73285   0.73096    0.000
 4994.00    0.71461   0.72960    0.000
 4995.00    0.72330   0.72632    0.000
 4996.00    0.67386   0.72099    0.000
 4997.00    0.58183   0.71423    0.000
 4998.00    0.64403   0.70717    0.000
 4999.00    0.80547   0.70091    0.000
 5000.00    0.78894   0.69604    0.000
 5001.00    0.67220   0.69258    0.000
 5002.00    0.66156   0.69037    0.000
 5003.00    0.70290   0.68948    0.000
 5004.00    0.68218   0.69014    0.000
 5005.00    0.63518   0.69225    0.000
 5006.00    0.58581   0.69493    0.000
 5007.00    0.53557   0.69662    0.000
 5008.00    0.56152   0.69584    0.000
 5009.00    0.61084   0.69201    0.000
 5010.00    0.61951   0.68588    0.000
 5011.00    0.61780   0.67921    0.000
 5012.00    0.60876   0.67403    0.000
 5013.00    0.59820   0.67181    0.000
 5014.00    0.64738   0.67298    0.000
 5015.00    0.70633   0.67690    0.000
 5016.00    0.71704   0.68226    0.000
 5017.00    0.72184   0.68772    0.000
 5018.00    0.59368   0.69244    0.000
 5019.00    0.45428   0.69621    0.000
 5020.00    0.35759   0.69926    0.000
 5021.00    0.26298   0.70186    0.000
 5022.00    0.36730   0.70419    0.000
 5023.00    0.47329   0.70623    0.000
 5024.00    0.49380   0.70811    0.000
 5025.00    0.51532   0.71024    0.000
 5026.00    0.55716   0.71311    0.000
 5027.00    0.59869   0.71694    0.000
 5028.00    0.63670   0.72131    0.000
 5029.00    0.66353   0.72523    0.014
 5030.00    0.60009   0.72751    0.014
 5031.00    0.54944   0.72718    0.014
 5032.00    0.57629   0.72390    0.014
 5033.00    0.59886   0.71794    0.014
 5034.00    0.60090   0.71008    0.014
 5035.00    0.62228   0.70122    0.014
 5036.00    0.71901   0.69236    0.014
 5037.00    0.76833   0.68484    0.014
 5038.00    0.66391   0.68044    0.014
 5039.00    0.60473   0.68078    0.014
 5040.00    0.66973   0.68626    0.014
 5041.00    0.71209   0.69549    0.014
 5042.00    0.70122   0.70559    0.014
 5043.00    0.65905   0.71348    0.014
 5044.00    0.55328   0.71723    0.014
 5045.00    0.51071   0.71668    0.014
 5046.00    0.58000   0.71331    0.014
 5047.00    0.61330   0.70932    0.014
 5048.00    0.59089   0.70661    0.014
 5049.00    0.56575   0.70619    0.014
 5050.00    0.53691   0.70802    0.014
 5051.00    0.49499   0.71140    0.014
 5052.00    0.43744   0.71552    0.014
 5053.00    0.45572   0.71982    0.014
 5054.00    0.55402   0.72410    0.014
 5055.00    0.61501   0.72833    0.015
 5056.00    0.64126   0.73226    0.014
 5057.00    0.66765   0.73534    0.014
 5058.00    0.69415   0.73672    0.014
 5059.00    0.63416   0.73563    0.014
 5060.00    0.51169   0.73183    0.014
 5061.00    0.50360   0.72590    0.014
 5062.00    0.56802   0.71917    0.014
 5063.00    0.61145   0.71325    0.015
 5064.00    0.64325   0.70930    0.015
 5065.00    0.61786   0.70760    0.015
 5066.00    0.56490   0.70767    0.015
 5067.00    0.48656   0.70862    0.015
 5068.00    0.39766   0.70966    0.015
 5069.00    0.55097   0.71035    0.015
 5070.00    0.79053   0.71062    0.015
 5071.00    0.78579   0.71052    0.015
 5072.00    0.70756   0.70991    0.015
 5073.00    0.61180   0.70844    0.015
 5074.00    0.51166   0.70561    0.015
 5075.00    0.46450   0.70123    0.015
 5076.00    0.42809   0.69574    0.015
 5077.00    0.36765   0.69027    0.015
 5078.00    0.30339   0.68623    0.015
 5079.00    0.34067   0.68469    0.015
 5080.00    0.38995   0.68598    0.015
 5081.00    0.45314   0.68958    0.015
 5082.00    0.51744   0.69453    0.015
 5083.00    0.64527   0.69983    0.015
 5084.00    0.77595   0.70478    0.015
 5085.00    0.72945   0.70903    0.014
 5086.00    0.68190   0.71256    0.014
 5087.00    0.68636   0.71552    0.014
 5088.00    0.69092   0.71804    0.014
 5089.00    0.69736   0.72006    0.014
 5090.00    0.70073   0.72118    0.014
 5091.00    0.66995   0.72081    0.014
 5092.00    0.63062   0.71846    0.014
 5093.00    0.52468   0.71408    0.014
 5094.00    0.43308   0.70830    0.014
 5095.00    0.42591   0.70231    0.014
 5096.00    0.44963   0.69751    0.014
 5097.00    0.61750   0.69492    0.014
 5098.00    0.73507   0.69471    0.014
 5099.00    0.66094   0.69616    0.014
 5100.00    0.62948   0.69803    0.014
 5101.00    0.73372   0.69913    0.014
 5102.00    0.76422   0.69881    0.014
 5103.00    0.59589   0.69715    0.014
 5104.00    0.47283   0.69474    0.014
 5105.00    0.45444   0.69236    0.014
 5106.00    0.47803   0.69075    0.014
 5107.00    0.58562   0.69044    0.014
 5108.00    0.64089   0.69173    0.014
 5109.00    0.60498   0.69457    0.014
 5110.00    0.57161   0.69863    0.014
 5111.00    0.54208   0.70349    0.014
 5112.00    0.53383   0.70862    0.014
 5113.00    0.55407   0.71339    0.014
 5114.00    0.55677   0.71708    0.014
 5115.00    0.53878   0.71892    0.014
 5116.00    0.57539   0.71821    0.014
 5117.00    0.66881   0.71465    0.014
 5118.00    0.72375   0.70853    0.014
 5119.00    0.74338   0.70071    0.014
 5120.00    0.72182   0.69247    0.014
 5121.00    0.66696   0.68507    0.014
 5122.00    0.63598   0.67943    0.014
 5123.00    0.62200   0.67593    0.014
 5124.00    0.61831   0.67447    0.014
 5125.00    0.62105   0.67473    0.014
 5126.00    0.63039   0.67638    0.014
 5127.00    0.64334   0.67917    0.014
 5128.00    0.64258   0.68290    0.014
 5129.00    0.63530   0.68717    0.014
 5130.00    0.63070   0.69145    0.014
 5131.00    0.62719   0.69512    0.014
 5132.00    0.60624   0.69757    0.014
 5133.00    0.57919   0.69830    0.014
 5134.00    0.56384   0.69721    0.014
 5135.00    0.55195   0.69462    0.014
 5136.00    0.56203   0.69120    0.014
 5137.00    0.57748   0.68774    0.014
 5138.00    0.63106   0.68471    0.014
 5139.00    0.69217   0.68219    0.014
 5140.00    0.59521   0.68006    0.014
 5141.00    0.47388   0.67823    0.014
 5142.00    0.46039   0.67672    0.014
 5143.00    0.45918   0.67570    0.014
 5144.00    0.55363   0.67518    0.014
 5145.00    0.65538   0.67494    0.014
 5146.00    0.62848   0.67470    0.014
 5147.00    0.59629   0.67426    0.014
 5148.00    0.50501   0.67358    0.014
 5149.00    0.41743   0.67305    0.014
 5150.00    0.50551   0.67337    0.014
 5151.00    0.58450   0.67535    0.014
 5152.00    0.50609   0.67942    0.014
 5153.00    0.44412   0.68534    0.014
 5154.00    0.55701   0.69223    0.015
 5155.00    0.65768   0.69885    0.015
 5156.00    0.66630   0.70394    0.015
 5157.00    0.66921   0.70652    0.015
 5158.00    0.63933   0.70595    0.015
 5159.00    0.59633   0.70177    0.015
 5160.00    0.49357   0.69368    0.015
 5161.00    0.40819   0.68155    0.015
 5162.00    0.38767   0.66581    0.015
 5163.00    0.39019   0.64786    0.014
 5164.00    0.46459   0.62995    0.014
 5165.00    0.52195   0.61448    0.014
 5166.00    0.53413   0.60314    0.014
 5167.00    0.53384   0.59635    0.014
 5168.00    0.50520   0.59347    0.014
 5169.00    0.48488   0.59376    0.014
 5170.00    0.48095   0.59706    0.014
 5171.00    0.45623   0.60363    0.014
 5172.00    0.39582   0.61339    0.014
 5173.00    0.35973   0.62508    0.014
 5174.00    0.36017   0.63631    0.014
 5175.00    0.40368   0.64437    0.014
 5176.00    0.50406   0.64749    0.014
 5177.00    0.57324   0.64521    0.014
 5178.00    0.60614   0.63840    0.014
 5179.00    0.60535   0.62916    0.014
 5180.00    0.56998   0.62059    0.014
 5181.00    0.53266   0.61594    0.014
 5182.00    0.49358   0.61733    0.013
 5183.00    0.42967   0.62484    0.013
 5184.00    0.34597   0.63634    0.013
 5185.00    0.37586   0.64842    0.013
 5186.00    0.48546   0.65777    0.013
 5187.00    0.49348   0.66262    0.013
 5188.00    0.43898   0.66317    0.013
 5189.00    0.46094   0.66104    0.013
 5190.00    0.52399   0.65836    0.000
 5191.00    0.53827   0.65701    0.000
 5192.00    0.52980   0.65817    0.000
 5193.00    0.51283   0.66191    0.000
 5194.00    0.49246   0.66724    0.000
 5195.00    0.42381   0.67276    0.000
 5196.00    0.33860   0.67723    0.000
 5197.00    0.34259   0.67958    0.000
 5198.00    0.37233   0.67908    0.000
 5199.00    0.47311   0.67543    0.000
 5200.00    0.59085   0.66878    0.000
 5201.00    0.56471   0.65985    0.000
 5202.00    0.51087   0.64987    0.000
 5203.00    0.43727   0.64043    0.000
 5204.00    0.36072   0.63317    0.000
 5205.00    0.43833   0.62951    0.000
 5206.00    0.53284   0.63029    0.000
 5207.00    0.46167   0.63539    0.000
 5208.00    0.37855   0.64382    0.000
 5209.00    0.47337   0.65406    0.000
 5210.00    0.57484   0.66426    0.000
 5211.00    0.58377   0.67281    0.014
 5212.00    0.59021   0.67897    0.014
 5213.00    0.52152   0.68310    0.014
 5214.00    0.45549   0.68618    0.014
 5215.00    0.43238   0.68918    0.014
 5216.00    0.41649   0.69240    0.014
 5217.00    0.47414   0.69523    0.014
 5218.00    0.52435   0.69636    0.014
 5219.00    0.52034   0.69453    0.014
 5220.00    0.51830   0.68923    0.014
 5221.00    0.52724   0.68106    0.014
 5222.00    0.54082   0.67170    0.014
 5223.00    0.57504   0.66359    0.014
 5224.00    0.57778   0.65907    0.014
 5225.00    0.46547   0.65946    0.014
 5226.00    0.36450   0.66429    0.014
 5227.00    0.29823   0.67166    0.014
 5228.00    0.28913   0.67908    0.014
 5229.00    0.42884   0.68456    0.014
 5230.00    0.50355   0.68764    0.014
 5231.00    0.43289   0.68939    0.014
 5232.00    0.42838   0.69127    0.014
 5233.00    0.55210   0.69426    0.014
 5234.00    0.60738   0.69839    0.014
 5235.00    0.54697   0.70279    0.014
 5236.00    0.52633   0.70641    0.014
 5237.00    0.56461   0.70863    0.014
 5238.00    0.60564   0.70943    0.014
 5239.00    0.65024   0.70913    0.014
 5240.00    0.63130   0.70793    0.014
 5241.00    0.53947   0.70569    0.014
 5242.00    0.54090   0.70208    0.014
 5243.00    0.63667   0.69699    0.014
 5244.00    0.67436   0.69089    0.014
 5245.00    0.66024   0.68462    0.014
 5246.00    0.62760   0.67925    0.014
 5247.00    0.58041   0.67576    0.014
 5248.00    0.59254   0.67456    0.014
 5249.00    0.64570   0.67536    0.014
 5250.00    0.59228   0.67765    0.014
 5251.00    0.47426   0.68122    0.014
 5252.00    0.48251   0.68581    0.014
 5253.00    0.55757   0.69096    0.014
 5254.00    0.60413   0.69596    0.014
 5255.00    0.63760   0.69979    0.014
 5256.00    0.65746   0.70110    0.014
 5257.00    0.67194   0.69849    0.014
 5258.00    0.65595   0.69140    0.014
 5259.00    0.62971   0.68050    0.014
 5260.00    0.54484   0.66747    0.014
 5261.00    0.44337   0.65436    0.014
 5262.00    0.41509   0.64296    0.014
 5263.00    0.40388   0.63430    0.014
 5264.00    0.45442   0.62857    0.014
 5265.00    0.51654   0.62539    0.014
 5266.00    0.38735   0.62449    0.014
 5267.00    0.23044   0.62602    0.014
 5268.00    0.32739   0.63025    0.014
 5269.00    0.45104   0.63724    0.014
 5270.00    0.36925   0.64670    0.014
 5271.00    0.27345   0.65741    0.014
 5272.00    0.37829   0.66782    0.014
 5273.00    0.48986   0.67709    0.014
 5274.00    0.46700   0.68511    0.014
 5275.00    0.44871   0.69158    0.014
 5276.00    0.58175   0.69598    0.014
 5277.00    0.70380   0.69782    0.014
 5278.00    0.65865   0.69713    0.014
 5279.00    0.60706   0.69504    0.014
 5280.00    0.49253   0.69345    0.014
 5281.00    0.40246   0.69403    0.014
 5282.00    0.48459   0.69751    0.014
 5283.00    0.57183   0.70336    0.014
 5284.00    0.68682   0.71026    0.014
 5285.00    0.76623   0.71667    0.015
 5286.00    0.69108   0.72133    0.015
 5287.00    0.61746   0.72378    0.015
 5288.00    0.54931   0.72419    0.014
 5289.00    0.47842   0.72281    0.014
 5290.00    0.39930   0.71960    0.014
 5291.00    0.41371   0.71439    0.015
 5292.00    0.66729   0.70726    0.015
 5293.00    0.78920   0.69890    0.015
 5294.00    0.62145   0.69053    0.015
 5295.00    0.49455   0.68365    0.014
 5296.00    0.44562   0.67968    0.014
 5297.00    0.45492   0.67948    0.014
 5298.00    0.56115   0.68303    0.015
 5299.00    0.61847   0.68937    0.015
 5300.00    0.60441   0.69704    0.015
 5301.00    0.60402   0.70475    0.014
 5302.00    0.62119   0.71168    0.014
 5303.00    0.65087   0.71715    0.014
 5304.00    0.69470   0.72081    0.014
 5305.00    0.70630   0.72279    0.014
 5306.00    0.68575   0.72359    0.014
 5307.00    0.67887   0.72373    0.014
 5308.00    0.68400   0.72338    0.014
 5309.00    0.67375   0.72239    0.014
 5310.00    0.65157   0.72060    0.014
 5311.00    0.70535   0.71813    0.014
 5312.00    0.81090   0.71535    0.014
 5313.00    0.80443   0.71260    0.014
 5314.00    0.73108   0.71018    0.014
 5315.00    0.68685   0.70813    0.014
 5316.00    0.65780   0.70631    0.013
 5317.00    0.61910   0.70447    0.013
 5318.00    0.57606   0.70214    0.014
 5319.00    0.61582   0.69878    0.013
 5320.00    0.68775   0.69401    0.013
 5321.00    0.71940   0.68774    0.013
 5322.00    0.73772   0.68003    0.013
 5323.00    0.65303   0.67133    0.013
 5324.00    0.53978   0.66275    0.013
 5325.00    0.52288   0.65595    0.013
 5326.00    0.52796   0.65256    0.013
 5327.00    0.52816   0.65363    0.013
 5328.00    0.52747   0.65939    0.013
 5329.00    0.50986   0.66875    0.013
 5330.00    0.48987   0.67929    0.013
 5331.00    0.46047   0.68857    0.013
 5332.00    0.43012   0.69528    0.013
 5333.00    0.50554   0.69905    0.014
 5334.00    0.58775   0.69988    0.014
 5335.00    0.58652   0.69801    0.014
 5336.00    0.58281   0.69424    0.014
 5337.00    0.58416   0.68988    0.014
 5338.00    0.58879   0.68630    0.014
 5339.00    0.68712   0.68430    0.014
 5340.00    0.77484   0.68408    0.014
 5341.00    0.71042   0.68521    0.014
 5342.00    0.65015   0.68674    0.014
 5343.00    0.62877   0.68775    0.014
 5344.00    0.60646   0.68822    0.014
 5345.00    0.57778   0.68875    0.014
 5346.00    0.56018   0.69026    0.014
 5347.00    0.60113   0.69339    0.014
 5348.00    0.62698   0.69821    0.014
 5349.00    0.58873   0.70448    0.014
 5350.00    0.56178   0.71166    0.014
 5351.00    0.57443   0.71877    0.014
 5352.00    0.59200   0.72483    0.014
 5353.00    0.62408   0.72930    0.014
 5354.00    0.64885   0.73200    0.014
 5355.00    0.65525   0.73274    0.014
 5356.00    0.67292   0.73146    0.014
 5357.00    0.71499   0.72841    0.014
 5358.00    0.71648   0.72400    0.014
 5359.00    0.64176   0.71874    0.014
 5360.00    0.60093   0.71321    0.014
 5361.00    0.61566   0.70788    0.014
 5362.00    0.60667   0.70295    0.014
 5363.00    0.56355   0.69830    0.014
 5364.00    0.55796   0.69348    0.014
 5365.00    0.59986   0.68823    0.014
 5366.00    0.62887   0.68284    0.014
 5367.00    0.64349   0.67809    0.014
 5368.00    0.67098   0.67523   -2.000
 5369.00    0.71112   0.67547   -2.000
 5370.00    0.58280   0.67930   -2.000
 5371.00    0.30838   0.68622   -2.000
 5372.00    0.19886   0.69468   -2.000
 5373.00    0.21529   0.70262   -2.000
 5374.00    0.25921   0.70846   -2.000
 5375.00    0.32161   0.71182   -2.000
 5376.00    0.46656   0.71305   -2.000
 5377.00    0.66008   0.71276   -2.000
 5378.00    0.80449   0.71153   -2.000
 5379.00    0.92370   0.70976   -2.000
 5380.00    0.83004   0.70789   -2.000
 5381.00    0.64179   0.70635   -2.000
 5382.00    0.62094   0.70524   -2.000
 5383.00    0.66399   0.70422    0.014
 5384.00    0.69300   0.70281    0.014
 5385.00    0.71746   0.70054    0.014
 5386.00    0.66865   0.69722    0.013
 5387.00    0.59994   0.69312    0.013
 5388.00    0.61050   0.68875    0.013
 5389.00    0.63873   0.68449    0.013
 5390.00    0.65005   0.68056    0.013
 5391.00    0.65836   0.67699    0.014
 5392.00    0.63625   0.67373    0.014
 5393.00    0.61002   0.67096    0.014
 5394.00    0.47569   0.66921    0.014
 5395.00    0.33093   0.66896    0.013
 5396.00    0.43207   0.67019    0.013
 5397.00    0.54802   0.67234    0.014
 5398.00    0.61320   0.67433    0.014
 5399.00    0.67637   0.67456    0.014
 5400.00    0.62504   0.67214    0.014
 5401.00    0.57389   0.66755    0.014
 5402.00    0.52706   0.66207    0.014
 5403.00    0.48388   0.65708    0.014
 5404.00    0.49002   0.65387    0.014
 5405.00    0.49901   0.65337    0.014
 5406.00    0.53354   0.65567    0.014
 5407.00    0.56480   0.66019    0.014
 5408.00    0.57454   0.66608    0.014
 5409.00    0.58940   0.67280    0.014
 5410.00    0.63066   0.68014    0.014
 5411.00    0.65770   0.68760    0.014
 5412.00    0.62569   0.69428    0.014
 5413.00    0.59071   0.69950    0.014
 5414.00    0.54559   0.70311    0.014
 5415.00    0.52429   0.70519    0.014
 5416.00    0.57192   0.70584    0.014
 5417.00    0.61118   0.70518    0.014
 5418.00    0.62978   0.70358    0.014
 5419.00    0.65487   0.70167    0.014
 5420.00    0.69374   0.69994    0.013
 5421.00    0.70825   0.69862    0.013
 5422.00    0.67771   0.69750    0.013
 5423.00    0.66155   0.69600    0.014
 5424.00    0.66860   0.69369    0.014
 5425.00    0.70731   0.69035    0.013
 5426.00    0.79090   0.68579    0.013
 5427.00    0.77418   0.68030    0.013
 5428.00    0.63238   0.67469    0.013
 5429.00    0.54256   0.67005    0.013
 5430.00    0.50987   0.66736    0.013
 5431.00    0.52471   0.66677    0.013
 5432.00    0.58561   0.66801    0.013
 5433.00    0.61830   0.67143    0.013
 5434.00    0.62687   0.67734    0.013
 5435.00    0.63718   0.68526    0.013
 5436.00    0.64881   0.69400    0.013
 5437.00    0.62783   0.70204    0.013
 5438.00    0.58528   0.70790    0.013
 5439.00    0.58859   0.71042    0.013
 5440.00    0.61848   0.70905    0.013
 5441.00    0.62449   0.70402    0.013
 5442.00    0.61845   0.69626    0.013
 5443.00    0.61153   0.68729    0.013
 5444.00    0.60423   0.67883    0.014
 5445.00    0.57829   0.67237    0.014
 5446.00    0.54537   0.66862    0.014
 5447.00    0.54703   0.66726    0.014
 5448.00    0.55970   0.66695    0.014
 5449.00    0.65030   0.66598    0.014
 5450.00    0.76161   0.66361    0.014
 5451.00    0.70526   0.66035    0.014
 5452.00    0.61243   0.65740    0.014
 5453.00    0.61187   0.65589    0.014
 5454.00    0.62724   0.65645    0.014
 5455.00    0.60136   0.65887    0.014
 5456.00    0.57007   0.66235    0.014
 5457.00    0.59950   0.66551    0.014
 5458.00    0.63453   0.66726    0.014
 5459.00    0.64353   0.66749    0.014
 5460.00    0.65106   0.66700    0.014
 5461.00    0.73217   0.66676    0.014
 5462.00    0.81365   0.66726    0.014
 5463.00    0.76180   0.66848    0.014
 5464.00    0.71193   0.67008    0.014
 5465.00    0.70819   0.67132    0.014
 5466.00    0.70091   0.67158    0.014
 5467.00    0.64810   0.67075    0.013
 5468.00    0.60141   0.66882    0.013
 5469.00    0.60778   0.66583    0.013
 5470.00    0.61585   0.66213    0.013
 5471.00    0.63493   0.65829    0.013
 5472.00    0.64505   0.65473    0.013
 5473.00    0.61030   0.65185    0.013
 5474.00    0.58060   0.65027    0.013
 5475.00    0.57144   0.65016    0.013
 5476.00    0.54186   0.65125    0.013
 5477.00    0.44351   0.65341    0.013
 5478.00    0.42483   0.65634   -2.000
 5479.00    0.63242   0.65936   -2.000
 5480.00    0.68274   0.66222   -2.000
 5481.00    0.35128   0.66514   -2.000
 5482.00    0.43710   0.66816   -2.000
 5483.00    1.39707   0.67071   -2.000
 5484.00    1.85169   0.67223   -2.000
 5485.00    1.38599   0.67269   -2.000
 5486.00    0.30291   0.67252   -2.000
 5487.00   -1.76290   0.67233   -2.000
 5488.00   -2.49348   0.67258   -2.000
 5489.00   -1.35880   0.67312   -2.000
 5490.00   -0.18930   0.67345   -2.000
 5491.00    1.02299   0.67340   -2.000
 5492.00    1.93547   0.67295   -2.000
 5493.00    2.52305   0.67210   -2.000
 5494.00    2.36354   0.67115   -2.000
 5495.00    1.48989   0.67026   -2.000
 5496.00    0.95730   0.66925   -2.000
 5497.00    0.71218   0.66804   -2.000
 5498.00    0.60030   0.66671   -2.000
 5499.00    0.58731   0.66511   -2.000
 5500.00    0.53842   0.66305   -2.000
 5501.00    0.46612   0.66092   -2.000
 5502.00    0.50602   0.65931    0.013
 5503.00    0.60993   0.65837    0.014
 5504.00    0.61773   0.65789    0.014
 5505.00    0.57778   0.65760    0.014
 5506.00    0.59131   0.65727    0.014
 5507.00    0.62783   0.65673    0.014
 5508.00    0.56609   0.65566    0.014
 5509.00    0.46814   0.65393    0.014
 5510.00    0.49911   0.65224    0.014
 5511.00    0.57031   0.65162    0.014
 5512.00    0.57049   0.65280    0.014
 5513.00    0.55219   0.65610    0.013
 5514.00    0.53612   0.66110    0.013
 5515.00    0.52054   0.66691    0.013
 5516.00    0.55139   0.67255    0.013
 5517.00    0.59005   0.67717    0.013
 5518.00    0.59163   0.68022    0.013
 5519.00    0.58852   0.68137    0.013
 5520.00    0.61747   0.68069    0.013
 5521.00    0.64926   0.67857    0.013
 5522.00    0.63054   0.67544    0.013
 5523.00    0.60917   0.67176    0.013
 5524.00    0.52737   0.66815    0.013
 5525.00    0.44723   0.66532    0.013
 5526.00    0.57868   0.66386    0.013
 5527.00    0.70549   0.66390    0.013
 5528.00    0.73249   0.66517    0.013
 5529.00    0.74964   0.66709    0.013
 5530.00    0.64654   0.66880    0.013
 5531.00    0.55906   0.66971    0.013
 5532.00    0.60173   0.67009    0.013
 5533.00    0.64312   0.67057    0.013
 5534.00    0.67650   0.67154    0.013
 5535.00    0.69602   0.67315    0.013
 5536.00    0.64773   0.67529    0.013
 5537.00    0.59109   0.67747    0.013
 5538.00    0.50129   0.67914    0.013
 5539.00    0.46982   0.68014    0.013
 5540.00    0.63087   0.68041    0.014
 5541.00    0.72640   0.68010    0.014
 5542.00    0.63923   0.67967    0.014
 5543.00    0.57376   0.67974    0.013
 5544.00    0.56006   0.68065    0.014
 5545.00    0.57360   0.68220    0.014
 5546.00    0.64327   0.68385    0.014
 5547.00    0.69952   0.68515    0.014
 5548.00    0.73167   0.68563    0.014
 5549.00    0.74182   0.68491    0.014
 5550.00    0.71746   0.68315    0.014
 5551.00    0.73347   0.68083    0.014
 5552.00    0.80509   0.67842    0.014
 5553.00    0.78282   0.67629    0.014
 5554.00    0.64677   0.67469    0.014
 5555.00    0.58077   0.67356    0.014
 5556.00    0.58960   0.67261    0.014
 5557.00    0.55845   0.67149    0.014
 5558.00    0.48961   0.67010    0.014
 5559.00    0.49729   0.66841    0.014
 5560.00    0.56857   0.66638    0.014
 5561.00    0.60751   0.66419    0.013
 5562.00    0.62279   0.66213    0.013
 5563.00    0.60752   0.66048    0.013
 5564.00    0.57263   0.65938    0.013
 5565.00    0.58973   0.65877    0.013
 5566.00    0.63603   0.65864    0.013
 5567.00    0.62314   0.65904    0.013
 5568.00    0.58132   0.65975    0.013
 5569.00    0.53398   0.66060    0.013
 5570.00    0.48432   0.66168    0.013
 5571.00    0.54816   0.66299    0.013
 5572.00    0.65305   0.66431    0.013
 5573.00    0.68230   0.66577    0.013
 5574.00    0.68841   0.66739    0.013
 5575.00    0.58177   0.66862    0.013
 5576.00    0.44641   0.66917    0.013
 5577.00    0.44033   0.66911    0.013
 5578.00    0.46103   0.66820    0.013
 5579.00    0.52280   0.66627    0.013
 5580.00    0.59126   0.66322    0.014
 5581.00    0.65537   0.65892    0.013
 5582.00    0.71895   0.65355    0.013
 5583.00    0.68409   0.64772    0.013
 5584.00    0.64096   0.64202    0.014
 5585.00    0.63121   0.63723    0.014
 5586.00    0.62307   0.63415    0.014
 5587.00    0.61537   0.63327    0.014
 5588.00    0.60786   0.63458    0.013
 5589.00    0.61119   0.63746    0.014
 5590.00    0.61828   0.64106    0.014
 5591.00    0.70008   0.64450    0.014
 5592.00    0.77049   0.64711    0.014
 5593.00    0.70858   0.64856    0.014
 5594.00    0.65187   0.64865    0.015
 5595.00    0.63698   0.64742    0.014
 5596.00    0.61349   0.64508    0.014
 5597.00    0.53799   0.64215    0.014
 5598.00    0.48944   0.63982    0.014
 5599.00    0.56936   0.63936    0.014
 5600.00    0.61785   0.64109    0.014
 5601.00    0.54429   0.64471    0.014
 5602.00    0.50207   0.64977    0.014
 5603.00    0.56128   0.65561    0.014
 5604.00    0.56960   0.66133    0.014
 5605.00    0.43849   0.66598    0.014
 5606.00    0.39356   0.66902    0.014
 5607.00    0.55086   0.67024    0.013
 5608.00    0.63411   0.66962    0.013
 5609.00    0.56714   0.66720    0.013
 5610.00    0.53042   0.66322    0.013
 5611.00    0.54715   0.65816    0.013
 5612.00    0.56211   0.65272    0.013
 5613.00    0.57435   0.64774    0.013
 5614.00    0.58465   0.64405    0.013
 5615.00    0.59232   0.64232    0.013
 5616.00    0.58660   0.64270    0.013
 5617.00    0.56487   0.64416    0.013
 5618.00    0.54125   0.64529    0.013
 5619.00    0.51563   0.64556    0.013
 5620.00    0.52788   0.64515    0.013
 5621.00    0.57532   0.64441    0.013
 5622.00    0.63753   0.64370    0.013
 5623.00    0.71185   0.64350    0.013
 5624.00    0.68991   0.64440    0.013
 5625.00    0.59857   0.64674    0.013
 5626.00    0.59126   0.65005    0.013
 5627.00    0.63712   0.65325    0.013
 5628.00    0.60928   0.65564    0.013
 5629.00    0.54065   0.65698    0.013
 5630.00    0.58883   0.65710    0.013
 5631.00    0.69322   0.65597    0.014
 5632.00    0.63656   0.65381    0.014
 5633.00    0.51300   0.65099    0.014
 5634.00    0.58852   0.64791    0.014
 5635.00    0.73476   0.64499    0.013
 5636.00    0.74066   0.64259    0.013
 5637.00    0.70446   0.64095    0.014
 5638.00    0.69700   0.64020    0.014
 5639.00    0.69670   0.64020    0.014
 5640.00    0.69984   0.64079    0.014
 5641.00    0.70368   0.64191    0.014
 5642.00    0.66502   0.64354    0.013
 5643.00    0.61963   0.64536    0.013
 5644.00    0.69185   0.64718    0.013
 5645.00    0.77792   0.64905    0.014
 5646.00    0.59303   0.65097    0.013
 5647.00    0.38649   0.65288    0.013
 5648.00    0.53548   0.65458    0.013
 5649.00    0.70030   0.65573    0.013
 5650.00    0.65690   0.65602    0.013
 5651.00    0.61211   0.65513    0.013
 5652.00    0.61466   0.65283    0.013
 5653.00    0.61352   0.64923    0.013
 5654.00    0.54441   0.64488    0.013
 5655.00    0.48560   0.64065    0.013
 5656.00    0.54081   0.63722    0.013
 5657.00    0.58780   0.63478    0.013
 5658.00    0.57093   0.63365    0.013
 5659.00    0.55577   0.63425    0.013
 5660.00    0.55072   0.63603    0.013
 5661.00    0.54709   0.63786    0.013
 5662.00    0.55011   0.63948    0.013
 5663.00    0.55171   0.64113    0.013
 5664.00    0.54789   0.64270    0.013
 5665.00    0.54725   0.64393    0.013
 5666.00    0.55671   0.64506    0.013
 5667.00    0.57843   0.64658    0.013
 5668.00    0.63313   0.64880    0.013
 5669.00    0.66265   0.65166    0.013
 5670.00    0.63409   0.65467    0.013
 5671.00    0.58965   0.65743    0.013
 5672.00    0.51348   0.65964    0.013
 5673.00    0.48644   0.66095    0.013
 5674.00    0.54483   0.66109    0.014
 5675.00    0.56283   0.66029    0.014
 5676.00    0.51937   0.65897    0.014
 5677.00    0.53744   0.65724    0.014
 5678.00    0.63783   0.65517    0.014
 5679.00    0.69323   0.65309    0.014
 5680.00    0.69562   0.65137    0.014
 5681.00    0.64512   0.64995    0.014
 5682.00    0.53970   0.64878    0.014
 5683.00    0.51300   0.64812    0.014
 5684.00    0.55841   0.64816    0.013
 5685.00    0.60709   0.64876    0.013
 5686.00    0.65841   0.64998    0.013
 5687.00    0.66125   0.65201    0.013
 5688.00    0.62963   0.65476    0.013
 5689.00    0.59698   0.65759    0.013
 5690.00    0.56369   0.65972    0.013
 5691.00    0.55794   0.66060    0.013
 5692.00    0.56720   0.66007    0.013
 5693.00    0.58556   0.65824    0.013
 5694.00    0.60822   0.65543    0.013
 5695.00    0.54196   0.65218    0.013
 5696.00    0.43940   0.64897    0.012
 5697.00    0.41437   0.64603    0.013
 5698.00    0.41638   0.64351    0.013
 5699.00    0.44422   0.64161    0.013
 5700.00    0.47965   0.64012    0.013
 5701.00    0.47689   0.63868    0.013
 5702.00    0.46483   0.63709    0.013
 5703.00    0.57900   0.63519    0.013
 5704.00    0.71803   0.63283    0.013
 5705.00    0.73892   0.63019    0.013
 5706.00    0.74165   0.62799    0.013
 5707.00    0.66110   0.62713    0.013
 5708.00    0.57111   0.62805    0.013
 5709.00    0.57068   0.63081    0.013
 5710.00    0.57704   0.63514    0.013
 5711.00    0.53848   0.64024    0.013
 5712.00    0.49809   0.64546    0.013
 5713.00    0.62850   0.65047    0.014
 5714.00    0.75512   0.65467    0.014
 5715.00    0.67082   0.65790    0.013
 5716.00    0.59290   0.66049    0.013
 5717.00    0.62453   0.66261    0.013
 5718.00    0.65581   0.66434    0.013
 5719.00    0.68353   0.66562    0.013
 5720.00    0.70448   0.66620    0.013
 5721.00    0.67473   0.66590    0.013
 5722.00    0.65024   0.66477    0.013
 5723.00    0.65579   0.66297    0.013
 5724.00    0.65550   0.66088    0.013
 5725.00    0.62866   0.65901    0.013
 5726.00    0.61748   0.65766    0.013
 5727.00    0.66458   0.65715    0.013
 5728.00    0.67973   0.65766    0.013
 5729.00    0.59546   0.65877    0.012
 5730.00    0.53709   0.65991    0.012
 5731.00    0.54718   0.66094    0.012
 5732.00    0.57732   0.66205    0.012
 5733.00    0.65295   0.66295    0.012
 5734.00    0.71083   0.66317    0.012
 5735.00    0.73384   0.66274    0.013
 5736.00    0.71879   0.66205    0.013
 5737.00    0.63852   0.66152    0.012
 5738.00    0.57779   0.66138    0.012
 5739.00    0.54635   0.66166    0.012
 5740.00    0.55790   0.66226    0.000
 5741.00    0.62612   0.66302    0.000
 5742.00    0.64323   0.66365    0.000
 5743.00    0.60099   0.66397    0.000
 5744.00    0.60016   0.66400    0.000
 5745.00    0.64173   0.66357    0.000
 5746.00    0.62546   0.66248    0.000
 5747.00    0.55696   0.66094    0.000
 5748.00    0.55404   0.65944    0.000
 5749.00    0.60332   0.65842    0.000
 5750.00    0.62062   0.65780    0.000
 5751.00    0.61552   0.65741    0.000
 5752.00    0.61646   0.65742    0.000
 5753.00    0.62112   0.65801    0.000
 5754.00    0.66585   0.65894    0.000
 5755.00    0.73208   0.65955    0.000
 5756.00    0.68842   0.65911    0.000
 5757.00    0.59359   0.65738    0.000
 5758.00    0.57989   0.65496    0.000
 5759.00    0.59877   0.65278    0.000
 5760.00    0.62963   0.65172    0.000
 5761.00    0.66460   0.65227    0.000
 5762.00    0.61875   0.65436    0.000
 5763.00    0.54962   0.65744    0.000
 5764.00    0.64355   0.66064    0.000
 5765.00    0.77630   0.66297    0.000
 5766.00    0.79735   0.66402    0.000
 5767.00    0.79697   0.66407    0.000
 5768.00    0.77591   0.66343    0.000
 5769.00    0.75176   0.66238    0.000
 5770.00    0.71521   0.66123    0.000
 5771.00    0.67730   0.66012    0.000
 5772.00    0.63077   0.65896    0.000
 5773.00    0.58363   0.65757    0.000
 5774.00    0.63666   0.65559    0.000
 5775.00    0.69338   0.65279    0.000
 5776.00    0.71327   0.64907    0.000
 5777.00    0.73278   0.64444    0.000
 5778.00    0.74430   0.63934    0.000
 5779.00    0.75050   0.63450    0.000
 5780.00    0.67127   0.63064    0.000
 5781.00    0.60057   0.62854    0.000
 5782.00    0.61614   0.62861    0.000
 5783.00    0.64057   0.63041    0.000
 5784.00    0.72914   0.63322    0.000
 5785.00    0.79458   0.63669    0.000
 5786.00    0.73166   0.64071    0.000
 5787.00    0.67199   0.64482    0.000
 5788.00    0.62674   0.64850    0.000
 5789.00    0.59033   0.65171    0.000
 5790.00    0.58614   0.65448    0.000
 5791.00    0.57900   0.65703   -2.000
 5792.00    0.56283   0.65953   -2.000
 5793.00    0.55628   0.66171   -2.000
 5794.00    0.57473   0.66342   -2.000
 5795.00    0.57455   0.66488   -2.000
 5796.00    0.53283   0.66625   -2.000
 5797.00    0.57171   0.66764   -2.000
 5798.00    0.76654   0.66922   -2.000
 5799.00    0.86041   0.67072   -2.000
 5800.00    0.78394   0.67136   -2.000
 5801.00    0.71354   0.67083   -2.000
 5802.00    0.65213   0.66956   -2.000
 5803.00    0.68795   0.66802   -2.000
 5804.00    0.85015   0.66667   -2.000
 5805.00    0.90735   0.66590   -2.000
 5806.00    0.84434   0.66557   -2.000
 5807.00    0.80369   0.66518   -2.000
 5808.00    0.78561   0.66437   -2.000
 5809.00    0.76381   0.66303   -2.000
 5810.00    0.73870   0.66128   -2.000
 5811.00    0.71254   0.65937    0.000
 5812.00    0.68557   0.65764    0.000
 5813.00    0.66354   0.65650    0.000
 5814.00    0.64494   0.65620    0.000
 5815.00    0.64381   0.65677    0.000
 5816.00    0.65327   0.65814    0.000
 5817.00    0.63969   0.66005    0.000
 5818.00    0.61394   0.66189    0.000
 5819.00    0.55921   0.66313    0.000
 5820.00    0.49120   0.66378    0.000
 5821.00    0.45108   0.66412    0.000
 5822.00    0.42197   0.66433    0.000
 5823.00    0.50130   0.66464    0.000
 5824.00    0.61708   0.66516    0.000
 5825.00    0.70094   0.66580    0.000
 5826.00    0.77578   0.66628    0.000
 5827.00    0.75879   0.66645    0.000
 5828.00    0.72041   0.66631    0.000
 5829.00    0.69512   0.66587    0.000
 5830.00    0.67227   0.66510    0.000
 5831.00    0.66821   0.66403    0.000
 5832.00    0.66685   0.66298    0.000
 5833.00    0.63630   0.66214    0.000
 5834.00    0.60268   0.66169    0.000
 5835.00    0.60314   0.66184    0.000
 5836.00    0.60591   0.66259    0.000
 5837.00    0.58612   0.66350    0.000
 5838.00    0.56558   0.66430    0.000
 5839.00    0.58289   0.66498    0.000
 5840.00    0.60088   0.66520    0.000
 5841.00    0.63950   0.66449    0.000
 5842.00    0.67450   0.66269    0.000
 5843.00    0.65482   0.65998    0.000
 5844.00    0.63665   0.65663    0.000
 5845.00    0.63306   0.65289    0.000
 5846.00    0.63094   0.64899    0.000
 5847.00    0.63919   0.64518    0.000
 5848.00    0.64040   0.64165    0.000
 5849.00    0.60356   0.63831    0.000
 5850.00    0.58176   0.63494    0.000
 5851.00    0.62514   0.63163    0.000
 5852.00    0.66869   0.62870    0.000
 5853.00    0.71285   0.62654    0.000
 5854.00    0.73952   0.62538    0.000
 5855.00    0.71379   0.62500    0.000
 5856.00    0.66955   0.62506    0.000
 5857.00    0.57807   0.62572    0.000
 5858.00    0.54510   0.62715    0.000
 5859.00    0.64056   0.62893    0.000
 5860.00    0.71120   0.63037    0.000
 5861.00    0.73457   0.63129    0.000
 5862.00    0.74709   0.63183    0.000
 5863.00    0.74158   0.63245    0.000
 5864.00    0.70789   0.63333    0.000
 5865.00    0.63314   0.63420    0.000
 5866.00    0.60530   0.63479    0.000
 5867.00    0.63753   0.63503    0.000
 5868.00    0.64586   0.63463    0.000
 5869.00    0.62719   0.63312    0.000
 5870.00    0.62953   0.63045    0.000
 5871.00    0.65278   0.62707    0.000
 5872.00    0.68775   0.62346    0.000
 5873.00    0.73301   0.62023    0.000
 5874.00    0.72226   0.61781    0.000
 5875.00    0.66819   0.61648    0.000
 5876.00    0.65614   0.61625    0.000
 5877.00    0.67265   0.61670    0.000
 5878.00    0.69612   0.61718    0.000
 5879.00    0.72374   0.61685    0.000
 5880.00    0.67734   0.61552    0.000
 5881.00    0.59246   0.61252    0.000
 5882.00    0.55556   0.60666    0.000
 5883.00    0.54029   0.59733    0.000
 5884.00    0.57363   0.58545    0.000
 5885.00    0.62582   0.57244    0.000
 5886.00    0.59853   0.55955    0.000
 5887.00    0.54504   0.54809    0.000
 5888.00    0.53954   0.53888    0.000
 5889.00    0.54732   0.53287    0.000
 5890.00    0.53934   0.53133    0.000
 5891.00    0.52777   0.53401    0.000
 5892.00    0.51660   0.53850    0.000
 5893.00    0.50551   0.54328    0.000
 5894.00    0.52688   0.54878    0.000
 5895.00    0.55278   0.55550    0.000
 5896.00    0.53782   0.56430    0.000
 5897.00    0.51877   0.57504    0.000
 5898.00    0.55793   0.58550    0.000
 5899.00    0.60081   0.59403    0.000
 5900.00    0.56054   0.60081    0.000
 5901.00    0.51810   0.60608    0.011
 5902.00    0.57078   0.60981    0.011
 5903.00    0.62267   0.61239    0.011
 5904.00    0.65221   0.61425    0.011
 5905.00    0.67778   0.61559    0.011
 5906.00    0.64683   0.61650    0.011
 5907.00    0.61683   0.61696    0.011
 5908.00    0.59579   0.61677    0.011
 5909.00    0.57565   0.61585    0.011
 5910.00    0.56168   0.61454    0.011
 5911.00    0.56012   0.61317    0.011
 5912.00    0.62391   0.61193    0.011
 5913.00    0.67822   0.61106    0.011
 5914.00    0.69236   0.61097    0.011
 5915.00    0.68781   0.61176    0.011
 5916.00    0.61794   0.61306    0.011
 5917.00    0.57648   0.61453    0.011
 5918.00    0.61860   0.61585    0.011
 5919.00    0.64195   0.61688    0.011
 5920.00    0.61821   0.61773    0.011
 5921.00    0.61392   0.61825    0.011
 5922.00    0.65161   0.61843    0.011
 5923.00    0.68000   0.61843    0.011
 5924.00    0.69094   0.61828    0.011
 5925.00    0.69738   0.61799    0.011
 5926.00    0.69644   0.61765    0.011
 5927.00    0.68436   0.61721    0.012
 5928.00    0.65631   0.61678    0.011
 5929.00    0.65579   0.61667    0.011
 5930.00    0.69007   0.61706    0.012
 5931.00    0.69071   0.61790    0.012
 5932.00    0.65393   0.61884    0.012
 5933.00    0.64026   0.61947    0.012
 5934.00    0.64927   0.61980    0.012
 5935.00    0.66020   0.62008    0.012
 5936.00    0.67279   0.62043    0.011
 5937.00    0.65970   0.62052    0.011
 5938.00    0.62702   0.62040    0.011
 5939.00    0.60669   0.62037    0.011
 5940.00    0.59465   0.62048    0.011
 5941.00    0.62997   0.62075    0.011
 5942.00    0.69311   0.62128    0.011
 5943.00    0.68003   0.62171    0.011
 5944.00    0.62793   0.62166    0.011
 5945.00    0.58096   0.62098    0.011
 5946.00    0.53627   0.61964    0.011
 5947.00    0.53846   0.61787    0.011
 5948.00    0.55851   0.61610    0.011
 5949.00    0.56709   0.61475    0.011
 5950.00    0.57196   0.61385    0.011
 5951.00    0.56475   0.61312    0.011
 5952.00    0.55429   0.61247    0.011
 5953.00    0.60102   0.61236    0.011
 5954.00    0.66046   0.61312    0.011
 5955.00    0.65293   0.61437    0.011
 5956.00    0.63355   0.61587    0.011
 5957.00    0.61488   0.61786    0.011
 5958.00    0.59631   0.62024    0.011
 5959.00    0.59610   0.62245    0.011
 5960.00    0.59766   0.62417    0.011
 5961.00    0.63261   0.62535    0.011
 5962.00    0.66955   0.62615    0.011
 5963.00    0.65673   0.62682    0.011
 5964.00    0.64298   0.62760    0.011
 5965.00    0.68142   0.62853    0.011
 5966.00    0.71616   0.62957    0.011
 5967.00    0.65682   0.63060    0.011
 5968.00    0.60273   0.63109    0.011
 5969.00    0.61935   0.63068    0.011
 5970.00    0.63632   0.62938    0.011
 5971.00    0.65635   0.62729    0.011
 5972.00    0.67610   0.62466    0.011
 5973.00    0.69401   0.62198    0.011
 5974.00    0.71306   0.61963    0.011
 5975.00    0.73798   0.61779    0.011
 5976.00    0.75426   0.61653    0.011
 5977.00    0.73479   0.61573    0.011
 5978.00    0.70691   0.61518    0.011
 5979.00    0.65028   0.61498    0.011
 5980.00    0.60306   0.61501    0.011
 5981.00    0.58296   0.61502    0.011
 5982.00    0.58042   0.61508    0.011
 5983.00    0.62110   0.61558    0.011
 5984.00    0.65687   0.61679    0.011
 5985.00    0.68221   0.61881    0.011
 5986.00    0.70143   0.62123    0.011
 5987.00    0.70935   0.62354    0.011
 5988.00    0.71523   0.62565    0.011
 5989.00    0.71783   0.62753    0.011
 5990.00    0.73097   0.62889    0.011
 5991.00    0.75902   0.62950    0.011
 5992.00    0.76085   0.62955    0.011
 5993.00    0.73006   0.62917    0.011
 5994.00    0.73310   0.62817    0.011
 5995.00    0.77327   0.62657    0.011
 5996.00    0.78064   0.62467    0.011
 5997.00    0.75628   0.62291    0.011
 5998.00    0.72943   0.62170    0.011
 5999.00    0.70047   0.62087    0.011
 6000.00    0.68407   0.62004    0.011
 6001.00    0.67709   0.61893    0.011
 6002.00    0.68275   0.61757    0.011
 6003.00    0.69674   0.61655    0.011
 6004.00    0.70324   0.61624    0.011
 6005.00    0.70541   0.61614    0.011
 6006.00    0.67346   0.61596    0.011
 6007.00    0.62432   0.61597    0.010
 6008.00    0.58468   0.61645    0.011
 6009.00    0.54917   0.61738    0.011
 6010.00    0.54946   0.61802    0.011
 6011.00    0.56315   0.61783    0.011
 6012.00    0.55814   0.61714    0.011
 6013.00    0.54720   0.61645    0.011
 6014.00    0.50121   0.61605    0.011
 6015.00    0.44592   0.61581    0.011
 6016.00    0.44922   0.61559    0.011
 6017.00    0.46522   0.61571    0.011
 6018.00    0.51050   0.61640    0.011
 6019.00    0.56083   0.61753    0.011
 6020.00    0.59026   0.61903    0.011
 6021.00    0.61696   0.62097    0.011
 6022.00    0.61751   0.62330    0.011
 6023.00    0.61564   0.62579    0.011
 6024.00    0.56470   0.62818    0.011
 6025.00    0.51102   0.63042    0.011
 6026.00    0.47908   0.63238    0.011
 6027.00    0.44863   0.63407    0.011
 6028.00    0.51885   0.63567    0.011
 6029.00    0.58866   0.63701    0.011
 6030.00    0.64896   0.63794    0.011
 6031.00    0.70512   0.63858    0.011
 6032.00    0.70861   0.63916    0.011
 6033.00    0.71360   0.63952    0.011
 6034.00    0.73147   0.63950    0.011
 6035.00    0.74534   0.63924    0.011
 6036.00    0.73368   0.63898    0.011
 6037.00    0.71972   0.63901    0.011
 6038.00    0.69428   0.63946    0.011
 6039.00    0.67335   0.64022    0.011
 6040.00    0.67067   0.64134    0.011
 6041.00    0.65866   0.64280    0.010
 6042.00    0.61533   0.64425    0.010
 6043.00    0.59436   0.64554    0.010
 6044.00    0.63669   0.64651    0.011
 6045.00    0.68300   0.64698    0.011
 6046.00    0.73891   0.64688    0.011
 6047.00    0.75638   0.64624    0.011
 6048.00    0.69347   0.64509    0.011
 6049.00    0.65692   0.64358    0.011
 6050.00    0.66825   0.64184    0.011
 6051.00    0.68035   0.63988    0.011
 6052.00    0.69367   0.63790    0.011
 6053.00    0.68696   0.63631    0.011
 6054.00    0.65232   0.63534    0.011
 6055.00    0.63690   0.63481    0.011
 6056.00    0.64505   0.63444    0.011
 6057.00    0.68150   0.63406    0.011
 6058.00    0.74855   0.63346    0.011
 6059.00    0.78900   0.63245    0.011
 6060.00    0.80406   0.63135    0.011
 6061.00    0.75259   0.63069    0.011
 6062.00    0.64515   0.63076    0.011
 6063.00    0.58294   0.63177    0.011
 6064.00    0.55426   0.63385    0.011
 6065.00    0.54336   0.63690    0.011
 6066.00    0.54404   0.64081    0.011
 6067.00    0.54413   0.64478    0.011
 6068.00    0.54387   0.64775    0.011
 6069.00    0.55504   0.64950    0.010
 6070.00    0.57187   0.65019    0.010
 6071.00    0.59237   0.64985    0.010
 6072.00    0.61444   0.64843    0.011
 6073.00    0.60446   0.64613    0.011
 6074.00    0.58271   0.64336    0.010
 6075.00    0.63026   0.64020    0.010
 6076.00    0.69938   0.63680    0.010
 6077.00    0.73104   0.63365    0.011
 6078.00    0.75297   0.63115    0.011
 6079.00    0.71384   0.62945    0.011
 6080.00    0.66178   0.62850    0.011
 6081.00    0.68433   0.62805    0.011
 6082.00    0.71936   0.62809    0.011
 6083.00    0.64430   0.62852    0.011
 6084.00    0.55536   0.62873    0.011
 6085.00    0.51593   0.62846    0.011
 6086.00    0.48085   0.62816    0.011
 6087.00    0.52144   0.62799    0.011
 6088.00    0.56595   0.62799    0.011
 6089.00    0.57212   0.62831    0.011
 6090.00    0.57827   0.62908    0.011
 6091.00    0.63462   0.63036    0.011
 6092.00    0.68759   0.63191    0.011
 6093.00    0.66849   0.63334    0.011
 6094.00    0.64972   0.63449    0.011
 6095.00    0.63482   0.63469    0.011
 6096.00    0.62542   0.63307    0.011
 6097.00    0.66172   0.63010    0.011
 6098.00    0.68841   0.62727    0.011
 6099.00    0.65554   0.62516    0.011
 6100.00    0.63189   0.62356    0.011
 6101.00    0.65312   0.62238    0.011
 6102.00    0.67482   0.62203    0.011
 6103.00    0.69836   0.62354    0.010
 6104.00    0.71806   0.62670    0.010
 6105.00    0.72514   0.62969    0.011
 6106.00    0.73119   0.63174    0.011
 6107.00    0.73437   0.63339    0.011
 6108.00    0.72447   0.63507    0.011
 6109.00    0.68345   0.63665    0.011
 6110.00    0.65978   0.63752    0.011
 6111.00    0.67181   0.63756    0.011
 6112.00    0.67362   0.63733    0.011
 6113.00    0.65715   0.63659    0.011
 6114.00    0.63085   0.63456    0.011
 6115.00    0.58918   0.63107    0.011
 6116.00    0.58979   0.62670    0.011
 6117.00    0.64851   0.62272    0.011
 6118.00    0.67475   0.61990    0.011
 6119.00    0.66170   0.61792    0.011
 6120.00    0.65399   0.61678    0.011
 6121.00    0.65197   0.61682    0.011
 6122.00    0.60811   0.61809    0.011
 6123.00    0.52489   0.62061    0.011
 6124.00    0.48215   0.62357    0.011
 6125.00    0.47299   0.62586    0.011
 6126.00    0.50352   0.62748    0.011
 6127.00    0.56302   0.62854    0.010
 6128.00    0.61140   0.62876    0.010
 6129.00    0.65264   0.62768    0.010
 6130.00    0.67672   0.62484    0.010
 6131.00    0.69117   0.62012    0.010
 6132.00    0.68346   0.61471    0.010
 6133.00    0.66494   0.61036    0.010
 6134.00    0.61965   0.60764    0.010
 6135.00    0.56307   0.60635    0.011
 6136.00    0.54046   0.60674    0.011
 6137.00    0.53010   0.60952    0.011
 6138.00    0.58443   0.61484    0.011
 6139.00    0.65849   0.62089    0.011
 6140.00    0.70312   0.62555    0.011
 6141.00    0.74027   0.62844    0.011
 6142.00    0.72039   0.63033    0.011
 6143.00    0.68874   0.63135    0.011
 6144.00    0.67580   0.63083    0.011
 6145.00    0.66591   0.62885    0.011
 6146.00    0.67628   0.62632    0.011
 6147.00    0.68912   0.62389    0.011
 6148.00    0.65380   0.62153    0.011
 6149.00    0.61446   0.61923    0.011
 6150.00    0.62406   0.61732    0.011
 6151.00    0.63601   0.61574    0.011
 6152.00    0.65277   0.61358    0.011
 6153.00    0.66850   0.61005    0.011
 6154.00    0.61964   0.60479    0.011
 6155.00    0.57185   0.59792    0.011
 6156.00    0.54510   0.58987    0.011
 6157.00    0.52050   0.58134    0.011
 6158.00    0.52082   0.57352    0.011
 6159.00    0.52442   0.56730    0.011
 6160.00    0.55431   0.56287    0.011
 6161.00    0.58386   0.56039    0.010
 6162.00    0.61135   0.56030    0.011
 6163.00    0.62374   0.56203    0.011
 6164.00    0.56439   0.56424    0.011
 6165.00    0.51886   0.56642    0.010
 6166.00    0.52685   0.56869    0.010
 6167.00    0.54166   0.57096    0.010
 6168.00    0.57847   0.57281    0.011
 6169.00    0.59635   0.57444    0.011
 6170.00    0.56251   0.57683    0.011
 6171.00    0.53083   0.57996    0.011
 6172.00    0.50422   0.58284    0.011
 6173.00    0.50298   0.58508    0.011
 6174.00    0.55308   0.58709    0.011
 6175.00    0.58782   0.58905    0.011
 6176.00    0.59547   0.59091    0.011
 6177.00    0.59814   0.59252    0.011
 6178.00    0.59312   0.59370    0.011
 6179.00    0.60158   0.59401    0.011
 6180.00    0.62829   0.59316    0.010
 6181.00    0.66073   0.59124    0.010
 6182.00    0.70001   0.58834    0.011
 6183.00    0.69319   0.58464    0.011
 6184.00    0.63789   0.58040    0.011
 6185.00    0.56925   0.57576    0.011
 6186.00    0.48822   0.57112    0.011
 6187.00    0.49483   0.56779    0.011
 6188.00    0.57309   0.56647    0.011
 6189.00    0.64126   0.56663    0.011
 6190.00    0.70216   0.56776    0.010
 6191.00    0.71139   0.56985    0.010
 6192.00    0.68796   0.57302    0.010
 6193.00    0.66838   0.57637    0.010
 6194.00    0.65093   0.57856    0.010
 6195.00    0.61794   0.57980    0.011
 6196.00    0.57748   0.58091   -2.000
 6197.00    0.04019   0.58204   -2.000
 6198.00   -0.70305   0.58300   -2.000
 6199.00   -1.17011   0.58391   -2.000
 6200.00   -1.53927   0.58534   -2.000
 6201.00   -0.91946   0.58742   -2.000
 6202.00   -0.00368   0.58931   -2.000
 6203.00    0.80093   0.59036   -2.000
 6204.00    1.57793   0.59037   -2.000
 6205.00    1.64447   0.58939   -2.000
 6206.00    1.56795   0.58750   -2.000
 6207.00    1.26111   0.58448   -2.000
 6208.00    0.91794   0.58020    0.012
 6209.00    0.78446   0.57509    0.012
 6210.00    0.67556   0.56982    0.011
 6211.00    0.66548   0.56511    0.011
 6212.00    0.66324   0.56143    0.011
 6213.00    0.65281   0.55854    0.011
 6214.00    0.64202   0.55649    0.010
 6215.00    0.64301   0.55560    0.010
 6216.00    0.64407   0.55579    0.010
 6217.00    0.64248   0.55659    0.010
 6218.00    0.63988   0.55720    0.010
 6219.00    0.61875   0.55733    0.010
 6220.00    0.59995   0.55755    0.010
 6221.00    0.60679   0.55798    0.010
 6222.00    0.61518   0.55812    0.010
 6223.00    0.63557   0.55757    0.010
 6224.00    0.65656   0.55618    0.010
 6225.00    0.68102   0.55425    0.011
 6226.00    0.70399   0.55244    0.011
 6227.00    0.72004   0.55122    0.011
 6228.00    0.72623   0.55083    0.011
 6229.00    0.69503   0.55139    0.011
 6230.00    0.66999   0.55285    0.011
 6231.00    0.66444   0.55521    0.011
 6232.00    0.67257   0.55787    0.011
 6233.00    0.71741   0.55972    0.011
 6234.00    0.73687   0.56028    0.011
 6235.00    0.69791   0.55952    0.011
 6236.00    0.65585   0.55780    0.011
 6237.00    0.60761   0.55540    0.011
 6238.00    0.57873   0.55267    0.011
 6239.00    0.58345   0.55055    0.011
 6240.00    0.60112   0.54965    0.011
 6241.00    0.63846   0.54998    0.011
 6242.00    0.66001   0.55118    0.010
 6243.00    0.66048   0.55296    0.010
 6244.00    0.62760   0.55535    0.010
 6245.00    0.55551   0.55766    0.010
 6246.00    0.52796   0.55898    0.010
 6247.00    0.54660   0.55917    0.010
 6248.00    0.57882   0.55837    0.010
 6249.00    0.62345   0.55665    0.010
 6250.00    0.62236   0.55424    0.010
 6251.00    0.58441   0.55124    0.010
 6252.00    0.56282   0.54805    0.010
 6253.00    0.55285   0.54563    0.011
 6254.00    0.55074   0.54474    0.011
 6255.00    0.55352   0.54531    0.011
 6256.00    0.57015   0.54678    0.011
 6257.00    0.59432   0.54930    0.011
 6258.00    0.58153   0.55304    0.011
 6259.00    0.55128   0.55736    0.012
 6260.00    0.35788   0.56130    0.012
 6261.00    0.09799   0.56440    0.013
 6262.00    0.05178   0.56696    0.014
 6263.00    0.07991   0.56870    0.014
 6264.00    0.31618   0.56931    0.014
 6265.00    0.61350   0.56948    0.013
 6266.00    0.85212   0.57012    0.013
 6267.00    1.07649   0.57111    0.012
 6268.00    1.04257   0.57188    0.012
 6269.00    0.95795   0.57242    0.011
 6270.00    0.77780   0.57312    0.011
 6271.00    0.58303   0.57386    0.010
 6272.00    0.52229   0.57432    0.010
 6273.00    0.47665   0.57440    0.010
 6274.00    0.51155   0.57405    0.010
 6275.00    0.55250   0.57341    0.010
 6276.00    0.61640   0.57292    0.010
 6277.00    0.68122   0.57293    0.010
 6278.00    0.68308   0.57354    0.010
 6279.00    0.68440   0.57461    0.010
 6280.00    0.68196   0.57595    0.000
 6281.00    0.67749   0.57802    0.000
 6282.00    0.63834   0.58083    0.000
 6283.00    0.60169   0.58370    0.000
 6284.00    0.59137   0.58604    0.000
 6285.00    0.58362   0.58739    0.000
 6286.00    0.59495   0.58793    0.000
 6287.00    0.61265   0.58779    0.000
 6288.00    0.66652   0.58684    0.000
 6289.00    0.71014   0.58529    0.000
 6290.00    0.70734   0.58311    0.000
 6291.00    0.69698   0.58035    0.000
 6292.00    0.65859   0.57767    0.000
 6293.00    0.61915   0.57576    0.000
 6294.00    0.57643   0.57467    0.000
 6295.00    0.54163   0.57374    0.000
 6296.00    0.52769   0.57267    0.000
 6297.00    0.51606   0.57232    0.000
 6298.00    0.50962   0.57326    0.000
 6299.00    0.51658   0.57486    0.000
 6300.00    0.54983   0.57632    0.000
 6301.00    0.58883   0.57786    0.000
 6302.00    0.63765   0.58034    0.000
 6303.00    0.66619   0.58344    0.000
 6304.00    0.66436   0.58607    0.000
 6305.00    0.65790   0.58771    0.000
 6306.00    0.64536   0.58859    0.000
 6307.00    0.63336   0.58911    0.000
 6308.00    0.62197   0.58893    0.000
 6309.00    0.60453   0.58761    0.000
 6310.00    0.58089   0.58552    0.000
 6311.00    0.57978   0.58363    0.000
 6312.00    0.59898   0.58216    0.000
 6313.00    0.61484   0.58071    0.000
 6314.00    0.62804   0.57965    0.000
 6315.00    0.61704   0.57962    0.000
 6316.00    0.58913   0.58056    0.000
 6317.00    0.60935   0.58180    0.000
 6318.00    0.65908   0.58332    0.000
 6319.00    0.66992   0.58579    0.000
 6320.00    0.65995   0.58859    0.000
 6321.00    0.60936   0.59092    0.011
 6322.00    0.53990   0.59277    0.011
 6323.00    0.53814   0.59464    0.011
 6324.00    0.56350   0.59643    0.010
 6325.00    0.54967   0.59741    0.010
 6326.00    0.52245   0.59793    0.010
 6327.00    0.52799   0.59840    0.010
 6328.00    0.54293   0.59871    0.010
 6329.00    0.55419   0.59818    0.010
 6330.00    0.56456   0.59633    0.010
 6331.00    0.55856   0.59428    0.010
 6332.00    0.54943   0.59299    0.010
 6333.00    0.56006   0.59210    0.010
 6334.00    0.57362   0.59114    0.010
 6335.00    0.60553   0.59053    0.010
 6336.00    0.63943   0.59096    0.010
 6337.00    0.66601   0.59194    0.011
 6338.00    0.69206   0.59229    0.011
 6339.00    0.66254   0.59174    0.011
 6340.00    0.63099   0.59112    0.010
 6341.00    0.64369   0.59060    0.011
 6342.00    0.65657   0.59010    0.011
 6343.00    0.67004   0.58998    0.011
 6344.00    0.68189   0.59073    0.011
 6345.00    0.66798   0.59228    0.011
 6346.00    0.65105   0.59393    0.011
 6347.00    0.60383   0.59522    0.011
 6348.00    0.56257   0.59573    0.011
 6349.00    0.56434   0.59510    0.011
 6350.00    0.56656   0.59325    0.011
 6351.00    0.57123   0.59073    0.011
 6352.00    0.56685   0.58764    0.011
 6353.00    0.52246   0.58365    0.011
 6354.00    0.48152   0.57926    0.010
 6355.00    0.45311   0.57548    0.010
 6356.00    0.45212   0.57258    0.010
 6357.00    0.53462   0.57007    0.010
 6358.00    0.60139   0.56818    0.010
 6359.00    0.62737   0.56791    0.011
 6360.00    0.62767   0.56939    0.011
 6361.00    0.57076   0.57194    0.010
 6362.00    0.54829   0.57536    0.010
 6363.00    0.59233   0.57974    0.011
 6364.00    0.64390   0.58453    0.011
 6365.00    0.70815   0.58886    0.011
 6366.00    0.73566   0.59268    0.011
 6367.00    0.70897   0.59633    0.011
 6368.00    0.69053   0.59965    0.011
 6369.00    0.68278   0.60205    0.011
 6370.00    0.67167   0.60342    0.011
 6371.00    0.65671   0.60449    0.011
 6372.00    0.62994   0.60524    0.011
 6373.00    0.59127   0.60506    0.011
 6374.00    0.56024   0.60383    0.011
 6375.00    0.53599   0.60227    0.011
 6376.00    0.55183   0.60094    0.011
 6377.00    0.59905   0.59984    0.011
 6378.00    0.62417   0.59884    0.011
 6379.00    0.63405   0.59813    0.010
 6380.00    0.64709   0.59799    0.010
 6381.00    0.66203   0.59837    0.010
 6382.00    0.67332   0.59901    0.010
 6383.00    0.68268   0.59934    0.010
 6384.00    0.70145   0.59917    0.010
 6385.00    0.72453   0.59891    0.010
 6386.00    0.70364   0.59857    0.010
 6387.00    0.66545   0.59754    0.010
 6388.00    0.64394   0.59569    0.010
 6389.00    0.62802   0.59402    0.010
 6390.00    0.62270   0.59333    0.010
 6391.00    0.62036   0.59325    0.010
 6392.00    0.59877   0.59332    0.011
 6393.00    0.57271   0.59358    0.011
 6394.00    0.53839   0.59413    0.011
 6395.00    0.50254   0.59464    0.011
 6396.00    0.56555   0.59535    0.012
 6397.00    0.64276   0.59675    0.012
 6398.00    0.67168   0.59832    0.012
 6399.00    0.69558   0.59958    0.011
 6400.00    0.67476   0.60109    0.011
 6401.00    0.65095   0.60335    0.011
 6402.00    0.62848   0.60517    0.011
 6403.00    0.60605   0.60555    0.011
 6404.00    0.64864   0.60532    0.011
 6405.00    0.69078   0.60482    0.011
 6406.00    0.71846   0.60359    0.011
 6407.00    0.74547   0.60187    0.011
 6408.00    0.76237   0.60066    0.010
 6409.00    0.77189   0.60034    0.010
 6410.00    0.71015   0.60011    0.010
 6411.00    0.65408   0.59959    0.010
 6412.00    0.63763   0.59929    0.010
 6413.00    0.62760   0.59919    0.010
 6414.00    0.65214   0.59871    0.011
 6415.00    0.66540   0.59772    0.011
 6416.00    0.63000   0.59660    0.011
 6417.00    0.59554   0.59607    0.011
 6418.00    0.56442   0.59656    0.011
 6419.00    0.53950   0.59767    0.011
 6420.00    0.53307   0.59895    0.011
 6421.00    0.53300   0.60071    0.011
 6422.00    0.54912   0.60304    0.011
 6423.00    0.56017   0.60495    0.011
 6424.00    0.56010   0.60531    0.011
 6425.00    0.56769   0.60417    0.011
 6426.00    0.58985   0.60246    0.011
 6427.00    0.59655   0.60114    0.011
 6428.00    0.57762   0.60039    0.011
 6429.00    0.56849   0.59979    0.011
 6430.00    0.57360   0.59938    0.011
 6431.00    0.61710   0.59996    0.011
 6432.00    0.70971   0.60158    0.011
 6433.00    0.76670   0.60282    0.011
 6434.00    0.78354   0.60319    0.011
 6435.00    0.75573   0.60393    0.011
 6436.00    0.68353   0.60577    0.010
 6437.00    0.61057   0.60794    0.010
 6438.00    0.53692   0.60976    0.011
 6439.00    0.52353   0.61172    0.011
 6440.00    0.55666   0.61396    0.011
 6441.00    0.61049   0.61535    0.011
 6442.00    0.67837   0.61496    0.011
 6443.00    0.69262   0.61275    0.011
 6444.00    0.67498   0.60879    0.011
 6445.00    0.67857   0.60382    0.011
 6446.00    0.69319   0.59947    0.012
 6447.00    0.68117   0.59661    0.012
 6448.00    0.65718   0.59503    0.012
 6449.00    0.62792   0.59456    0.012
 6450.00    0.59663   0.59565    0.012
 6451.00    0.62050   0.59844    0.012
 6452.00    0.66252   0.60195    0.011
 6453.00    0.66033   0.60519    0.011
 6454.00    0.64595   0.60760    0.011
 6455.00    0.62212   0.60899    0.011
 6456.00    0.59615   0.60952    0.010
 6457.00    0.60062   0.60899    0.010
 6458.00    0.61061   0.60759    0.011
 6459.00    0.55799   0.60647    0.011
 6460.00    0.49666   0.60611    0.011
 6461.00    0.47439   0.60599    0.011
 6462.00    0.45602   0.60612    0.010
 6463.00    0.50895   0.60743    0.011
 6464.00    0.56639   0.60967    0.011
 6465.00    0.58323   0.61122    0.011
 6466.00    0.59884   0.61161    0.011
 6467.00    0.59357   0.61139    0.011
 6468.00    0.58834   0.61087    0.011
 6469.00    0.58437   0.60979    0.011
 6470.00    0.58126   0.60818    0.011
 6471.00    0.59029   0.60671    0.011
 6472.00    0.60067   0.60591    0.011
 6473.00    0.62354   0.60531    0.012
 6474.00    0.65494   0.60409    0.012
 6475.00    0.74414   0.60255    0.012
 6476.00    0.82509   0.60095    0.012
 6477.00    0.86280   0.59880    0.012
 6478.00    0.87911   0.59621    0.011
 6479.00    0.80507   0.59415    0.011
 6480.00    0.74332   0.59291    0.011
 6481.00    0.72442   0.59200    0.011
 6482.00    0.71578   0.59164    0.011
 6483.00    0.73724   0.59209    0.011
 6484.00    0.74300   0.59253    0.011
 6485.00    0.70944   0.59172    0.011
 6486.00    0.66165   0.58941    0.011
 6487.00    0.58318   0.58589    0.011
 6488.00    0.54133   0.58095    0.011
 6489.00    0.56801   0.57423    0.011
 6490.00    0.59569   0.56655    0.011
 6491.00    0.62502   0.55980    0.011
 6492.00    0.65042   0.55490    0.011
 6493.00    0.67020   0.55167    0.011
 6494.00    0.68201   0.55036    0.011
 6495.00    0.68379   0.55179    0.011
 6496.00    0.66055   0.55602    0.011
 6497.00    0.60949   0.56184    0.012
 6498.00    0.56763   0.56815    0.012
 6499.00    0.53477   0.57418    0.011
 6500.00    0.56344   0.57987    0.012
 6501.00    0.64527   0.58495    0.012
 6502.00    0.66593   0.58887    0.012
 6503.00    0.64001   0.59144    0.011
 6504.00    0.60983   0.59296    0.011
 6505.00    0.57678   0.59415    0.011
 6506.00    0.59065   0.59516    0.011
 6507.00    0.63200   0.59560    0.011
 6508.00    0.66013   0.59549    0.011
 6509.00    0.68152   0.59530    0.011
 6510.00    0.69007   0.59500    0.011
 6511.00    0.69294   0.59424    0.011
 6512.00    0.69985   0.59311    0.011
 6513.00    0.70828   0.59203    0.011
 6514.00    0.67894   0.59119    0.011
 6515.00    0.63742   0.59095    0.011
 6516.00    0.62734   0.59160    0.011
 6517.00    0.62575   0.59278    0.011
 6518.00    0.65195   0.59403    0.011
 6519.00    0.68432   0.59553    0.012
 6520.00    0.70136   0.59728    0.012
 6521.00    0.71570   0.59855    0.012
 6522.00    0.72773   0.59894    0.012
 6523.00    0.73943   0.59895    0.012
 6524.00    0.72366   0.59917    0.012
 6525.00    0.70526   0.59939    0.012
 6526.00    0.73326   0.59923    0.012
 6527.00    0.76399   0.59890    0.012
 6528.00    0.76095   0.59889    0.000
 6529.00    0.75686   0.59931    0.000
 6530.00    0.72295   0.60003    0.000
 6531.00    0.68892   0.60090    0.000
 6532.00    0.65183   0.60172    0.000
 6533.00    0.61785   0.60256    0.000
 6534.00    0.62545   0.60358    0.000
 6535.00    0.63159   0.60454    0.000
 6536.00    0.62475   0.60464    0.000
 6537.00    0.61471   0.60344    0.000
 6538.00    0.58368   0.60135    0.000
 6539.00    0.56324   0.59882    0.000
 6540.00    0.59689   0.59570    0.000
 6541.00    0.61954   0.59176    0.000
 6542.00    0.59674   0.58758    0.000
 6543.00    0.58038   0.58417    0.000
 6544.00    0.58604   0.58161    0.000
 6545.00    0.59637   0.57908    0.000
 6546.00    0.62008   0.57632    0.000
 6547.00    0.66634   0.57384    0.000
 6548.00    0.76800   0.57153    0.000
 6549.00    0.83607   0.56850    0.000
 6550.00    0.83291   0.56438    0.000
 6551.00    0.80638   0.55969    0.000
 6552.00    0.73681   0.55476    0.000
 6553.00    0.69003   0.54879    0.000
 6554.00    0.67995   0.54099    0.000
 6555.00    0.64077   0.53194    0.000
 6556.00    0.56051   0.52231    0.000
 6557.00    0.51747   0.51127    0.000
 6558.00    0.52069   0.49939    0.000
 6559.00    0.59907   0.49090    0.000
 6560.00    0.75975   0.48888    0.000
 6561.00    0.90610   0.49102    0.000
 6562.00    1.03860   0.49540    0.000
 6563.00    1.11693   0.50409    0.000
 6564.00    1.14913   0.51683    0.000
 6565.00    1.14434   0.52912    0.000
 6566.00    1.11181   0.53857    0.000
 6567.00    1.05388   0.54593    0.000
 6568.00    0.97920   0.55117    0.000
 6569.00    0.85490   0.55436    0.000
 6570.00    0.70196   0.55678    0.000
 6571.00    0.61809   0.55917    0.000
 6572.00    0.56896   0.56142    0.000
 6573.00    0.53039   0.56361    0.000
 6574.00    0.49641   0.56608    0.000
 6575.00    0.51765   0.56875    0.000
 6576.00    0.55949   0.57125    0.000
 6577.00    0.60381   0.57332    0.000
 6578.00    0.64891   0.57532    0.000
 6579.00    0.62903   0.57748    0.000
 6580.00    0.59196   0.57953    0.000
 6581.00    0.63050   0.58141    0.000
 6582.00    0.68538   0.58335    0.000
 6583.00    0.76674   0.58541    0.000
 6584.00    0.85264   0.58674    0.000
 6585.00    0.92767   0.58697    0.000
 6586.00    1.00129   0.58626    0.000
 6587.00    0.93628   0.58481    0.000
 6588.00    0.85860   0.58225    0.000
 6589.00    0.79450   0.57911    0.000
 6590.00    0.73114   0.57688    0.000
 6591.00    0.70626   0.57581    0.000
 6592.00    0.68272   0.57519    0.000
 6593.00    0.70864   0.57523    0.000
 6594.00    0.73439   0.57659    0.000
 6595.00    0.75629   0.57898    0.000
 6596.00    0.77581   0.58147    0.000
 6597.00    0.76523   0.58341    0.000
 6598.00    0.74673   0.58465    0.000
 6599.00    0.66040   0.58533    0.000
 6600.00    0.58702   0.58538    0.000
 6601.00    0.59603   0.58450    0.000
 6602.00    0.59711   0.58297    0.000
 6603.00    0.55870   0.58126    0.000
 6604.00    0.53414   0.57944    0.000
 6605.00    0.56543   0.57793    0.000
 6606.00    0.59793   0.57776    0.000
 6607.00    0.63449   0.57889    0.000
 6608.00    0.64991   0.58023    0.000
 6609.00    0.60556   0.58153    0.012
 6610.00    0.57376   0.58364    0.012
 6611.00    0.57230   0.58634    0.012
 6612.00    0.57169   0.58828    0.012
 6613.00    0.57285   0.58917    0.012
 6614.00    0.57781   0.58980    0.012
 6615.00    0.58967   0.59037    0.012
 6616.00    0.61646   0.59021    0.012
 6617.00    0.66693   0.58917    0.012
 6618.00    0.68625   0.58765    0.012
 6619.00    0.66221   0.58574    0.012
 6620.00    0.68066   0.58342    0.012
 6621.00    0.75117   0.58117    0.013
 6622.00    0.75136   0.57944    0.013
 6623.00    0.67561   0.57801    0.013
 6624.00    0.64086   0.57664    0.013
 6625.00    0.64516   0.57560    0.012
 6626.00    0.67201   0.57504    0.012
 6627.00    0.71782   0.57454    0.012
 6628.00    0.72509   0.57374    0.012
 6629.00    0.70388   0.57274    0.012
 6630.00    0.63247   0.57204    0.012
 6631.00    0.52846   0.57201    0.012
 6632.00    0.53008   0.57238    0.012
 6633.00    0.59173   0.57291    0.012
 6634.00    0.60436   0.57363    0.012
 6635.00    0.59275   0.57439    0.012
 6636.00    0.53576   0.57509    0.012
 6637.00    0.45935   0.57579    0.012
 6638.00    0.53607   0.57593    0.012
 6639.00    0.66896   0.57521    0.012
 6640.00    0.75433   0.57464    0.012
 6641.00    0.82495   0.57488    0.013
 6642.00    0.81098   0.57485    0.013
 6643.00    0.77511   0.57401    0.013
 6644.00    0.72841   0.57343    0.013
 6645.00    0.67941   0.57339    0.013
 6646.00    0.65936   0.57283    0.013
 6647.00    0.64413   0.57147    0.013
 6648.00    0.64433   0.57015    0.013
 6649.00    0.64646   0.56924    0.013
 6650.00    0.61942   0.56836    0.013
 6651.00    0.58983   0.56741    0.013
 6652.00    0.65632   0.56664    0.012
 6653.00    0.72774   0.56616    0.012
 6654.00    0.76446   0.56574    0.012
 6655.00    0.79994   0.56502    0.013
 6656.00    0.79015   0.56399    0.012
 6657.00    0.77964   0.56293    0.012
 6658.00    0.75404   0.56168    0.012
 6659.00    0.72940   0.56015    0.012
 6660.00    0.71637   0.55915    0.012
 6661.00    0.69707   0.55904    0.012
 6662.00    0.62607   0.55917    0.012
 6663.00    0.56209   0.55958    0.013
 6664.00    0.54144   0.56103    0.013
 6665.00    0.54153   0.56329    0.013
 6666.00    0.64238   0.56538    0.013
 6667.00    0.70342   0.56707    0.013
 6668.00    0.60730   0.56834    0.013
 6669.00    0.51713   0.56868    0.013
 6670.00    0.44646   0.56783    0.013
 6671.00    0.42602   0.56611    0.013
 6672.00    0.54504   0.56339    0.013
 6673.00    0.62511   0.55930    0.014
 6674.00    0.61264   0.55513    0.013
 6675.00    0.60907   0.55258    0.013
 6676.00    0.62380   0.55123    0.013
 6677.00    0.64084   0.54984    0.013
 6678.00    0.66200   0.54942    0.013
 6679.00    0.66902   0.55098    0.013
 6680.00    0.65394   0.55320    0.013
 6681.00    0.65532   0.55473    0.013
 6682.00    0.67926   0.55595    0.013
 6683.00    0.65852   0.55730    0.013
 6684.00    0.58381   0.55833    0.013
 6685.00    0.55327   0.55897    0.013
 6686.00    0.56973   0.55933    0.013
 6687.00    0.60119   0.55940    0.013
 6688.00    0.64674   0.55912    0.013
 6689.00    0.68901   0.55876    0.014
 6690.00    0.72859   0.55827    0.014
 6691.00    0.71701   0.55745    0.014
 6692.00    0.66815   0.55648    0.014
 6693.00    0.66276   0.55600    0.014
 6694.00    0.68518   0.55603    0.014
 6695.00    0.65095   0.55622    0.014
 6696.00    0.58501   0.55670    0.000
 6697.00    0.60248   0.55757    0.000
 6698.00    0.66058   0.55845    0.000
 6699.00    0.66650   0.55897    0.000
 6700.00    0.65046   0.55928    0.000
 6701.00    0.65172   0.55953    0.000
 6702.00    0.65920   0.55962    0.000
 6703.00    0.66528   0.55943    0.000
 6704.00    0.67094   0.55909    0.000
 6705.00    0.62810   0.55861    0.000
 6706.00    0.57297   0.55767    0.000
 6707.00    0.60987   0.55627    0.000
 6708.00    0.66572   0.55440    0.000
 6709.00    0.70501   0.55174    0.000
 6710.00    0.74163   0.54845    0.000
 6711.00    0.60244   0.54521    0.000
 6712.00    0.44197   0.54210    0.000
 6713.00    0.41172   0.53904    0.000
 6714.00    0.39227   0.53679    0.000
 6715.00    0.60752   0.53607    0.000
 6716.00    0.83390   0.53620    0.000
 6717.00    0.83677   0.53661    0.000
 6718.00    0.83479   0.53767    0.000
 6719.00    0.73668   0.53962    0.000
 6720.00    0.64550   0.54148    0.000
 6721.00    0.68938   0.54268    0.000
 6722.00    0.72761   0.54369    0.000
 6723.00    0.70108   0.54503    0.000
 6724.00    0.67453   0.54629    0.000
 6725.00    0.64779   0.54712    0.000
 6726.00    0.61863   0.54788    0.000
 6727.00    0.57490   0.54878    0.000
 6728.00    0.55098   0.54950    0.000
 6729.00    0.62088   0.54981    0.000
 6730.00    0.70806   0.54988    0.000
 6731.00    0.86194   0.54976    0.000
 6732.00    0.94578   0.54949    0.000
 6733.00    0.80410   0.54895    0.000
 6734.00    0.68622   0.54807    0.000
 6735.00    0.63322   0.54707    0.000
 6736.00    0.61191   0.54641    0.000
 6737.00    0.66460   0.54597    0.000
 6738.00    0.65962   0.54512    0.000
 6739.00    0.53809   0.54414    0.000
 6740.00    0.48375   0.54374    0.000
 6741.00    0.54761   0.54351    0.000
 6742.00    0.58228   0.54261    0.000
 6743.00    0.57203   0.54149    0.000
 6744.00    0.53784   0.54064    0.000
 6745.00    0.47128   0.53975    0.000
 6746.00    0.46311   0.53882    0.000
 6747.00    0.52447   0.53840    0.000
 6748.00    0.55769   0.53830    0.000
 6749.00    0.56136   0.53848    0.000
 6750.00    0.54975   0.53962    0.000
 6751.00    0.52397   0.54154    0.000
 6752.00    0.44883   0.54355    0.000
 6753.00    0.33342   0.54570    0.015
 6754.00    0.28685   0.54820    0.015
 6755.00    0.28975   0.55048    0.015
 6756.00    0.40391   0.55227    0.016
 6757.00    0.58822   0.55355    0.016
 6758.00    0.81567   0.55416    0.017
 6759.00    1.06689   0.55422    0.017
 6760.00    0.94153   0.55399    0.017
 6761.00    0.63570   0.55339    0.018
 6762.00    0.74991   0.55227    0.018
 6763.00    1.03788   0.55106    0.019
 6764.00    0.99078   0.55038    0.018
 6765.00    0.82517   0.55025    0.018
 6766.00    0.78922   0.55016    0.018
 6767.00    0.79196   0.55037    0.017
 6768.00    0.81762   0.55157    0.017
 6769.00    0.84895   0.55350    0.017
 6770.00    0.93826   0.55532    0.016
 6771.00    1.03920   0.55702    0.016
 6772.00    0.91240   0.55878    0.016
 6773.00    0.74981   0.56007    0.015
 6774.00    0.74867   0.56044    0.015
 6775.00    0.76636   0.55992    0.015
 6776.00    0.66683   0.55847    0.015
 6777.00    0.55805   0.55600    0.015
 6778.00    0.45522   0.55275    0.015
 6779.00    0.35264   0.54920    0.016
 6780.00    0.61981   0.54582    0.016
 6781.00    0.88475   0.54301    0.017
 6782.00    0.86488   0.54093    0.017
 6783.00    0.84791   0.53986    0.016
 6784.00    0.88346   0.53984    0.017
 6785.00    0.90485   0.54036    0.017
 6786.00    0.77123   0.54106    0.016
 6787.00    0.66351   0.54207    0.016
 6788.00    0.75493   0.54310    0.016
 6789.00    0.81995   0.54363    0.016
 6790.00    0.73108   0.54399    0.016
 6791.00    0.65421   0.54465    0.016
 6792.00    0.63283   0.54543    0.016
 6793.00    0.62786   0.54619    0.015
 6794.00    0.68491   0.54714    0.015
 6795.00    0.73338   0.54829    0.015
 6796.00    0.75474   0.54949    0.015
 6797.00    0.75157   0.55067    0.015
 6798.00    0.68270   0.55163    0.015
 6799.00    0.65249   0.55222    0.015
 6800.00    0.71111   0.55261    0.015
 6801.00    0.72451   0.55297    0.015
 6802.00    0.64800   0.55305    0.016
 6803.00    0.60298   0.55283    0.016
 6804.00    0.61250   0.55278    0.016
 6805.00    0.58486   0.55288    0.016
 6806.00    0.50086   0.55268    0.016
 6807.00    0.50617   0.55241    0.016
 6808.00    0.63052   0.55239    0.016
 6809.00    0.69948   0.55234    0.016
 6810.00    0.70344   0.55199    0.016
 6811.00    0.66977   0.55161    0.016
 6812.00    0.59716   0.55158    0.016
 6813.00    0.60618   0.55192    0.016
 6814.00    0.68973   0.55224    0.016
 6815.00    0.70867   0.55250    0.016
 6816.00    0.67562   0.55307    0.016
 6817.00    0.65769   0.55404    0.015
 6818.00    0.65047   0.55505    0.015
 6819.00    0.67849   0.55580    0.015
 6820.00    0.72842   0.55625    0.015
 6821.00    0.76010   0.55667    0.015
 6822.00    0.78186   0.55705    0.015
 6823.00    0.71258   0.55700    0.015
 6824.00    0.60035   0.55643    0.015
 6825.00    0.53763   0.55598    0.015
 6826.00    0.49503   0.55600    0.015
 6827.00    0.63730   0.55617    0.015
 6828.00    0.84376   0.55618    0.016
 6829.00    0.72359   0.55641    0.016
 6830.00    0.50785   0.55711    0.016
 6831.00    0.56110   0.55769    0.016
 6832.00    0.67952   0.55752    0.017
 6833.00    0.84049   0.55683    0.017
 6834.00    1.00978   0.55597    0.016
 6835.00    0.84049   0.55471    0.016
 6836.00    0.61958   0.55314    0.016
 6837.00    0.69033   0.55166    0.016
 6838.00    0.79382   0.55069    0.016
 6839.00    0.77944   0.55042    0.016
 6840.00    0.75625   0.55097    0.017
 6841.00    0.71417   0.55196    0.016
 6842.00    0.67134   0.55308    0.016
 6843.00    0.73143   0.55425    0.015
 6844.00    0.79035   0.55533    0.015
 6845.00    0.77505   0.55578    0.015
 6846.00    0.75728   0.55539    0.015
 6847.00    0.69774   0.55448    0.015
 6848.00    0.63682   0.55339    0.015
 6849.00    0.56145   0.55205    0.015
 6850.00    0.50247   0.55035    0.016
 6851.00    0.56526   0.54859    0.016
 6852.00    0.59547   0.54733    0.016
 6853.00    0.44111   0.54647    0.016
 6854.00    0.36072   0.54560    0.016
 6855.00    0.61435   0.54511    0.016
 6856.00    0.77518   0.54532    0.016
 6857.00    0.59248   0.54563    0.016
 6858.00    0.46808   0.54601    0.016
 6859.00    0.52424   0.54704    0.016
 6860.00    0.53000   0.54815    0.015
 6861.00    0.40316   0.54865    0.015
 6862.00    0.37510   0.54904    0.015
 6863.00    0.57024   0.54943    0.015
 6864.00    0.73715   0.54924    0.015
 6865.00    0.84882   0.54877    0.015
 6866.00    0.82002   0.54867    0.015
 6867.00    0.55152   0.54849    0.016
 6868.00    0.41878   0.54820    0.016
 6869.00    0.48895   0.54878    0.016
 6870.00    0.54365   0.55012    0.016
 6871.00    0.57802   0.55123    0.016
 6872.00    0.62792   0.55231    0.016
 6873.00    0.69579   0.55389    0.016
 6874.00    0.73734   0.55536    0.016
 6875.00    0.75204   0.55610    0.016
 6876.00    0.71081   0.55644    0.016
 6877.00    0.61926   0.55657    0.016
 6878.00    0.69919   0.55623    0.016
 6879.00    0.91514   0.55568    0.016
 6880.00    0.93311   0.55561    0.016
 6881.00    0.81294   0.55601    0.016
 6882.00    0.68191   0.55655    0.015
 6883.00    0.54422   0.55770    0.015
 6884.00    0.58308   0.55959    0.015
 6885.00    0.71629   0.56146    0.015
 6886.00    0.75291   0.56303    0.015
 6887.00    0.74472   0.56468    0.015
 6888.00    0.72594   0.56595    0.015
 6889.00    0.70292   0.56656    0.015
 6890.00    0.62542   0.56708    0.015
 6891.00    0.52935   0.56740    0.015
 6892.00    0.58261   0.56716    0.016
 6893.00    0.67869   0.56688    0.016
 6894.00    0.68761   0.56705    0.016
 6895.00    0.67589   0.56719    0.016
 6896.00    0.64608   0.56703    0.016
 6897.00    0.61282   0.56721    0.017
 6898.00    0.67761   0.56808    0.016
 6899.00    0.75688   0.56896    0.016
 6900.00    0.69314   0.56951    0.016
 6901.00    0.61396   0.57033    0.016
 6902.00    0.63691   0.57164    0.016
 6903.00    0.66708   0.57270    0.016
 6904.00    0.69154   0.57314    0.016
 6905.00    0.71580   0.57338    0.016
 6906.00    0.64254   0.57349    0.016
 6907.00    0.57324   0.57305    0.015
 6908.00    0.65231   0.57212    0.015
 6909.00    0.72692   0.57110    0.015
 6910.00    0.73093   0.56998    0.015
 6911.00    0.72409   0.56906    0.015
 6912.00    0.60855   0.56854    0.015
 6913.00    0.52053   0.56818    0.015
 6914.00    0.63027   0.56804    0.015
 6915.00    0.70447   0.56828    0.016
 6916.00    0.58272   0.56848    0.015
 6917.00    0.49875   0.56832    0.015
 6918.00    0.58134   0.56804    0.016
 6919.00    0.66421   0.56753    0.016
 6920.00    0.74810   0.56675    0.017
 6921.00    0.80640   0.56596    0.017
 6922.00    0.78695   0.56547    0.017
 6923.00    0.72939   0.56542    0.017
 6924.00    0.57329   0.56564    0.016
 6925.00    0.49446   0.56603    0.016
 6926.00    0.58737   0.56662    0.016
 6927.00    0.66109   0.56751    0.016
 6928.00    0.69783   0.56829    0.016
 6929.00    0.69741   0.56861    0.016
 6930.00    0.63452   0.56900    0.016
 6931.00    0.57270   0.56979    0.016
 6932.00    0.51242   0.57053    0.015
 6933.00    0.45487   0.57105    0.015
 6934.00    0.40085   0.57186    0.016
 6935.00    0.37736   0.57281    0.016
 6936.00    0.38869   0.57341    0.016
 6937.00    0.51197   0.57364    0.016
 6938.00    0.74788   0.57353    0.017
 6939.00    0.73297   0.57331    0.017
 6940.00    0.49548   0.57303    0.017
 6941.00    0.55503   0.57256    0.017
 6942.00    0.84686   0.57228    0.017
 6943.00    0.92185   0.57251    0.017
 6944.00    0.84776   0.57272    0.017
 6945.00    0.68453   0.57281    0.016
 6946.00    0.46757   0.57311    0.016
 6947.00    0.42702   0.57320    0.016
 6948.00    0.47927   0.57294    0.016
 6949.00    0.58840   0.57281    0.016
 6950.00    0.72350   0.57273    0.016
 6951.00    0.71610   0.57278    0.016
 6952.00    0.65274   0.57349    0.016
 6953.00    0.63777   0.57466    0.015
 6954.00    0.63899   0.57586    0.015
 6955.00    0.63070   0.57733    0.016
 6956.00    0.61975   0.57904    0.016
 6957.00    0.58962   0.58061    0.016
 6958.00    0.55504   0.58180    0.016
 6959.00    0.51447   0.58286    0.016
 6960.00    0.47278   0.58394    0.016
 6961.00    0.44130   0.58487    0.016
 6962.00    0.41129   0.58538    0.016
 6963.00    0.61721   0.58585    0.017
 6964.00    0.84756   0.58640    0.017
 6965.00   -0.46761   0.58663    0.000
 6966.00   -1.88578   0.58643    0.000
 6967.00   -0.75571   0.58590    0.000
 6968.00    0.45593   0.58507   -1.000
 6969.00    0.40810   0.58384   -1.000
 6970.00    0.36292   0.58189   -1.000
 6971.00    0.39917   0.57910   -1.000
 6972.00    0.43612   0.57630   -1.000
 6973.00    0.48333   0.57405   -1.000
 6974.00    0.52507   0.57173   -1.000
 6975.00    0.51429   0.56989   -1.000
 6976.00    0.50999   0.56993   -1.000
 6977.00    0.55085   0.57144   -1.000
 6978.00    0.58183   0.57336   -1.000
 6979.00    0.55986   0.57605   -1.000
 6980.00    0.54327   0.57949   -1.000
 6981.00    0.54994   0.58239   -1.000
 6982.00    0.54046   0.58427   -1.000
 6983.00    0.47368   0.58543   -1.000
 6984.00    0.45291   0.58583   -1.000
 6985.00    0.56936   0.58555   -1.000
 6986.00    0.65142   0.58495   -1.000
 6987.00    0.64613   0.58440   -1.000
 6988.00    0.62945   0.58400   -1.000
 6989.00    0.58785   0.58371   -1.000
 6990.00    0.56449   0.58353   -1.000
 6991.00    0.57576   0.58349   -1.000
 6992.00    0.58570   0.58335   -1.000
 6993.00    0.59344   0.58295   -1.000
 6994.00    0.59883   0.58243   -1.000
 6995.00    0.60081   0.58182   -1.000
 6996.00    0.59581   0.58103   -1.000
 6997.00    0.58192   0.58034   -1.000
 6998.00    0.54758   0.58005   -1.000
 6999.00    0.49024   0.57978   -1.000
 7000.00    0.48048   0.57937   -1.000
 7001.00    0.51793   0.57933   -1.000
 7002.00    0.19104   0.57983   -1.000
 7003.00   -0.45460   0.58030    0.000
 7004.00   -0.41245   0.58044    0.000
 7005.00    0.15982   0.58089   -1.000
 7006.00    0.40048   0.58160   -1.000
 7007.00    0.41643   0.58181   -1.000
 7008.00    0.42657   0.58139   -1.000
 7009.00    0.43326   0.58086   -1.000
 7010.00    0.48929   0.58029   -1.000
 7011.00    0.57086   0.57944   -1.000
 7012.00    0.53893   0.57850   -1.000
 7013.00    0.45603   0.57819   -1.000
 7014.00    0.43714   0.57895   -1.000
 7015.00    0.44295   0.57990   -1.000
 7016.00    0.45789   0.58051   -1.000
 7017.00    0.47581   0.58157   -1.000
 7018.00    0.42735   0.58295   -1.000
 7019.00    0.36062   0.58344   -1.000
 7020.00    0.43879   0.58310   -1.000
 7021.00    0.54972   0.58295   -1.000
 7022.00    0.46361   0.58314   -1.000
 7023.00    0.34190   0.58325   -1.000
 7024.00    0.37124   0.58354   -1.000
 7025.00    0.42149   0.58451   -1.000
 7026.00    0.52158   0.58585   -1.000
 7027.00    0.62661   0.58689   -1.000
 7028.00    0.51917   0.58771   -1.000
 7029.00    0.39842   0.58859   -1.000
 7030.00    0.36463   0.58914   -1.000
 7031.00    0.33377   0.58907   -1.000
 7032.00    0.42249   0.58915   -1.000
 7033.00    0.51002   0.58975   -1.000
 7034.00    0.56477   0.59021   -1.000
 7035.00    0.61146   0.59099   -1.000
 7036.00    0.54480   0.59315   -1.000
 7037.00    0.47955   0.59581   -1.000
 7038.00    0.42719   0.59800   -1.000
 7039.00    0.38537   0.60070   -1.000
 7040.00    0.41453   0.60381   -1.000
 7041.00    0.44221   0.60593   -1.000
 7042.00    0.46209   0.60711   -1.000
 7043.00    0.48163   0.60776   -1.000
 7044.00    0.49968   0.60731   -1.000
 7045.00    0.54160   0.60533   -1.000
 7046.00    0.66650   0.60205   -1.000
 7047.00    0.70502   0.59737   -1.000
 7048.00    0.49073   0.59119   -1.000
 7049.00    0.34061   0.58400   -1.000
 7050.00    0.35066   0.57635   -2.000
 7051.00    0.38022   0.56872   -2.000
 7052.00    0.45173   0.56160   -2.000
 7053.00    0.49558   0.55562   -2.000
 7054.00    0.48775   0.55090   -2.000
 7055.00    0.50751   0.54706   -2.000
 7056.00    0.57228   0.54416   -2.000
 7057.00    0.55557   0.54228   -2.000
 7058.00    0.42233   0.54090   -2.000
 7059.00    0.38457   0.53952   -2.000
 7060.00    0.46696   0.53849   -2.000
 7061.00    0.57103   0.53801   -2.000
 7062.00    0.69915   0.53772   -2.000
 7063.00    0.18782   0.53776   -2.000
 7064.00   -0.94894   0.53842   -2.000
 7065.00   -0.96942   0.53944   -2.000
 7066.00   -0.02705   0.54103   -2.000
 7067.00    0.40156   0.54343   -2.000
 7068.00    0.43983   0.54595   -2.000
 7069.00    0.36001   0.54852   -2.000
 7070.00    0.20135   0.55133   -2.000
 7071.00    0.25510   0.55382   -2.000
 7072.00    0.43308   0.55557   -2.000
 7073.00    0.51540   0.55693   -2.000
 7074.00    0.54896   0.55788   -2.000
 7075.00    0.47343   0.55804   -2.000
 7076.00    0.34975   0.55735   -2.000
 7077.00    0.36675   0.55577   -2.000
 7078.00    0.43711   0.55327   -2.000
 7079.00    0.35718   0.54990   -2.000
 7080.00    0.22885   0.54541   -2.000
 7081.00    0.18776   0.54001   -2.000
 7082.00    0.17018   0.53465   -2.000
 7083.00    0.26151   0.52936   -2.000
 7084.00    0.37689   0.52384   -2.000
 7085.00    0.32681   0.51912   -2.000
 7086.00    0.24764   0.51572   -2.000
 7087.00    0.41670   0.51289   -2.000
 7088.00    0.61901   0.51072   -2.000
 7089.00    0.39625   0.50966   -2.000
 7090.00    0.13311   0.50930   -2.000
 7091.00    0.19263   0.50943   -2.000
 7092.00    0.27108   0.51019   -2.000
 7093.00    0.20786   0.51109   -2.000
 7094.00    0.14244   0.51219   -2.000
 7095.00    0.25288   0.51350   -2.000
 7096.00    0.35713   0.51488   -2.000
 7097.00    0.30745   0.51617   -2.000
 7098.00    0.26014   0.51741   -2.000
 7099.00    0.24430   0.51864   -2.000
 7100.00    0.23937   0.51958   -2.000
 7101.00    0.33114   0.52058   -2.000
 7102.00    0.39094   0.52158   -2.000
 7103.00    0.24182   0.52214   -2.000
 7104.00    0.12680   0.52253   -2.000
 7105.00    0.18548   0.52310   -2.000
 7106.00    0.22743   0.52348   -2.000
 7107.00    0.20056   0.52350   -2.000
 7108.00    0.18953   0.52372   -2.000
 7109.00    0.23245   0.52457   -2.000
 7110.00    0.27390   0.52559   -2.000
 7111.00    0.31109   0.52653   -2.000
 7112.00    0.34413   0.52778   -2.000
 7113.00    0.36696   0.52932   -2.000
 7114.00    0.32670   0.53046   -2.000
 7115.00    0.15292   0.53083   -2.000
 7116.00    0.06124   0.53085   -2.000
 7117.00    0.12052   0.53040   -2.000
 7118.00    0.20756   0.52874   -2.000
 7119.00    0.33919   0.52602   -2.000
 7120.00    0.38413   0.52297   -2.000
 7121.00    0.30688   0.51937   -2.000
 7122.00    0.33247   0.51476   -2.000
 7123.00    0.48563   0.51018   -2.000
 7124.00    0.36808   0.50634   -2.000
 7125.00   -0.04545   0.50283   -2.000
 7126.00   -0.25833   0.49979   -2.000
 7127.00   -0.27770   0.49799   -2.000
 7128.00   -0.20847   0.49744   -2.000
 7129.00   -0.06388   0.49761   -2.000
 7130.00   -0.00425   0.49842   -2.000
 7131.00   -0.00823   0.49976   -2.000
 7132.00   -0.10245   0.50132   -2.000
 7133.00   -0.25605   0.50301   -2.000
 7134.00   -0.13157   0.50480   -2.000
 7135.00    0.15308   0.50612   -2.000
 7136.00    0.26650   0.50719   -2.000
 7137.00    0.29400   0.50853   -2.000
 7138.00    0.17469   0.50954   -2.000
 7139.00   -0.00839   0.51012   -2.000
 7140.00   -0.03435   0.51077   -2.000
 7141.00   -0.00179   0.51117   -2.000
 7142.00   -0.03384   0.51126   -2.000
 7143.00   -0.08631   0.51149   -2.000
 7144.00    0.00622   0.51163   -2.000
 7145.00    0.13700   0.51189   -2.000
 7146.00    0.22189   0.51305   -2.000
 7147.00    0.29689   0.51461   -2.000
 7148.00    0.24644   0.51608   -2.000
 7149.00    0.17454   0.51824   -2.000
 7150.00    0.14934   0.52082   -2.000
 7151.00    0.13017   0.52269   -2.000
 7152.00    0.15311   0.52400   -2.000
 7153.00    0.17988   0.52516   -2.000
 7154.00    0.28988   0.52567   -2.000
 7155.00    0.40444   0.52519   -2.000
 7156.00    0.44597   0.52424   -2.000
 7157.00    0.48432   0.52314   -2.000
 7158.00    0.37191   0.52171   -2.000
 7159.00    0.25200   0.52022   -2.000
 7160.00   -0.03779   0.51890   -2.000
 7161.00   -0.31778   0.51804   -2.000
 7162.00   -0.47416   0.51787   -2.000
 7163.00   -0.55996   0.51826   -2.000
 7164.00   -0.04368   0.51917   -2.000
 7165.00    0.43144   0.52049   -2.000
 7166.00    0.64570   0.52216   -2.000
 7167.00    0.75067   0.52401   -2.000
 7168.00    0.31302   0.52567   -2.000
 7169.00   -0.05024   0.52676   -2.000
 7170.00   -0.11407   0.52748   -2.000
 7171.00   -0.13572   0.52804   -2.000
 7172.00   -0.01644   0.52810   -2.000
 7173.00    0.15448   0.52766   -2.000
 7174.00    0.47103   0.52719   -2.000
 7175.00    0.63862   0.52681   -2.000
 7176.00    0.44690   0.52627   -2.000
 7177.00    0.28914   0.52585   -2.000
 7178.00    0.20210   0.52578   -2.000
 7179.00    0.16105   0.52581   -2.000
 7180.00    0.20328   0.52562   -2.000
 7181.00    0.19318   0.52523   -2.000
 7182.00    0.10022   0.52477   -2.000
 7183.00    0.15448   0.52418   -2.000
 7184.00    0.41328   0.52337   -2.000
 7185.00    0.50991   0.52268   -2.000
 7186.00    0.40825   0.52227   -2.000
 7187.00    0.33482   0.52225   -2.000
 7188.00    0.29183   0.52280   -2.000
 7189.00    0.24875   0.52351   -2.000
 7190.00    0.20558   0.52418   -2.000
 7191.00    0.20902   0.52507   -2.000
 7192.00    0.25154   0.52571   -2.000
 7193.00    0.20063   0.52581   -2.000
 7194.00    0.08076   0.52579   -2.000
 7195.00    0.13255   0.52591   -2.000
 7196.00    0.29564   0.52594   -2.000
 7197.00    0.39813   0.52572   -2.000
 7198.00    0.46625   0.52555   -2.000
 7199.00    0.26187   0.52541   -2.000
 7200.00   -0.07709   0.52507   -2.000
 7201.00   -0.21845   0.52454   -2.000
 7202.00   -0.27545   0.52382   -2.000
 7203.00   -0.19891   0.52303   -2.000
 7204.00   -0.07351   0.52256   -2.000
 7205.00    0.08012   0.52265   -2.000
 7206.00    0.24250   0.52297   -2.000
 7207.00    0.17163   0.52367   -2.000
 7208.00    0.04057   0.52522   -2.000
 7209.00    0.10404   0.52689   -2.000
 7210.00    0.20844   0.52846   -2.000
 7211.00    0.22674   0.53039   -2.000
 7212.00    0.23073   0.53217   -2.000
 7213.00    0.10135   0.53356   -2.000
 7214.00   -0.04470   0.53513   -2.000
 7215.00   -0.08711   0.53684   -2.000
 7216.00   -0.12054   0.53813   -2.000
 7217.00    0.06796   0.53935   -2.000
 7218.00    0.26773   0.54086   -2.000
