###################################################################
## OUTPUT of StarlightChains_v04.for    [Cid@UFSC - 01/Apr/2007] ##
###################################################################

## Some input info
KUG0210-078._26_26.txt                   [arq_obs]
Base.CB07.vall.4m                        [arq_base]
Masks.EmLines.NEW.gm                     [arq_masks]
StCv04.C11.config                        [arq_config]
   66                                    [N_base]
    0                                    [N_YAV_components = # of components with extra extinction!]
    0                                    [i_FitPowerLaw (1/0 = Yes/No)]
-9.99                                    [alpha_PowerLaw]
CCM                                      [red_law_option]
 1.458241                                [q_norm = A(l_norm)/A(V)]

## (Re)Sampling Parameters
 3741.00                                 [l_ini (A)]
 7218.00                                 [l_fin (A)]
    1.00                                 [dl    (A)]     (OBS: dl_cushion =    50.00 A)

## Normalization info
 4020.00                                 [l_norm (A) - for base]
 4010.00                                 [llow_norm (A) - window for f_obs]
 4060.00                                 [lupp_norm (A) - window for f_obs]
1.818531E-17                             [fobs_norm (in input units)]

## S/N
 3691.00                                 [llow_SN (A) - window for S/N]
 7268.00                                 [lupp_SN (A) - window for S/N]
   5.592                                 [S/N in S/N window]
   6.021                                 [S/N in norm. window]
   0.024                                 [S/N_err in S/N window]
   0.026                                 [S/N_err in norm. window]
  1.0000                                 [fscale_chi2]

## etc...
    -2007322                             [idum_orig]
  2402                                   [NOl_eff]
  2394                                   [Nl_eff]
     8    NSIGMA                         [Ntot_cliped & clip_method]
  1043420                                [Nglobal_steps]
   7                                     [N_chains]
  40                                     [NEX0s_base = N_base in EX0s-fits]
 0   0   1        8   2.0   2.123E+03    [Clip-Bug, RC-Crash & Burn-In warning-flags, n_censored_weights, wei_nsig_threshold & wei_limit]
    32     31.414     31.023      0.391  [idt_all, wdt_TotTime, wdt_UsrTime & wdt_SysTime (sec)]

## Synthesis Results - Best model ##

 4.42807E-05                             [chi2/Nl_eff]
    13.46956                             [adev (%)]

    91.63029                             [sum-of-x (%)]
 2.90263E-17                             [Flux_tot (units of input spectrum!)]
 7.25476E-13                             [Mini_tot (???)]
 3.69303E-13                             [Mcor_tot (???)]

-158.97                                  [v0_min  (km/s)]
   0.06                                  [vd_min  (km/s)]
 0.4132                                  [AV_min  (mag)]
 0.0000                                  [YAV_min (mag)]

# j     x_j(%)      Mini_j(%)     Mcor_j(%)     age_j(yr)     Z_j      (L/M)_j    YAV?  Mstars   component_j        a/Fe...       SSP_chi2r SSP_adev(%)   SSP_AV   SSP_x(%)
  1      0.0000     0.0000E+00    0.0000E+00    1.000000E+06  0.00400  1.094E-02    0   1.0000   age020_m42            0.0000     5.1068E-05    15.0765   3.3244    77.2792
  2      0.0000     0.0000E+00    0.0000E+00    3.160000E+06  0.00400  4.007E-02    0   0.9999   age045_m42            0.0000     5.2500E-05    16.8345   2.3044    93.0614
  3      0.0000     0.0000E+00    0.0000E+00    5.010000E+06  0.00400  2.539E-02    0   0.9488   age055_m42            0.0000     5.1412E-05    16.1689   2.7155    87.6227
  4      0.0000     0.0000E+00    0.0000E+00    6.610000E+06  0.00400  2.620E-02    0   0.9220   age061_m42            0.0000     5.7120E-05    17.6510   2.1514    96.2193
  5      0.0000     0.0000E+00    0.0000E+00    1.000000E+07  0.00400  1.322E-02    0   0.8862   age070_m42            0.0000     5.2468E-05    15.7135   1.9860    94.2090
  6      0.0000     0.0000E+00    0.0000E+00    1.445000E+07  0.00400  7.883E-03    0   0.8571   age078_m42            0.0000     5.1273E-05    15.4257   2.3688    89.7573
  7      0.0000     0.0000E+00    0.0000E+00    2.512000E+07  0.00400  5.251E-03    0   0.8174   age090_m42            0.0000     5.2831E-05    15.6522   1.8513    94.9785
  8      6.7723     8.1039E-02    1.2498E-01    4.000000E+07  0.00400  3.649E-03    0   0.7851   age104_m42            0.0000     5.4043E-05    16.0443   1.5831    97.3328
  9      0.0000     0.0000E+00    0.0000E+00    5.500000E+07  0.00400  3.098E-03    0   0.7629   age110_m42            0.0000     6.1134E-05    17.6836   1.6165   101.8015
 10      0.0000     0.0000E+00    0.0000E+00    1.015200E+08  0.00400  2.228E-03    0   0.7207   age116_m42            0.0000     7.0821E-05    19.2501   1.5247   106.2188
 11      0.0000     0.0000E+00    0.0000E+00    2.861200E+08  0.00400  1.093E-03    0   0.6648   age125_m42            0.0000     7.2599E-05    18.9786   0.9367   110.1280
 12      0.0000     0.0000E+00    0.0000E+00    5.088000E+08  0.00400  6.597E-04    0   0.6365   age130_m42            0.0000     8.1344E-05    20.4574   0.8322   114.6925
 13      5.8690     1.2020E+00    1.3691E+00    1.434000E+09  0.00400  2.132E-04    0   0.5798   age139_m42            0.0000     5.9919E-05    18.1565  -0.0003   110.8369
 14      0.0000     0.0000E+00    0.0000E+00    4.250000E+09  0.00400  5.895E-05    0   0.5377   age158_m42            0.0000     4.7042E-05    15.2764  -0.1354    94.7502
 15     19.5692     2.4344E+01    2.4925E+01    7.500000E+09  0.00400  3.510E-05    0   0.5212   age171_m42            0.0000     4.8019E-05    14.8380  -0.2497    91.2571
 16      0.0000     0.0000E+00    0.0000E+00    1.300000E+10  0.00400  2.005E-05    0   0.5034   age193_m42            0.0000     4.9864E-05    14.4188  -0.3375    87.8568
 17      0.0000     0.0000E+00    0.0000E+00    1.800000E+10  0.00400  1.525E-05    0   0.4967   age213_m42            0.0000     4.9350E-05    14.4730  -0.3755    87.9903
 18      0.0000     0.0000E+00    0.0000E+00    1.000000E+06  0.00800  1.238E-02    0   1.0000   age020_m52            0.0000     5.1039E-05    15.1136   3.3148    77.6184
 19      0.0000     0.0000E+00    0.0000E+00    3.160000E+06  0.00800  3.074E-02    0   0.9966   age045_m52            0.0000     5.0849E-05    15.4091   3.1888    79.9506
 20      0.0000     0.0000E+00    0.0000E+00    5.010000E+06  0.00800  2.668E-02    0   0.9443   age055_m52            0.0000     5.1205E-05    16.0021   2.8242    85.9332
 21      0.0000     0.0000E+00    0.0000E+00    6.610000E+06  0.00800  2.136E-02    0   0.9177   age061_m52            0.0000     4.6352E-05    14.1578   1.6608    88.7307
 22      0.0000     0.0000E+00    0.0000E+00    1.000000E+07  0.00800  1.215E-02    0   0.8827   age070_m52            0.0000     5.0183E-05    14.8664   2.2469    90.9872
 23      3.6224     1.8145E-02    3.0484E-02    1.445000E+07  0.00800  8.717E-03    0   0.8552   age078_m52            0.0000     5.1403E-05    15.4695   2.3186    91.6131
 24      0.0000     0.0000E+00    0.0000E+00    2.512000E+07  0.00800  5.592E-03    0   0.8162   age090_m52            0.0000     5.3618E-05    15.7393   1.8979    96.7666
 25      0.0000     0.0000E+00    0.0000E+00    4.000000E+07  0.00800  3.896E-03    0   0.7841   age104_m52            0.0000     5.7103E-05    16.5802   1.7353   100.3504
 26      5.1671     1.0504E-01    1.4910E-01    1.015200E+08  0.00800  2.148E-03    0   0.7226   age116_m52            0.0000     6.7063E-05    18.5035   1.5352   105.4815
 27      0.0000     0.0000E+00    0.0000E+00    2.861200E+08  0.00800  9.925E-04    0   0.6683   age125_m52            0.0000     8.6334E-05    20.9583   0.8652   117.0666
 28      0.0000     0.0000E+00    0.0000E+00    9.047900E+08  0.00800  3.141E-04    0   0.6138   age135_m52            0.0000     6.6087E-05    19.4010   0.1533   117.7206
 29      0.0000     0.0000E+00    0.0000E+00    1.434000E+09  0.00800  1.719E-04    0   0.5853   age139_m52            0.0000     5.0624E-05    16.5035  -0.1906   105.4686
 30      0.0000     0.0000E+00    0.0000E+00    2.500000E+09  0.00800  7.872E-05    0   0.5600   age150_m52            0.0000     4.9284E-05    15.9205  -0.3493    98.2591
 31      0.0000     0.0000E+00    0.0000E+00    4.250000E+09  0.00800  4.336E-05    0   0.5426   age158_m52            0.0000     4.9214E-05    15.5896  -0.3212    95.7020
 32      0.0000     0.0000E+00    0.0000E+00    6.250000E+09  0.00800  3.159E-05    0   0.5319   age166_m52            0.0000     5.1426E-05    15.6095  -0.4946    94.4461
 33      6.7513     2.1660E+01    2.1586E+01    1.300000E+10  0.00800  1.361E-05    0   0.5073   age193_m52            0.0000     5.5557E-05    15.6562  -0.9082    91.6444
 34     11.6136     5.1295E+01    5.0282E+01    1.800000E+10  0.00800  9.886E-06    0   0.4990   age213_m52            0.0000     5.9007E-05    16.0224  -1.0000    91.3947
 35      8.7240     2.4672E-02    4.8466E-02    1.000000E+06  0.02000  1.544E-02    0   1.0000   age020_m62            0.0000     5.1030E-05    15.1587   3.3038    78.0183
 36      0.0000     0.0000E+00    0.0000E+00    3.160000E+06  0.02000  3.762E-02    0   0.9858   age045_m62            0.0000     5.1007E-05    15.3888   3.2089    79.8168
 37      0.0000     0.0000E+00    0.0000E+00    5.010000E+06  0.02000  3.296E-02    0   0.9342   age055_m62            0.0000     5.4915E-05    17.3183   2.5616    92.7403
 38     11.2121     4.2424E-02    7.3847E-02    8.710000E+06  0.02000  1.154E-02    0   0.8861   age067_m62            0.0000     4.9298E-05    13.8340   1.9440    84.3300
 39      0.0000     0.0000E+00    0.0000E+00    1.445000E+07  0.02000  7.663E-03    0   0.8472   age078_m62            0.0000     4.7847E-05    13.9855   1.9755    89.8852
 40      0.0000     0.0000E+00    0.0000E+00    2.512000E+07  0.02000  4.532E-03    0   0.8099   age090_m62            0.0000     4.9848E-05    14.3843   1.9075    91.9281
 41      0.0000     0.0000E+00    0.0000E+00    5.500000E+07  0.02000  2.733E-03    0   0.7595   age110_m62            0.0000     5.7920E-05    16.6325   1.7133    99.8150
 42      0.0000     0.0000E+00    0.0000E+00    1.609000E+08  0.02000  1.369E-03    0   0.6985   age120_m62            0.0000     8.6648E-05    20.5846   1.2652   113.9219
 43      0.0000     0.0000E+00    0.0000E+00    2.861200E+08  0.02000  9.013E-04    0   0.6714   age125_m62            0.0000     1.0612E-04    22.5648   0.8779   122.6908
 44      0.0000     0.0000E+00    0.0000E+00    5.088000E+08  0.02000  5.028E-04    0   0.6449   age130_m62            0.0000     9.5202E-05    22.8290   0.4734   126.5179
 45      0.0000     0.0000E+00    0.0000E+00    9.047900E+08  0.02000  2.428E-04    0   0.6179   age135_m62            0.0000     6.0124E-05    18.9430   0.1538   114.3369
 46      0.0000     0.0000E+00    0.0000E+00    1.434000E+09  0.02000  1.263E-04    0   0.5908   age139_m62            0.0000     5.1227E-05    16.9146  -0.1074   105.1104
 47      0.0000     0.0000E+00    0.0000E+00    2.500000E+09  0.02000  5.985E-05    0   0.5673   age150_m62            0.0000     5.1320E-05    16.3618  -0.3686    99.3595
 48      0.6450     8.6098E-01    9.2483E-01    4.250000E+09  0.02000  3.271E-05    0   0.5468   age158_m62            0.0000     5.4948E-05    16.4625  -0.6278    96.5027
 49      0.0000     0.0000E+00    0.0000E+00    1.000000E+10  0.02000  1.360E-05    0   0.5167   age181_m62            0.0000     6.1065E-05    17.1956  -0.9919    96.4433
 50      0.0000     0.0000E+00    0.0000E+00    1.800000E+10  0.02000  7.124E-06    0   0.5013   age213_m62            0.0000     6.9795E-05    17.5540  -1.0000    93.7860
 51      0.0000     0.0000E+00    0.0000E+00    1.000000E+06  0.05000  2.592E-02    0   0.9998   age020_m72            0.0000     5.1310E-05    15.1576   3.3038    77.7936
 52      0.0000     0.0000E+00    0.0000E+00    3.160000E+06  0.05000  4.845E-02    0   0.9577   age045_m72            0.0000     5.1822E-05    16.3121   2.9585    85.4320
 53      0.0000     0.0000E+00    0.0000E+00    5.010000E+06  0.05000  3.072E-02    0   0.9147   age055_m72            0.0000     4.9228E-05    14.6419   2.5433    86.8419
 54      5.3912     1.6179E-02    2.8213E-02    6.610000E+06  0.05000  1.455E-02    0   0.8877   age061_m72            0.0000     5.3942E-05    15.4589   2.0267    82.6045
 55      0.0000     0.0000E+00    0.0000E+00    1.000000E+07  0.05000  9.074E-03    0   0.8524   age070_m72            0.0000     5.0495E-05    15.4196   2.7059    86.7160
 56      0.0000     0.0000E+00    0.0000E+00    2.512000E+07  0.05000  4.250E-03    0   0.7902   age090_m72            0.0000     5.4857E-05    16.1169   2.2505    94.6586
 57      0.4817     6.8141E-03    1.0197E-02    4.000000E+07  0.05000  3.087E-03    0   0.7618   age104_m72            0.0000     5.8996E-05    16.6576   1.9563    98.8731
 58      0.0000     0.0000E+00    0.0000E+00    1.015200E+08  0.05000  1.700E-03    0   0.7096   age116_m72            0.0000     8.2725E-05    19.8699   1.4516   111.7241
 59      5.8115     3.4366E-01    4.4779E-01    2.861200E+08  0.05000  7.384E-04    0   0.6633   age125_m72            0.0000     1.1112E-04    23.5783   0.6792   126.8875
 60      0.0000     0.0000E+00    0.0000E+00    5.088000E+08  0.05000  3.819E-04    0   0.6372   age130_m72            0.0000     8.0310E-05    21.7403   0.2983   123.7758
 61      0.0000     0.0000E+00    0.0000E+00    9.047900E+08  0.05000  1.676E-04    0   0.6110   age135_m72            0.0000     5.5674E-05    18.5282  -0.1153   109.5031
 62      0.0000     0.0000E+00    0.0000E+00    1.434000E+09  0.05000  8.837E-05    0   0.5874   age139_m72            0.0000     5.2475E-05    16.6961  -0.3970   101.7959
 63      0.0000     0.0000E+00    0.0000E+00    2.500000E+09  0.05000  4.233E-05    0   0.5598   age150_m72            0.0000     5.6485E-05    16.9319  -0.6609    98.4834
 64      0.0000     0.0000E+00    0.0000E+00    6.250000E+09  0.05000  1.435E-05    0   0.5249   age166_m72            0.0000     6.3127E-05    17.0884  -1.0000    95.4057
 65      0.0000     0.0000E+00    0.0000E+00    1.300000E+10  0.05000  6.513E-06    0   0.5036   age193_m72            0.0000     8.0344E-05    18.9080  -1.0000    92.3984
 66      0.0000     0.0000E+00    0.0000E+00    1.800000E+10  0.05000  4.527E-06    0   0.4945   age213_m72            0.0000     1.0229E-04    22.1513  -1.0000    90.4786


## Synthesis Results - Average & Chains ##

# j      x_j: min, <> & last-chain-values for 1 ...  7 chains
  1      0.0000      0.6536      0.4376      0.4587      0.0000      1.0416      1.2903      0.0000      0.0000
  2      0.0000      0.6170      1.1869      0.4202      2.8765      0.0000      0.1384      0.0000      1.1887
  3      0.0000      0.8636      4.0274      2.7151      3.0028      1.4087      1.1560      0.0000      0.8470
  4      0.0000      0.6834      0.2257      1.5059      0.4017      2.6115      0.5617      0.0000      0.0000
  5      0.0000      0.8351      0.0000      3.2174      1.1996      0.0000      0.6743      0.0000      0.0000
  6      0.0000      0.8951      6.3181      1.6411      0.0000      1.1121      0.0000      3.4495      0.7588
  7      0.0000      0.8572      2.0455      1.5561      1.0231      0.6021      1.4000      1.4726      0.0000
  8      6.7723      0.4723      0.9995      0.4446      0.0000      0.4092      0.0000      2.8387      1.6405
  9      0.0000      0.8181      1.8564      2.0339      0.0000      0.9914      1.1278      2.0624      1.2067
 10      0.0000      0.7332      0.0000      0.0000      0.6017      1.6354      0.2113      0.0000      2.2153
 11      0.0000      0.6375      1.1795      0.0000      0.6162      0.0000      1.2680      0.2325      1.8194
 12      0.0000      0.6066      1.7731      0.2705      0.2356      1.9053      0.0000      0.0000      0.0000
 13      5.8690      0.7300      1.6140      0.3520      1.5231      2.4675      1.8888      0.0000      2.2727
 14      0.0000      0.6619      0.0000      0.0000      0.4508      1.0457      1.4273      0.9469      0.1888
 15     19.5692      0.8851      0.0000      1.7934      0.0000      3.0577      0.4938      0.8026      2.8961
 16      0.0000      0.4989      0.4739      0.9455      0.0000      0.6215      0.0000      0.0000      0.1376
 17      0.0000      0.5209      3.5712      0.0000      2.1057      1.2439      0.2719      1.5931      2.3634
 18      0.0000      0.7029      1.4502      0.3264      0.0000      4.4915      0.9911      2.8429      0.2789
 19      0.0000      0.6347      0.8835      0.6493      0.6287      0.5254      1.3927      0.0000      2.6443
 20      0.0000      0.7591      0.0000      0.5248      1.1607      0.1818      2.8644      1.3555      3.1138
 21      0.0000      0.8496      2.7566      0.4733      1.7603      0.5665      3.7724      1.2170      2.1287
 22      0.0000      0.6416      0.5777      1.2415      0.1647      1.4125      1.2667      1.6766      0.2596
 23      3.6224      0.7338      0.2336      0.5810      0.0000      2.1229      0.9172      0.0000      0.5704
 24      0.0000      0.6885      0.9732      1.2650      2.1682      0.2776      0.0000      0.3032      0.0000
 25      0.0000      0.5310      0.9526      1.5851      4.8342      0.0000      0.8731      0.0000      1.4326
 26      5.1671      0.7919      1.2986      0.9795      0.0000      0.0000      1.8362      3.5080      2.1955
 27      0.0000      0.5398      0.0951      1.4551      0.5745      0.4564      0.1417      0.0000      0.0312
 28      0.0000      0.6415      0.1368      0.0000      0.0563      0.0000      0.7581      0.6652      0.0000
 29      0.0000      0.9911      1.7619      0.2064      1.3711      0.5338      2.0688      3.0569      0.6095
 30      0.0000      0.7936      1.9976      1.3629      2.4000      0.7329      0.3761      0.0000      0.1318
 31      0.0000      1.1578      1.5850      3.0367      0.7777      2.7465      3.7275      3.2794      0.0000
 32      0.0000      0.5858      0.9963      3.6866      0.0000      0.5973      0.6350      0.4679      0.0000
 33      6.7513      0.7985      0.0000      0.0000      0.0000      0.9301      0.0000      2.9247      2.4871
 34     11.6136      0.6625      0.0000      0.2993      1.4351      3.2672      0.0000      0.3208      2.5548
 35      8.7240      0.7671      1.4766      0.0000      0.0000      1.2163      1.2492      3.6190      3.4668
 36      0.0000      1.0633      0.5960      1.6501      0.1001      2.5288      0.4971      1.9408      1.7806
 37      0.0000      0.7376      0.0000      0.0000      0.0000      3.2897      1.6765      0.0000      1.1671
 38     11.2121      0.8403      0.7750      0.4905      0.7170      0.5151      0.0000      3.2489      2.6956
 39      0.0000      0.9673      0.7259      5.5376      0.4508      0.3902      1.0238      0.0000      0.0000
 40      0.0000      0.6692      0.8499      1.8422      1.6672      0.0000      3.0835      2.4088      1.1943
 41      0.0000      1.0576      1.0086      2.0526      2.8538      0.0000      3.6991      0.4595      0.0000
 42      0.0000      0.8970      0.3774      0.0000      0.0000      2.7354      0.0000      2.2854      2.5506
 43      0.0000      0.8502      0.1692      0.0000      0.0000      0.5088      1.4461      0.3578      0.0000
 44      0.0000     17.4994      1.2722      2.5458      4.4107      3.5422      2.2326      2.5490      2.4250
 45      0.0000      0.7902      2.5806      0.0000      1.7908      0.4684      1.8072      1.0495      1.1836
 46      0.0000      0.6130      0.0000      0.0000      0.8186      1.2042      0.0000      0.5557      0.0000
 47      0.0000      0.5765      1.6368      0.1902      1.1930      0.7716      0.6275      2.9091      0.0000
 48      0.6450      0.7119      1.2737      0.0000      3.2929      0.8433      0.6004      0.0000      0.7904
 49      0.0000      0.6561      0.1263      1.1544      1.2523      0.7249      0.0000      0.0000      0.0000
 50      0.0000      0.6541      0.1672      3.6062      0.4578      2.9718      0.0000      0.0874      0.0000
 51      0.0000      0.7421      0.6827      1.4060      1.2290      0.0000      2.4146      0.0000      2.0627
 52      0.0000      0.8674      0.4833      0.5729      3.5915      0.1486      1.8912      1.9346      1.7971
 53      0.0000      0.7766      0.9673      2.4998      2.0413      0.0000      0.0000      1.1173      2.3046
 54      5.3912      0.7103      0.3961      3.0413      0.3405      2.5956      0.0000      1.5694      0.8140
 55      0.0000      0.4948      0.0000      0.8977      0.0000      2.5527      1.8972      0.0000      0.2869
 56      0.0000      0.5046      0.0000      0.0000      0.0000      0.1892      0.1185      4.1316      0.0000
 57      0.4817      0.8364      0.0687      0.1470      4.5787      1.3717      2.1905      1.2214      1.4330
 58      0.0000      0.6199      1.8995      0.1224      0.5837      0.0000      0.6633      0.0000      0.5831
 59      5.8115      4.2301      0.8705      1.4464      1.5237      1.0100      0.0000      1.1696      1.0149
 60      0.0000      1.2985      0.8392      1.0337      0.3272      0.0000      0.0000      0.0000      0.4786
 61      0.0000      0.8461      4.6702      1.2619      0.0000      0.7363      0.6413      1.6579      0.8548
 62      0.0000      0.5804      0.0000      0.0110      0.7979      0.7781      1.0512      0.2491      0.0000
 63      0.0000      0.7496      2.7570      0.7774      2.4427      0.2202      0.4369      0.8619      0.6452
 64      0.0000      0.5194      2.4650      0.4941      1.6473      0.0443      1.3643      1.5145      0.0000
 65      0.0000      1.2848      0.1427      0.0000      1.7905      0.0000      3.5570      0.4605      3.3750
 66      0.0000      1.7735      1.0073      3.3542      0.8038      0.0000      2.3006      0.0000      3.3317

# j      m_j: min, <> & last-chain-values for 1 ...  7 chains
  1  0.0000E+00  9.8827E-03  7.6105E-03  4.7223E-03  0.0000E+00  1.4456E-02  1.6273E-02  0.0000E+00  0.0000E+00
  2  0.0000E+00  2.5467E-03  5.6355E-03  1.1811E-03  1.0667E-02  0.0000E+00  4.7637E-04  0.0000E+00  2.9065E-03
  3  0.0000E+00  5.3383E-03  2.8636E-02  1.1427E-02  1.6675E-02  7.9926E-03  5.9603E-03  0.0000E+00  3.1013E-03
  4  0.0000E+00  3.9780E-03  1.5112E-03  5.9687E-03  2.1005E-03  1.3953E-02  2.7275E-03  0.0000E+00  0.0000E+00
  5  0.0000E+00  9.2605E-03  0.0000E+00  2.4291E-02  1.1950E-02  0.0000E+00  6.2372E-03  0.0000E+00  0.0000E+00
  6  0.0000E+00  1.6098E-02  1.3071E-01  2.0097E-02  0.0000E+00  1.8359E-02  0.0000E+00  8.9513E-02  8.0845E-03
  7  0.0000E+00  2.2073E-02  6.0586E-02  2.7283E-02  2.3667E-02  1.4230E-02  3.0069E-02  5.4712E-02  0.0000E+00
  8  1.2498E-01  1.6809E-02  4.0917E-02  1.0773E-02  0.0000E+00  1.3366E-02  0.0000E+00  1.4577E-01  3.4587E-02
  9  0.0000E+00  3.3326E-02  8.6985E-02  5.6412E-02  0.0000E+00  3.7069E-02  3.8320E-02  1.2121E-01  2.9117E-02
 10  0.0000E+00  3.9232E-02  0.0000E+00  0.0000E+00  2.8922E-02  8.0319E-02  9.4306E-03  0.0000E+00  7.0218E-02
 11  0.0000E+00  6.4143E-02  1.3650E-01  0.0000E+00  5.5701E-02  0.0000E+00  1.0641E-01  3.3749E-02  1.0844E-01
 12  0.0000E+00  9.6813E-02  3.2551E-01  2.9395E-02  3.3786E-02  2.7911E-01  0.0000E+00  0.0000E+00  0.0000E+00
 13  1.3691E+00  3.2838E-01  8.3515E-01  1.0782E-01  6.1553E-01  1.0188E+00  7.0875E-01  0.0000E+00  6.0563E-01
 14  0.0000E+00  9.9865E-01  0.0000E+00  0.0000E+00  6.1102E-01  1.4482E+00  1.7963E+00  2.0613E+00  1.6876E-01
 15  2.4925E+01  2.1740E+00  0.0000E+00  2.9993E+00  0.0000E+00  6.8937E+00  1.0117E+00  2.8443E+00  4.2140E+00
 16  0.0000E+00  2.0720E+00  2.2640E+00  2.6738E+00  0.0000E+00  2.3690E+00  0.0000E+00  0.0000E+00  3.3858E-01
 17  0.0000E+00  2.8067E+00  2.2132E+01  0.0000E+00  1.0192E+01  6.1511E+00  1.2220E+00  1.2384E+01  7.5428E+00
 18  0.0000E+00  9.3916E-03  2.2289E-02  2.9691E-03  0.0000E+00  5.5084E-02  1.1046E-02  5.4806E-02  2.2075E-03
 19  0.0000E+00  3.4037E-03  5.4498E-03  2.3710E-03  3.0288E-03  2.5860E-03  6.2300E-03  0.0000E+00  8.4004E-03
 20  0.0000E+00  4.4440E-03  0.0000E+00  2.0919E-03  6.1052E-03  9.7696E-04  1.3989E-02  1.1450E-02  1.0799E-02
 21  0.0000E+00  6.0381E-03  2.2535E-02  2.2901E-03  1.1239E-02  3.6955E-03  2.2362E-02  1.2479E-02  8.9614E-03
 22  0.0000E+00  7.7103E-03  7.9854E-03  1.0158E-02  1.7777E-03  1.5581E-02  1.2697E-02  2.9070E-02  1.8483E-03
 23  3.0484E-02  1.1909E-02  4.3603E-03  6.4204E-03  0.0000E+00  3.1621E-02  1.2415E-02  0.0000E+00  5.4837E-03
 24  0.0000E+00  1.6623E-02  2.7028E-02  2.0795E-02  4.7029E-02  6.1511E-03  0.0000E+00  1.0562E-02  0.0000E+00
 25  0.0000E+00  1.7678E-02  3.6477E-02  3.5930E-02  1.4458E-01  0.0000E+00  2.4245E-02  0.0000E+00  2.8251E-02
 26  1.4910E-01  4.4067E-02  8.3120E-02  3.7114E-02  0.0000E+00  0.0000E+00  8.5229E-02  2.8165E-01  7.2373E-02
 27  0.0000E+00  6.0122E-02  1.2183E-02  1.1035E-01  5.7483E-02  4.6658E-02  1.3165E-02  0.0000E+00  2.0586E-03
 28  0.0000E+00  2.0738E-01  5.0859E-02  0.0000E+00  1.6340E-02  0.0000E+00  2.0440E-01  3.1025E-01  0.0000E+00
 29  0.0000E+00  5.5823E-01  1.1414E+00  7.9162E-02  6.9378E-01  2.7593E-01  9.7190E-01  2.4842E+00  2.0334E-01
 30  0.0000E+00  9.3390E-01  2.7040E+00  1.0920E+00  2.5373E+00  7.9159E-01  3.6917E-01  0.0000E+00  9.1855E-02
 31  0.0000E+00  2.3967E+00  3.7740E+00  4.2800E+00  1.4463E+00  5.2182E+00  6.4361E+00  9.7943E+00  0.0000E+00
 32  0.0000E+00  1.6315E+00  3.1919E+00  6.9913E+00  0.0000E+00  1.5270E+00  1.4753E+00  1.8804E+00  0.0000E+00
 33  2.1586E+01  4.9234E+00  0.0000E+00  0.0000E+00  0.0000E+00  5.2639E+00  0.0000E+00  2.6019E+01  9.0840E+00
 34  5.0282E+01  5.5317E+00  0.0000E+00  1.7013E+00  1.0765E+01  2.5039E+01  0.0000E+00  3.8644E+00  1.2636E+01
 35  4.8466E-02  8.2180E-03  1.8197E-02  0.0000E+00  0.0000E+00  1.1961E-02  1.1164E-02  5.5942E-02  2.2001E-02
 36  0.0000E+00  4.6091E-03  2.9716E-03  4.8701E-03  3.8961E-04  1.0061E-02  1.7974E-03  1.2138E-02  4.5719E-03
 37  0.0000E+00  3.4582E-03  0.0000E+00  0.0000E+00  0.0000E+00  1.4157E-02  6.5564E-03  0.0000E+00  3.2414E-03
 38  7.3847E-02  1.0674E-02  1.1323E-02  4.2422E-03  8.1814E-03  6.0050E-03  0.0000E+00  5.9539E-02  2.0282E-02
 39  0.0000E+00  1.7691E-02  1.5270E-02  6.8954E-02  7.4072E-03  6.5504E-03  1.5617E-02  0.0000E+00  0.0000E+00
 40  0.0000E+00  1.9783E-02  2.8901E-02  3.7079E-02  4.4278E-02  0.0000E+00  7.6032E-02  1.0274E-01  2.0913E-02
 41  0.0000E+00  4.8617E-02  5.3330E-02  6.4245E-02  1.1786E-01  0.0000E+00  1.4184E-01  3.0473E-02  0.0000E+00
 42  0.0000E+00  7.5710E-02  3.6643E-02  0.0000E+00  0.0000E+00  2.1190E-01  0.0000E+00  2.7830E-01  1.2752E-01
 43  0.0000E+00  1.0476E-01  2.3983E-02  0.0000E+00  0.0000E+00  5.7545E-02  1.4863E-01  6.3604E-02  0.0000E+00
 44  0.0000E+00  3.7128E+00  3.1048E-01  3.6776E-01  8.4072E-01  6.8980E-01  3.9511E-01  7.8029E-01  3.0478E-01
 45  0.0000E+00  3.3264E-01  1.2496E+00  0.0000E+00  6.7728E-01  1.8099E-01  6.3457E-01  6.3744E-01  2.9516E-01
 46  0.0000E+00  4.7430E-01  0.0000E+00  0.0000E+00  5.6904E-01  8.5528E-01  0.0000E+00  6.2034E-01  0.0000E+00
 47  0.0000E+00  9.0396E-01  2.9521E+00  2.0301E-01  1.6804E+00  1.1104E+00  8.2065E-01  6.5811E+00  0.0000E+00
 48  9.2483E-01  1.9685E+00  4.0513E+00  0.0000E+00  8.1803E+00  2.1403E+00  1.3849E+00  0.0000E+00  1.2948E+00
 49  0.0000E+00  4.1230E+00  9.1317E-01  4.9397E+00  7.0706E+00  4.1812E+00  0.0000E+00  0.0000E+00  0.0000E+00
 50  0.0000E+00  7.6137E+00  2.2389E+00  2.8581E+01  4.7870E+00  3.1750E+01  0.0000E+00  1.4680E+00  0.0000E+00
 51  0.0000E+00  4.7350E-03  5.0103E-03  6.1083E-03  7.0447E-03  0.0000E+00  1.2851E-02  0.0000E+00  7.7962E-03
 52  0.0000E+00  2.8363E-03  1.8177E-03  1.2755E-03  1.0550E-02  4.4591E-04  5.1580E-03  9.1267E-03  3.4809E-03
 53  0.0000E+00  3.8248E-03  5.4805E-03  8.3832E-03  9.0324E-03  0.0000E+00  0.0000E+00  7.9402E-03  6.7239E-03
 54  2.8213E-02  7.1682E-03  4.5982E-03  2.0899E-02  3.0868E-03  2.4044E-02  0.0000E+00  2.2852E-02  4.8663E-03
 55  0.0000E+00  7.6881E-03  0.0000E+00  9.4977E-03  0.0000E+00  3.6408E-02  2.4590E-02  0.0000E+00  2.6404E-03
 56  0.0000E+00  1.5521E-02  0.0000E+00  0.0000E+00  0.0000E+00  5.3414E-03  3.0394E-03  1.8334E-01  0.0000E+00
 57  1.0197E-02  3.4145E-02  3.2245E-03  4.0857E-03  1.6792E-01  5.1395E-02  7.4585E-02  7.1936E-02  3.4652E-02
 58  0.0000E+00  4.2800E-02  1.5087E-01  5.7551E-03  3.6206E-02  0.0000E+00  3.8201E-02  0.0000E+00  2.3848E-02
 59  4.4779E-01  6.2857E-01  1.4879E-01  1.4634E-01  2.0340E-01  1.3775E-01  0.0000E+00  2.5075E-01  8.9333E-02
 60  0.0000E+00  3.5838E-01  2.6641E-01  1.9426E-01  8.1129E-02  0.0000E+00  0.0000E+00  0.0000E+00  7.8249E-02
 61  0.0000E+00  5.1025E-01  3.2395E+00  5.1813E-01  0.0000E+00  4.0753E-01  3.2260E-01  1.4425E+00  3.0537E-01
 62  0.0000E+00  6.3812E-01  0.0000E+00  8.2275E-03  7.8813E-01  7.8530E-01  9.6410E-01  3.9512E-01  0.0000E+00
 63  0.0000E+00  1.6398E+00  6.9374E+00  1.1579E+00  4.8006E+00  4.4217E-01  7.9712E-01  2.7205E+00  8.3606E-01
 64  0.0000E+00  3.1425E+00  1.7156E+01  2.0356E+00  8.9547E+00  2.4615E-01  6.8855E+00  1.3222E+01  0.0000E+00
 65  0.0000E+00  1.6433E+01  2.0988E+00  0.0000E+00  2.0575E+01  0.0000E+00  3.7948E+01  8.4980E+00  2.5571E+01
 66  0.0000E+00  3.2045E+01  2.0937E+01  4.1266E+01  1.3048E+01  0.0000E+00  3.4674E+01  0.0000E+00  3.5661E+01

# AV, chi2 & Mass for <> & i_chain = 1 ...  7 solutions
AV       0.4132      1.2658      1.2459      1.2104      1.1716      1.2773      1.3432      1.3753      1.1828
chi2 4.4281E-05  1.5034E-04  1.0928E-04  1.0443E-04  1.1189E-04  1.0815E-04  1.1238E-04  9.8021E-05  9.5832E-05
Mass 3.6930E-13  6.0181E-13  5.0944E-13  8.2056E-13  5.9027E-13  6.6586E-13  8.0052E-13  4.8320E-13  9.0881E-13
-158.97                                  [v0_min (km/s) before EX0s...]
   0.06                                  [vd_min (km/s) before EX0s...]


## Synthetic spectrum (Best Model) ##l_obs f_obs f_syn wei
 3478    [Nl_obs]
 3741.00    0.00000   0.66971    0.000
 3742.00    0.00000   0.64411    0.000
 3743.00    0.00000   0.61420    0.000
 3744.00    0.00000   0.58368    0.000
 3745.00    0.00000   0.55830    0.000
 3746.00    0.00000   0.50744    0.000
 3747.00    0.00000   0.45114    0.000
 3748.00    0.00000   0.45045    0.000
 3749.00    0.00000   0.51343    0.000
 3750.00    0.00000   0.58579    0.000
 3751.00    0.00000   0.63750    0.000
 3752.00    0.00000   0.68541    0.000
 3753.00    0.00000   0.72451    0.000
 3754.00    0.00000   0.72755    0.000
 3755.00    0.00000   0.68577    0.000
 3756.00    0.00000   0.64386    0.000
 3757.00    0.00000   0.64591    0.000
 3758.00    0.00000   0.67527    0.000
 3759.00    0.00000   0.69793    0.000
 3760.00    0.00000   0.70333    0.000
 3761.00    0.00000   0.69171    0.000
 3762.00    0.00000   0.68505    0.000
 3763.00    0.00000   0.68630    0.000
 3764.00    0.00000   0.65824    0.000
 3765.00    0.00000   0.61509    0.000
 3766.00    0.00000   0.59499    0.000
 3767.00    0.00000   0.57222    0.000
 3768.00    0.00000   0.53222    0.000
 3769.00    0.01307   0.53262   -1.000
 3770.00    0.34372   0.58826   -1.000
 3771.00    0.64092   0.64296    1.819
 3772.00    0.49982   0.67210    0.120
 3773.00    0.36354   0.69034    0.066
 3774.00    0.26957   0.71404    0.066
 3775.00    0.22603   0.73674    0.067
 3776.00    0.50948   0.75080    0.067
 3777.00    0.88521   0.77145    0.068
 3778.00    1.72796   0.79846    0.071
 3779.00    2.26709   0.80940    0.073
 3780.00    1.56344   0.80730    0.072
 3781.00    0.96910   0.81158    0.071
 3782.00    0.74553   0.81791    0.071
 3783.00    0.55167   0.79773    0.071
 3784.00    0.44276   0.75537    0.071
 3785.00    0.41587   0.72983    0.070
 3786.00    0.58937   0.71987    0.070
 3787.00    0.49997   0.70846    0.070
 3788.00   -0.14357   0.70263    0.000
 3789.00   -0.23053   0.70685    0.000
 3790.00    0.70199   0.69764    0.068
 3791.00    1.29388   0.66368    0.068
 3792.00    1.34050   0.61881    0.066
 3793.00    1.17834   0.57860    0.065
 3794.00    0.72292   0.53801    0.064
 3795.00    0.53306   0.48435    0.063
 3796.00    0.67143   0.45197    0.064
 3797.00    0.68999   0.48499    0.064
 3798.00    0.57801   0.56245    0.063
 3799.00    0.51739   0.63086    0.063
 3800.00    0.50612   0.67949    0.063
 3801.00    0.38360   0.72281    0.063
 3802.00    0.16679   0.74910    0.063
 3803.00    0.21207   0.74871    0.063
 3804.00    0.45292   0.73115    0.063
 3805.00    0.52411   0.72626    0.063
 3806.00    0.48407   0.75405    0.064
 3807.00    0.49654   0.79079    0.065
 3808.00    0.53914   0.81105    0.065
 3809.00    0.57689   0.81160    0.064
 3810.00    0.61220   0.79136    0.064
 3811.00    0.34771   0.75776    0.064
 3812.00   -0.04644   0.73300    0.000
 3813.00    0.18247   0.71742    0.065
 3814.00    0.64244   0.71770    0.065
 3815.00    0.82173   0.73834    0.065
 3816.00    0.91279   0.73411    0.065
 3817.00    0.85924   0.67753    0.066
 3818.00    0.76776   0.63294    0.066
 3819.00    0.70121   0.65817    0.065
 3820.00    0.64000   0.71194    0.064
 3821.00    0.60146   0.72607    0.063
 3822.00    0.56676   0.69215    0.062
 3823.00    0.66273   0.65654    0.063
 3824.00    0.77547   0.64466    0.063
 3825.00    0.80522   0.64311    0.061
 3826.00    0.82752   0.63563    0.059
 3827.00    0.38432   0.62616    0.060
 3828.00   -0.08391   0.61743    0.000
 3829.00    0.30807   0.58722    0.061
 3830.00    0.71048   0.53163    0.061
 3831.00    0.53764   0.48017    0.060
 3832.00    0.35865   0.44123    0.059
 3833.00    0.04323   0.42530    0.059
 3834.00   -0.20574   0.44751    0.000
 3835.00    0.37166   0.47975    0.059
 3836.00    0.85933   0.50295    0.059
 3837.00    0.58858   0.53425    0.059
 3838.00    0.36803   0.57034    0.059
 3839.00    0.46321   0.61343    0.059
 3840.00    0.58376   0.66788    0.059
 3841.00    0.82950   0.70875    0.060
 3842.00    1.08658   0.72908    0.061
 3843.00    1.38906   0.73715    0.062
 3844.00    1.52495   0.74351    0.062
 3845.00    1.10702   0.75924    0.061
 3846.00    0.63170   0.76538    0.061
 3847.00   -0.00480   0.74825    0.000
 3848.00   -0.22853   0.73337    0.000
 3849.00    0.53914   0.75096    0.000
 3850.00    1.07109   0.77712    0.000
 3851.00    1.11418   0.77926    0.000
 3852.00    1.06318   0.76772    0.000
 3853.00    0.84247   0.75058    0.000
 3854.00    0.58695   0.73586    0.000
 3855.00    0.27653   0.73910    0.000
 3856.00    0.40172   0.73323    0.000
 3857.00    1.12994   0.70715    0.000
 3858.00    1.40756   0.70106    0.000
 3859.00    1.13613   0.73299    0.000
 3860.00    0.88014   0.77193    0.000
 3861.00    0.64071   0.78776    0.000
 3862.00    0.49194   0.78181    0.000
 3863.00    0.42906   0.77024    0.000
 3864.00    0.32465   0.76468    0.000
 3865.00    0.18556   0.76206    0.000
 3866.00    0.14951   0.76412    0.000
 3867.00    0.18925   0.76652    0.000
 3868.00    0.35615   0.74867    0.000
 3869.00    0.60518   0.71492    0.000
 3870.00    0.77939   0.69059    0.000
 3871.00    0.91132   0.70500    0.000
 3872.00    0.74478   0.74349    0.000
 3873.00    0.43141   0.76411    0.000
 3874.00    0.31835   0.75088    0.000
 3875.00    0.29048   0.71537    0.000
 3876.00    0.39443   0.68215    0.000
 3877.00    0.54640   0.68533    0.000
 3878.00    0.71984   0.70326    0.000
 3879.00    0.89990   0.68772    0.000
 3880.00    0.81632   0.65830    0.000
 3881.00    0.66507   0.65627    0.052
 3882.00    0.49139   0.65929    0.052
 3883.00    0.31302   0.61706    0.052
 3884.00    0.46415   0.54987    0.053
 3885.00    0.66961   0.50239    0.054
 3886.00    0.63770   0.46621    0.054
 3887.00    0.57639   0.45195    0.054
 3888.00    0.73377   0.49719    0.055
 3889.00    0.90986   0.57325    0.056
 3890.00    0.84140   0.63335    0.056
 3891.00    0.76076   0.66455    0.056
 3892.00    1.05662   0.67637    0.056
 3893.00    1.34577   0.68329    0.056
 3894.00    0.80328   0.70628    0.055
 3895.00    0.29075   0.73538    0.055
 3896.00    0.39102   0.73772    0.054
 3897.00    0.48487   0.72857    0.053
 3898.00    0.50298   0.73903    0.052
 3899.00    0.52229   0.76522    0.051
 3900.00    0.55140   0.77249    0.050
 3901.00    0.55183   0.76631    0.049
 3902.00    0.37710   0.76630    0.046
 3903.00    0.22504   0.75220    0.044
 3904.00    0.18208   0.74391    0.043
 3905.00    0.20958   0.77146    0.043
 3906.00    0.51303   0.80772    0.044
 3907.00    0.74174   0.82693    0.045
 3908.00    0.72680   0.83033    0.046
 3909.00    0.69245   0.83458    0.047
 3910.00    0.60460   0.83868    0.047
 3911.00    0.62001   0.83070    0.047
 3912.00    0.87929   0.82257    0.048
 3913.00    1.01497   0.82221    0.049
 3914.00    0.89839   0.81601    0.049
 3915.00    0.72971   0.80794    0.049
 3916.00    0.46849   0.79473    0.049
 3917.00    0.30369   0.76928    0.050
 3918.00    0.28868   0.74411    0.051
 3919.00    0.27904   0.73898    0.051
 3920.00    0.27671   0.75238    0.051
 3921.00    0.31493   0.76381    0.051
 3922.00    0.40185   0.76796    0.050
 3923.00    0.57600   0.75581    0.051
 3924.00    0.84253   0.72800    0.053
 3925.00    0.88817   0.69990    0.053
 3926.00    0.72747   0.67401    0.053
 3927.00    0.73343   0.64977    0.053
 3928.00    0.87667   0.62461    0.053
 3929.00    0.72799   0.59347    0.052
 3930.00    0.36768   0.55361    0.051
 3931.00    0.28230   0.51415    0.051
 3932.00    0.37187   0.50739    0.053
 3933.00    0.43319   0.54335    0.053
 3934.00    0.47878   0.59451    0.052
 3935.00    0.44941   0.63954    0.051
 3936.00    0.38374   0.67631    0.052
 3937.00    0.14041   0.70914    0.052
 3938.00   -0.17719   0.73247    0.000
 3939.00    0.19246   0.73954    0.052
 3940.00    0.80795   0.73905    0.052
 3941.00    0.97660   0.73018    0.052
 3942.00    1.01020   0.72363    0.052
 3943.00    1.22016   0.74913    0.052
 3944.00    1.47441   0.78695    0.052
 3945.00    1.38358   0.79280    0.052
 3946.00    1.22237   0.78003    0.052
 3947.00    0.98188   0.78634    0.052
 3948.00    0.72868   0.80744    0.052
 3949.00    0.76976   0.81237    0.051
 3950.00    0.84598   0.79384    0.051
 3951.00    0.50971   0.78882    0.050
 3952.00    0.13986   0.80606    0.049
 3953.00    0.49982   0.80324    0.050
 3954.00    0.89332   0.77529    0.050
 3955.00    0.87442   0.76105    0.049
 3956.00    0.84457   0.76949    0.048
 3957.00    0.51732   0.77221    0.049
 3958.00    0.21872   0.73893    0.049
 3959.00    0.46287   0.67730    0.048
 3960.00    0.70014   0.63247    0.000
 3961.00    0.85986   0.61304    0.000
 3962.00    0.97627   0.58419    0.000
 3963.00    0.75238   0.53862    0.000
 3964.00    0.55062   0.48370    0.000
 3965.00    0.48024   0.42032    0.000
 3966.00    0.47470   0.36025    0.000
 3967.00    0.77361   0.32557    0.000
 3968.00    0.96427   0.33577    0.000
 3969.00    0.74009   0.39097    0.000
 3970.00    0.50991   0.46120    0.000
 3971.00    0.26054   0.52213    0.000
 3972.00    0.14960   0.57965    0.000
 3973.00    0.41356   0.63481    0.000
 3974.00    0.61568   0.67464    0.000
 3975.00    0.67420   0.70628    0.000
 3976.00    0.69333   0.74134    0.000
 3977.00    0.63334   0.77454    0.000
 3978.00    0.66446   0.79665    0.000
 3979.00    0.85496   0.79708    0.000
 3980.00    0.89997   0.78562    0.000
 3981.00    0.72226   0.78725    0.052
 3982.00    0.66126   0.80582    0.052
 3983.00    0.75721   0.82527    0.051
 3984.00    0.76798   0.83258    0.051
 3985.00    0.67789   0.84154    0.051
 3986.00    0.62255   0.85854    0.050
 3987.00    0.60351   0.85837    0.049
 3988.00    0.66127   0.85164    0.049
 3989.00    0.78977   0.86155    0.049
 3990.00    0.79026   0.87772    0.048
 3991.00    0.68681   0.88224    0.047
 3992.00    0.82075   0.86838    0.046
 3993.00    1.12430   0.85404    0.047
 3994.00    1.30176   0.84475    0.047
 3995.00    1.40018   0.83416    0.047
 3996.00    1.37809   0.83778    0.047
 3997.00    1.28997   0.86679    0.047
 3998.00    1.45112   0.89024    0.047
 3999.00    1.73102   0.89278    0.047
 4000.00    1.54145   0.89784    0.047
 4001.00    1.15892   0.90066    0.047
 4002.00    1.06613   0.86981    0.047
 4003.00    1.07511   0.82222    0.046
 4004.00    1.10452   0.81471    0.047
 4005.00    1.13998   0.84609    0.047
 4006.00    1.10170   0.86618    0.046
 4007.00    1.04531   0.86681    0.046
 4008.00    0.93450   0.87386    0.045
 4009.00    0.81286   0.88689    0.045
 4010.00    0.99047   0.89084    0.046
 4011.00    1.21458   0.89322    0.046
 4012.00    1.13843   0.89791    0.046
 4013.00    1.02776   0.90672    0.046
 4014.00    1.07542   0.90805    0.046
 4015.00    1.13533   0.89479    0.047
 4016.00    1.18486   0.89562    0.047
 4017.00    1.23395   0.91267    0.047
 4018.00    1.12032   0.91462    0.047
 4019.00    1.00932   0.90251    0.047
 4020.00    1.07850   0.89430    0.047
 4021.00    1.16010   0.88211    0.046
 4022.00    1.46073   0.85314    0.047
 4023.00    1.71657   0.83031    0.048
 4024.00    1.49035   0.83858    0.048
 4025.00    1.28084   0.87343    0.048
 4026.00    1.19820   0.90504    0.047
 4027.00    1.12162   0.90042    0.046
 4028.00    1.08005   0.86063    0.047
 4029.00    0.99709   0.82956    0.047
 4030.00    0.72445   0.82478    0.046
 4031.00    0.56071   0.82727    0.045
 4032.00    0.80545   0.83800    0.046
 4033.00    0.97647   0.86262    0.046
 4034.00    0.91639   0.90110    0.045
 4035.00    0.87214   0.93645    0.045
 4036.00    0.87002   0.94877    0.045
 4037.00    0.91732   0.93746    0.045
 4038.00    1.07749   0.91325    0.045
 4039.00    1.13580   0.90342    0.045
 4040.00    0.99276   0.91352    0.045
 4041.00    0.95235   0.90143    0.045
 4042.00    1.08877   0.84604    0.046
 4043.00    1.12182   0.78566    0.046
 4044.00    0.99895   0.78449    0.045
 4045.00    0.92032   0.84529    0.045
 4046.00    0.90033   0.89540    0.045
 4047.00    0.88045   0.91133    0.045
 4048.00    0.86071   0.92157    0.045
 4049.00    0.92130   0.92456    0.045
 4050.00    1.06460   0.91145    0.046
 4051.00    1.09362   0.89424    0.045
 4052.00    1.01885   0.87990    0.045
 4053.00    0.95961   0.87407    0.044
 4054.00    0.91281   0.87521    0.044
 4055.00    0.90346   0.86548    0.044
 4056.00    0.92047   0.85804    0.044
 4057.00    0.83918   0.87511    0.045
 4058.00    0.69716   0.89980    0.045
 4059.00    0.78623   0.90034    0.045
 4060.00    1.00000   0.85943    0.044
 4061.00    1.02635   0.80579    0.044
 4062.00    0.96486   0.80273    0.045
 4063.00    0.78801   0.84502    0.044
 4064.00    0.56454   0.86392    0.043
 4065.00    0.55930   0.86102    0.044
 4066.00    0.62930   0.87704    0.044
 4067.00    0.92545   0.89717    0.045
 4068.00    1.28726   0.87929    0.046
 4069.00    1.35198   0.83356    0.046
 4070.00    1.34534   0.82445    0.046
 4071.00    0.92497   0.86451    0.045
 4072.00    0.42443   0.88654    0.044
 4073.00    0.56039   0.86051    0.044
 4074.00    0.79226   0.81518    0.044
 4075.00    0.82446   0.78553    0.044
 4076.00    0.83458   0.79585    0.043
 4077.00    0.76946   0.83775    0.043
 4078.00    0.69883   0.88295    0.043
 4079.00    0.65005   0.90884    0.043
 4080.00    0.60211   0.90186    0.043
 4081.00    0.62008   0.87456    0.043
 4082.00    0.64373   0.85357    0.043
 4083.00    0.86739   0.85172    0.043
 4084.00    1.07806   0.86814    0.043
 4085.00    1.07480   0.89450    0.044
 4086.00    1.07262   0.91107    0.044
 4087.00    1.08145   0.90779    0.043
 4088.00    1.08786   0.89494    0.043
 4089.00    1.07647   0.87878    0.044
 4090.00    1.05486   0.86081    0.044
 4091.00    0.97582   0.85553    0.044
 4092.00    0.92923   0.84653    0.000
 4093.00    1.02781   0.80596    0.000
 4094.00    1.09167   0.75958    0.000
 4095.00    1.02799   0.73413    0.000
 4096.00    0.94161   0.71566    0.000
 4097.00    0.78542   0.67746    0.000
 4098.00    0.67636   0.60619    0.000
 4099.00    0.69048   0.53412    0.000
 4100.00    0.72693   0.53118    0.000
 4101.00    0.81352   0.59750    0.000
 4102.00    0.88838   0.66963    0.000
 4103.00    0.94042   0.72646    0.000
 4104.00    0.94824   0.77020    0.000
 4105.00    0.88104   0.79400    0.000
 4106.00    0.83306   0.80332    0.000
 4107.00    0.81362   0.80447    0.000
 4108.00    0.79814   0.80485    0.000
 4109.00    0.78781   0.81330    0.000
 4110.00    0.72658   0.83096    0.000
 4111.00    0.60677   0.85485    0.000
 4112.00    0.73354   0.87222    0.000
 4113.00    1.11063   0.87983    0.042
 4114.00    1.17640   0.88601    0.043
 4115.00    0.96344   0.88082    0.042
 4116.00    0.77311   0.85431    0.041
 4117.00    0.60064   0.83524    0.041
 4118.00    0.54927   0.84123    0.041
 4119.00    0.58194   0.85150    0.041
 4120.00    0.63067   0.85856    0.041
 4121.00    0.68919   0.87087    0.041
 4122.00    0.86447   0.89029    0.042
 4123.00    1.10179   0.90387    0.042
 4124.00    1.04293   0.89544    0.042
 4125.00    0.84751   0.87386    0.042
 4126.00    0.88392   0.85892    0.042
 4127.00    1.01238   0.85851    0.043
 4128.00    1.02200   0.85622    0.043
 4129.00    0.99139   0.83813    0.042
 4130.00    0.94803   0.81627    0.042
 4131.00    0.90104   0.81656    0.042
 4132.00    0.79977   0.83699    0.042
 4133.00    0.68576   0.87056    0.041
 4134.00    0.84622   0.89801    0.041
 4135.00    1.05848   0.90355    0.042
 4136.00    1.01903   0.90990    0.042
 4137.00    0.94283   0.91849    0.042
 4138.00    0.83662   0.91507    0.042
 4139.00    0.72723   0.88896    0.041
 4140.00    0.82481   0.82793    0.042
 4141.00    0.93670   0.76602    0.042
 4142.00    0.77896   0.76933    0.042
 4143.00    0.61192   0.82902    0.041
 4144.00    0.64276   0.87621    0.041
 4145.00    0.67766   0.89172    0.041
 4146.00    0.83409   0.88809    0.042
 4147.00    0.97969   0.87269    0.042
 4148.00    0.95785   0.86487    0.042
 4149.00    0.93565   0.87094    0.041
 4150.00    0.90995   0.87071    0.042
 4151.00    0.88328   0.86042    0.042
 4152.00    0.84974   0.85171    0.041
 4153.00    0.80789   0.85350    0.041
 4154.00    0.72066   0.85816    0.040
 4155.00    0.64361   0.86800    0.040
 4156.00    0.61107   0.88743    0.040
 4157.00    0.61395   0.90280    0.040
 4158.00    0.74428   0.90490    0.040
 4159.00    0.88471   0.90298    0.040
 4160.00    1.05559   0.91062    0.040
 4161.00    1.06335   0.91463    0.040
 4162.00    0.65220   0.90523    0.040
 4163.00    0.37448   0.89766    0.039
 4164.00    0.39151   0.88895    0.039
 4165.00    0.45098   0.87345    0.039
 4166.00    0.59173   0.87141    0.039
 4167.00    0.67761   0.88546    0.039
 4168.00    0.67179   0.88686    0.040
 4169.00    0.77159   0.85776    0.040
 4170.00    1.02610   0.81626    0.040
 4171.00    1.12096   0.80245    0.040
 4172.00    1.01021   0.82213    0.041
 4173.00    0.84377   0.84623    0.040
 4174.00    0.61414   0.85409    0.039
 4175.00    0.59385   0.84692    0.039
 4176.00    0.78306   0.84585    0.040
 4177.00    0.84841   0.86457    0.040
 4178.00    0.80442   0.88014    0.040
 4179.00    0.75363   0.87195    0.039
 4180.00    0.69754   0.86009    0.039
 4181.00    0.71793   0.86629    0.039
 4182.00    0.79062   0.88149    0.040
 4183.00    0.83334   0.88929    0.040
 4184.00    0.85809   0.87032    0.040
 4185.00    0.78246   0.84083    0.040
 4186.00    0.65432   0.84469    0.039
 4187.00    0.63638   0.86942    0.039
 4188.00    0.66842   0.87634    0.038
 4189.00    0.66085   0.87225    0.038
 4190.00    0.63783   0.88825    0.037
 4191.00    0.67377   0.91330    0.037
 4192.00    0.72929   0.90683    0.037
 4193.00    0.80182   0.87328    0.038
 4194.00    0.87908   0.84795    0.038
 4195.00    0.88473   0.83266    0.038
 4196.00    0.87395   0.81612    0.038
 4197.00    0.83795   0.81545    0.038
 4198.00    0.79731   0.82761    0.038
 4199.00    0.75884   0.82657    0.038
 4200.00    0.72067   0.82579    0.037
 4201.00    0.50391   0.84332    0.037
 4202.00    0.26894   0.85881    0.037
 4203.00    0.53636   0.86730    0.037
 4204.00    0.83652   0.88321    0.037
 4205.00    0.91201   0.90054    0.037
 4206.00    0.98051   0.90849    0.037
 4207.00    0.98547   0.90048    0.037
 4208.00    0.99236   0.88984    0.038
 4209.00    1.05592   0.89539    0.038
 4210.00    1.10170   0.90600    0.038
 4211.00    0.88858   0.90036    0.038
 4212.00    0.70961   0.87167    0.037
 4213.00    0.85354   0.83503    0.037
 4214.00    0.96223   0.83387    0.036
 4215.00    0.82866   0.87365    0.036
 4216.00    0.70560   0.90609    0.036
 4217.00    0.63836   0.91749    0.035
 4218.00    0.66111   0.92504    0.035
 4219.00    1.06815   0.92245    0.035
 4220.00    1.37901   0.89695    0.036
 4221.00    1.35098   0.86035    0.036
 4222.00    1.27242   0.81820    0.036
 4223.00    1.04423   0.76107    0.035
 4224.00    0.86066   0.70643    0.034
 4225.00    0.78965   0.71287    0.034
 4226.00    0.72037   0.79074    0.034
 4227.00    0.65481   0.86376    0.035
 4228.00    0.66091   0.89547    0.035
 4229.00    0.80213   0.90176    0.034
 4230.00    0.93026   0.88192    0.034
 4231.00    1.03686   0.85792    0.033
 4232.00    1.04319   0.85740    0.033
 4233.00    0.90477   0.85267    0.033
 4234.00    0.87299   0.83657    0.033
 4235.00    0.97659   0.84125    0.033
 4236.00    1.01430   0.85496    0.033
 4237.00    0.97828   0.86109    0.033
 4238.00    1.02114   0.87336    0.033
 4239.00    1.14183   0.88982    0.033
 4240.00    1.07377   0.89208    0.033
 4241.00    0.84146   0.89791    0.032
 4242.00    0.83724   0.92008    0.033
 4243.00    1.00788   0.92358    0.033
 4244.00    1.11748   0.89513    0.034
 4245.00    1.18594   0.86365    0.034
 4246.00    1.04184   0.84905    0.035
 4247.00    0.77223   0.83829    0.035
 4248.00    0.66524   0.82657    0.035
 4249.00    0.64199   0.84117    0.035
 4250.00    0.63802   0.86730    0.035
 4251.00    0.64265   0.85813    0.035
 4252.00    0.75951   0.83101    0.035
 4253.00    0.91940   0.83652    0.035
 4254.00    1.13728   0.87548    0.035
 4255.00    1.37405   0.89972    0.035
 4256.00    1.22984   0.87760    0.035
 4257.00    0.98164   0.83567    0.035
 4258.00    0.84967   0.80856    0.035
 4259.00    0.74376   0.82045    0.035
 4260.00    0.83701   0.86743    0.035
 4261.00    0.96588   0.90768    0.035
 4262.00    0.94437   0.92253    0.035
 4263.00    0.90229   0.92535    0.035
 4264.00    0.90344   0.91222    0.035
 4265.00    0.90882   0.88346    0.035
 4266.00    0.83532   0.86807    0.035
 4267.00    0.75699   0.85806    0.035
 4268.00    0.92212   0.82072    0.035
 4269.00    1.09336   0.77286    0.036
 4270.00    1.17364   0.76501    0.035
 4271.00    1.24135   0.78741    0.035
 4272.00    0.97674   0.79419    0.035
 4273.00    0.73396   0.80573    0.034
 4274.00    0.79140   0.84687    0.034
 4275.00    0.84630   0.88903    0.034
 4276.00    0.87820   0.90470    0.035
 4277.00    0.89991   0.88578    0.035
 4278.00    0.85380   0.85482    0.036
 4279.00    0.81881   0.84803    0.036
 4280.00    0.84140   0.85724    0.036
 4281.00    0.86285   0.86630    0.036
 4282.00    0.87949   0.86384   -2.000
 4283.00    0.91149   0.84447   -2.000
 4284.00    0.99646   0.83479   -2.000
 4285.00    1.06308   0.83793   -2.000
 4286.00    1.07636   0.82002   -2.000
 4287.00    1.04654   0.77930   -2.000
 4288.00    0.90985   0.76320   -2.000
 4289.00    0.77596   0.79519   -2.000
 4290.00    0.64805   0.84183   -2.000
 4291.00    0.64071   0.85858   -2.000
 4292.00    0.85721   0.84252   -2.000
 4293.00    1.04530   0.83238   -2.000
 4294.00    1.18728   0.82795   -2.000
 4295.00    1.14735   0.80713   -2.000
 4296.00    0.84861   0.76847   -2.000
 4297.00    0.67210   0.72388   -2.000
 4298.00    0.64855   0.70895    0.036
 4299.00    0.62132   0.72434    0.036
 4300.00    0.59003   0.73181    0.036
 4301.00    0.73837   0.73494    0.036
 4302.00    1.06148   0.74817    0.036
 4303.00    1.06611   0.75352    0.036
 4304.00    0.79748   0.74127    0.035
 4305.00    0.71844   0.71285    0.035
 4306.00    0.78266   0.68961    0.036
 4307.00    0.80531   0.69960    0.036
 4308.00    0.80034   0.73102    0.035
 4309.00    0.80397   0.75963    0.035
 4310.00    0.81261   0.78037    0.035
 4311.00    0.87729   0.79616    0.035
 4312.00    0.97038   0.81739    0.035
 4313.00    0.88937   0.86636    0.034
 4314.00    0.73197   0.92919    0.033
 4315.00    0.78134   0.95812    0.033
 4316.00    0.90860   0.95163    0.034
 4317.00    0.90131   0.93669    0.034
 4318.00    0.85100   0.92053    0.034
 4319.00    0.86963   0.90420    0.034
 4320.00    0.90669   0.88171    0.034
 4321.00    0.83904   0.83172    0.034
 4322.00    0.74846   0.76809    0.034
 4323.00    0.76762   0.72852    0.034
 4324.00    0.80587   0.74912    0.034
 4325.00    0.83796   0.82279    0.034
 4326.00    0.86923   0.88590    0.034
 4327.00    0.86315   0.89824    0.034
 4328.00    0.85358   0.87971    0.034
 4329.00    0.92838   0.86955    0.034
 4330.00    1.00801   0.87203    0.000
 4331.00    0.99298   0.87038    0.000
 4332.00    0.97545   0.86759    0.000
 4333.00    0.92415   0.85688    0.000
 4334.00    0.87466   0.80633    0.000
 4335.00    0.86855   0.71936    0.000
 4336.00    0.86279   0.64110    0.000
 4337.00    0.86142   0.57875    0.000
 4338.00    0.85724   0.54270    0.000
 4339.00    0.82851   0.58377    0.000
 4340.00    0.80213   0.67378    0.000
 4341.00    0.79101   0.73396    0.000
 4342.00    0.76577   0.76847    0.000
 4343.00    0.66932   0.80579    0.000
 4344.00    0.61385   0.82865    0.000
 4345.00    0.72566   0.84120    0.000
 4346.00    0.84583   0.86825    0.000
 4347.00    0.99427   0.88886    0.000
 4348.00    1.10285   0.85808    0.000
 4349.00    1.09771   0.79511    0.000
 4350.00    1.06040   0.77665    0.000
 4351.00    0.94465   0.81786    0.034
 4352.00    0.86367   0.85888    0.034
 4353.00    0.85584   0.87933    0.033
 4354.00    0.86434   0.90108    0.033
 4355.00    0.90267   0.91292    0.034
 4356.00    0.96768   0.89569    0.034
 4357.00    1.07530   0.87760    0.034
 4358.00    1.11004   0.89323    0.034
 4359.00    1.04260   0.92371    0.034
 4360.00    0.96070   0.93564    0.034
 4361.00    0.86094   0.93683    0.034
 4362.00    0.92115   0.95017    0.034
 4363.00    1.15534   0.95872    0.034
 4364.00    1.21533   0.93438    0.034
 4365.00    1.10821   0.89917    0.034
 4366.00    1.04049   0.89019    0.034
 4367.00    1.00610   0.90012    0.034
 4368.00    0.97108   0.90471    0.034
 4369.00    0.93560   0.90625    0.034
 4370.00    0.97299   0.90259    0.035
 4371.00    1.05805   0.87730    0.035
 4372.00    1.08847   0.84169    0.035
 4373.00    1.08759   0.83441    0.034
 4374.00    1.00116   0.86924    0.034
 4375.00    0.87205   0.91419    0.034
 4376.00    0.81884   0.93323    0.034
 4377.00    0.79837   0.92628    0.035
 4378.00    0.61208   0.91471    0.035
 4379.00    0.36443   0.89095    0.034
 4380.00    0.41955   0.82370    0.034
 4381.00    0.56962   0.74016    0.034
 4382.00    0.58687   0.72056    0.034
 4383.00    0.56938   0.77709    0.033
 4384.00    0.65301   0.83891    0.034
 4385.00    0.75825   0.85592    0.034
 4386.00    0.71327   0.85253    0.034
 4387.00    0.64289   0.85491    0.033
 4388.00    0.76419   0.85957    0.034
 4389.00    0.90999   0.87541    0.034
 4390.00    0.83251   0.89980    0.034
 4391.00    0.73512   0.90137    0.034
 4392.00    0.71863   0.87809    0.033
 4393.00    0.70646   0.87350    0.033
 4394.00    0.85877   0.90950    0.034
 4395.00    1.01144   0.94463    0.035
 4396.00    0.93069   0.93940    0.035
 4397.00    0.85340   0.90439    0.035
 4398.00    0.85196   0.87617    0.035
 4399.00    0.84232   0.88868    0.035
 4400.00    0.73140   0.91547    0.035
 4401.00    0.65021   0.88989    0.034
 4402.00    0.81908   0.82961    0.035
 4403.00    0.93692   0.81785    0.035
 4404.00    0.73501   0.85331    0.035
 4405.00    0.57448   0.86863    0.034
 4406.00    0.61746   0.86608    0.035
 4407.00    0.68148   0.89043    0.035
 4408.00    0.82948   0.93183    0.035
 4409.00    0.91110   0.95797    0.034
 4410.00    0.77258   0.96695    0.035
 4411.00    0.67828   0.94723    0.035
 4412.00    0.70791   0.89075    0.034
 4413.00    0.73662   0.84772    0.034
 4414.00    0.76318   0.85644    0.034
 4415.00    0.79320   0.89028    0.035
 4416.00    0.83040   0.92838    0.035
 4417.00    0.83744   0.96059    0.035
 4418.00    0.79021   0.96371    0.035
 4419.00    0.77318   0.93770    0.035
 4420.00    0.80370   0.91212    0.035
 4421.00    0.84101   0.91319    0.035
 4422.00    0.88771   0.92703    0.035
 4423.00    0.88295   0.92689    0.034
 4424.00    0.81558   0.91735    0.035
 4425.00    0.75179   0.91813    0.035
 4426.00    0.69185   0.92900    0.035
 4427.00    0.69935   0.92496    0.035
 4428.00    0.77063   0.91071    0.035
 4429.00    0.84980   0.91955    0.035
 4430.00    0.93554   0.93208    0.035
 4431.00    0.91319   0.91184    0.035
 4432.00    0.81148   0.87270    0.035
 4433.00    0.82262   0.85555    0.036
 4434.00    0.90652   0.88270    0.035
 4435.00    0.91189   0.93256    0.035
 4436.00    0.87298   0.97081    0.035
 4437.00    0.82763   0.98100    0.035
 4438.00    0.77914   0.95808    0.036
 4439.00    0.81540   0.91579    0.035
 4440.00    0.88763   0.88078    0.035
 4441.00    0.83299   0.87646    0.035
 4442.00    0.73223   0.90971    0.035
 4443.00    0.71119   0.95258    0.035
 4444.00    0.71467   0.96538    0.035
 4445.00    0.74719   0.95710    0.035
 4446.00    0.78716   0.95773    0.035
 4447.00    0.89571   0.95510    0.035
 4448.00    1.01855   0.94333    0.035
 4449.00    0.83122   0.94409    0.035
 4450.00    0.59293   0.94596    0.034
 4451.00    0.57306   0.92222    0.034
 4452.00    0.58013   0.88080    0.033
 4453.00    0.63282   0.85905    0.034
 4454.00    0.68939   0.87262    0.034
 4455.00    0.75337   0.89003    0.034
 4456.00    0.81771   0.88909    0.033
 4457.00    0.87033   0.88224    0.033
 4458.00    0.92220   0.87580    0.033
 4459.00    0.93870   0.86664    0.033
 4460.00    0.95337   0.87898    0.034
 4461.00    0.93131   0.91565    0.000
 4462.00    0.90229   0.93514    0.000
 4463.00    0.79140   0.93092    0.000
 4464.00    0.70157   0.92537    0.000
 4465.00    0.78258   0.91910    0.000
 4466.00    0.86900   0.90327    0.000
 4467.00    0.98838   0.88574    0.000
 4468.00    1.05964   0.88047    0.000
 4469.00    0.90009   0.89133    0.000
 4470.00    0.76147   0.92359    0.000
 4471.00    0.70461   0.96383    0.000
 4472.00    0.70213   0.98201    0.000
 4473.00    0.87648   0.98075    0.000
 4474.00    1.01570   0.98946    0.000
 4475.00    1.05823   1.00620    0.000
 4476.00    1.08143   0.99900    0.000
 4477.00    1.05905   0.95687    0.000
 4478.00    1.08007   0.90439    0.000
 4479.00    1.18949   0.87813    0.000
 4480.00    1.20624   0.89740    0.000
 4481.00    1.05869   0.94549    0.000
 4482.00    0.92172   0.98553    0.033
 4483.00    0.80115   1.00475    0.033
 4484.00    0.77021   1.00611    0.033
 4485.00    0.86133   0.98534    0.032
 4486.00    0.96411   0.94797    0.032
 4487.00    1.08086   0.92091    0.033
 4488.00    1.15313   0.92725    0.033
 4489.00    1.17838   0.95740    0.033
 4490.00    1.15127   0.97722    0.033
 4491.00    1.07535   0.96362    0.033
 4492.00    1.00517   0.93267    0.033
 4493.00    0.93971   0.91836    0.033
 4494.00    0.93303   0.92908    0.033
 4495.00    0.96888   0.95637    0.033
 4496.00    0.94951   0.98398    0.033
 4497.00    0.89507   0.99191    0.033
 4498.00    0.94855   0.97609    0.033
 4499.00    1.06198   0.96282    0.033
 4500.00    1.09486   0.98524    0.033
 4501.00    1.08883   1.02557    0.033
 4502.00    1.01691   1.04322    0.033
 4503.00    0.91751   1.03553    0.033
 4504.00    0.96730   1.01827    0.033
 4505.00    1.07035   1.00385    0.032
 4506.00    1.13905   1.00179    0.032
 4507.00    1.19740   1.01161    0.032
 4508.00    1.18429   1.01998    0.032
 4509.00    1.15328   1.01203    0.032
 4510.00    1.17224   0.99234    0.032
 4511.00    1.20134   0.97551    0.031
 4512.00    1.10391   0.96754    0.032
 4513.00    0.98630   0.97128    0.032
 4514.00    0.94776   0.97692    0.032
 4515.00    0.91862   0.96964    0.032
 4516.00    0.90632   0.96502    0.032
 4517.00    0.89539   0.97953    0.032
 4518.00    0.83031   0.99805    0.032
 4519.00    0.76276   0.99606    0.031
 4520.00    0.82730   0.97029    0.031
 4521.00    0.89468   0.95315    0.031
 4522.00    1.02437   0.95200    0.031
 4523.00    1.14131   0.93990    0.031
 4524.00    1.01882   0.91494    0.032
 4525.00    0.90490   0.89031    0.032
 4526.00    0.88696   0.87602    0.032
 4527.00    0.87615   0.87983    0.032
 4528.00    0.92105   0.89803    0.032
 4529.00    0.95126   0.91999    0.032
 4530.00    0.89455   0.92864    0.032
 4531.00    0.86257   0.90686    0.031
 4532.00    0.94632   0.87794    0.031
 4533.00    1.01426   0.88178    0.031
 4534.00    1.02183   0.93076    0.031
 4535.00    1.01339   0.98699    0.031
 4536.00    0.95389   1.00221    0.031
 4537.00    0.92426   0.98173    0.032
 4538.00    0.97536   0.95692    0.031
 4539.00    1.00899   0.95221    0.031
 4540.00    1.00217   0.96863    0.031
 4541.00    0.98426   0.97518    0.031
 4542.00    0.94413   0.95925    0.032
 4543.00    0.89568   0.94990    0.032
 4544.00    0.83269   0.95834    0.032
 4545.00    0.78043   0.95886    0.032
 4546.00    0.74459   0.93593    0.031
 4547.00    0.73322   0.91576    0.031
 4548.00    0.75472   0.93040    0.031
 4549.00    0.81494   0.95196    0.031
 4550.00    0.92095   0.94506    0.000
 4551.00    1.02447   0.92534    0.000
 4552.00    1.12540   0.91338    0.000
 4553.00    1.08831   0.92193    0.000
 4554.00    0.92431   0.95464    0.000
 4555.00    0.83148   0.98919    0.000
 4556.00    0.79631   1.00382    0.000
 4557.00    0.83829   1.00443    0.000
 4558.00    0.93530   1.00494    0.000
 4559.00    0.94385   1.00643    0.000
 4560.00    0.89705   0.99363    0.000
 4561.00    0.95890   0.96393    0.000
 4562.00    1.08017   0.94251    0.000
 4563.00    1.14429   0.94756    0.000
 4564.00    1.18125   0.97509    0.000
 4565.00    1.14626   1.00304    0.000
 4566.00    1.08177   1.01363    0.000
 4567.00    1.09026   1.00704    0.000
 4568.00    1.12431   0.97899    0.000
 4569.00    1.12121   0.94919    0.000
 4570.00    1.10712   0.96128    0.000
 4571.00    1.08718   0.99643    0.000
 4572.00    1.06581   1.00610    0.000
 4573.00    0.99936   0.99988    0.000
 4574.00    0.92398   1.00008    0.000
 4575.00    0.90769   0.99761    0.000
 4576.00    0.90055   0.98019    0.000
 4577.00    0.97822   0.95207    0.000
 4578.00    1.06559   0.93363    0.000
 4579.00    1.09018   0.93822    0.000
 4580.00    1.10994   0.95088    0.000
 4581.00    1.10102   0.95368    0.000
 4582.00    1.09089   0.95108    0.000
 4583.00    1.01879   0.94991    0.000
 4584.00    0.94721   0.95702    0.000
 4585.00    0.92118   0.97840    0.000
 4586.00    0.90097   0.99887    0.000
 4587.00    0.98235   1.00172    0.000
 4588.00    1.05732   0.98592    0.000
 4589.00    1.06379   0.96419    0.000
 4590.00    1.06029   0.95393    0.000
 4591.00    0.98138   0.95648    0.000
 4592.00    0.91557   0.95794    0.000
 4593.00    0.92509   0.95740    0.000
 4594.00    0.93415   0.96213    0.000
 4595.00    0.94118   0.97006    0.000
 4596.00    0.94229   0.97753    0.000
 4597.00    0.92131   0.97392    0.000
 4598.00    0.93090   0.95888    0.000
 4599.00    1.03613   0.95505    0.000
 4600.00    1.12642   0.96463    0.000
 4601.00    1.17707   0.97242    0.000
 4602.00    1.20439   0.97307    0.000
 4603.00    1.17856   0.97039    0.000
 4604.00    1.15448   0.97628    0.000
 4605.00    1.13386   0.99714    0.000
 4606.00    1.09370   1.02346    0.000
 4607.00    1.01994   1.03368    0.000
 4608.00    0.99836   1.02239    0.000
 4609.00    1.05539   1.00651    0.000
 4610.00    1.11353   0.99568    0.000
 4611.00    1.17316   0.99357    0.000
 4612.00    1.15797   1.00327    0.000
 4613.00    1.05560   1.00866    0.000
 4614.00    1.00480   1.00633    0.000
 4615.00    1.00703   1.00576    0.000
 4616.00    0.98744   0.99581    0.000
 4617.00    0.94810   0.98685    0.000
 4618.00    0.97900   0.99985    0.000
 4619.00    1.06604   1.01603    0.000
 4620.00    1.13411   1.01807    0.000
 4621.00    1.18886   1.01703    0.000
 4622.00    1.18238   1.01327    0.000
 4623.00    1.13816   1.00451    0.000
 4624.00    1.06647   1.00283    0.000
 4625.00    0.98000   1.00526    0.000
 4626.00    1.04556   0.99560    0.000
 4627.00    1.18223   0.98588    0.000
 4628.00    1.20088   0.99850    0.000
 4629.00    1.17196   1.01390    0.000
 4630.00    1.11784   1.00398    0.000
 4631.00    1.05505   0.98531    0.000
 4632.00    1.04166   0.98123    0.000
 4633.00    1.04258   0.98425    0.000
 4634.00    0.98208   0.97949    0.000
 4635.00    0.90688   0.96661    0.000
 4636.00    0.95219   0.95586    0.000
 4637.00    1.02077   0.95337    0.000
 4638.00    1.06290   0.96517    0.000
 4639.00    1.10106   0.98667    0.000
 4640.00    1.01340   0.99689    0.000
 4641.00    0.91189   0.99204    0.000
 4642.00    0.94389   0.97882    0.000
 4643.00    0.98560   0.95205    0.000
 4644.00    0.86749   0.92196    0.000
 4645.00    0.74332   0.91404    0.000
 4646.00    0.75249   0.92969    0.000
 4647.00    0.76645   0.95249    0.000
 4648.00    0.93290   0.96943    0.000
 4649.00    1.09371   0.97973    0.000
 4650.00    1.16226   0.98755    0.000
 4651.00    1.21889   0.98078    0.000
 4652.00    1.15349   0.95847    0.000
 4653.00    1.09077   0.94492    0.000
 4654.00    1.04776   0.95256    0.000
 4655.00    1.01106   0.98204    0.000
 4656.00    1.00972   1.02071    0.000
 4657.00    1.02083   1.04328    0.000
 4658.00    1.08744   1.03803    0.000
 4659.00    1.11894   1.01322    0.000
 4660.00    1.02179   0.98775    0.000
 4661.00    0.94514   0.97692    0.000
 4662.00    0.93140   0.97688    0.000
 4663.00    0.93106   0.96066    0.000
 4664.00    0.96565   0.91692    0.000
 4665.00    0.98185   0.88250    0.000
 4666.00    0.95686   0.89129    0.000
 4667.00    0.88890   0.92836    0.000
 4668.00    0.73749   0.96506    0.000
 4669.00    0.65980   0.98489    0.000
 4670.00    0.70697   0.98330    0.000
 4671.00    0.81856   0.97431    0.000
 4672.00    1.02575   0.97498    0.000
 4673.00    1.11066   0.98959    0.000
 4674.00    1.03607   1.00388    0.000
 4675.00    1.03199   0.99836    0.000
 4676.00    1.10893   0.97779    0.000
 4677.00    1.15008   0.95974    0.000
 4678.00    1.15495   0.94900    0.000
 4679.00    1.10295   0.94674    0.000
 4680.00    1.00010   0.95920    0.000
 4681.00    0.95853   0.97755    0.000
 4682.00    0.96524   0.98330    0.000
 4683.00    0.98616   0.97911    0.000
 4684.00    1.01694   0.97543    0.000
 4685.00    0.99414   0.97453    0.000
 4686.00    0.93880   0.97844    0.000
 4687.00    0.92064   0.98063    0.000
 4688.00    0.92220   0.97401    0.000
 4689.00    1.03073   0.97107    0.000
 4690.00    1.18846   0.98078    0.000
 4691.00    1.16453   0.99343    0.000
 4692.00    1.06861   1.00556    0.000
 4693.00    1.01990   1.01701    0.000
 4694.00    0.98712   1.01486    0.000
 4695.00    0.94658   0.98883    0.000
 4696.00    0.90383   0.95816    0.000
 4697.00    0.97699   0.95201    0.000
 4698.00    1.07728   0.96069    0.000
 4699.00    1.08274   0.95528    0.000
 4700.00    1.07035   0.93840    0.000
 4701.00    0.98882   0.93809    0.000
 4702.00    0.89722   0.95911    0.000
 4703.00    0.90552   0.97256    0.000
 4704.00    0.92439   0.96257    0.000
 4705.00    0.94625   0.94411    0.000
 4706.00    0.96830   0.93453    0.000
 4707.00    1.05487   0.94193    0.000
 4708.00    1.14363   0.96780    0.000
 4709.00    1.09761   0.98963    0.000
 4710.00    1.05177   0.98407    0.000
 4711.00    1.01875   0.96178    0.000
 4712.00    0.98797   0.95034    0.000
 4713.00    0.99161   0.96513    0.000
 4714.00    0.99605   0.99217    0.000
 4715.00    1.00839   1.00906    0.000
 4716.00    1.01771   1.01699    0.000
 4717.00    1.00567   1.02444    0.000
 4718.00    0.99561   1.02607    0.000
 4719.00    0.99627   1.01674    0.000
 4720.00    1.00432   1.00765    0.000
 4721.00    1.04458   1.01397    0.000
 4722.00    1.08236   1.02860    0.000
 4723.00    1.11118   1.02770    0.000
 4724.00    1.14157   0.99768    0.000
 4725.00    1.17669   0.95786    0.000
 4726.00    1.17731   0.94077    0.000
 4727.00    1.08949   0.94567    0.000
 4728.00    1.01173   0.95314    0.000
 4729.00    0.95615   0.96236    0.000
 4730.00    0.90289   0.97531    0.000
 4731.00    0.85407   0.98580    0.000
 4732.00    0.86657   0.99367    0.000
 4733.00    0.98135   0.98931    0.000
 4734.00    1.05691   0.97422    0.000
 4735.00    1.07514   0.97866    0.000
 4736.00    1.04466   0.99879    0.000
 4737.00    0.95154   1.00137    0.000
 4738.00    0.90715   0.98865    0.000
 4739.00    0.91795   0.98503    0.000
 4740.00    0.94342   0.99610    0.000
 4741.00    0.98355   1.00594    0.000
 4742.00    1.04662   1.00397    0.000
 4743.00    1.12992   1.00429    0.000
 4744.00    1.17616   1.01414    0.000
 4745.00    1.19363   1.01865    0.000
 4746.00    1.15353   1.01574    0.000
 4747.00    1.07413   1.01639    0.000
 4748.00    1.13180   1.01807    0.000
 4749.00    1.27149   1.01094    0.000
 4750.00    1.26260   0.99812    0.000
 4751.00    1.17616   0.98767    0.000
 4752.00    1.09031   0.98266    0.000
 4753.00    1.00472   0.98129    0.000
 4754.00    0.95730   0.98124    0.000
 4755.00    0.92475   0.98356    0.000
 4756.00    1.03177   0.98999    0.000
 4757.00    1.18503   0.99886    0.000
 4758.00    1.17229   0.99558    0.000
 4759.00    1.11339   0.97157    0.000
 4760.00    1.05068   0.94733    0.000
 4761.00    0.98709   0.93927    0.031
 4762.00    0.96576   0.93627    0.031
 4763.00    0.95217   0.93235    0.032
 4764.00    0.90348   0.93868    0.031
 4765.00    0.84985   0.95633    0.031
 4766.00    0.86066   0.97717    0.031
 4767.00    0.87802   0.99303    0.031
 4768.00    0.94718   0.99007    0.032
 4769.00    1.01969   0.97331    0.033
 4770.00    1.03236   0.96967    0.032
 4771.00    1.04311   0.98820    0.031
 4772.00    0.99624   1.00704    0.031
 4773.00    0.94918   1.00887    0.031
 4774.00    0.89668   1.00650    0.031
 4775.00    0.85152   1.00779    0.031
 4776.00    0.91246   1.00131    0.031
 4777.00    0.97754   0.99040    0.031
 4778.00    1.08148   0.98796    0.031
 4779.00    1.15578   0.98584    0.031
 4780.00    1.02712   0.97301    0.030
 4781.00    0.93122   0.96632    0.030
 4782.00    1.00881   0.97381    0.030
 4783.00    1.07090   0.97028    0.031
 4784.00    1.06699   0.95853    0.031
 4785.00    1.05297   0.96013    0.031
 4786.00    1.00347   0.96271    0.030
 4787.00    0.98172   0.96261    0.030
 4788.00    1.04200   0.97069    0.031
 4789.00    1.06635   0.98110    0.031
 4790.00    1.00020   0.99442    0.031
 4791.00    0.95174   1.01573    0.031
 4792.00    0.94167   1.03294    0.031
 4793.00    0.98434   1.03303    0.031
 4794.00    1.12629   1.01915    0.031
 4795.00    1.20903   0.99884    0.032
 4796.00    1.19447   0.97860    0.032
 4797.00    1.16730   0.97043    0.032
 4798.00    1.12198   0.98211    0.032
 4799.00    1.16093   1.00462    0.032
 4800.00    1.30669   1.01875    0.032
 4801.00    1.30410   1.01225    0.032
 4802.00    1.13582   0.99200    0.032
 4803.00    1.06591   0.97964    0.031
 4804.00    1.09289   0.97751    0.031
 4805.00    1.08060   0.97465    0.032
 4806.00    1.03420   0.97692    0.032
 4807.00    0.97574   0.98616    0.032
 4808.00    0.90804   0.99201    0.032
 4809.00    0.89752   0.99249    0.031
 4810.00    0.92546   0.99287    0.031
 4811.00    1.02889   0.99550    0.032
 4812.00    1.17681   0.99954    0.032
 4813.00    1.23289   1.00514    0.032
 4814.00    1.24178   1.01293    0.031
 4815.00    1.29891   1.01911    0.032
 4816.00    1.37751   1.02183    0.033
 4817.00    1.26563   1.02080    0.032
 4818.00    1.08088   1.01728    0.032
 4819.00    1.06821   1.00736    0.031
 4820.00    1.11148   0.97957    0.032
 4821.00    1.05443   0.95329    0.032
 4822.00    0.97007   0.96088    0.032
 4823.00    1.01937   0.98792    0.032
 4824.00    1.09854   0.99991    0.032
 4825.00    1.06416   0.99103    0.032
 4826.00    1.00954   0.97957    0.031
 4827.00    1.07192   0.97971    0.032
 4828.00    1.15025   0.97828    0.032
 4829.00    1.12017   0.96499    0.032
 4830.00    1.07956   0.96262    0.032
 4831.00    1.03541   0.97977    0.032
 4832.00    0.99104   0.99273    0.031
 4833.00    1.00409   0.99135    0.032
 4834.00    1.01908   0.98940    0.032
 4835.00    1.11173   0.98684    0.032
 4836.00    1.19617   0.97203    0.031
 4837.00    1.06616   0.95463    0.031
 4838.00    0.94161   0.95356    0.031
 4839.00    0.89145   0.96169    0.031
 4840.00    0.85344   0.95895    0.031
 4841.00    0.92523   0.95613    0.031
 4842.00    0.99139   0.97061    0.031
 4843.00    1.02020   0.98653    0.031
 4844.00    1.02692   0.98205    0.030
 4845.00    0.91970   0.95782    0.030
 4846.00    0.84055   0.93924    0.030
 4847.00    0.87825   0.94526    0.030
 4848.00    0.91444   0.95575    0.000
 4849.00    0.94543   0.95310    0.000
 4850.00    0.94908   0.94578    0.000
 4851.00    0.87346   0.92626    0.000
 4852.00    0.80770   0.88621    0.000
 4853.00    0.76638   0.85769    0.000
 4854.00    0.79113   0.86215    0.000
 4855.00    0.95685   0.86355    0.000
 4856.00    1.00236   0.82281    0.000
 4857.00    0.82510   0.73654    0.000
 4858.00    0.72981   0.64281    0.000
 4859.00    0.76720   0.62164    0.000
 4860.00    0.81996   0.69253    0.000
 4861.00    0.89453   0.77435    0.000
 4862.00    0.89502   0.82326    0.000
 4863.00    0.80296   0.85836    0.000
 4864.00    0.69520   0.88490    0.000
 4865.00    0.57016   0.89990    0.000
 4866.00    0.57016   0.91130    0.000
 4867.00    0.69162   0.90700    0.000
 4868.00    0.79710   0.87411    0.000
 4869.00    0.88889   0.85120    0.000
 4870.00    0.89876   0.87388    0.000
 4871.00    0.84682   0.91175    0.000
 4872.00    0.74165   0.92782    0.000
 4873.00    0.60119   0.93265    0.000
 4874.00    0.59439   0.94169    0.000
 4875.00    0.66515   0.95110    0.029
 4876.00    0.75151   0.96941    0.030
 4877.00    0.84576   0.98695    0.030
 4878.00    0.85226   0.97492    0.030
 4879.00    0.82035   0.95354    0.030
 4880.00    0.87295   0.95541    0.030
 4881.00    0.95733   0.96160    0.030
 4882.00    1.02384   0.94838    0.030
 4883.00    1.08467   0.93067    0.030
 4884.00    1.06444   0.93049    0.030
 4885.00    1.02261   0.94160    0.030
 4886.00    0.95187   0.94367    0.030
 4887.00    0.87483   0.92348    0.030
 4888.00    0.86323   0.89285    0.030
 4889.00    0.86298   0.89953    0.029
 4890.00    0.86720   0.95136    0.030
 4891.00    0.87201   1.00251    0.030
 4892.00    0.87702   1.03221    0.030
 4893.00    0.88203   1.04459    0.030
 4894.00    0.93910   1.04601    0.029
 4895.00    0.99911   1.04134    0.030
 4896.00    0.95348   1.02263    0.030
 4897.00    0.90596   0.99645    0.031
 4898.00    0.91646   0.99042    0.030
 4899.00    0.92860   0.99650    0.030
 4900.00    0.97941   0.98764    0.030
 4901.00    1.02522   0.97857    0.030
 4902.00    1.00648   0.99492    0.030
 4903.00    0.98035   1.02255    0.030
 4904.00    0.88997   1.03024    0.030
 4905.00    0.82768   1.01414    0.030
 4906.00    0.94609   0.98704    0.030
 4907.00    1.05104   0.95914    0.030
 4908.00    1.08832   0.94995    0.030
 4909.00    1.09643   0.96641    0.030
 4910.00    0.98582   0.98686    0.030
 4911.00    0.91604   0.99985    0.029
 4912.00    0.98408   1.01538    0.029
 4913.00    1.02828   1.02792    0.029
 4914.00    1.00463   1.01557    0.030
 4915.00    0.99409   0.97066    0.030
 4916.00    1.01546   0.91103    0.030
 4917.00    1.03596   0.86480    0.030
 4918.00    1.05464   0.85485    0.031
 4919.00    1.03878   0.88665    0.031
 4920.00    0.95992   0.92507    0.030
 4921.00    0.91179   0.93690    0.030
 4922.00    0.91267   0.94120    0.030
 4923.00    0.90667   0.96798    0.030
 4924.00    0.89102   0.99979    0.030
 4925.00    0.90832   1.01666    0.030
 4926.00    0.96619   1.02931    0.030
 4927.00    1.02539   1.03768    0.030
 4928.00    1.08602   1.03776    0.030
 4929.00    1.12532   1.02567    0.030
 4930.00    1.14419   0.98818    0.030
 4931.00    1.09336   0.95220    0.030
 4932.00    0.98367   0.96058    0.030
 4933.00    0.90163   0.98708    0.030
 4934.00    0.84015   0.98155    0.030
 4935.00    0.85849   0.94505    0.030
 4936.00    0.92896   0.91864    0.030
 4937.00    0.90493   0.93633    0.030
 4938.00    0.82688   0.98078    0.030
 4939.00    0.85417   1.00773    0.030
 4940.00    0.93392   1.01784    0.000
 4941.00    0.97576   1.02738    0.000
 4942.00    1.00129   1.02449    0.000
 4943.00    0.99883   1.01110    0.000
 4944.00    0.98605   1.01233    0.000
 4945.00    0.96713   1.02725    0.000
 4946.00    0.94630   1.03673    0.000
 4947.00    1.13418   1.03984    0.000
 4948.00    1.37652   1.04359    0.000
 4949.00    1.27985   1.04041    0.000
 4950.00    1.11099   1.02811    0.000
 4951.00    1.10547   1.01782    0.000
 4952.00    1.12747   1.00937    0.000
 4953.00    1.06498   0.97873    0.000
 4954.00    0.99174   0.91249    0.000
 4955.00    0.96262   0.87363    0.000
 4956.00    0.93741   0.91468    0.000
 4957.00    0.88656   0.98044    0.000
 4958.00    0.83435   1.00873    0.000
 4959.00    0.92174   1.00724    0.000
 4960.00    1.01134   1.00618    0.000
 4961.00    1.06538   1.00292    0.000
 4962.00    1.11536   0.98268    0.000
 4963.00    1.07726   0.96152    0.000
 4964.00    1.04371   0.95673    0.000
 4965.00    1.06608   0.95958    0.000
 4966.00    1.07760   0.96390    0.000
 4967.00    0.99829   0.96923    0.000
 4968.00    0.93502   0.97809    0.000
 4969.00    0.97190   0.99205    0.000
 4970.00    1.01136   1.00385    0.000
 4971.00    1.06345   1.01307    0.000
 4972.00    1.04914   1.01690    0.000
 4973.00    0.77054   1.01171    0.000
 4974.00    0.61008   1.00104    0.000
 4975.00    0.84042   0.98365    0.000
 4976.00    0.98326   0.96829    0.000
 4977.00    0.88149   0.96224    0.000
 4978.00    0.84432   0.94593    0.000
 4979.00    0.96163   0.90854    0.000
 4980.00    1.03269   0.87941    0.000
 4981.00    1.00820   0.88398    0.000
 4982.00    0.98636   0.90765    0.000
 4983.00    0.96926   0.93483    0.000
 4984.00    0.97020   0.96561    0.000
 4985.00    0.99949   0.98532    0.000
 4986.00    0.97938   0.98240    0.000
 4987.00    0.89116   0.96664    0.000
 4988.00    0.87276   0.95496    0.000
 4989.00    0.93913   0.96248    0.000
 4990.00    0.98128   0.97182    0.000
 4991.00    0.99749   0.96798    0.000
 4992.00    0.97179   0.97308    0.000
 4993.00    0.90652   0.98584    0.000
 4994.00    0.91290   0.98877    0.000
 4995.00    0.97895   0.98147    0.000
 4996.00    1.02691   0.95918    0.000
 4997.00    1.06164   0.93159    0.000
 4998.00    1.06766   0.91942    0.000
 4999.00    1.05522   0.92332    0.000
 5000.00    0.92273   0.93534    0.000
 5001.00    0.72265   0.94023    0.000
 5002.00    0.61498   0.92156    0.000
 5003.00    0.55257   0.89230    0.000
 5004.00    0.65262   0.89220    0.000
 5005.00    0.82147   0.92890    0.000
 5006.00    0.89910   0.96203    0.000
 5007.00    0.94365   0.96727    0.000
 5008.00    0.87839   0.95211    0.000
 5009.00    0.77944   0.92260    0.000
 5010.00    0.83077   0.89071    0.000
 5011.00    0.92046   0.87020    0.000
 5012.00    0.94599   0.87292    0.000
 5013.00    0.95817   0.89549    0.000
 5014.00    0.92068   0.90828    0.000
 5015.00    0.87507   0.90435    0.000
 5016.00    0.87792   0.91012    0.000
 5017.00    0.88672   0.93074    0.000
 5018.00    0.92815   0.93994    0.000
 5019.00    0.97235   0.92769    0.000
 5020.00    0.88264   0.92456    0.000
 5021.00    0.78640   0.94322    0.000
 5022.00    0.84192   0.95884    0.000
 5023.00    0.89790   0.95914    0.000
 5024.00    0.83833   0.94344    0.000
 5025.00    0.78179   0.93353    0.000
 5026.00    0.78584   0.94994    0.000
 5027.00    0.79499   0.96936    0.000
 5028.00    0.86374   0.97785    0.000
 5029.00    0.93167   0.99027    0.029
 5030.00    0.99306   1.00682    0.030
 5031.00    1.03257   1.00632    0.030
 5032.00    0.93945   0.97246    0.029
 5033.00    0.88163   0.93275    0.029
 5034.00    0.99269   0.92888    0.030
 5035.00    1.06527   0.93869    0.030
 5036.00    0.98796   0.92162    0.031
 5037.00    0.94290   0.87652    0.031
 5038.00    1.00241   0.83450    0.030
 5039.00    1.02111   0.84723    0.030
 5040.00    0.92777   0.90888    0.030
 5041.00    0.82246   0.96044    0.030
 5042.00    0.68899   0.99091    0.029
 5043.00    0.67897   1.01119    0.029
 5044.00    0.91991   1.00711    0.030
 5045.00    1.08367   0.97338    0.030
 5046.00    1.11086   0.93707    0.030
 5047.00    1.13161   0.92345    0.030
 5048.00    1.14237   0.92485    0.030
 5049.00    1.10274   0.93225    0.030
 5050.00    0.99459   0.95207    0.030
 5051.00    0.95547   0.97685    0.030
 5052.00    0.99897   0.99009    0.030
 5053.00    1.01901   0.99096    0.030
 5054.00    1.01429   0.99121    0.030
 5055.00    0.97589   0.99783    0.030
 5056.00    0.90613   1.00011    0.029
 5057.00    0.94872   1.00038    0.029
 5058.00    1.08352   1.00883    0.030
 5059.00    1.07286   1.01579    0.030
 5060.00    0.95712   1.00356    0.030
 5061.00    0.92099   0.96312    0.029
 5062.00    0.93532   0.92473    0.029
 5063.00    0.90183   0.92764    0.028
 5064.00    0.84183   0.94612    0.028
 5065.00    0.87089   0.94633    0.029
 5066.00    0.94288   0.94637    0.029
 5067.00    0.98784   0.96269    0.029
 5068.00    1.02154   0.96728    0.029
 5069.00    1.00732   0.94861    0.029
 5070.00    0.97603   0.94342    0.029
 5071.00    0.94902   0.95750    0.029
 5072.00    0.92331   0.96069    0.029
 5073.00    0.93220   0.95531    0.029
 5074.00    0.94974   0.96050    0.029
 5075.00    0.94308   0.95604    0.029
 5076.00    0.93152   0.91360    0.029
 5077.00    0.94029   0.87333    0.029
 5078.00    0.95229   0.87976    0.029
 5079.00    0.97392   0.90604    0.028
 5080.00    0.99670   0.91594    0.028
 5081.00    0.95583   0.92407    0.028
 5082.00    0.90985   0.94563    0.028
 5083.00    0.88850   0.96286    0.028
 5084.00    0.86826   0.96392    0.027
 5085.00    0.88809   0.96209    0.027
 5086.00    0.90994   0.96746    0.027
 5087.00    1.00859   0.97118    0.027
 5088.00    1.10149   0.97154    0.026
 5089.00    1.08761   0.97960    0.027
 5090.00    1.07237   0.99459    0.027
 5091.00    1.04188   1.00014    0.027
 5092.00    1.01537   0.98781    0.027
 5093.00    1.01988   0.96715    0.028
 5094.00    1.01260   0.94634    0.028
 5095.00    0.93582   0.92080    0.028
 5096.00    0.87401   0.89767    0.028
 5097.00    0.88210   0.90602    0.028
 5098.00    0.89350   0.94006    0.027
 5099.00    0.91756   0.96372    0.027
 5100.00    0.94522   0.96498    0.027
 5101.00    0.98437   0.95586    0.027
 5102.00    1.01155   0.94816    0.028
 5103.00    1.00646   0.93960    0.028
 5104.00    0.98355   0.92304    0.028
 5105.00    0.91945   0.91436    0.028
 5106.00    0.87906   0.91862    0.028
 5107.00    0.88610   0.91768    0.029
 5108.00    0.88616   0.92540    0.029
 5109.00    0.87406   0.94643    0.028
 5110.00    0.89499   0.95837    0.028
 5111.00    0.96631   0.96443    0.028
 5112.00    0.96487   0.97068    0.029
 5113.00    0.86593   0.97698    0.029
 5114.00    0.81340   0.98879    0.029
 5115.00    0.81563   0.99756    0.029
 5116.00    0.89106   0.99260    0.030
 5117.00    1.04266   0.97782    0.030
 5118.00    1.04767   0.96087    0.030
 5119.00    0.91813   0.94288    0.029
 5120.00    0.87297   0.91605    0.029
 5121.00    0.89607   0.89334    0.029
 5122.00    0.92204   0.89533    0.029
 5123.00    0.95005   0.90790    0.029
 5124.00    0.89437   0.91125    0.029
 5125.00    0.78642   0.90796    0.029
 5126.00    0.80607   0.90445    0.029
 5127.00    0.89537   0.90763    0.029
 5128.00    0.91700   0.92340    0.029
 5129.00    0.90652   0.93899    0.030
 5130.00    0.92434   0.94362    0.030
 5131.00    0.95376   0.94946    0.030
 5132.00    1.00372   0.96644    0.030
 5133.00    1.06086   0.96827    0.030
 5134.00    1.02845   0.94717    0.030
 5135.00    0.96965   0.92378    0.030
 5136.00    0.90292   0.90374    0.029
 5137.00    0.83426   0.91044    0.029
 5138.00    0.81989   0.93095    0.029
 5139.00    0.81625   0.91639    0.030
 5140.00    0.89984   0.89852    0.029
 5141.00    0.99689   0.91490    0.029
 5142.00    1.04156   0.92737    0.029
 5143.00    1.08026   0.91708    0.029
 5144.00    0.99761   0.90672    0.029
 5145.00    0.90570   0.91080    0.028
 5146.00    0.80741   0.92676    0.028
 5147.00    0.70886   0.92938    0.028
 5148.00    0.75127   0.91213    0.028
 5149.00    0.79353   0.89784    0.028
 5150.00    0.78030   0.89449    0.028
 5151.00    0.77112   0.89725    0.028
 5152.00    0.83229   0.91215    0.028
 5153.00    0.88764   0.93848    0.028
 5154.00    0.88113   0.96522    0.028
 5155.00    0.87153   0.98076    0.028
 5156.00    0.83859   0.98031    0.028
 5157.00    0.80943   0.98009    0.027
 5158.00    0.80198   0.97960    0.027
 5159.00    0.79614   0.96467    0.027
 5160.00    0.79761   0.95161    0.028
 5161.00    0.79942   0.94307    0.028
 5162.00    0.80249   0.90724    0.028
 5163.00    0.83235   0.83468    0.028
 5164.00    0.94578   0.75499    0.028
 5165.00    0.99352   0.72269    0.028
 5166.00    0.86728   0.76097    0.027
 5167.00    0.77135   0.82096    0.027
 5168.00    0.74436   0.81845    0.028
 5169.00    0.72818   0.74575    0.028
 5170.00    0.73327   0.70924    0.028
 5171.00    0.70861   0.77331    0.028
 5172.00    0.63288   0.86642    0.028
 5173.00    0.61384   0.91394    0.028
 5174.00    0.68003   0.92810    0.028
 5175.00    0.72175   0.93603    0.027
 5176.00    0.73114   0.93582    0.027
 5177.00    0.74038   0.92471    0.027
 5178.00    0.74944   0.89976    0.028
 5179.00    0.73208   0.83988    0.028
 5180.00    0.68763   0.74652    0.027
 5181.00    0.69240   0.70530    0.027
 5182.00    0.74170   0.77178    0.027
 5183.00    0.78740   0.87071    0.027
 5184.00    0.83021   0.92464    0.028
 5185.00    0.84194   0.93092    0.028
 5186.00    0.83185   0.93500    0.028
 5187.00    0.80023   0.95007    0.028
 5188.00    0.75534   0.92742    0.028
 5189.00    0.78483   0.87584    0.028
 5190.00    0.85429   0.86489    0.000
 5191.00    0.87455   0.89145    0.000
 5192.00    0.87183   0.90339    0.000
 5193.00    0.89663   0.90996    0.000
 5194.00    0.93249   0.92740    0.000
 5195.00    0.90810   0.94326    0.000
 5196.00    0.86303   0.95754    0.000
 5197.00    0.87601   0.96753    0.000
 5198.00    0.90577   0.96470    0.000
 5199.00    1.00789   0.95328    0.000
 5200.00    1.12729   0.94086    0.000
 5201.00    1.04162   0.91168    0.000
 5202.00    0.91648   0.86765    0.000
 5203.00    0.90215   0.84769    0.000
 5204.00    0.90439   0.85320    0.000
 5205.00    0.95624   0.84564    0.000
 5206.00    1.01353   0.84156    0.000
 5207.00    0.97780   0.86518    0.000
 5208.00    0.93535   0.90380    0.000
 5209.00    0.96625   0.94646    0.000
 5210.00    0.99988   0.97918    0.000
 5211.00    0.88565   0.98492    0.029
 5212.00    0.77642   0.95967    0.029
 5213.00    0.87446   0.93180    0.029
 5214.00    0.96626   0.93080    0.029
 5215.00    0.95710   0.95442    0.029
 5216.00    0.95084   0.97895    0.028
 5217.00    0.97406   0.99227    0.028
 5218.00    0.99850   1.00125    0.028
 5219.00    1.03174   1.00223    0.028
 5220.00    1.05890   0.98527    0.028
 5221.00    1.05210   0.95067    0.028
 5222.00    1.03049   0.90593    0.028
 5223.00    0.94295   0.85724    0.028
 5224.00    0.85672   0.83396    0.028
 5225.00    0.77523   0.87492    0.028
 5226.00    0.71136   0.93952    0.028
 5227.00    0.70142   0.97425    0.027
 5228.00    0.72054   0.98724    0.027
 5229.00    0.81528   0.97258    0.027
 5230.00    0.89730   0.93692    0.027
 5231.00    0.95090   0.92179    0.027
 5232.00    0.96609   0.93548    0.027
 5233.00    0.90682   0.96596    0.027
 5234.00    0.89165   0.99436    0.028
 5235.00    0.95101   1.00513    0.028
 5236.00    1.01280   1.00159    0.028
 5237.00    1.07818   0.99766    0.027
 5238.00    1.08745   1.00031    0.028
 5239.00    1.02367   0.99892    0.028
 5240.00    1.00528   0.99518    0.028
 5241.00    1.03896   1.00614    0.028
 5242.00    1.04982   1.01638    0.028
 5243.00    1.03761   0.98958    0.028
 5244.00    1.03099   0.94455    0.028
 5245.00    1.02937   0.93541    0.027
 5246.00    0.97462   0.94618    0.028
 5247.00    0.87811   0.93428    0.028
 5248.00    0.84574   0.92630    0.029
 5249.00    0.85774   0.94423    0.029
 5250.00    0.90309   0.96309    0.029
 5251.00    0.96865   0.95959    0.029
 5252.00    1.00864   0.94413    0.029
 5253.00    1.03510   0.95820    0.029
 5254.00    1.03132   0.99756    0.029
 5255.00    1.01364   1.02450    0.029
 5256.00    0.99279   1.02745    0.029
 5257.00    0.97068   1.01092    0.029
 5258.00    0.92221   0.97784    0.029
 5259.00    0.86485   0.93344    0.028
 5260.00    0.94428   0.89244    0.029
 5261.00    1.06244   0.86314    0.030
 5262.00    1.00693   0.84239    0.030
 5263.00    0.91087   0.83981    0.031
 5264.00    0.84929   0.87565    0.030
 5265.00    0.79417   0.89440    0.030
 5266.00    0.76360   0.83862    0.030
 5267.00    0.73660   0.79218    0.031
 5268.00    0.66385   0.83973    0.031
 5269.00    0.58630   0.91344    0.031
 5270.00    0.64051   0.94047    0.030
 5271.00    0.70370   0.93962    0.030
 5272.00    0.79466   0.92889    0.029
 5273.00    0.88655   0.93170    0.029
 5274.00    0.96356   0.97283    0.029
 5275.00    1.03968   1.01515    0.029
 5276.00    1.08749   1.02277    0.029
 5277.00    1.13257   1.00277    0.029
 5278.00    1.13623   0.97581    0.029
 5279.00    1.13504   0.95295    0.029
 5280.00    1.08660   0.93366    0.029
 5281.00    1.03912   0.93232    0.029
 5282.00    0.99845   0.97099    0.028
 5283.00    0.95655   1.02032    0.028
 5284.00    0.90799   1.03967    0.027
 5285.00    0.89153   1.03186    0.027
 5286.00    1.01453   1.02486    0.027
 5287.00    1.10336   1.03135    0.027
 5288.00    1.06990   1.03743    0.027
 5289.00    1.04912   1.03077    0.027
 5290.00    1.06646   1.01882    0.028
 5291.00    1.06249   1.01659    0.028
 5292.00    1.00407   1.01152    0.028
 5293.00    0.96321   0.98024    0.027
 5294.00    0.96100   0.92927    0.027
 5295.00    0.97886   0.90177    0.027
 5296.00    1.03505   0.92668    0.028
 5297.00    1.06071   0.96328    0.028
 5298.00    1.03552   0.96843    0.028
 5299.00    1.00809   0.96552    0.028
 5300.00    0.97738   0.98470    0.028
 5301.00    0.95043   1.01766    0.028
 5302.00    0.92832   1.03712    0.027
 5303.00    0.93744   1.03105    0.027
 5304.00    0.98189   1.01318    0.028
 5305.00    1.00620   1.01021    0.028
 5306.00    1.01042   1.02550    0.028
 5307.00    1.02287   1.03687    0.028
 5308.00    1.04255   1.03543    0.029
 5309.00    1.08617   1.02856    0.029
 5310.00    1.14833   1.02090    0.029
 5311.00    1.13975   1.01782    0.029
 5312.00    1.08297   1.01217    0.029
 5313.00    1.01642   0.99441    0.029
 5314.00    0.94405   0.98476    0.029
 5315.00    0.99452   0.99577    0.029
 5316.00    1.10899   1.00563    0.028
 5317.00    1.06330   1.00502    0.028
 5318.00    0.94527   1.00303    0.028
 5319.00    0.89683   0.99855    0.028
 5320.00    0.87542   0.98047    0.028
 5321.00    0.90038   0.95460    0.028
 5322.00    0.94066   0.95447    0.028
 5323.00    0.95625   0.96212    0.028
 5324.00    0.96500   0.91596    0.028
 5325.00    0.90217   0.83654    0.028
 5326.00    0.82302   0.83102    0.028
 5327.00    0.85083   0.90417    0.028
 5328.00    0.89817   0.96743    0.028
 5329.00    0.84709   0.98215    0.028
 5330.00    0.78221   0.97922    0.028
 5331.00    0.76456   0.99414    0.028
 5332.00    0.75167   1.01201    0.028
 5333.00    0.82197   1.00899    0.028
 5334.00    0.89759   0.99841    0.027
 5335.00    0.92890   0.99683    0.027
 5336.00    0.95903   0.98140    0.028
 5337.00    1.05015   0.94213    0.027
 5338.00    1.13563   0.92685    0.027
 5339.00    1.06012   0.95750    0.028
 5340.00    0.98695   0.99063    0.028
 5341.00    0.94743   1.00175    0.027
 5342.00    0.91376   0.99119    0.027
 5343.00    0.93494   0.97949    0.027
 5344.00    0.96031   0.98326    0.026
 5345.00    1.01427   0.97682    0.027
 5346.00    1.04521   0.95983    0.027
 5347.00    0.95454   0.96768    0.027
 5348.00    0.88426   0.99889    0.027
 5349.00    0.90059   1.01909    0.026
 5350.00    0.90381   1.02021    0.026
 5351.00    0.86111   1.02806    0.027
 5352.00    0.84284   1.04533    0.027
 5353.00    0.89660   1.05300    0.027
 5354.00    0.95079   1.05342    0.027
 5355.00    1.00607   1.05452    0.027
 5356.00    1.03419   1.05526    0.027
 5357.00    1.00354   1.04834    0.027
 5358.00    1.00512   1.02805    0.028
 5359.00    1.06727   1.00576    0.028
 5360.00    1.10368   0.99777    0.028
 5361.00    1.09789   0.99388    0.028
 5362.00    1.07644   0.98498    0.028
 5363.00    1.03247   0.98467    0.028
 5364.00    1.01089   0.98950    0.028
 5365.00    1.01765   0.98936    0.028
 5366.00    0.98027   0.97084    0.028
 5367.00    0.89368   0.92804    0.028
 5368.00    0.78772   0.89283   -2.000
 5369.00    0.66268   0.91034   -2.000
 5370.00    0.71033   0.96902   -2.000
 5371.00    0.90773   1.01501   -2.000
 5372.00    0.90215   1.03428   -2.000
 5373.00    0.74153   1.03304   -2.000
 5374.00    0.71707   1.02461   -2.000
 5375.00    0.78404   1.02591   -2.000
 5376.00    0.96184   1.02704   -2.000
 5377.00    1.20485   1.01682   -2.000
 5378.00    1.19873   1.00548   -2.000
 5379.00    1.06486   0.99906   -2.000
 5380.00    0.99373   0.99143   -2.000
 5381.00    0.95046   0.99555   -2.000
 5382.00    1.00900   1.01175   -2.000
 5383.00    1.10640   1.02021    0.029
 5384.00    1.08825   1.01960    0.029
 5385.00    1.03261   1.01317    0.028
 5386.00    1.00327   0.99803    0.028
 5387.00    0.98107   0.98206    0.028
 5388.00    1.00630   0.97507    0.028
 5389.00    1.04208   0.97254    0.027
 5390.00    0.97124   0.96929    0.027
 5391.00    0.88147   0.96789    0.027
 5392.00    0.84765   0.96583    0.027
 5393.00    0.82142   0.94036    0.027
 5394.00    0.82555   0.90862    0.027
 5395.00    0.83261   0.92660    0.026
 5396.00    0.82863   0.97005    0.026
 5397.00    0.82400   0.98496    0.026
 5398.00    0.82673   0.98605    0.026
 5399.00    0.83018   0.99357    0.026
 5400.00    0.92049   0.98017    0.026
 5401.00    1.00444   0.93553    0.026
 5402.00    0.92452   0.89216    0.027
 5403.00    0.85199   0.88659    0.027
 5404.00    0.87978   0.92168    0.027
 5405.00    0.90359   0.95048    0.026
 5406.00    0.89162   0.93918    0.027
 5407.00    0.87068   0.92026    0.027
 5408.00    0.79045   0.93932    0.027
 5409.00    0.73676   0.97830    0.026
 5410.00    0.81962   0.99951    0.027
 5411.00    0.87592   0.99671    0.027
 5412.00    0.82198   0.99173    0.027
 5413.00    0.79163   1.00521    0.027
 5414.00    0.84231   1.02237    0.027
 5415.00    0.92453   1.02283    0.028
 5416.00    1.09797   1.01077    0.029
 5417.00    1.17795   0.99750    0.029
 5418.00    1.02714   0.99739    0.029
 5419.00    0.95997   1.00921    0.030
 5420.00    1.07090   1.00047    0.030
 5421.00    1.11757   0.97427    0.029
 5422.00    1.04542   0.97653    0.029
 5423.00    0.97193   1.00765    0.028
 5424.00    0.89630   1.03228    0.028
 5425.00    0.89384   1.01277    0.028
 5426.00    0.99509   0.95073    0.028
 5427.00    1.02010   0.92466    0.028
 5428.00    0.95004   0.95660    0.028
 5429.00    0.92824   0.97256    0.028
 5430.00    0.95948   0.95511    0.028
 5431.00    0.98205   0.93440    0.028
 5432.00    0.99620   0.93008    0.028
 5433.00    0.97764   0.94705    0.028
 5434.00    0.93111   0.97633    0.028
 5435.00    0.90253   1.00884    0.028
 5436.00    0.88745   1.03201    0.027
 5437.00    0.91393   1.04161    0.027
 5438.00    0.96791   1.04296    0.027
 5439.00    1.00291   1.04338    0.027
 5440.00    1.02692   1.04336    0.027
 5441.00    0.93461   1.02768    0.026
 5442.00    0.78358   0.98722    0.026
 5443.00    0.77805   0.93097    0.026
 5444.00    0.83611   0.90596    0.026
 5445.00    0.95451   0.94045    0.026
 5446.00    1.09554   0.98574    0.026
 5447.00    1.04538   1.00546    0.026
 5448.00    0.93438   1.00658    0.025
 5449.00    0.94349   1.00172    0.025
 5450.00    0.98454   0.99021    0.026
 5451.00    0.97152   0.95957    0.026
 5452.00    0.94674   0.91592    0.026
 5453.00    0.89459   0.91158    0.026
 5454.00    0.83772   0.95744    0.026
 5455.00    0.90582   1.00056    0.026
 5456.00    0.99031   1.01256    0.026
 5457.00    0.97271   1.00244    0.026
 5458.00    0.94568   0.98755    0.026
 5459.00    0.96606   0.96742    0.027
 5460.00    0.98910   0.94930    0.027
 5461.00    0.96716   0.96026    0.026
 5462.00    0.94403   0.98374    0.026
 5463.00    0.90106   0.98853    0.027
 5464.00    0.86153   0.99068    0.027
 5465.00    0.90270   1.00048    0.027
 5466.00    0.94140   0.99977    0.027
 5467.00    0.94850   0.98610    0.027
 5468.00    0.95830   0.98092    0.027
 5469.00    0.99148   0.98049    0.027
 5470.00    1.01886   0.96771    0.028
 5471.00    1.00903   0.96039    0.028
 5472.00    1.00280   0.95452    0.028
 5473.00    1.01458   0.91966    0.028
 5474.00    1.00626   0.89955    0.027
 5475.00    0.91631   0.93646    0.028
 5476.00    0.84452   0.98004    0.028
 5477.00    0.83388   0.97868    0.027
 5478.00    0.82191   0.95026   -2.000
 5479.00    0.80615   0.94335   -2.000
 5480.00    0.79624   0.96259   -2.000
 5481.00    0.80050   0.98953   -2.000
 5482.00    0.82196   1.00955   -2.000
 5483.00    0.87945   1.00460   -2.000
 5484.00    0.88694   0.97944   -2.000
 5485.00    0.80337   0.96890   -2.000
 5486.00    0.61284   0.97879   -2.000
 5487.00    0.25203   0.98375   -2.000
 5488.00    0.00402   0.99011   -2.000
 5489.00   -0.08642   0.99801   -2.000
 5490.00    0.19275   0.99127   -2.000
 5491.00    0.92632   0.98699   -2.000
 5492.00    1.43192   0.99587   -2.000
 5493.00    1.69046   0.99152   -2.000
 5494.00    1.59750   0.96909   -2.000
 5495.00    1.16855   0.97176   -2.000
 5496.00    0.92839   0.99946   -2.000
 5497.00    0.84735   1.00096   -2.000
 5498.00    0.86127   0.97354   -2.000
 5499.00    0.94568   0.95968   -2.000
 5500.00    0.96029   0.96997   -2.000
 5501.00    0.92940   0.98244   -2.000
 5502.00    0.90954   0.97576   -1.000
 5503.00    0.89596   0.95040   -1.000
 5504.00    0.89639   0.94723   -1.000
 5505.00    0.90377   0.97384   -1.000
 5506.00    0.87883   0.98810   -1.000
 5507.00    0.83998   0.98422   -1.000
 5508.00    0.84967   0.97000    0.070
 5509.00    0.87723   0.94579    0.030
 5510.00    0.87742   0.93407    0.026
 5511.00    0.86906   0.94084    0.026
 5512.00    0.88736   0.95699    0.026
 5513.00    0.91259   0.97318    0.026
 5514.00    0.91446   0.98776    0.027
 5515.00    0.91136   1.00716    0.027
 5516.00    0.86403   1.01961    0.027
 5517.00    0.80927   1.01717    0.026
 5518.00    0.89872   1.01073    0.027
 5519.00    1.00643   1.00817    0.028
 5520.00    0.92452   1.00924    0.027
 5521.00    0.82588   1.00802    0.027
 5522.00    0.87546   0.99720    0.027
 5523.00    0.93279   0.97809    0.027
 5524.00    0.89634   0.95078    0.026
 5525.00    0.85839   0.92869    0.026
 5526.00    0.83909   0.94395    0.026
 5527.00    0.82348   0.98275    0.025
 5528.00    0.88736   1.00266    0.026
 5529.00    0.94275   0.99944    0.026
 5530.00    0.89457   0.99142    0.026
 5531.00    0.85282   0.98071    0.026
 5532.00    0.86468   0.97161    0.026
 5533.00    0.87798   0.98030    0.025
 5534.00    0.90021   0.99258    0.025
 5535.00    0.91989   0.99411    0.025
 5536.00    0.92717   1.00077    0.025
 5537.00    0.92900   1.01542    0.025
 5538.00    0.90922   1.02331    0.025
 5539.00    0.91326   1.01351    0.024
 5540.00    0.99588   0.99505    0.025
 5541.00    1.04351   0.98910    0.025
 5542.00    0.99357   0.99214    0.024
 5543.00    0.94959   0.99197    0.024
 5544.00    0.91985   0.99944    0.024
 5545.00    0.90580   1.01624    0.024
 5546.00    0.92409   1.02550    0.024
 5547.00    0.93937   1.02629    0.025
 5548.00    0.94926   1.02507    0.025
 5549.00    0.96400   1.01847    0.025
 5550.00    0.98633   1.00359    0.025
 5551.00    0.96312   0.99028    0.025
 5552.00    0.87723   0.99167    0.025
 5553.00    0.86018   1.00062    0.025
 5554.00    0.92659   1.00079    0.025
 5555.00    0.96438   0.99876    0.025
 5556.00    0.97160   1.00214    0.026
 5557.00    0.94872   1.00397    0.026
 5558.00    0.89747   1.00068    0.026
 5559.00    0.93059   0.99006    0.026
 5560.00    1.03381   0.97897    0.026
 5561.00    1.03661   0.97916    0.025
 5562.00    0.96594   0.97712    0.025
 5563.00    0.91241   0.97070    0.025
 5564.00    0.86991   0.97316    0.026
 5565.00    0.86919   0.97636    0.025
 5566.00    0.89195   0.96868    0.025
 5567.00    0.93472   0.97153    0.025
 5568.00    0.98726   0.98582    0.025
 5569.00    1.01712   0.97385    0.026
 5570.00    1.03739   0.96086    0.026
 5571.00    0.95678   0.98020    0.025
 5572.00    0.83969   0.99284    0.025
 5573.00    0.80359   0.98751    0.025
 5574.00    0.79227   0.99364    0.025
 5575.00    0.81069   0.99857    0.025
 5576.00    0.83667   0.99909    0.025
 5577.00    0.84383   1.00458    0.025
 5578.00    0.84709   0.99907    0.024
 5579.00    0.84661   0.98841    0.024
 5580.00    0.84553   0.99121    0.024
 5581.00    0.87301   0.99298    0.024
 5582.00    0.90399   0.97913    0.024
 5583.00    0.87303   0.94835    0.024
 5584.00    0.83686   0.91501    0.024
 5585.00    0.87032   0.90111    0.024
 5586.00    0.90716   0.90789    0.024
 5587.00    0.84702   0.93064    0.024
 5588.00    0.78623   0.95427    0.024
 5589.00    0.77311   0.96212    0.024
 5590.00    0.76342   0.95741    0.025
 5591.00    0.82201   0.95007    0.025
 5592.00    0.87077   0.96544    0.025
 5593.00    0.80559   0.99582    0.025
 5594.00    0.75359   0.99175    0.025
 5595.00    0.80748   0.95816    0.025
 5596.00    0.85783   0.94540    0.026
 5597.00    0.88673   0.94910    0.026
 5598.00    0.91173   0.94057    0.027
 5599.00    0.91808   0.92701    0.027
 5600.00    0.90615   0.93140    0.026
 5601.00    0.82321   0.96523    0.026
 5602.00    0.77004   0.99953    0.026
 5603.00    0.81321   1.01619    0.026
 5604.00    0.85961   1.02102    0.026
 5605.00    0.91490   1.02014    0.026
 5606.00    0.95825   1.01673    0.026
 5607.00    0.97359   1.01421    0.026
 5608.00    0.97296   1.01773    0.026
 5609.00    0.93990   1.02420    0.025
 5610.00    0.91908   1.01887    0.025
 5611.00    0.91987   0.97955    0.025
 5612.00    0.92114   0.92228    0.025
 5613.00    0.92314   0.91538    0.025
 5614.00    0.91753   0.95598    0.024
 5615.00    0.90160   0.97957    0.024
 5616.00    0.88174   0.97758    0.024
 5617.00    0.85720   0.97770    0.024
 5618.00    0.87306   0.98981    0.023
 5619.00    0.93147   1.00013    0.024
 5620.00    0.93078   0.98523    0.024
 5621.00    0.87517   0.94943    0.023
 5622.00    0.86304   0.93727    0.023
 5623.00    0.88654   0.96037    0.023
 5624.00    0.87445   0.98037    0.023
 5625.00    0.83670   0.98808    0.023
 5626.00    0.82177   0.99906    0.023
 5627.00    0.82128   1.00825    0.023
 5628.00    0.85910   1.01098    0.023
 5629.00    0.91811   1.00900    0.023
 5630.00    0.92622   1.00354    0.023
 5631.00    0.90984   0.99717    0.024
 5632.00    0.92970   0.99017    0.023
 5633.00    0.96461   0.97923    0.023
 5634.00    0.99999   0.96842    0.023
 5635.00    1.03553   0.96869    0.023
 5636.00    1.03387   0.97695    0.024
 5637.00    1.02106   0.97403    0.025
 5638.00    1.01206   0.96215    0.024
 5639.00    1.00401   0.96639    0.024
 5640.00    1.01426   0.97782    0.024
 5641.00    1.02821   0.98127    0.024
 5642.00    0.94015   0.98471    0.025
 5643.00    0.83594   0.98870    0.025
 5644.00    0.88078   0.99286    0.025
 5645.00    0.94316   0.99420    0.025
 5646.00    0.89824   0.98941    0.024
 5647.00    0.84474   0.98799    0.024
 5648.00    0.83790   0.99685    0.024
 5649.00    0.83312   1.00812    0.024
 5650.00    0.86919   1.00831    0.024
 5651.00    0.90570   0.99253    0.024
 5652.00    0.94159   0.98091    0.024
 5653.00    0.97496   0.98426    0.024
 5654.00    0.96199   0.96287    0.024
 5655.00    0.94400   0.91518    0.024
 5656.00    0.87049   0.91345    0.023
 5657.00    0.80378   0.95656    0.023
 5658.00    0.78984   0.97054    0.023
 5659.00    0.78042   0.95119    0.023
 5660.00    0.79757   0.94991    0.023
 5661.00    0.81723   0.97391    0.023
 5662.00    0.84865   0.99186    0.023
 5663.00    0.87525   0.98924    0.023
 5664.00    0.88356   0.97375    0.023
 5665.00    0.90047   0.96530    0.023
 5666.00    0.94467   0.97010    0.023
 5667.00    0.97695   0.97785    0.023
 5668.00    0.97713   0.98428    0.023
 5669.00    0.96824   0.99788    0.022
 5670.00    0.93845   1.01322    0.023
 5671.00    0.91615   1.01427    0.023
 5672.00    0.90880   1.00478    0.023
 5673.00    0.93085   1.00683    0.024
 5674.00    1.00404   1.01581    0.024
 5675.00    1.04078   1.01051    0.024
 5676.00    1.02205   1.00041    0.024
 5677.00    1.01347   1.00001    0.024
 5678.00    1.01849   0.99625    0.025
 5679.00    1.02051   0.97592    0.025
 5680.00    1.01900   0.96397    0.025
 5681.00    1.01815   0.97359    0.025
 5682.00    1.01800   0.98600    0.025
 5683.00    0.99014   0.98098    0.024
 5684.00    0.93690   0.96477    0.024
 5685.00    0.88280   0.95821    0.024
 5686.00    0.82801   0.96929    0.024
 5687.00    0.81478   0.98801    0.024
 5688.00    0.83109   1.00187    0.024
 5689.00    0.82087   1.01264    0.024
 5690.00    0.79412   1.01558    0.023
 5691.00    0.84648   1.00918    0.023
 5692.00    0.94194   1.00473    0.024
 5693.00    0.98577   1.00608    0.024
 5694.00    1.00517   1.00118    0.024
 5695.00    1.01728   0.98499    0.024
 5696.00    1.02641   0.97838    0.024
 5697.00    1.02315   0.97481    0.024
 5698.00    1.01557   0.96063    0.024
 5699.00    1.01996   0.95599    0.024
 5700.00    1.02786   0.96942    0.023
 5701.00    0.97640   0.98430    0.023
 5702.00    0.91048   0.98134    0.023
 5703.00    0.87964   0.96361    0.023
 5704.00    0.85571   0.94962    0.022
 5705.00    0.84576   0.93369    0.023
 5706.00    0.83796   0.91939    0.023
 5707.00    0.84408   0.92525    0.023
 5708.00    0.85177   0.93142    0.022
 5709.00    0.82392   0.93959    0.022
 5710.00    0.79338   0.97006    0.022
 5711.00    0.81183   0.99308    0.023
 5712.00    0.83227   0.99826    0.023
 5713.00    0.84078   1.00208    0.023
 5714.00    0.85136   1.00080    0.023
 5715.00    0.95130   0.99843    0.023
 5716.00    1.04457   1.00577    0.024
 5717.00    1.02340   1.01325    0.023
 5718.00    1.00233   1.01815    0.023
 5719.00    0.98224   1.02497    0.023
 5720.00    0.97156   1.02751    0.024
 5721.00    1.03129   1.02490    0.024
 5722.00    1.07478   1.01885    0.023
 5723.00    1.02557   1.00218    0.024
 5724.00    0.97540   0.98352    0.024
 5725.00    0.92093   0.98922    0.024
 5726.00    0.88254   1.00818    0.023
 5727.00    0.90400   1.00882    0.023
 5728.00    0.93376   0.99239    0.024
 5729.00    0.98931   0.99066    0.023
 5730.00    1.01481   1.00637    0.023
 5731.00    0.96092   1.01778    0.023
 5732.00    0.91252   1.02022    0.023
 5733.00    0.87661   1.01543    0.023
 5734.00    0.86112   1.01003    0.022
 5735.00    0.88578   1.00926    0.022
 5736.00    0.90318   1.00818    0.022
 5737.00    0.90812   1.00712    0.022
 5738.00    0.91436   1.00715    0.022
 5739.00    0.92255   1.00461    0.022
 5740.00    0.91614   1.00165    0.000
 5741.00    0.89051   1.00915    0.000
 5742.00    0.88485   1.02251    0.000
 5743.00    0.90237   1.02559    0.000
 5744.00    0.92328   1.00816    0.000
 5745.00    0.94768   0.99014    0.000
 5746.00    0.99126   0.99848    0.000
 5747.00    1.05216   1.01785    0.000
 5748.00    1.05682   1.01905    0.000
 5749.00    1.01671   0.99727    0.000
 5750.00    1.01220   0.97021    0.000
 5751.00    1.03263   0.96191    0.000
 5752.00    0.99587   0.98253    0.000
 5753.00    0.92398   1.01074    0.000
 5754.00    0.89830   1.02553    0.000
 5755.00    0.89739   1.02825    0.000
 5756.00    0.91879   1.01922    0.000
 5757.00    0.95059   1.00190    0.000
 5758.00    0.94857   0.98252    0.000
 5759.00    0.93298   0.96595    0.000
 5760.00    0.91996   0.96729    0.000
 5761.00    0.90782   0.99463    0.000
 5762.00    0.94116   1.01764    0.000
 5763.00    0.98760   1.02318    0.000
 5764.00    0.99627   1.02267    0.000
 5765.00    0.99594   1.02109    0.000
 5766.00    0.97524   1.01775    0.000
 5767.00    0.95063   1.01563    0.000
 5768.00    0.98952   1.01174    0.000
 5769.00    1.03786   1.00609    0.000
 5770.00    1.00266   1.00484    0.000
 5771.00    0.95835   1.00206    0.000
 5772.00    0.92925   0.99996    0.000
 5773.00    0.90123   1.00613    0.000
 5774.00    0.95650   1.01150    0.000
 5775.00    1.01484   1.00974    0.000
 5776.00    1.02493   0.99719    0.000
 5777.00    1.03409   0.96948    0.000
 5778.00    1.01751   0.94171    0.000
 5779.00    1.00353   0.93974    0.000
 5780.00    1.03154   0.95279    0.000
 5781.00    1.05729   0.95358    0.000
 5782.00    1.06020   0.94623    0.000
 5783.00    1.05710   0.95844    0.000
 5784.00    1.01044   0.98276    0.000
 5785.00    0.97335   0.99630    0.000
 5786.00    0.98942   1.00124    0.000
 5787.00    1.00233   0.99185    0.000
 5788.00    1.00126   0.98048    0.000
 5789.00    1.00389   0.98911    0.000
 5790.00    1.02000   1.00399    0.000
 5791.00    1.03253   1.01518   -2.000
 5792.00    1.03415   1.02243   -2.000
 5793.00    1.01040   1.01524   -2.000
 5794.00    0.92079   0.99413   -2.000
 5795.00    0.85902   0.98621   -2.000
 5796.00    0.85940   1.00589   -2.000
 5797.00    0.87417   1.02769   -2.000
 5798.00    0.91676   1.03701   -2.000
 5799.00    0.95099   1.03908   -2.000
 5800.00    0.97111   1.02913   -2.000
 5801.00    0.96526   1.00975   -2.000
 5802.00    0.92102   0.99975   -2.000
 5803.00    0.90623   1.00266   -2.000
 5804.00    0.92971   1.00961   -2.000
 5805.00    0.93222   1.01358   -2.000
 5806.00    0.91072   1.01527   -2.000
 5807.00    0.89033   1.01954   -2.000
 5808.00    0.87104   1.02223   -2.000
 5809.00    0.88422   1.02171   -2.000
 5810.00    0.92632   1.01958   -2.000
 5811.00    0.93624   1.01222    0.000
 5812.00    0.92093   0.99822    0.000
 5813.00    0.89532   0.98915    0.000
 5814.00    0.86262   0.99802    0.000
 5815.00    0.87455   1.01692    0.000
 5816.00    0.91348   1.02696    0.000
 5817.00    0.93075   1.02900    0.000
 5818.00    0.93657   1.02907    0.000
 5819.00    0.93499   1.02549    0.000
 5820.00    0.93002   1.02070    0.000
 5821.00    0.95683   1.02080    0.000
 5822.00    0.99618   1.02575    0.000
 5823.00    1.00459   1.02706    0.000
 5824.00    1.00261   1.02587    0.000
 5825.00    0.98833   1.02666    0.000
 5826.00    0.97057   1.03001    0.000
 5827.00    0.96961   1.03129    0.000
 5828.00    0.97255   1.02869    0.000
 5829.00    0.93090   1.02749    0.000
 5830.00    0.88092   1.02493    0.000
 5831.00    0.90441   1.01781    0.000
 5832.00    0.93849   1.01501    0.000
 5833.00    0.92683   1.02204    0.000
 5834.00    0.91038   1.02369    0.000
 5835.00    0.91555   1.01635    0.000
 5836.00    0.92217   1.01558    0.000
 5837.00    0.97105   1.02487    0.000
 5838.00    1.02132   1.03344    0.000
 5839.00    1.06763   1.03610    0.000
 5840.00    1.11098   1.03488    0.000
 5841.00    1.06064   1.03002    0.000
 5842.00    1.01039   1.02286    0.000
 5843.00    0.96162   1.01315    0.000
 5844.00    0.91866   1.00352    0.000
 5845.00    0.93220   1.00227    0.000
 5846.00    0.94543   1.00660    0.000
 5847.00    0.95659   1.00791    0.000
 5848.00    0.95810   1.00117    0.000
 5849.00    0.90747   0.98365    0.000
 5850.00    0.87534   0.96614    0.000
 5851.00    0.92345   0.96975    0.000
 5852.00    0.96728   0.98317    0.000
 5853.00    0.99591   0.97520    0.000
 5854.00    1.00472   0.95009    0.000
 5855.00    0.95417   0.94417    0.000
 5856.00    0.90332   0.96368    0.000
 5857.00    0.85169   0.98374    0.000
 5858.00    0.83377   0.99163    0.000
 5859.00    0.88983   0.98619    0.000
 5860.00    0.94110   0.98461    0.000
 5861.00    0.98325   0.99341    0.000
 5862.00    1.00583   0.99524    0.000
 5863.00    0.99588   0.98262    0.000
 5864.00    0.98481   0.97696    0.000
 5865.00    0.97208   0.98996    0.000
 5866.00    0.96824   1.00489    0.000
 5867.00    0.97578   1.01197    0.000
 5868.00    0.97935   1.01183    0.000
 5869.00    0.97846   1.00512    0.000
 5870.00    0.97405   0.99856    0.000
 5871.00    0.96612   0.99480    0.000
 5872.00    0.95970   0.98976    0.000
 5873.00    0.95459   0.98468    0.000
 5874.00    0.96668   0.98452    0.000
 5875.00    0.99207   0.98617    0.000
 5876.00    1.01177   0.97859    0.000
 5877.00    1.02761   0.97027    0.000
 5878.00    1.00356   0.97389    0.000
 5879.00    0.95575   0.98174    0.000
 5880.00    0.92667   0.97772    0.000
 5881.00    0.90733   0.97057    0.000
 5882.00    0.91621   0.97308    0.000
 5883.00    0.93781   0.97474    0.000
 5884.00    0.89769   0.95642    0.000
 5885.00    0.83364   0.89104    0.000
 5886.00    0.80526   0.78181    0.000
 5887.00    0.78864   0.72105    0.000
 5888.00    0.79943   0.77715    0.000
 5889.00    0.81779   0.86209    0.000
 5890.00    0.82973   0.89693    0.000
 5891.00    0.84021   0.88060    0.000
 5892.00    0.79556   0.81143    0.000
 5893.00    0.74088   0.76836    0.000
 5894.00    0.74546   0.82302    0.000
 5895.00    0.75830   0.89690    0.000
 5896.00    0.73020   0.92655    0.000
 5897.00    0.69798   0.94354    0.000
 5898.00    0.76451   0.96189    0.000
 5899.00    0.83732   0.97032    0.000
 5900.00    0.86468   0.97396    0.000
 5901.00    0.89078   0.97569    0.022
 5902.00    0.94204   0.97159    0.022
 5903.00    0.99157   0.96876    0.022
 5904.00    0.99205   0.97500    0.022
 5905.00    0.99269   0.98255    0.022
 5906.00    0.99568   0.98225    0.022
 5907.00    0.99566   0.98176    0.022
 5908.00    0.96759   0.98750    0.021
 5909.00    0.94632   0.98609    0.021
 5910.00    0.97130   0.96890    0.021
 5911.00    0.99696   0.94959    0.021
 5912.00    1.02626   0.94733    0.021
 5913.00    1.04907   0.95528    0.020
 5914.00    1.04439   0.96733    0.021
 5915.00    1.03795   0.97565    0.021
 5916.00    1.02536   0.97985    0.020
 5917.00    1.01519   0.98440    0.020
 5918.00    1.01217   0.98114    0.021
 5919.00    1.00803   0.97464    0.022
 5920.00    1.00110   0.97698    0.021
 5921.00    0.99167   0.98361    0.021
 5922.00    0.97683   0.98823    0.021
 5923.00    0.96241   0.99065    0.021
 5924.00    0.94879   0.98708    0.021
 5925.00    0.94797   0.97748    0.022
 5926.00    0.96811   0.96541    0.021
 5927.00    0.98795   0.96070    0.021
 5928.00    1.00738   0.97450    0.022
 5929.00    1.00050   0.99010    0.022
 5930.00    0.96042   0.98679    0.022
 5931.00    0.94983   0.97131    0.022
 5932.00    0.97206   0.96711    0.022
 5933.00    0.97798   0.97943    0.022
 5934.00    0.96791   0.98967    0.022
 5935.00    0.98788   0.99387    0.022
 5936.00    1.03387   0.99421    0.022
 5937.00    1.05210   0.98274    0.021
 5938.00    1.04915   0.96787    0.021
 5939.00    1.03141   0.96813    0.021
 5940.00    1.00375   0.97833    0.021
 5941.00    0.98232   0.98703    0.021
 5942.00    0.96456   0.99508    0.021
 5943.00    0.94989   0.99860    0.021
 5944.00    0.93680   0.98894    0.021
 5945.00    0.92060   0.96966    0.021
 5946.00    0.90302   0.96144    0.020
 5947.00    0.90121   0.97294    0.020
 5948.00    0.90540   0.98148    0.021
 5949.00    0.92017   0.97102    0.021
 5950.00    0.93837   0.96332    0.020
 5951.00    0.95093   0.97422    0.021
 5952.00    0.96196   0.98031    0.021
 5953.00    0.96869   0.96939    0.021
 5954.00    0.97446   0.96133    0.021
 5955.00    0.98658   0.96819    0.021
 5956.00    0.99983   0.98153    0.021
 5957.00    1.02324   0.99369    0.021
 5958.00    1.04802   1.00021    0.022
 5959.00    1.04940   1.00162    0.022
 5960.00    1.04854   0.99974    0.022
 5961.00    1.00909   0.99555    0.022
 5962.00    0.96733   0.98711    0.022
 5963.00    0.96254   0.98259    0.022
 5964.00    0.95874   0.99004    0.021
 5965.00    0.96169   0.99781    0.021
 5966.00    0.96465   1.00161    0.021
 5967.00    0.96779   1.00522    0.021
 5968.00    0.97504   1.00712    0.020
 5969.00    1.03754   1.00552    0.021
 5970.00    1.09449   1.00310    0.021
 5971.00    1.10187   0.99659    0.021
 5972.00    1.10420   0.98291    0.021
 5973.00    1.07336   0.96966    0.020
 5974.00    1.05034   0.96437    0.020
 5975.00    1.06736   0.96722    0.020
 5976.00    1.07818   0.97765    0.020
 5977.00    1.06337   0.99028    0.020
 5978.00    1.04189   0.99489    0.020
 5979.00    0.99755   0.98747    0.020
 5980.00    0.95929   0.96787    0.020
 5981.00    0.93858   0.95100    0.020
 5982.00    0.92561   0.95707    0.021
 5983.00    0.93174   0.97401    0.021
 5984.00    0.94111   0.98094    0.021
 5985.00    0.95738   0.98335    0.021
 5986.00    0.96950   0.98810    0.021
 5987.00    0.97396   0.98820    0.020
 5988.00    0.97497   0.98200    0.020
 5989.00    0.97040   0.98485    0.021
 5990.00    0.96305   0.99889    0.021
 5991.00    0.95176   1.00774    0.021
 5992.00    0.93023   1.00437    0.022
 5993.00    0.89597   0.99355    0.022
 5994.00    0.89252   0.98233    0.021
 5995.00    0.92288   0.97872    0.021
 5996.00    0.98454   0.98332    0.021
 5997.00    1.07651   0.98935    0.021
 5998.00    1.10171   0.98896    0.021
 5999.00    1.06994   0.97756    0.021
 6000.00    1.03466   0.97092    0.021
 6001.00    0.99674   0.97973    0.021
 6002.00    0.99366   0.98510    0.021
 6003.00    1.01358   0.97569    0.021
 6004.00    1.01696   0.95810    0.021
 6005.00    1.01078   0.94782    0.020
 6006.00    0.98936   0.96311    0.020
 6007.00    0.96026   0.98775    0.020
 6008.00    0.92267   0.99296    0.020
 6009.00    0.88139   0.97943    0.020
 6010.00    0.85875   0.96818    0.020
 6011.00    0.84309   0.97323    0.020
 6012.00    0.86222   0.97965    0.020
 6013.00    0.89241   0.97331    0.020
 6014.00    0.92869   0.97027    0.020
 6015.00    0.96660   0.97620    0.020
 6016.00    0.97207   0.97250    0.021
 6017.00    0.97052   0.96124    0.021
 6018.00    0.93825   0.95971    0.021
 6019.00    0.90068   0.96682    0.021
 6020.00    0.86379   0.97127    0.021
 6021.00    0.82699   0.97419    0.021
 6022.00    0.83814   0.98388    0.021
 6023.00    0.85369   0.98925    0.021
 6024.00    0.87612   0.98790    0.021
 6025.00    0.89893   0.99489    0.022
 6026.00    0.92527   1.00346    0.021
 6027.00    0.95176   1.00326    0.021
 6028.00    0.98557   1.00070    0.021
 6029.00    1.01836   1.00442    0.021
 6030.00    1.02758   1.00922    0.021
 6031.00    1.03806   1.00983    0.021
 6032.00    1.06457   1.00879    0.021
 6033.00    1.08526   1.00840    0.021
 6034.00    1.05589   1.00822    0.021
 6035.00    1.02367   1.00647    0.021
 6036.00    0.97321   1.00118    0.020
 6037.00    0.93384   0.99754    0.020
 6038.00    0.94985   0.99777    0.020
 6039.00    0.96860   0.99975    0.020
 6040.00    0.99845   1.00653    0.020
 6041.00    1.02014   1.01311    0.020
 6042.00    1.01445   1.01505    0.020
 6043.00    1.00973   1.01600    0.020
 6044.00    1.00774   1.01692    0.020
 6045.00    1.02553   1.01497    0.020
 6046.00    1.09119   1.01310    0.021
 6047.00    1.12867   1.01567    0.021
 6048.00    1.10725   1.01627    0.021
 6049.00    1.07113   1.01125    0.021
 6050.00    1.00828   1.00485    0.021
 6051.00    0.95332   1.00036    0.021
 6052.00    0.91091   0.99484    0.021
 6053.00    0.89494   0.98956    0.021
 6054.00    0.91584   0.99124    0.021
 6055.00    0.94019   0.99811    0.021
 6056.00    0.96880   1.00678    0.021
 6057.00    0.98033   1.01176    0.021
 6058.00    0.97337   1.01056    0.021
 6059.00    0.97938   1.00307    0.021
 6060.00    0.99774   0.99092    0.021
 6061.00    0.99564   0.97262    0.021
 6062.00    0.97632   0.95708    0.021
 6063.00    0.94829   0.96998    0.021
 6064.00    0.91383   1.00020    0.020
 6065.00    0.89918   1.01712    0.020
 6066.00    0.89743   1.02093    0.020
 6067.00    0.89496   1.02144    0.020
 6068.00    0.89210   1.02264    0.020
 6069.00    0.90629   1.02390    0.020
 6070.00    0.92894   1.02389    0.019
 6071.00    0.96195   1.02274    0.020
 6072.00    0.99939   1.02061    0.020
 6073.00    1.01550   1.01452    0.020
 6074.00    1.02377   1.00267    0.020
 6075.00    1.03503   0.98859    0.020
 6076.00    1.04721   0.98555    0.020
 6077.00    1.05446   0.99045    0.020
 6078.00    1.06043   0.98529    0.021
 6079.00    1.06314   0.97714    0.021
 6080.00    1.06516   0.97998    0.021
 6081.00    1.04823   0.98504    0.021
 6082.00    1.02812   0.98331    0.021
 6083.00    0.99593   0.98634    0.021
 6084.00    0.96223   0.99569    0.021
 6085.00    0.96588   0.99923    0.021
 6086.00    0.97280   0.98822    0.021
 6087.00    0.96530   0.97498    0.021
 6088.00    0.95706   0.97564    0.021
 6089.00    0.94497   0.98225    0.021
 6090.00    0.93355   0.98664    0.021
 6091.00    0.97578   0.99721    0.021
 6092.00    1.01555   1.00807    0.020
 6093.00    1.00307   1.00601    0.020
 6094.00    0.99154   0.99949    0.020
 6095.00    0.99156   1.00174    0.020
 6096.00    0.99069   1.00869    0.020
 6097.00    0.98237   1.00650    0.020
 6098.00    0.97254   0.97886    0.020
 6099.00    0.95327   0.93370    0.019
 6100.00    0.93402   0.92394    0.019
 6101.00    0.91483   0.96131    0.019
 6102.00    0.89703   0.99365    0.019
 6103.00    0.88473   0.99908    0.019
 6104.00    0.87235   0.99099    0.019
 6105.00    0.85973   0.98784    0.020
 6106.00    0.85761   0.99767    0.020
 6107.00    0.88471   1.00187    0.020
 6108.00    0.91047   0.99363    0.021
 6109.00    0.93305   0.99320    0.021
 6110.00    0.95802   1.00431    0.021
 6111.00    0.98793   1.01142    0.021
 6112.00    1.02588   1.00645    0.021
 6113.00    1.07820   0.99690    0.021
 6114.00    1.09532   0.99822    0.021
 6115.00    1.05730   1.00241    0.020
 6116.00    1.03300   0.99103    0.020
 6117.00    1.02754   0.96805    0.020
 6118.00    1.00219   0.94111    0.020
 6119.00    0.95279   0.92703    0.020
 6120.00    0.91813   0.95116    0.020
 6121.00    0.89920   0.98442    0.020
 6122.00    0.90923   0.99071    0.020
 6123.00    0.94649   0.98339    0.020
 6124.00    0.98115   0.97808    0.020
 6125.00    1.01367   0.97693    0.020
 6126.00    1.03594   0.98434    0.020
 6127.00    1.05073   0.99863    0.019
 6128.00    1.04790   1.00676    0.019
 6129.00    1.03377   1.00632    0.019
 6130.00    1.00784   1.00218    0.019
 6131.00    0.97530   0.98643    0.020
 6132.00    0.96237   0.95087    0.020
 6133.00    0.95901   0.90300    0.020
 6134.00    0.96476   0.88137    0.020
 6135.00    0.97437   0.91812    0.021
 6136.00    0.99764   0.97140    0.021
 6137.00    1.02584   0.98290    0.021
 6138.00    1.02153   0.96078    0.021
 6139.00    1.00728   0.95584    0.021
 6140.00    1.00280   0.98122    0.021
 6141.00    1.00079   1.00441    0.021
 6142.00    1.00781   1.00898    0.021
 6143.00    1.01669   1.00400    0.021
 6144.00    0.99789   0.99455    0.021
 6145.00    0.97459   0.98074    0.021
 6146.00    1.00218   0.96966    0.020
 6147.00    1.03597   0.96746    0.020
 6148.00    1.02597   0.97614    0.020
 6149.00    1.01232   0.98932    0.020
 6150.00    0.96976   0.99368    0.020
 6151.00    0.92581   0.98299    0.020
 6152.00    0.93108   0.97501    0.020
 6153.00    0.93720   0.97752    0.019
 6154.00    0.95159   0.97705    0.019
 6155.00    0.96454   0.97204    0.019
 6156.00    0.94927   0.96116    0.020
 6157.00    0.93456   0.92791    0.020
 6158.00    0.92616   0.87595    0.020
 6159.00    0.91325   0.84693    0.020
 6160.00    0.86431   0.86288    0.020
 6161.00    0.82477   0.89824    0.020
 6162.00    0.84181   0.92318    0.020
 6163.00    0.85751   0.93455    0.020
 6164.00    0.86677   0.93964    0.020
 6165.00    0.87300   0.92439    0.020
 6166.00    0.86744   0.89387    0.021
 6167.00    0.85948   0.89302    0.021
 6168.00    0.84376   0.92598    0.020
 6169.00    0.83565   0.94803    0.020
 6170.00    0.84835   0.94691    0.020
 6171.00    0.86506   0.94641    0.020
 6172.00    0.89115   0.94916    0.021
 6173.00    0.91346   0.94801    0.021
 6174.00    0.92810   0.95096    0.020
 6175.00    0.94474   0.96106    0.020
 6176.00    0.96491   0.96361    0.020
 6177.00    0.97417   0.96084    0.020
 6178.00    0.96664   0.96710    0.020
 6179.00    0.94308   0.97444    0.020
 6180.00    0.89780   0.97443    0.020
 6181.00    0.86830   0.97185    0.020
 6182.00    0.85762   0.96504    0.019
 6183.00    0.86919   0.95119    0.019
 6184.00    0.90416   0.94035    0.019
 6185.00    0.93054   0.93716    0.019
 6186.00    0.94896   0.93251    0.020
 6187.00    0.96925   0.91211    0.020
 6188.00    0.99107   0.88790    0.020
 6189.00    0.98553   0.89861    0.020
 6190.00    0.96031   0.93407    0.020
 6191.00    0.94951   0.95467    0.020
 6192.00    0.94780   0.96045    0.020
 6193.00    0.97422   0.96496    0.020
 6194.00    1.01618   0.96610    0.020
 6195.00    1.07106   0.95443    0.021
 6196.00    1.13215   0.93432   -2.000
 6197.00    1.12330   0.92813   -2.000
 6198.00    1.08547   0.94307   -2.000
 6199.00    0.95458   0.96060   -2.000
 6200.00    0.79071   0.96714   -2.000
 6201.00    0.83551   0.96623   -2.000
 6202.00    0.94275   0.96686   -2.000
 6203.00    1.03929   0.97075   -2.000
 6204.00    1.13318   0.97341   -2.000
 6205.00    1.09663   0.97370   -2.000
 6206.00    1.03380   0.97102   -2.000
 6207.00    0.98993   0.96397   -2.000
 6208.00    0.94905   0.95576    0.020
 6209.00    0.98052   0.94164    0.020
 6210.00    1.02046   0.91826    0.019
 6211.00    1.01018   0.90257    0.019
 6212.00    0.99592   0.90186    0.020
 6213.00    0.94077   0.91233    0.019
 6214.00    0.88382   0.92780    0.019
 6215.00    0.85067   0.92870    0.019
 6216.00    0.81853   0.91499    0.019
 6217.00    0.82145   0.91083    0.019
 6218.00    0.82453   0.92059    0.019
 6219.00    0.83046   0.93156    0.020
 6220.00    0.83764   0.93400    0.020
 6221.00    0.85862   0.93137    0.020
 6222.00    0.87869   0.93457    0.020
 6223.00    0.89179   0.93939    0.020
 6224.00    0.90651   0.93918    0.021
 6225.00    0.93068   0.93112    0.021
 6226.00    0.94801   0.90712    0.021
 6227.00    0.93358   0.87870    0.021
 6228.00    0.91755   0.87510    0.021
 6229.00    0.89545   0.89478    0.021
 6230.00    0.87824   0.91855    0.021
 6231.00    0.87654   0.94260    0.021
 6232.00    0.86834   0.95585    0.021
 6233.00    0.84267   0.95145    0.020
 6234.00    0.82630   0.93820    0.020
 6235.00    0.83134   0.92381    0.019
 6236.00    0.84228   0.91177    0.019
 6237.00    0.86495   0.90869    0.019
 6238.00    0.87067   0.91467    0.019
 6239.00    0.84697   0.90990    0.019
 6240.00    0.83055   0.89708    0.019
 6241.00    0.82518   0.89676    0.019
 6242.00    0.84148   0.89938    0.019
 6243.00    0.88670   0.90171    0.019
 6244.00    0.92245   0.91770    0.019
 6245.00    0.94706   0.93863    0.019
 6246.00    0.95211   0.94809    0.020
 6247.00    0.93686   0.94317    0.020
 6248.00    0.92019   0.92271    0.020
 6249.00    0.90220   0.89754    0.020
 6250.00    0.88326   0.88940    0.020
 6251.00    0.86355   0.89601    0.020
 6252.00    0.85054   0.89990    0.020
 6253.00    0.84228   0.89141    0.020
 6254.00    0.84191   0.87748    0.021
 6255.00    0.84644   0.87241    0.020
 6256.00    0.86374   0.88780    0.020
 6257.00    0.88798   0.91021    0.020
 6258.00    0.88671   0.92308    0.020
 6259.00    0.87340   0.93795    0.020
 6260.00    0.84519   0.94941    0.021
 6261.00    0.81089   0.94097    0.022
 6262.00    0.82751   0.92853    0.023
 6263.00    0.86184   0.93368    0.024
 6264.00    0.87823   0.94339    0.024
 6265.00    0.88936   0.94073    0.023
 6266.00    0.96252   0.93354    0.022
 6267.00    1.05076   0.93355    0.021
 6268.00    1.06594   0.94090    0.020
 6269.00    1.06678   0.94940    0.020
 6270.00    1.03322   0.95182    0.020
 6271.00    0.99440   0.94903    0.019
 6272.00    0.97174   0.94866    0.019
 6273.00    0.95090   0.94981    0.019
 6274.00    0.98797   0.94856    0.020
 6275.00    1.02939   0.94278    0.020
 6276.00    1.00408   0.92958    0.020
 6277.00    0.97610   0.91685    0.020
 6278.00    0.95912   0.91894    0.020
 6279.00    0.94294   0.93095    0.020
 6280.00    0.95604   0.94148    0.000
 6281.00    0.96763   0.94570    0.000
 6282.00    0.95348   0.94645    0.000
 6283.00    0.94039   0.95423    0.000
 6284.00    0.93839   0.96631    0.000
 6285.00    0.93582   0.97403    0.000
 6286.00    0.92885   0.97269    0.000
 6287.00    0.92524   0.96228    0.000
 6288.00    0.94073   0.95230    0.000
 6289.00    0.95891   0.94907    0.000
 6290.00    0.98928   0.95189    0.000
 6291.00    1.01631   0.95588    0.000
 6292.00    1.03094   0.94861    0.000
 6293.00    1.03920   0.93093    0.000
 6294.00    1.02766   0.92250    0.000
 6295.00    1.01804   0.93064    0.000
 6296.00    1.01346   0.93878    0.000
 6297.00    1.00573   0.93151    0.000
 6298.00    0.99090   0.91787    0.000
 6299.00    0.97189   0.91825    0.000
 6300.00    0.94467   0.93393    0.000
 6301.00    0.93714   0.94677    0.000
 6302.00    0.96325   0.95017    0.000
 6303.00    0.98741   0.95704    0.000
 6304.00    1.00866   0.96971    0.000
 6305.00    1.02387   0.97448    0.000
 6306.00    1.03115   0.96804    0.000
 6307.00    1.02329   0.95788    0.000
 6308.00    0.99789   0.95150    0.000
 6309.00    0.99599   0.95239    0.000
 6310.00    1.01811   0.95246    0.000
 6311.00    1.04216   0.94079    0.000
 6312.00    1.06796   0.93144    0.000
 6313.00    1.06239   0.93426    0.000
 6314.00    1.03191   0.92926    0.000
 6315.00    1.01538   0.91912    0.000
 6316.00    1.00862   0.92756    0.000
 6317.00    0.99135   0.94476    0.000
 6318.00    0.96763   0.95112    0.000
 6319.00    0.95085   0.95196    0.000
 6320.00    0.93778   0.95964    0.000
 6321.00    0.94493   0.96946    0.019
 6322.00    0.96147   0.97221    0.019
 6323.00    0.96811   0.97007    0.019
 6324.00    0.97079   0.96811    0.019
 6325.00    0.95470   0.97060    0.019
 6326.00    0.93219   0.97007    0.019
 6327.00    0.92726   0.96564    0.019
 6328.00    0.92738   0.97053    0.019
 6329.00    0.95429   0.98135    0.020
 6330.00    0.98756   0.98125    0.020
 6331.00    1.00316   0.95946    0.020
 6332.00    1.01538   0.92985    0.020
 6333.00    1.01039   0.92205    0.020
 6334.00    1.00286   0.93760    0.020
 6335.00    1.01208   0.95298    0.020
 6336.00    1.02313   0.96223    0.020
 6337.00    1.00069   0.97292    0.020
 6338.00    0.97587   0.97745    0.020
 6339.00    0.94186   0.96785    0.019
 6340.00    0.90753   0.95029    0.019
 6341.00    0.90134   0.94043    0.019
 6342.00    0.89656   0.94536    0.019
 6343.00    0.93748   0.95310    0.019
 6344.00    0.97579   0.96010    0.019
 6345.00    0.97260   0.96991    0.019
 6346.00    0.96892   0.97797    0.019
 6347.00    0.96031   0.98007    0.019
 6348.00    0.96018   0.97919    0.019
 6349.00    1.02134   0.97505    0.019
 6350.00    1.07146   0.96347    0.020
 6351.00    1.06047   0.94891    0.020
 6352.00    1.04122   0.94496    0.020
 6353.00    0.98541   0.95025    0.020
 6354.00    0.94455   0.94429    0.020
 6355.00    0.95799   0.92731    0.020
 6356.00    0.96417   0.92132    0.020
 6357.00    0.94822   0.92559    0.020
 6358.00    0.93713   0.92351    0.020
 6359.00    0.93862   0.91819    0.019
 6360.00    0.94511   0.92204    0.019
 6361.00    0.96272   0.93299    0.020
 6362.00    0.97919   0.94337    0.020
 6363.00    0.99345   0.95252    0.020
 6364.00    0.99542   0.96303    0.020
 6365.00    0.97671   0.96955    0.019
 6366.00    0.96904   0.96643    0.019
 6367.00    0.97766   0.96206    0.019
 6368.00    0.98462   0.96694    0.019
 6369.00    0.98942   0.97831    0.019
 6370.00    0.98840   0.98529    0.019
 6371.00    0.98072   0.98457    0.019
 6372.00    0.97472   0.98257    0.019
 6373.00    0.97043   0.98161    0.019
 6374.00    0.99296   0.97539    0.019
 6375.00    1.03935   0.96368    0.019
 6376.00    1.06246   0.95622    0.019
 6377.00    1.06735   0.95562    0.019
 6378.00    1.07073   0.96013    0.019
 6379.00    1.07309   0.96756    0.019
 6380.00    1.07446   0.96935    0.019
 6381.00    1.07524   0.96567    0.019
 6382.00    1.05183   0.96636    0.019
 6383.00    1.01566   0.97229    0.020
 6384.00    0.98722   0.97508    0.020
 6385.00    0.96230   0.97331    0.020
 6386.00    0.95904   0.97186    0.020
 6387.00    0.96431   0.97089    0.020
 6388.00    0.98188   0.96227    0.020
 6389.00    1.00357   0.93974    0.020
 6390.00    1.02701   0.92212    0.019
 6391.00    1.05094   0.93403    0.019
 6392.00    1.04428   0.96234    0.019
 6393.00    1.03053   0.98111    0.019
 6394.00    1.01756   0.98368    0.019
 6395.00    1.00475   0.96504    0.019
 6396.00    1.00042   0.92996    0.019
 6397.00    0.99731   0.91705    0.019
 6398.00    0.99996   0.94550    0.019
 6399.00    1.00321   0.97816    0.019
 6400.00    1.00790   0.99138    0.019
 6401.00    1.01269   0.99288    0.019
 6402.00    1.02755   0.98689    0.020
 6403.00    1.04274   0.97303    0.020
 6404.00    1.07304   0.95755    0.020
 6405.00    1.10181   0.95722    0.019
 6406.00    1.08286   0.97006    0.020
 6407.00    1.06378   0.96792    0.020
 6408.00    1.04276   0.95238    0.020
 6409.00    1.02329   0.95075    0.020
 6410.00    1.01867   0.96060    0.020
 6411.00    1.01668   0.96689    0.020
 6412.00    1.03301   0.97096    0.020
 6413.00    1.04974   0.97432    0.020
 6414.00    1.06857   0.97381    0.020
 6415.00    1.08431   0.96712    0.020
 6416.00    1.08669   0.95052    0.019
 6417.00    1.08201   0.93232    0.019
 6418.00    1.05223   0.93440    0.019
 6419.00    1.02726   0.96036    0.019
 6420.00    1.01667   0.98370    0.019
 6421.00    1.01699   0.98783    0.019
 6422.00    1.04506   0.98619    0.019
 6423.00    1.05884   0.98964    0.019
 6424.00    1.04129   0.99307    0.019
 6425.00    1.01919   0.98711    0.019
 6426.00    0.98845   0.96573    0.019
 6427.00    0.95776   0.93953    0.019
 6428.00    0.92715   0.93395    0.019
 6429.00    0.92820   0.95172    0.020
 6430.00    0.97527   0.97117    0.020
 6431.00    1.00858   0.98258    0.021
 6432.00    1.02429   0.98796    0.020
 6433.00    1.03881   0.98592    0.020
 6434.00    1.05200   0.96750    0.020
 6435.00    1.05343   0.93979    0.020
 6436.00    1.04318   0.93586    0.020
 6437.00    1.04858   0.96364    0.020
 6438.00    1.06771   0.99005    0.020
 6439.00    1.07117   0.99953    0.020
 6440.00    1.06252   1.00136    0.020
 6441.00    1.06721   1.00165    0.019
 6442.00    1.08097   1.00285    0.019
 6443.00    1.07702   1.00299    0.019
 6444.00    1.06253   0.99185    0.019
 6445.00    1.05785   0.95847    0.019
 6446.00    1.05826   0.91736    0.019
 6447.00    1.07241   0.90947    0.019
 6448.00    1.09274   0.94027    0.019
 6449.00    1.06313   0.97221    0.020
 6450.00    1.01420   0.98422    0.020
 6451.00    0.97410   0.97428    0.020
 6452.00    0.93691   0.95534    0.020
 6453.00    0.92769   0.95438    0.020
 6454.00    0.92619   0.97499    0.019
 6455.00    0.94314   0.99511    0.019
 6456.00    0.96428   1.00228    0.020
 6457.00    0.95541   0.99158    0.020
 6458.00    0.94110   0.95705    0.019
 6459.00    0.94256   0.92196    0.020
 6460.00    0.94622   0.92590    0.020
 6461.00    0.94207   0.95732    0.020
 6462.00    0.93714   0.98077    0.020
 6463.00    0.98217   0.99149    0.019
 6464.00    1.03036   0.99468    0.019
 6465.00    1.03195   0.99023    0.019
 6466.00    1.03214   0.98103    0.019
 6467.00    1.01794   0.97081    0.019
 6468.00    1.00534   0.96418    0.018
 6469.00    1.03711   0.96881    0.019
 6470.00    1.06818   0.97465    0.019
 6471.00    1.08937   0.96787    0.019
 6472.00    1.10559   0.96145    0.019
 6473.00    1.07576   0.96914    0.019
 6474.00    1.04741   0.98033    0.019
 6475.00    1.02911   0.98390    0.019
 6476.00    1.01665   0.98108    0.019
 6477.00    1.03483   0.96770    0.019
 6478.00    1.05143   0.94418    0.019
 6479.00    1.06142   0.93021    0.020
 6480.00    1.06230   0.93854    0.020
 6481.00    1.03142   0.95630    0.020
 6482.00    1.00383   0.96804    0.020
 6483.00    0.98589   0.97262    0.020
 6484.00    0.97654   0.97456    0.019
 6485.00    0.98870   0.97319    0.020
 6486.00    0.99682   0.96547    0.020
 6487.00    0.99624   0.95432    0.019
 6488.00    0.99743   0.94452    0.019
 6489.00    1.00191   0.92657    0.019
 6490.00    1.00755   0.88860    0.019
 6491.00    1.01507   0.85017    0.019
 6492.00    1.02877   0.83840    0.019
 6493.00    1.05135   0.85053    0.019
 6494.00    1.06198   0.87299    0.019
 6495.00    1.05757   0.89218    0.019
 6496.00    1.03945   0.90655    0.019
 6497.00    1.00610   0.92622    0.019
 6498.00    0.98533   0.94504    0.019
 6499.00    0.97687   0.95620    0.019
 6500.00    0.98569   0.96220    0.019
 6501.00    1.00943   0.96668    0.019
 6502.00    1.03794   0.97163    0.020
 6503.00    1.07007   0.97264    0.020
 6504.00    1.11181   0.96667    0.020
 6505.00    1.15996   0.96066    0.020
 6506.00    1.16581   0.96268    0.020
 6507.00    1.14687   0.96926    0.020
 6508.00    1.13095   0.97236    0.020
 6509.00    1.11657   0.97134    0.020
 6510.00    1.09954   0.96746    0.020
 6511.00    1.08133   0.95883    0.020
 6512.00    1.08199   0.94789    0.019
 6513.00    1.08983   0.94132    0.019
 6514.00    1.07469   0.93827    0.019
 6515.00    1.05214   0.93819    0.019
 6516.00    1.01333   0.94815    0.019
 6517.00    0.97014   0.96309    0.019
 6518.00    0.96801   0.97101    0.019
 6519.00    0.97498   0.97154    0.019
 6520.00    0.99133   0.97135    0.019
 6521.00    1.00933   0.97196    0.019
 6522.00    1.03378   0.96661    0.019
 6523.00    1.05910   0.95589    0.019
 6524.00    1.06086   0.95314    0.020
 6525.00    1.06037   0.96176    0.020
 6526.00    1.03956   0.96990    0.020
 6527.00    1.01754   0.96896    0.020
 6528.00    1.02767   0.96090    0.000
 6529.00    1.03841   0.95347    0.000
 6530.00    1.02026   0.95417    0.000
 6531.00    1.00313   0.96310    0.000
 6532.00    1.01144   0.97116    0.000
 6533.00    1.02013   0.97136    0.000
 6534.00    1.03374   0.96833    0.000
 6535.00    1.04681   0.97056    0.000
 6536.00    1.05503   0.97679    0.000
 6537.00    1.06182   0.97821    0.000
 6538.00    1.05924   0.97155    0.000
 6539.00    1.05477   0.96176    0.000
 6540.00    1.04066   0.95357    0.000
 6541.00    1.02873   0.94302    0.000
 6542.00    1.02582   0.92608    0.000
 6543.00    1.02467   0.91761    0.000
 6544.00    1.02952   0.92830    0.000
 6545.00    1.03101   0.94212    0.000
 6546.00    1.02282   0.94435    0.000
 6547.00    1.02373   0.93791    0.000
 6548.00    1.04705   0.93133    0.000
 6549.00    1.06008   0.92632    0.000
 6550.00    1.05129   0.91693    0.000
 6551.00    1.04185   0.90239    0.000
 6552.00    1.03121   0.89248    0.000
 6553.00    1.02550   0.89340    0.000
 6554.00    1.02773   0.89747    0.000
 6555.00    1.02113   0.89328    0.000
 6556.00    1.00206   0.87651    0.000
 6557.00    0.98382   0.82990    0.000
 6558.00    0.96661   0.72761    0.000
 6559.00    0.96458   0.62523    0.000
 6560.00    0.97917   0.63708    0.000
 6561.00    0.99503   0.74986    0.000
 6562.00    1.01210   0.84738    0.000
 6563.00    1.03286   0.89084    0.000
 6564.00    1.05677   0.90531    0.000
 6565.00    1.06849   0.90466    0.000
 6566.00    1.07108   0.90341    0.000
 6567.00    1.04298   0.91041    0.000
 6568.00    0.99464   0.91245    0.000
 6569.00    0.96421   0.90276    0.000
 6570.00    0.94411   0.89305    0.000
 6571.00    0.93128   0.89464    0.000
 6572.00    0.92210   0.91075    0.000
 6573.00    0.95422   0.93298    0.000
 6574.00    1.00431   0.94767    0.000
 6575.00    1.00672   0.95069    0.000
 6576.00    0.99132   0.94494    0.000
 6577.00    1.00303   0.93609    0.000
 6578.00    1.02331   0.93495    0.000
 6579.00    1.06861   0.94396    0.000
 6580.00    1.12052   0.95142    0.000
 6581.00    1.13428   0.95099    0.000
 6582.00    1.13980   0.94590    0.000
 6583.00    1.14719   0.94533    0.000
 6584.00    1.15490   0.95424    0.000
 6585.00    1.17949   0.96351    0.000
 6586.00    1.20628   0.96634    0.000
 6587.00    1.19014   0.95975    0.000
 6588.00    1.17008   0.93598    0.000
 6589.00    1.11722   0.90245    0.000
 6590.00    1.06255   0.89051    0.000
 6591.00    1.04417   0.91199    0.000
 6592.00    1.02637   0.93906    0.000
 6593.00    0.99051   0.94830    0.000
 6594.00    0.95534   0.94298    0.000
 6595.00    0.93620   0.93826    0.000
 6596.00    0.92225   0.94550    0.000
 6597.00    0.97414   0.95943    0.000
 6598.00    1.02423   0.96695    0.000
 6599.00    1.05885   0.96458    0.000
 6600.00    1.09095   0.95562    0.000
 6601.00    1.10695   0.94593    0.000
 6602.00    1.11427   0.94151    0.000
 6603.00    1.07830   0.93992    0.000
 6604.00    1.04372   0.93325    0.000
 6605.00    1.01474   0.92315    0.000
 6606.00    0.99683   0.92542    0.000
 6607.00    1.01596   0.94437    0.000
 6608.00    1.03175   0.95956    0.000
 6609.00    1.03809   0.95758    0.020
 6610.00    1.04187   0.95011    0.019
 6611.00    1.03946   0.95317    0.019
 6612.00    1.04399   0.96243    0.018
 6613.00    1.06300   0.96560    0.019
 6614.00    1.06393   0.96373    0.019
 6615.00    1.03207   0.96345    0.019
 6616.00    1.02713   0.96615    0.018
 6617.00    1.06488   0.96870    0.019
 6618.00    1.09609   0.96763    0.019
 6619.00    1.11820   0.96051    0.019
 6620.00    1.12361   0.94728    0.019
 6621.00    1.10858   0.93576    0.019
 6622.00    1.08426   0.93671    0.020
 6623.00    1.04992   0.94553    0.020
 6624.00    1.03430   0.95094    0.020
 6625.00    1.03649   0.95165    0.020
 6626.00    1.02283   0.94989    0.020
 6627.00    0.99586   0.94695    0.019
 6628.00    0.98768   0.94159    0.019
 6629.00    0.99340   0.93088    0.019
 6630.00    0.99610   0.92081    0.019
 6631.00    0.99685   0.92365    0.019
 6632.00    0.98918   0.93739    0.019
 6633.00    0.97674   0.94934    0.019
 6634.00    1.00519   0.95362    0.019
 6635.00    1.05389   0.95141    0.019
 6636.00    1.08367   0.94869    0.019
 6637.00    1.10534   0.95168    0.019
 6638.00    1.08312   0.95305    0.019
 6639.00    1.04480   0.93962    0.019
 6640.00    1.02192   0.92384    0.019
 6641.00    1.00383   0.92760    0.019
 6642.00    1.00574   0.94192    0.019
 6643.00    1.01282   0.94789    0.020
 6644.00    1.02264   0.94748    0.020
 6645.00    1.03304   0.94925    0.020
 6646.00    1.02399   0.95087    0.020
 6647.00    1.01169   0.94748    0.020
 6648.00    1.03644   0.94221    0.020
 6649.00    1.06583   0.94035    0.020
 6650.00    1.03840   0.94165    0.020
 6651.00    1.00602   0.94363    0.019
 6652.00    1.00351   0.94404    0.019
 6653.00    1.00254   0.94341    0.019
 6654.00    0.98382   0.94429    0.019
 6655.00    0.96547   0.94506    0.019
 6656.00    0.99646   0.94294    0.019
 6657.00    1.02645   0.93876    0.019
 6658.00    1.03531   0.93092    0.019
 6659.00    1.03955   0.91684    0.019
 6660.00    0.98807   0.90946    0.019
 6661.00    0.93868   0.91814    0.018
 6662.00    0.90649   0.92853    0.019
 6663.00    0.88209   0.93057    0.019
 6664.00    0.90586   0.93108    0.019
 6665.00    0.93182   0.93704    0.019
 6666.00    0.96847   0.94595    0.019
 6667.00    0.99740   0.95162    0.019
 6668.00    0.99583   0.95204    0.020
 6669.00    1.00310   0.95064    0.020
 6670.00    1.03942   0.95026    0.020
 6671.00    1.05895   0.95016    0.020
 6672.00    1.03188   0.94439    0.020
 6673.00    1.01838   0.92204    0.020
 6674.00    1.03714   0.89285    0.020
 6675.00    1.05662   0.88788    0.020
 6676.00    1.07759   0.90851    0.020
 6677.00    1.07939   0.92546    0.019
 6678.00    1.04694   0.92986    0.019
 6679.00    1.01827   0.93284    0.019
 6680.00    0.99552   0.93774    0.019
 6681.00    0.96986   0.94055    0.019
 6682.00    0.94019   0.94027    0.018
 6683.00    0.94744   0.93821    0.019
 6684.00    0.99929   0.93579    0.019
 6685.00    1.03436   0.93629    0.019
 6686.00    1.05157   0.93933    0.019
 6687.00    1.04093   0.94130    0.019
 6688.00    1.00412   0.94112    0.019
 6689.00    0.99093   0.94061    0.019
 6690.00    0.99730   0.93947    0.019
 6691.00    1.01823   0.93391    0.019
 6692.00    1.04980   0.92407    0.019
 6693.00    1.06344   0.91864    0.020
 6694.00    1.06562   0.92165    0.020
 6695.00    1.05513   0.92858    0.020
 6696.00    1.03756   0.93681    0.000
 6697.00    1.02879   0.94292    0.000
 6698.00    1.02429   0.94228    0.000
 6699.00    1.03280   0.93496    0.000
 6700.00    1.04679   0.92646    0.000
 6701.00    1.06269   0.92462    0.000
 6702.00    1.07928   0.93019    0.000
 6703.00    1.07835   0.93648    0.000
 6704.00    1.07208   0.93919    0.000
 6705.00    1.08080   0.93867    0.000
 6706.00    1.09331   0.93477    0.000
 6707.00    1.07672   0.93198    0.000
 6708.00    1.05413   0.93299    0.000
 6709.00    1.06923   0.93091    0.000
 6710.00    1.09043   0.92415    0.000
 6711.00    1.08850   0.91598    0.000
 6712.00    1.08377   0.90481    0.000
 6713.00    1.08594   0.88944    0.000
 6714.00    1.08869   0.88164    0.000
 6715.00    1.06852   0.89341    0.000
 6716.00    1.04726   0.91171    0.000
 6717.00    1.02679   0.91894    0.000
 6718.00    1.00666   0.91857    0.000
 6719.00    1.00530   0.92133    0.000
 6720.00    1.00546   0.92619    0.000
 6721.00    1.03496   0.92556    0.000
 6722.00    1.05821   0.91982    0.000
 6723.00    1.00962   0.91800    0.000
 6724.00    0.96600   0.92292    0.000
 6725.00    0.96191   0.92856    0.000
 6726.00    0.95895   0.93189    0.000
 6727.00    0.96278   0.93253    0.000
 6728.00    0.97483   0.93024    0.000
 6729.00    1.02581   0.92676    0.000
 6730.00    1.07204   0.92549    0.000
 6731.00    1.09984   0.92742    0.000
 6732.00    1.11877   0.93045    0.000
 6733.00    1.10910   0.93005    0.000
 6734.00    1.10245   0.92351    0.000
 6735.00    1.10399   0.91565    0.000
 6736.00    1.09881   0.91405    0.000
 6737.00    1.07792   0.91871    0.000
 6738.00    1.05227   0.91922    0.000
 6739.00    1.01700   0.91336    0.000
 6740.00    0.98814   0.91272    0.000
 6741.00    0.97056   0.91894    0.000
 6742.00    0.96598   0.92210    0.000
 6743.00    0.98142   0.91980    0.000
 6744.00    0.99589   0.91539    0.000
 6745.00    1.00907   0.90881    0.000
 6746.00    1.02373   0.90238    0.000
 6747.00    1.04017   0.90332    0.000
 6748.00    1.02844   0.90779    0.000
 6749.00    0.98716   0.90764    0.000
 6750.00    0.96247   0.91036    0.000
 6751.00    0.95313   0.91797    0.000
 6752.00    0.93663   0.92402    0.000
 6753.00    0.91431   0.92900    0.020
 6754.00    0.90982   0.93380    0.021
 6755.00    0.91814   0.93699    0.022
 6756.00    0.94466   0.93850    0.022
 6757.00    0.98265   0.93844    0.023
 6758.00    0.98441   0.93607    0.023
 6759.00    0.96619   0.93479    0.023
 6760.00    1.01063   0.93575    0.023
 6761.00    1.08510   0.93466    0.023
 6762.00    1.13339   0.92744    0.024
 6763.00    1.17084   0.91491    0.025
 6764.00    1.16633   0.90835    0.025
 6765.00    1.14697   0.91392    0.024
 6766.00    1.19292   0.91933    0.024
 6767.00    1.25836   0.91664    0.024
 6768.00    1.29368   0.91559    0.024
 6769.00    1.32154   0.92206    0.023
 6770.00    1.28035   0.93119    0.022
 6771.00    1.22532   0.93870    0.022
 6772.00    1.18324   0.94307    0.021
 6773.00    1.14320   0.94384    0.021
 6774.00    1.09329   0.94358    0.020
 6775.00    1.04223   0.94516    0.020
 6776.00    1.03823   0.94557    0.021
 6777.00    1.03794   0.94118    0.021
 6778.00    1.06243   0.93076    0.021
 6779.00    1.08799   0.91663    0.022
 6780.00    1.06979   0.90568    0.022
 6781.00    1.05083   0.90300    0.023
 6782.00    1.01794   0.90633    0.022
 6783.00    0.98892   0.91269    0.022
 6784.00    1.03021   0.92040    0.022
 6785.00    1.06976   0.92410    0.022
 6786.00    1.09031   0.92292    0.022
 6787.00    1.10912   0.92293    0.022
 6788.00    1.11467   0.92380    0.022
 6789.00    1.11810   0.92041    0.022
 6790.00    1.10911   0.91546    0.022
 6791.00    1.09038   0.91509    0.021
 6792.00    1.02662   0.91783    0.021
 6793.00    0.98226   0.92165    0.021
 6794.00    1.01124   0.92452    0.021
 6795.00    1.04259   0.92610    0.021
 6796.00    1.08143   0.92870    0.021
 6797.00    1.11047   0.93196    0.021
 6798.00    1.11327   0.93405    0.021
 6799.00    1.10921   0.93282    0.021
 6800.00    1.08938   0.92874    0.022
 6801.00    1.07788   0.92727    0.022
 6802.00    1.08295   0.92649    0.022
 6803.00    1.06700   0.92375    0.022
 6804.00    1.01467   0.92490    0.022
 6805.00    0.97432   0.92729    0.022
 6806.00    0.95215   0.92502    0.022
 6807.00    0.96132   0.92421    0.022
 6808.00    1.01226   0.92733    0.021
 6809.00    1.05024   0.92918    0.021
 6810.00    1.07302   0.92532    0.021
 6811.00    1.07625   0.91864    0.021
 6812.00    1.05926   0.91928    0.022
 6813.00    1.03062   0.92769    0.022
 6814.00    0.99134   0.93303    0.022
 6815.00    0.98592   0.92981    0.022
 6816.00    1.00774   0.92349    0.021
 6817.00    0.99395   0.92312    0.021
 6818.00    0.95493   0.92967    0.020
 6819.00    0.95574   0.93585    0.020
 6820.00    0.98128   0.93819    0.021
 6821.00    1.02044   0.93898    0.021
 6822.00    1.06699   0.93846    0.021
 6823.00    1.05416   0.93204    0.021
 6824.00    1.01332   0.92111    0.021
 6825.00    0.97553   0.91698    0.021
 6826.00    0.93899   0.92377    0.022
 6827.00    0.94047   0.93254    0.022
 6828.00    0.95515   0.93414    0.022
 6829.00    0.96219   0.93133    0.022
 6830.00    0.96700   0.93281    0.022
 6831.00    0.97777   0.93756    0.022
 6832.00    0.98998   0.93872    0.022
 6833.00    0.97853   0.93540    0.022
 6834.00    0.96244   0.92944    0.021
 6835.00    1.00480   0.92094    0.021
 6836.00    1.05606   0.91121    0.021
 6837.00    1.04649   0.90126    0.022
 6838.00    1.03008   0.89566    0.022
 6839.00    1.03340   0.90006    0.022
 6840.00    1.03820   0.91243    0.022
 6841.00    1.03203   0.92530    0.022
 6842.00    1.02541   0.93094    0.022
 6843.00    1.01631   0.93085    0.021
 6844.00    1.00823   0.93122    0.021
 6845.00    1.04152   0.93128    0.021
 6846.00    1.07177   0.92922    0.021
 6847.00    1.05060   0.92771    0.021
 6848.00    1.03101   0.92849    0.021
 6849.00    1.02792   0.92866    0.021
 6850.00    1.02303   0.92091    0.021
 6851.00    1.00481   0.90726    0.021
 6852.00    0.98893   0.90216    0.022
 6853.00    0.98642   0.90732    0.022
 6854.00    0.98048   0.91269    0.021
 6855.00    0.95903   0.91644    0.021
 6856.00    0.94123   0.91557    0.021
 6857.00    0.93694   0.90679    0.021
 6858.00    0.93629   0.90168    0.021
 6859.00    0.94692   0.91171    0.021
 6860.00    0.96696   0.92844    0.021
 6861.00    1.01175   0.93593    0.021
 6862.00    1.01154   0.93095    0.020
 6863.00    0.90965   0.92053    0.020
 6864.00    0.85915   0.91130    0.020
 6865.00    0.90924   0.91034    0.021
 6866.00    0.96289   0.91720    0.021
 6867.00    1.02265   0.91963    0.022
 6868.00    1.03108   0.91409    0.022
 6869.00    0.96280   0.91213    0.022
 6870.00    0.93137   0.91710    0.022
 6871.00    0.94835   0.92072    0.022
 6872.00    0.96793   0.92350    0.022
 6873.00    0.99051   0.92949    0.022
 6874.00    0.99295   0.93620    0.022
 6875.00    0.97486   0.93928    0.022
 6876.00    0.98194   0.93752    0.022
 6877.00    1.01168   0.92941    0.021
 6878.00    0.99178   0.91782    0.021
 6879.00    0.93251   0.91196    0.021
 6880.00    0.93694   0.91631    0.021
 6881.00    0.98580   0.92268    0.021
 6882.00    1.02290   0.92353    0.021
 6883.00    1.05279   0.92579    0.021
 6884.00    1.02585   0.93326    0.021
 6885.00    0.96854   0.93910    0.021
 6886.00    0.95475   0.94089    0.021
 6887.00    0.96116   0.94301    0.022
 6888.00    0.95020   0.94387    0.022
 6889.00    0.93231   0.94141    0.021
 6890.00    0.92096   0.93903    0.022
 6891.00    0.91185   0.93683    0.022
 6892.00    0.92393   0.93391    0.022
 6893.00    0.94209   0.93340    0.022
 6894.00    0.98566   0.93611    0.022
 6895.00    1.03524   0.93694    0.022
 6896.00    1.04880   0.93216    0.022
 6897.00    1.05549   0.92965    0.022
 6898.00    1.06144   0.93585    0.022
 6899.00    1.06729   0.94312    0.022
 6900.00    1.05147   0.94387    0.022
 6901.00    1.03332   0.94080    0.022
 6902.00    1.04406   0.94191    0.022
 6903.00    1.05684   0.94824    0.022
 6904.00    1.00745   0.95265    0.021
 6905.00    0.95582   0.95266    0.021
 6906.00    0.96862   0.95009    0.021
 6907.00    0.98155   0.94566    0.022
 6908.00    0.99133   0.94145    0.021
 6909.00    0.99782   0.93489    0.021
 6910.00    0.95225   0.92461    0.022
 6911.00    0.90911   0.92179    0.022
 6912.00    0.89031   0.92653    0.022
 6913.00    0.87754   0.92914    0.022
 6914.00    0.90817   0.93186    0.023
 6915.00    0.94183   0.93523    0.023
 6916.00    0.99228   0.93905    0.024
 6917.00    1.02858   0.94452    0.024
 6918.00    1.00245   0.94764    0.024
 6919.00    0.97638   0.94312    0.024
 6920.00    0.95050   0.93036    0.023
 6921.00    0.92480   0.91955    0.023
 6922.00    0.89965   0.91944    0.023
 6923.00    0.89356   0.92909    0.023
 6924.00    0.93670   0.93976    0.022
 6925.00    0.96522   0.94479    0.022
 6926.00    0.96122   0.94520    0.022
 6927.00    0.97464   0.94311    0.022
 6928.00    1.02164   0.93820    0.023
 6929.00    1.03281   0.93089    0.023
 6930.00    0.98379   0.93009    0.023
 6931.00    0.95784   0.93742    0.023
 6932.00    0.96585   0.94248    0.023
 6933.00    0.98402   0.94224    0.024
 6934.00    1.01533   0.94101    0.024
 6935.00    0.99991   0.94228    0.024
 6936.00    0.93119   0.94584    0.024
 6937.00    0.91213   0.94933    0.024
 6938.00    0.94301   0.94919    0.024
 6939.00    0.93927   0.94345    0.024
 6940.00    0.90482   0.93133    0.025
 6941.00    0.88667   0.91910    0.024
 6942.00    0.88128   0.92120    0.024
 6943.00    0.85964   0.93540    0.024
 6944.00    0.82684   0.94620    0.024
 6945.00    0.86700   0.94998    0.023
 6946.00    0.95113   0.94776    0.023
 6947.00    0.99154   0.93982    0.023
 6948.00    1.00894   0.93367    0.023
 6949.00    1.04158   0.93174    0.023
 6950.00    1.08118   0.93038    0.023
 6951.00    1.06152   0.93268    0.023
 6952.00    1.01859   0.94022    0.023
 6953.00    0.98885   0.94672    0.024
 6954.00    0.96352   0.94852    0.024
 6955.00    1.00085   0.94859    0.024
 6956.00    1.05577   0.94889    0.025
 6957.00    1.03313   0.95043    0.025
 6958.00    0.99254   0.95264    0.024
 6959.00    0.98595   0.95486    0.025
 6960.00    0.98568   0.95594    0.025
 6961.00    1.01891   0.95283    0.025
 6962.00    1.05693   0.94857    0.025
 6963.00    1.02099   0.95035    0.025
 6964.00    0.97739   0.95740    0.024
 6965.00    0.97762   0.96098    0.024
 6966.00    0.98077   0.95713    0.024
 6967.00    0.96452   0.95054    0.024
 6968.00    0.94765   0.94961    0.024
 6969.00    0.93200   0.95476    0.024
 6970.00    0.91773   0.95557    0.024
 6971.00    0.94594   0.94840    0.024
 6972.00    0.97490   0.93782    0.024
 6973.00    1.01495   0.92295    0.024
 6974.00    1.04482   0.90012    0.024
 6975.00    0.97707   0.88716    0.024
 6976.00    0.92161   0.90218    0.025
 6977.00    0.95172   0.92888    0.025
 6978.00    0.97586   0.94752    0.025
 6979.00    0.96803   0.95674    0.025
 6980.00    0.95421   0.95975    0.026
 6981.00    0.91457   0.95970    0.025
 6982.00    0.90400   0.95973    0.025
 6983.00    0.99665   0.95815    0.025
 6984.00    1.06457   0.95151    0.025
 6985.00    1.05872   0.94271    0.025
 6986.00    1.05689   0.94037    0.025
 6987.00    1.06528   0.94579    0.025
 6988.00    1.04606   0.95337    0.025
 6989.00    0.96646   0.95603    0.024
 6990.00    0.92871   0.95239    0.024
 6991.00    0.97033   0.94991    0.024
 6992.00    0.99783   0.95204    0.024
 6993.00    1.00194   0.95420    0.024
 6994.00    1.01743   0.95046    0.024
 6995.00    1.04941   0.93887    0.025
 6996.00    1.08474   0.92959    0.025
 6997.00    1.12432   0.93340    0.025
 6998.00    1.09717   0.94485    0.025
 6999.00    0.99496   0.94852    0.025
 7000.00    0.94047   0.94000    0.025
 7001.00    0.93332   0.93173    0.025
 7002.00    0.92551   0.93186    0.026
 7003.00    0.91714   0.93739    0.026
 7004.00    0.90402   0.94400    0.026
 7005.00    0.88724   0.95037    0.025
 7006.00    0.87621   0.95249    0.025
 7007.00    0.86908   0.94887    0.024
 7008.00    0.90032   0.94709    0.024
 7009.00    0.95433   0.95145    0.025
 7010.00    0.90803   0.95134    0.025
 7011.00    0.80976   0.93439    0.024
 7012.00    0.82804   0.90789    0.025
 7013.00    0.89862   0.90220    0.025
 7014.00    0.95657   0.92561    0.025
 7015.00    1.00963   0.95047    0.025
 7016.00    0.97094   0.96132    0.025
 7017.00    0.90212   0.96310    0.026
 7018.00    0.88412   0.95662    0.026
 7019.00    0.88009   0.94131    0.026
 7020.00    0.88216   0.92823    0.026
 7021.00    0.88562   0.92909    0.026
 7022.00    0.86913   0.94046    0.026
 7023.00    0.84903   0.94834    0.026
 7024.00    0.90438   0.95009    0.026
 7025.00    0.97017   0.95174    0.026
 7026.00    0.88897   0.95549    0.026
 7027.00    0.79317   0.95873    0.026
 7028.00    0.85758   0.95790    0.026
 7029.00    0.93202   0.95468    0.025
 7030.00    0.94743   0.95221    0.025
 7031.00    0.96096   0.95391    0.026
 7032.00    0.91756   0.95855    0.026
 7033.00    0.87808   0.95257    0.026
 7034.00    0.94603   0.93393    0.026
 7035.00    0.99778   0.92865    0.025
 7036.00    0.82198   0.94928    0.025
 7037.00    0.66830   0.97389    0.025
 7038.00    0.71858   0.98681    0.025
 7039.00    0.77873   0.98918    0.026
 7040.00    0.90536   0.98263    0.026
 7041.00    1.00988   0.97327    0.026
 7042.00    0.99877   0.97244    0.026
 7043.00    0.98449   0.98052    0.026
 7044.00    0.95687   0.98883    0.027
 7045.00    0.92625   0.99166    0.027
 7046.00    0.88514   0.98811    0.026
 7047.00    0.85599   0.97853    0.026
 7048.00    0.86184   0.96057    0.026
 7049.00    0.87950   0.93900    0.026
 7050.00    0.92662   0.92263   -2.000
 7051.00    0.95918   0.91565   -2.000
 7052.00    0.96042   0.92062   -2.000
 7053.00    0.95846   0.93207   -2.000
 7054.00    0.95053   0.93715   -2.000
 7055.00    0.96482   0.92911   -2.000
 7056.00    1.01538   0.91558   -2.000
 7057.00    1.06440   0.91042   -2.000
 7058.00    1.11122   0.91440   -2.000
 7059.00    1.11177   0.92007   -2.000
 7060.00    1.05408   0.92616   -2.000
 7061.00    1.02052   0.92779   -2.000
 7062.00    1.01370   0.91985   -2.000
 7063.00    1.01756   0.91000   -2.000
 7064.00    1.03184   0.90173   -2.000
 7065.00    1.00123   0.90259   -2.000
 7066.00    0.93190   0.91654   -2.000
 7067.00    0.97881   0.93122   -2.000
 7068.00    1.11405   0.93783   -2.000
 7069.00    1.07823   0.94074   -2.000
 7070.00    0.92820   0.94246   -2.000
 7071.00    0.89764   0.94121   -2.000
 7072.00    0.93697   0.93894   -2.000
 7073.00    0.98754   0.93809   -2.000
 7074.00    1.04385   0.93972   -2.000
 7075.00    1.05942   0.94150   -2.000
 7076.00    1.05700   0.94413   -2.000
 7077.00    1.10099   0.94624   -2.000
 7078.00    1.16258   0.94169   -2.000
 7079.00    1.13557   0.92650   -2.000
 7080.00    1.08003   0.90442   -2.000
 7081.00    1.02050   0.89077   -2.000
 7082.00    0.95989   0.89337   -2.000
 7083.00    0.88038   0.89423   -2.000
 7084.00    0.79669   0.88523   -2.000
 7085.00    0.92701   0.87672   -2.000
 7086.00    1.09494   0.87283   -2.000
 7087.00    0.88975   0.87476   -2.000
 7088.00    0.63457   0.88091   -2.000
 7089.00    0.87122   0.88224   -2.000
 7090.00    1.15460   0.88182   -2.000
 7091.00    1.02633   0.88073   -2.000
 7092.00    0.87391   0.87977   -2.000
 7093.00    0.92707   0.88121   -2.000
 7094.00    0.98527   0.88629   -2.000
 7095.00    1.04069   0.89923   -2.000
 7096.00    1.09160   0.90697   -2.000
 7097.00    1.03063   0.90613   -2.000
 7098.00    0.95906   0.89941   -2.000
 7099.00    0.74670   0.89441   -2.000
 7100.00    0.58287   0.89830   -2.000
 7101.00    0.84919   0.90731   -2.000
 7102.00    1.04843   0.91003   -2.000
 7103.00    0.80948   0.90657   -2.000
 7104.00    0.63799   0.90633   -2.000
 7105.00    0.81012   0.90814   -2.000
 7106.00    0.93840   0.90258   -2.000
 7107.00    0.88618   0.89149   -2.000
 7108.00    0.82838   0.88823   -2.000
 7109.00    0.75156   0.89658   -2.000
 7110.00    0.71449   0.90545   -2.000
 7111.00    0.79163   0.90890   -2.000
 7112.00    0.84209   0.91249   -2.000
 7113.00    0.82709   0.91619   -2.000
 7114.00    0.83261   0.91700   -2.000
 7115.00    0.88153   0.91605   -2.000
 7116.00    0.87791   0.91403   -2.000
 7117.00    0.77768   0.90947   -2.000
 7118.00    0.75426   0.90258   -2.000
 7119.00    0.85425   0.90510   -2.000
 7120.00    0.97765   0.91225   -2.000
 7121.00    1.13408   0.90487   -2.000
 7122.00    1.18836   0.88792   -2.000
 7123.00    1.11594   0.88032   -2.000
 7124.00    0.93937   0.88352   -2.000
 7125.00    0.64892   0.88305   -2.000
 7126.00    0.54575   0.87146   -2.000
 7127.00    0.62319   0.86079   -2.000
 7128.00    0.65666   0.86525   -2.000
 7129.00    0.65275   0.87774   -2.000
 7130.00    0.57512   0.88920   -2.000
 7131.00    0.44229   0.89544   -2.000
 7132.00    0.52143   0.89738   -2.000
 7133.00    0.74004   0.89975   -2.000
 7134.00    0.87571   0.89734   -2.000
 7135.00    0.96360   0.89052   -2.000
 7136.00    0.93284   0.89055   -2.000
 7137.00    0.84255   0.89804   -2.000
 7138.00    0.81243   0.90229   -2.000
 7139.00    0.80843   0.90264   -2.000
 7140.00    0.76621   0.90281   -2.000
 7141.00    0.70975   0.90189   -2.000
 7142.00    0.81219   0.90014   -2.000
 7143.00    0.96481   0.88868   -2.000
 7144.00    0.91416   0.86984   -2.000
 7145.00    0.80989   0.86906   -2.000
 7146.00    0.84006   0.88477   -2.000
 7147.00    0.89921   0.89657   -2.000
 7148.00    0.90849   0.90560   -2.000
 7149.00    0.90925   0.91506   -2.000
 7150.00    0.80017   0.91667   -2.000
 7151.00    0.67688   0.91135   -2.000
 7152.00    0.70925   0.91330   -2.000
 7153.00    0.75576   0.92354   -2.000
 7154.00    0.67884   0.92489   -2.000
 7155.00    0.59516   0.91509   -2.000
 7156.00    0.78287   0.90643   -2.000
 7157.00    0.97474   0.90775   -2.000
 7158.00    1.02665   0.91383   -2.000
 7159.00    1.06586   0.90745   -2.000
 7160.00    0.81682   0.88550   -2.000
 7161.00    0.57500   0.86938   -2.000
 7162.00    0.42425   0.87847   -2.000
 7163.00    0.32166   0.89983   -2.000
 7164.00    0.62988   0.91254   -2.000
 7165.00    0.94029   0.91310   -2.000
 7166.00    1.26459   0.91147   -2.000
 7167.00    1.48381   0.91516   -2.000
 7168.00    1.18133   0.92191   -2.000
 7169.00    0.91882   0.92592   -2.000
 7170.00    0.81724   0.92381   -2.000
 7171.00    0.73857   0.91620   -2.000
 7172.00    0.73648   0.90794   -2.000
 7173.00    0.76272   0.90894   -2.000
 7174.00    0.86891   0.91674   -2.000
 7175.00    0.91619   0.91529   -2.000
 7176.00    0.82139   0.89970   -2.000
 7177.00    0.76585   0.88468   -2.000
 7178.00    0.79206   0.88784   -2.000
 7179.00    0.83860   0.90866   -2.000
 7180.00    0.92196   0.92530   -2.000
 7181.00    0.90692   0.92588   -2.000
 7182.00    0.73615   0.91258   -2.000
 7183.00    0.66797   0.88912   -2.000
 7184.00    0.74231   0.87424   -2.000
 7185.00    0.79600   0.87693   -2.000
 7186.00    0.82445   0.88986   -2.000
 7187.00    0.83410   0.90533   -2.000
 7188.00    0.82347   0.90913   -2.000
 7189.00    0.83083   0.90513   -2.000
 7190.00    0.85530   0.90726   -2.000
 7191.00    0.83823   0.91508   -2.000
 7192.00    0.78635   0.91441   -2.000
 7193.00    0.85669   0.90352   -2.000
 7194.00    1.01725   0.90135   -2.000
 7195.00    1.03862   0.91006   -2.000
 7196.00    0.96975   0.91547   -2.000
 7197.00    0.92164   0.90796   -2.000
 7198.00    0.88530   0.89589   -2.000
 7199.00    0.82212   0.90119   -2.000
 7200.00    0.74570   0.91838   -2.000
 7201.00    0.62605   0.92491   -2.000
 7202.00    0.48794   0.90908   -2.000
 7203.00    0.51570   0.87991   -2.000
 7204.00    0.60415   0.86905   -2.000
 7205.00    0.69913   0.87984   -2.000
 7206.00    0.79614   0.89821   -2.000
 7207.00    0.79112   0.91776   -2.000
 7208.00    0.75978   0.92396   -2.000
 7209.00    0.70769   0.91642   -2.000
 7210.00    0.65124   0.90802   -2.000
 7211.00    0.76710   0.90497   -2.000
 7212.00    0.91158   0.90719   -2.000
 7213.00    0.70187   0.91492   -2.000
 7214.00    0.44791   0.92538   -2.000
 7215.00    0.46868   0.92836   -2.000
 7216.00    0.51323   0.92486   -2.000
 7217.00    0.56271   0.92128   -2.000
 7218.00    0.61244   0.91834   -2.000
