###################################################################
## OUTPUT of StarlightChains_v04.for    [Cid@UFSC - 01/Apr/2007] ##
###################################################################

## Some input info
KUG0210-078._25_29.txt                   [arq_obs]
Base.CB07.vall.4m                        [arq_base]
Masks.EmLines.NEW.gm                     [arq_masks]
StCv04.C11.config                        [arq_config]
   66                                    [N_base]
    0                                    [N_YAV_components = # of components with extra extinction!]
    0                                    [i_FitPowerLaw (1/0 = Yes/No)]
-9.99                                    [alpha_PowerLaw]
CCM                                      [red_law_option]
 1.458241                                [q_norm = A(l_norm)/A(V)]

## (Re)Sampling Parameters
 3741.00                                 [l_ini (A)]
 7218.00                                 [l_fin (A)]
    1.00                                 [dl    (A)]     (OBS: dl_cushion =    50.00 A)

## Normalization info
 4020.00                                 [l_norm (A) - for base]
 4010.00                                 [llow_norm (A) - window for f_obs]
 4060.00                                 [lupp_norm (A) - window for f_obs]
1.330846E-17                             [fobs_norm (in input units)]

## S/N
 3691.00                                 [llow_SN (A) - window for S/N]
 7268.00                                 [lupp_SN (A) - window for S/N]
   5.009                                 [S/N in S/N window]
   4.182                                 [S/N in norm. window]
   0.022                                 [S/N_err in S/N window]
   0.018                                 [S/N_err in norm. window]
  1.0000                                 [fscale_chi2]

## etc...
    -2007302                             [idum_orig]
  2427                                   [NOl_eff]
  2226                                   [Nl_eff]
   201    NSIGMA                         [Ntot_cliped & clip_method]
 16221170                                [Nglobal_steps]
   7                                     [N_chains]
   7                                     [NEX0s_base = N_base in EX0s-fits]
 0   0   1      201   2.0   8.307E+03    [Clip-Bug, RC-Crash & Burn-In warning-flags, n_censored_weights, wei_nsig_threshold & wei_limit]
   150    148.516    147.074      1.443  [idt_all, wdt_TotTime, wdt_UsrTime & wdt_SysTime (sec)]

## Synthesis Results - Best model ##

 1.48089E-04                             [chi2/Nl_eff]
    17.87732                             [adev (%)]

   130.00000                             [sum-of-x (%)]
 5.16200E-18                             [Flux_tot (units of input spectrum!)]
 3.67908E-13                             [Mini_tot (???)]
 1.84204E-13                             [Mcor_tot (???)]

   1.70                                  [v0_min  (km/s)]
   0.64                                  [vd_min  (km/s)]
-0.9005                                  [AV_min  (mag)]
 0.0000                                  [YAV_min (mag)]

# j     x_j(%)      Mini_j(%)     Mcor_j(%)     age_j(yr)     Z_j      (L/M)_j    YAV?  Mstars   component_j        a/Fe...       SSP_chi2r SSP_adev(%)   SSP_AV   SSP_x(%)
  1      1.7223     1.6991E-03    3.3936E-03    1.000000E+06  0.00400  1.094E-02    0   1.0000   age020_m42            0.0000     1.8588E-04    15.6647   3.2143   103.2153
  2      0.0000     0.0000E+00    0.0000E+00    3.160000E+06  0.00400  4.007E-02    0   0.9999   age045_m42            0.0000     1.8878E-04    14.8494   2.6127   104.0603
  3      0.0000     0.0000E+00    0.0000E+00    5.010000E+06  0.00400  2.539E-02    0   0.9488   age055_m42            0.0000     1.7481E-04    15.5631   2.7804   109.0208
  4      0.0000     0.0000E+00    0.0000E+00    6.610000E+06  0.00400  2.620E-02    0   0.9220   age061_m42            0.0000     1.7982E-04    14.8917   2.4857   107.1329
  5      0.0000     0.0000E+00    0.0000E+00    1.000000E+07  0.00400  1.322E-02    0   0.8862   age070_m42            0.0000     1.7023E-04    14.1869   2.1596   111.8464
  6      0.0000     0.0000E+00    0.0000E+00    1.445000E+07  0.00400  7.883E-03    0   0.8571   age078_m42            0.0000     1.6365E-04    14.6942   2.4058   113.1411
  7      0.0000     0.0000E+00    0.0000E+00    2.512000E+07  0.00400  5.251E-03    0   0.8174   age090_m42            0.0000     1.6377E-04    14.0977   2.0052   113.9319
  8      0.0000     0.0000E+00    0.0000E+00    4.000000E+07  0.00400  3.649E-03    0   0.7851   age104_m42            0.0000     1.6248E-04    14.0693   1.7864   114.4357
  9      0.0000     0.0000E+00    0.0000E+00    5.500000E+07  0.00400  3.098E-03    0   0.7629   age110_m42            0.0000     1.6704E-04    14.2499   1.9741   112.4015
 10      0.0000     0.0000E+00    0.0000E+00    1.015200E+08  0.00400  2.228E-03    0   0.7207   age116_m42            0.0000     1.7634E-04    14.2045   2.0628   109.0622
 11      0.0000     0.0000E+00    0.0000E+00    2.861200E+08  0.00400  1.093E-03    0   0.6648   age125_m42            0.0000     1.8575E-04    13.7627   1.5868   106.9365
 12      0.0000     0.0000E+00    0.0000E+00    5.088000E+08  0.00400  6.597E-04    0   0.6365   age130_m42            0.0000     1.8513E-04    13.8477   1.5767   108.0531
 13      0.0000     0.0000E+00    0.0000E+00    1.434000E+09  0.00400  2.132E-04    0   0.5798   age139_m42            0.0000     1.6725E-04    13.7248   0.5200   115.0386
 14      0.0000     0.0000E+00    0.0000E+00    4.250000E+09  0.00400  5.895E-05    0   0.5377   age158_m42            0.0000     1.6155E-04    15.0365  -0.0512   117.3899
 15      0.0000     0.0000E+00    0.0000E+00    7.500000E+09  0.00400  3.510E-05    0   0.5212   age171_m42            0.0000     1.5921E-04    15.5570  -0.2834   118.7951
 16     71.4724     3.8473E+01    3.8682E+01    1.300000E+10  0.00400  2.005E-05    0   0.5034   age193_m42            0.0000     1.5154E-04    16.4949  -0.5367   122.7619
 17      1.2784     9.0474E-01    8.9755E-01    1.800000E+10  0.00400  1.525E-05    0   0.4967   age213_m42            0.0000     1.5617E-04    16.0668  -0.5166   119.8832
 18      0.0000     0.0000E+00    0.0000E+00    1.000000E+06  0.00800  1.238E-02    0   1.0000   age020_m52            0.0000     1.8675E-04    15.6742   3.2107   103.4575
 19      0.0000     0.0000E+00    0.0000E+00    3.160000E+06  0.00800  3.074E-02    0   0.9966   age045_m52            0.0000     1.8269E-04    15.8258   3.1056   105.8170
 20      0.0000     0.0000E+00    0.0000E+00    5.010000E+06  0.00800  2.668E-02    0   0.9443   age055_m52            0.0000     1.7324E-04    15.7164   2.8307   109.7907
 21      0.0000     0.0000E+00    0.0000E+00    6.610000E+06  0.00800  2.136E-02    0   0.9177   age061_m52            0.0000     1.6995E-04    14.2564   1.6320   114.6977
 22      0.0000     0.0000E+00    0.0000E+00    1.000000E+07  0.00800  1.215E-02    0   0.8827   age070_m52            0.0000     1.7063E-04    14.0572   2.3177   112.5883
 23      0.0000     0.0000E+00    0.0000E+00    1.445000E+07  0.00800  8.717E-03    0   0.8552   age078_m52            0.0000     1.6829E-04    14.4008   2.4072   112.8558
 24      0.0000     0.0000E+00    0.0000E+00    2.512000E+07  0.00800  5.592E-03    0   0.8162   age090_m52            0.0000     1.6681E-04    13.8702   2.0888   113.9985
 25      0.0000     0.0000E+00    0.0000E+00    4.000000E+07  0.00800  3.896E-03    0   0.7841   age104_m52            0.0000     1.6619E-04    13.9295   2.0134   114.1766
 26      0.0000     0.0000E+00    0.0000E+00    1.015200E+08  0.00800  2.148E-03    0   0.7226   age116_m52            0.0000     1.7599E-04    14.0019   2.0281   109.9174
 27      0.0000     0.0000E+00    0.0000E+00    2.861200E+08  0.00800  9.925E-04    0   0.6683   age125_m52            0.0000     1.8573E-04    13.7972   1.6484   108.6165
 28      0.0000     0.0000E+00    0.0000E+00    9.047900E+08  0.00800  3.141E-04    0   0.6138   age135_m52            0.0000     1.7570E-04    13.8668   0.7992   115.9265
 29      0.0000     0.0000E+00    0.0000E+00    1.434000E+09  0.00800  1.719E-04    0   0.5853   age139_m52            0.0000     1.6309E-04    15.0182  -0.0000   122.3168
 30      0.0000     0.0000E+00    0.0000E+00    2.500000E+09  0.00800  7.872E-05    0   0.5600   age150_m52            0.0000     1.6118E-04    15.8851  -0.2999   124.0382
 31      0.0000     0.0000E+00    0.0000E+00    4.250000E+09  0.00800  4.336E-05    0   0.5426   age158_m52            0.0000     1.6276E-04    15.8448  -0.3001   121.9881
 32      0.0000     0.0000E+00    0.0000E+00    6.250000E+09  0.00800  3.159E-05    0   0.5319   age166_m52            0.0000     1.5856E-04    16.7680  -0.5704   125.4685
 33      0.0000     0.0000E+00    0.0000E+00    1.300000E+10  0.00800  1.361E-05    0   0.5073   age193_m52            0.0000     1.5216E-04    20.2075  -1.0000   134.6855
 34     55.5270     6.0620E+01    6.0417E+01    1.800000E+10  0.00800  9.886E-06    0   0.4990   age213_m52            0.0000     1.5996E-04    26.7012  -1.0000   139.0055
 35      0.0000     0.0000E+00    0.0000E+00    1.000000E+06  0.02000  1.544E-02    0   1.0000   age020_m62            0.0000     1.8982E-04    15.6303   3.2180   103.1601
 36      0.0000     0.0000E+00    0.0000E+00    3.160000E+06  0.02000  3.762E-02    0   0.9858   age045_m62            0.0000     1.8111E-04    16.0674   3.0768   108.0192
 37      0.0000     0.0000E+00    0.0000E+00    5.010000E+06  0.02000  3.296E-02    0   0.9342   age055_m62            0.0000     1.8002E-04    15.3980   2.7827   108.3205
 38      0.0000     0.0000E+00    0.0000E+00    8.710000E+06  0.02000  1.154E-02    0   0.8861   age067_m62            0.0000     1.6557E-04    13.3155   1.7274   118.1493
 39      0.0000     0.0000E+00    0.0000E+00    1.445000E+07  0.02000  7.663E-03    0   0.8472   age078_m62            0.0000     1.6244E-04    13.8180   1.9171   117.6241
 40      0.0000     0.0000E+00    0.0000E+00    2.512000E+07  0.02000  4.532E-03    0   0.8099   age090_m62            0.0000     1.5771E-04    13.8360   1.8855   118.6177
 41      0.0000     0.0000E+00    0.0000E+00    5.500000E+07  0.02000  2.733E-03    0   0.7595   age110_m62            0.0000     1.6686E-04    13.9583   1.9823   114.0896
 42      0.0000     0.0000E+00    0.0000E+00    1.609000E+08  0.02000  1.369E-03    0   0.6985   age120_m62            0.0000     1.8385E-04    13.8276   1.9719   109.0866
 43      0.0000     0.0000E+00    0.0000E+00    2.861200E+08  0.02000  9.013E-04    0   0.6714   age125_m62            0.0000     1.8642E-04    13.7238   1.7709   109.7793
 44      0.0000     0.0000E+00    0.0000E+00    5.088000E+08  0.02000  5.028E-04    0   0.6449   age130_m62            0.0000     1.8042E-04    14.0184   1.3621   114.2664
 45      0.0000     0.0000E+00    0.0000E+00    9.047900E+08  0.02000  2.428E-04    0   0.6179   age135_m62            0.0000     1.7167E-04    14.5380   0.6622   119.6420
 46      0.0000     0.0000E+00    0.0000E+00    1.434000E+09  0.02000  1.263E-04    0   0.5908   age139_m62            0.0000     1.7086E-04    16.3940  -0.0000   122.9290
 47      0.0000     0.0000E+00    0.0000E+00    2.500000E+09  0.02000  5.985E-05    0   0.5673   age150_m62            0.0000     1.6235E-04    16.9200  -0.3832   128.9066
 48      0.0000     0.0000E+00    0.0000E+00    4.250000E+09  0.02000  3.271E-05    0   0.5468   age158_m62            0.0000     1.5592E-04    19.0282  -0.8371   136.0606
 49      0.0000     0.0000E+00    0.0000E+00    1.000000E+10  0.02000  1.360E-05    0   0.5167   age181_m62            0.0000     1.6526E-04    25.6237  -1.0000   146.5884
 50      0.0000     0.0000E+00    0.0000E+00    1.800000E+10  0.02000  7.124E-06    0   0.5013   age213_m62            0.0000     2.1284E-04    43.7737  -1.0000   156.6125
 51      0.0000     0.0000E+00    0.0000E+00    1.000000E+06  0.05000  2.592E-02    0   0.9998   age020_m72            0.0000     1.9655E-04    15.4876   3.2395   101.7686
 52      0.0000     0.0000E+00    0.0000E+00    3.160000E+06  0.05000  4.845E-02    0   0.9577   age045_m72            0.0000     1.7487E-04    16.2079   2.9343   110.7076
 53      0.0000     0.0000E+00    0.0000E+00    5.010000E+06  0.05000  3.072E-02    0   0.9147   age055_m72            0.0000     1.6882E-04    14.7846   2.4679   114.5910
 54      0.0000     0.0000E+00    0.0000E+00    6.610000E+06  0.05000  1.455E-02    0   0.8877   age061_m72            0.0000     1.6819E-04    15.1719   1.7480   118.9307
 55      0.0000     0.0000E+00    0.0000E+00    1.000000E+07  0.05000  9.074E-03    0   0.8524   age070_m72            0.0000     1.6530E-04    15.9299   2.6077   115.6792
 56      0.0000     0.0000E+00    0.0000E+00    2.512000E+07  0.05000  4.250E-03    0   0.7902   age090_m72            0.0000     1.6158E-04    14.8741   2.3606   115.6163
 57      0.0000     0.0000E+00    0.0000E+00    4.000000E+07  0.05000  3.087E-03    0   0.7618   age104_m72            0.0000     1.6843E-04    14.3837   2.2158   113.0753
 58      0.0000     0.0000E+00    0.0000E+00    1.015200E+08  0.05000  1.700E-03    0   0.7096   age116_m72            0.0000     1.8552E-04    13.7516   2.1308   107.6555
 59      0.0000     0.0000E+00    0.0000E+00    2.861200E+08  0.05000  7.384E-04    0   0.6633   age125_m72            0.0000     1.8746E-04    13.7069   1.6439   110.9560
 60      0.0000     0.0000E+00    0.0000E+00    5.088000E+08  0.05000  3.819E-04    0   0.6372   age130_m72            0.0000     1.7557E-04    14.3772   1.0374   119.0330
 61      0.0000     0.0000E+00    0.0000E+00    9.047900E+08  0.05000  1.676E-04    0   0.6110   age135_m72            0.0000     1.6651E-04    17.7282  -0.0000   127.8358
 62      0.0000     0.0000E+00    0.0000E+00    1.434000E+09  0.05000  8.837E-05    0   0.5874   age139_m72            0.0000     1.5853E-04    17.1289  -0.4006   131.6453
 63      0.0000     0.0000E+00    0.0000E+00    2.500000E+09  0.05000  4.233E-05    0   0.5598   age150_m72            0.0000     1.6114E-04    19.3300  -0.8491   137.4974
 64      0.0000     0.0000E+00    0.0000E+00    6.250000E+09  0.05000  1.435E-05    0   0.5249   age166_m72            0.0000     1.7654E-04    28.7578  -1.0000   145.3144
 65      0.0000     0.0000E+00    0.0000E+00    1.300000E+10  0.05000  6.513E-06    0   0.5036   age193_m72            0.0000     2.5814E-04    53.8405  -1.0000   159.4563
 66      0.0000     0.0000E+00    0.0000E+00    1.800000E+10  0.05000  4.527E-06    0   0.4945   age213_m72            0.0000     3.5737E-04    72.6209  -1.0000   168.4014


## Synthesis Results - Average & Chains ##

# j      x_j: min, <> & last-chain-values for 1 ...  7 chains
  1      1.7223     12.7032     12.8451     14.1809     11.9722     12.9012     12.8725     12.6996     12.7296
  2      0.0000      0.0374      0.0532      0.0203      0.0000      0.0001      0.0035      0.1002      0.0000
  3      0.0000      0.0386      0.1522      0.1330      0.0610      0.0102      0.0059      0.0842      0.1529
  4      0.0000      0.0285      0.2074      0.0414      0.0704      0.0000      0.0296      0.0060      0.0263
  5      0.0000      0.0299      0.0353      0.0036      0.1796      0.0039      0.0000      0.0000      0.0360
  6      0.0000      0.0330      0.1525      0.0361      0.0000      0.0000      0.0267      0.0868      0.0428
  7      0.0000      0.0323      0.1224      0.0595      0.0293      0.0008      0.0075      0.1242      0.0142
  8      0.0000      0.0314      0.0130      0.0154      0.1040      0.0014      0.0105      0.0000      0.0625
  9      0.0000      0.0289      0.0000      0.0000      0.0082      0.0000      0.0024      0.0000      0.0284
 10      0.0000      0.0313      0.0339      0.0395      0.0906      0.0000      0.0182      0.0290      0.0360
 11      0.0000      0.0300      0.0000      0.0170      0.1119      0.0037      0.0016      0.0572      0.0381
 12      0.0000      0.0317      0.1276      0.0000      0.0153      0.0021      0.0000      0.0000      0.0062
 13      0.0000      0.0394      0.0266      0.0527      0.0332      0.0006      0.0300      0.0000      0.0000
 14      0.0000      0.0359      0.2015      0.3211      0.0187      0.0004      0.0502      0.1217      0.0000
 15      0.0000      0.0318      0.0006      0.0968      0.0188      0.0080      0.0000      0.1138      0.0019
 16     71.4724     34.0712     35.1306     41.8769     34.1524     18.4983     18.5037     33.5567     33.5428
 17      1.2784     11.5921     11.8660      0.9270     11.3367     15.0071     14.3627     11.6804     11.0915
 18      0.0000      8.2357      9.3421      7.1340      8.2509      9.5972      9.5362      8.2309      8.2154
 19      0.0000      0.0357      0.2743      0.0778      0.0000      0.0001      0.0262      0.0110      0.1613
 20      0.0000      0.0301      0.0000      0.0000      0.0330      0.0155      0.0275      0.0000      0.0901
 21      0.0000      0.0290      0.0582      0.1850      0.0103      0.0015      0.0000      0.0381      0.0231
 22      0.0000      0.0384      0.0332      0.0796      0.0175      0.0000      0.0061      0.0944      0.0200
 23      0.0000      0.0289      0.0042      0.0000      0.0687      0.0084      0.0288      0.0965      0.0103
 24      0.0000      0.0299      0.0000      0.0092      0.0000      0.0000      0.0077      0.0660      0.1186
 25      0.0000      0.0308      0.0714      0.1032      0.0410      0.0011      0.0045      0.0452      0.0313
 26      0.0000      0.0287      0.0399      0.0000      0.0687      0.0013      0.0731      0.0566      0.0152
 27      0.0000      0.0301      0.0285      0.0546      0.1730      0.0000      0.0045      0.0073      0.0000
 28      0.0000      0.0282      0.0159      0.0191      0.0124      0.0065      0.0184      0.0245      0.0824
 29      0.0000      0.0259      0.0175      0.0151      0.0510      0.0023      0.0472      0.0988      0.0418
 30      0.0000      0.0312      0.0000      0.0954      0.0000      0.0052      0.0040      0.0829      0.0687
 31      0.0000      0.0298      0.0876      0.0000      0.0239      0.0025      0.0191      0.1427      0.0072
 32      0.0000      0.0268      0.0064      0.0422      0.0139      0.0043      0.0116      0.0151      0.0000
 33      0.0000     14.1643      7.0899     14.7961     13.9203     19.1469     19.2005     14.1200     14.0128
 34     55.5270     43.2874     48.4690     44.3831     43.0817     49.8281     49.6584     42.1957     43.3407
 35      0.0000      4.1122      2.0599      4.1261      4.1235      4.8419      4.7709      4.1502      4.1071
 36      0.0000      0.0267      0.0000      0.1697      0.0917      0.0024      0.0265      0.0000      0.0629
 37      0.0000      0.0254      0.0198      0.0047      0.0710      0.0018      0.0106      0.0010      0.0893
 38      0.0000      0.0312      0.0364      0.0000      0.0178      0.0098      0.0000      0.0613      0.0242
 39      0.0000      0.0261      0.0081      0.0823      0.0526      0.0000      0.0000      0.0406      0.0363
 40      0.0000      0.0265      0.0000      0.0000      0.1161      0.0000      0.0000      0.0265      0.0000
 41      0.0000      0.0318      0.0631      0.0000      0.0310      0.0035      0.0000      0.0446      0.0079
 42      0.0000      0.0286      0.0170      0.0000      0.0095      0.0012      0.0092      0.0031      0.0242
 43      0.0000      0.0320      0.0298      0.0156      0.0494      0.0003      0.0000      0.0257      0.1424
 44      0.0000      0.0306      0.0328      0.0000      0.0000      0.0000      0.0241      0.0475      0.0019
 45      0.0000      0.0337      0.0120      0.0000      0.0597      0.0128      0.0409      0.0000      0.0329
 46      0.0000      0.0276      0.0536      0.0052      0.0251      0.0006      0.0431      0.0158      0.0967
 47      0.0000      0.0296      0.0207      0.0228      0.0299      0.0024      0.0062      0.0869      0.1379
 48      0.0000      0.0279      0.0511      0.0981      0.0045      0.0052      0.0830      0.0972      0.1867
 49      0.0000      0.0319      0.0853      0.0422      0.0532      0.0000      0.0000      0.0576      0.0187
 50      0.0000      0.0335      0.0526      0.0862      0.0613      0.0113      0.0246      0.0687      0.1131
 51      0.0000      0.0407      0.0493      0.0000      0.0504      0.0047      0.0525      0.0393      0.1087
 52      0.0000      0.0280      0.0102      0.0753      0.0000      0.0054      0.0008      0.1171      0.0723
 53      0.0000      0.0263      0.0000      0.0000      0.0096      0.0000      0.0137      0.1173      0.0580
 54      0.0000      0.0278      0.1493      0.0000      0.1413      0.0000      0.0000      0.0120      0.0311
 55      0.0000      0.0272      0.0009      0.0542      0.0349      0.0081      0.0387      0.0410      0.1244
 56      0.0000      0.0325      0.0453      0.0312      0.0000      0.0007      0.0000      0.0139      0.0228
 57      0.0000      0.0299      0.1206      0.0000      0.1786      0.0000      0.0000      0.0105      0.0109
 58      0.0000      0.0311      0.0000      0.0034      0.0083      0.0003      0.0000      0.0000      0.0058
 59      0.0000      0.0251      0.0852      0.0000      0.0641      0.0040      0.0630      0.0113      0.0164
 60      0.0000      0.0363      0.0768      0.0619      0.1055      0.0006      0.0187      0.1215      0.0453
 61      0.0000      0.0328      0.0399      0.1119      0.0351      0.0012      0.0384      0.0527      0.0367
 62      0.0000      0.0251      0.0172      0.0157      0.0000      0.0000      0.0303      0.0357      0.0630
 63      0.0000      0.0290      0.0288      0.0138      0.0508      0.0061      0.0072      0.3484      0.0135
 64      0.0000      0.0284      0.0473      0.0017      0.0986      0.0012      0.0170      0.0288      0.0410
 65      0.0000      0.0413      0.0838      0.0182      0.2588      0.0052      0.0743      0.2269      0.0245
 66      0.0000      0.0329      0.1282      0.1163      0.1070      0.0089      0.0039      0.0092      0.1266

# j      m_j: min, <> & last-chain-values for 1 ...  7 chains
  1  3.3936E-03  2.9297E-02  2.9235E-02  3.3184E-02  2.7585E-02  2.8165E-02  2.8224E-02  2.9601E-02  2.9470E-02
  2  0.0000E+00  2.3570E-05  3.3070E-05  1.2952E-05  0.0000E+00  5.0129E-08  2.0787E-06  6.3749E-05  0.0000E+00
  3  0.0000E+00  3.6399E-05  1.4161E-04  1.2727E-04  5.7450E-05  9.0833E-06  5.2487E-06  8.0259E-05  1.4471E-04
  4  0.0000E+00  2.5262E-05  1.8169E-04  3.7278E-05  6.2455E-05  0.0000E+00  2.4977E-05  5.4156E-06  2.3464E-05
  5  0.0000E+00  5.0572E-05  5.8920E-05  6.1324E-06  3.0341E-04  6.2210E-06  0.0000E+00  0.0000E+00  6.1094E-05
  6  0.0000E+00  9.0642E-05  4.1295E-04  1.0051E-04  0.0000E+00  0.0000E+00  6.9644E-05  2.4066E-04  1.1791E-04
  7  0.0000E+00  1.2677E-04  4.7453E-04  2.3695E-04  1.1499E-04  2.8669E-06  2.8048E-05  4.9291E-04  5.6156E-05
  8  0.0000E+00  1.7063E-04  6.9615E-05  8.5074E-05  5.6380E-04  7.2774E-06  5.4250E-05  0.0000E+00  3.4042E-04
  9  0.0000E+00  1.7962E-04  0.0000E+00  0.0000E+00  5.0809E-05  0.0000E+00  1.4387E-05  0.0000E+00  1.7705E-04
 10  0.0000E+00  2.5560E-04  2.7272E-04  3.2722E-04  7.3841E-04  0.0000E+00  1.4127E-04  2.3884E-04  2.9453E-04
 11  0.0000E+00  4.5994E-04  0.0000E+00  2.6475E-04  1.7163E-03  5.3872E-05  2.2632E-05  8.8727E-04  5.8707E-04
 12  0.0000E+00  7.7053E-04  3.0653E-03  0.0000E+00  3.7272E-04  4.9420E-05  0.0000E+00  0.0000E+00  1.5040E-04
 13  0.0000E+00  2.7022E-03  1.7998E-03  3.6716E-03  2.2782E-03  3.9769E-05  1.9547E-03  0.0000E+00  0.0000E+00
 14  0.0000E+00  8.2716E-03  4.5764E-02  7.4977E-02  4.3073E-03  9.7435E-05  1.0993E-02  2.8301E-02  0.0000E+00
 15  0.0000E+00  1.1931E-02  2.3754E-04  3.6815E-02  7.0538E-03  2.8426E-03  0.0000E+00  4.3098E-02  7.2427E-04
 16  3.8682E+01  2.1583E+01  2.1961E+01  2.6917E+01  2.1614E+01  1.1092E+01  1.1144E+01  2.1484E+01  2.1330E+01
 17  8.9755E-01  9.5260E+00  9.6229E+00  7.7296E-01  9.3073E+00  1.1674E+01  1.1221E+01  9.7009E+00  9.1496E+00
 18  0.0000E+00  1.6784E-02  1.8789E-02  1.4752E-02  1.6799E-02  1.8515E-02  1.8477E-02  1.6953E-02  1.6807E-02
 19  0.0000E+00  2.9161E-05  2.2142E-04  6.4550E-05  0.0000E+00  1.1346E-07  2.0399E-05  9.0573E-06  1.3245E-04
 20  0.0000E+00  2.6858E-05  0.0000E+00  0.0000E+00  2.9455E-05  1.3144E-05  2.3348E-05  0.0000E+00  8.0777E-05
 21  0.0000E+00  3.1421E-05  6.2301E-05  2.0351E-04  1.1112E-05  1.5221E-06  0.0000E+00  4.1753E-05  2.5140E-05
 22  0.0000E+00  7.0342E-05  6.0135E-05  1.4807E-04  3.2030E-05  0.0000E+00  1.0683E-05  1.7479E-04  3.6872E-05
 23  0.0000E+00  7.1443E-05  1.0267E-05  0.0000E+00  1.6994E-04  1.9708E-05  6.7694E-05  2.4150E-04  2.5715E-05
 24  0.0000E+00  1.1020E-04  0.0000E+00  3.4467E-05  0.0000E+00  0.0000E+00  2.6931E-05  2.4569E-04  4.3842E-04
 25  0.0000E+00  1.5616E-04  3.5777E-04  5.3182E-04  2.0793E-04  5.1460E-06  2.1603E-05  2.3181E-04  1.5973E-04
 26  0.0000E+00  2.4351E-04  3.3445E-04  0.0000E+00  5.8245E-04  1.0800E-05  5.8950E-04  4.8589E-04  1.2991E-04
 27  0.0000E+00  5.1150E-04  4.7736E-04  9.4034E-04  2.9359E-03  0.0000E+00  7.2190E-05  1.2463E-04  0.0000E+00
 28  0.0000E+00  1.3928E-03  7.7249E-04  9.5736E-04  6.0834E-04  3.0270E-04  8.6370E-04  1.2185E-03  4.0765E-03
 29  0.0000E+00  2.2265E-03  1.4811E-03  1.3132E-03  4.3775E-03  1.8821E-04  3.8577E-03  8.5803E-03  3.6026E-03
 30  0.0000E+00  5.6039E-03  0.0000E+00  1.7377E-02  0.0000E+00  8.8763E-04  6.8787E-04  1.5029E-02  1.2379E-02
 31  0.0000E+00  9.3975E-03  2.7308E-02  0.0000E+00  7.5372E-03  7.6170E-04  5.7409E-03  4.5520E-02  2.2852E-03
 32  0.0000E+00  1.1404E-02  2.6701E-03  1.8200E-02  5.9040E-03  1.7348E-03  4.6784E-03  6.4860E-03  0.0000E+00
 33  0.0000E+00  1.3321E+01  6.5799E+00  1.4119E+01  1.3079E+01  1.7045E+01  1.7167E+01  1.3420E+01  1.3229E+01
 34  6.0417E+01  5.5127E+01  6.0915E+01  5.7351E+01  5.4813E+01  6.0069E+01  6.0124E+01  5.4310E+01  5.5407E+01
 35  0.0000E+00  6.7198E-03  3.3218E-03  6.8414E-03  6.7319E-03  7.4897E-03  7.4119E-03  6.8541E-03  6.7371E-03
 36  0.0000E+00  1.7684E-05  0.0000E+00  1.1384E-04  6.0567E-05  1.5191E-06  1.6627E-05  0.0000E+00  4.1742E-05
 37  0.0000E+00  1.8171E-05  1.3949E-05  3.4335E-06  5.0750E-05  1.2087E-06  7.1942E-06  7.2987E-07  6.4118E-05
 38  0.0000E+00  6.0380E-05  6.9586E-05  0.0000E+00  3.4494E-05  1.8044E-05  0.0000E+00  1.2003E-04  4.7033E-05
 39  0.0000E+00  7.2665E-05  2.2318E-05  2.3300E-04  1.4664E-04  0.0000E+00  0.0000E+00  1.1455E-04  1.0151E-04
 40  0.0000E+00  1.1945E-04  0.0000E+00  0.0000E+00  5.2305E-04  0.0000E+00  0.0000E+00  1.2060E-04  0.0000E+00
 41  0.0000E+00  2.2262E-04  4.3682E-04  0.0000E+00  2.1731E-04  2.3441E-05  0.0000E+00  3.1571E-04  5.5508E-05
 42  0.0000E+00  3.6841E-04  2.1580E-04  0.0000E+00  1.2276E-04  1.4771E-05  1.1319E-04  4.0329E-05  3.1247E-04
 43  0.0000E+00  6.0137E-04  5.5216E-04  2.9702E-04  9.2847E-04  4.8607E-06  0.0000E+00  4.8809E-04  2.6864E-03
 44  0.0000E+00  9.8873E-04  1.0472E-03  0.0000E+00  0.0000E+00  0.0000E+00  7.4193E-04  1.5536E-03  6.1939E-05
 45  0.0000E+00  2.1653E-03  7.5974E-04  0.0000E+00  3.8322E-03  7.7674E-04  2.4960E-03  0.0000E+00  2.1182E-03
 46  0.0000E+00  3.2601E-03  6.2429E-03  6.2135E-04  2.9543E-03  7.1884E-05  4.8392E-03  1.8806E-03  1.1462E-02
 47  0.0000E+00  7.0769E-03  4.8830E-03  5.5429E-03  7.1480E-03  5.3369E-04  1.4199E-03  2.0996E-02  3.3095E-02
 48  0.0000E+00  1.1770E-02  2.1249E-02  4.1986E-02  1.9003E-03  2.0591E-03  3.3267E-02  4.1451E-02  7.9061E-02
 49  0.0000E+00  3.0581E-02  8.0681E-02  4.1092E-02  5.0967E-02  0.0000E+00  0.0000E+00  5.5828E-02  1.7987E-02
 50  0.0000E+00  5.9459E-02  9.2158E-02  1.5528E-01  1.0876E-01  1.8926E-02  4.1440E-02  1.2321E-01  2.0153E-01
 51  0.0000E+00  3.9612E-05  4.7306E-05  0.0000E+00  4.9046E-05  4.3715E-06  4.8563E-05  3.8648E-05  1.0621E-04
 52  0.0000E+00  1.3958E-05  5.0194E-06  3.8101E-05  0.0000E+00  2.5687E-06  3.8539E-07  5.9000E-05  3.6220E-05
 53  0.0000E+00  1.9726E-05  0.0000E+00  0.0000E+00  7.2289E-06  0.0000E+00  9.7565E-06  8.9063E-05  4.3725E-05
 54  0.0000E+00  4.2805E-05  2.2683E-04  0.0000E+00  2.1726E-04  0.0000E+00  0.0000E+00  1.8630E-05  4.7979E-05
 55  0.0000E+00  6.4379E-05  2.1476E-06  1.3045E-04  8.2697E-05  1.8121E-05  8.7221E-05  9.8325E-05  2.9585E-04
 56  0.0000E+00  1.5259E-04  2.0953E-04  1.4862E-04  0.0000E+00  3.0071E-06  0.0000E+00  6.5731E-05  1.0733E-04
 57  0.0000E+00  1.8608E-04  7.4119E-04  0.0000E+00  1.1107E-03  0.0000E+00  0.0000E+00  6.6320E-05  6.7937E-05
 58  0.0000E+00  3.2768E-04  0.0000E+00  3.6240E-05  8.7305E-05  2.6017E-06  0.0000E+00  0.0000E+00  6.1535E-05
 59  0.0000E+00  5.6940E-04  1.9064E-03  0.0000E+00  1.4510E-03  8.6604E-05  1.3570E-03  2.5873E-04  3.7292E-04
 60  0.0000E+00  1.5269E-03  3.1902E-03  2.6456E-03  4.4383E-03  2.5260E-05  7.4884E-04  5.1684E-03  1.9135E-03
 61  0.0000E+00  3.0140E-03  3.6261E-03  1.0443E-02  3.2250E-03  1.0110E-04  3.3553E-03  4.8977E-03  3.3901E-03
 62  0.0000E+00  4.2086E-03  2.8394E-03  2.6694E-03  0.0000E+00  0.0000E+00  4.8307E-03  6.0501E-03  1.0604E-02
 63  0.0000E+00  9.6912E-03  9.4946E-03  4.6666E-03  1.6946E-02  1.9153E-03  2.2844E-03  1.1749E-01  4.5188E-03
 64  0.0000E+00  2.6253E-02  4.3045E-02  1.6186E-03  9.0874E-02  1.0841E-03  1.4888E-02  2.6850E-02  3.7972E-02
 65  0.0000E+00  8.0580E-02  1.6135E-01  3.6072E-02  5.0445E-01  9.5148E-03  1.3779E-01  4.4741E-01  4.8059E-02
 66  0.0000E+00  9.0797E-02  3.4857E-01  3.2527E-01  2.9466E-01  2.3323E-02  1.0344E-02  2.5684E-02  3.5022E-01

# AV, chi2 & Mass for <> & i_chain = 1 ...  7 solutions
AV      -0.9005     -0.8487     -1.0000     -1.0000     -1.0000     -0.9472     -0.9402     -1.0000     -1.0000
chi2 1.4809E-04  2.3143E-04  1.7095E-04  1.6137E-04  1.6991E-04  1.5665E-04  1.5663E-04  1.7424E-04  1.7140E-04
Mass 1.8420E-13  1.6872E-13  1.3953E-13  1.3570E-13  1.3782E-13  1.5616E-13  1.5695E-13  1.3624E-13  1.3717E-13
   1.70                                  [v0_min (km/s) before EX0s...]
   0.64                                  [vd_min (km/s) before EX0s...]


## Synthetic spectrum (Best Model) ##l_obs f_obs f_syn wei
 3478    [Nl_obs]
 3741.00    1.22804   0.89707    0.000
 3742.00    1.51418   0.83995    0.000
 3743.00    1.75756   0.74651    0.000
 3744.00    1.58452   0.67985    0.000
 3745.00    1.16885   0.63454   -1.000
 3746.00    0.83230   0.59635   -1.000
 3747.00    0.53595   0.59177   -1.000
 3748.00    0.49858   0.52192   -1.000
 3749.00    0.57509   0.43961   -1.000
 3750.00    0.84943   0.49647   -1.000
 3751.00    1.19845   0.67065   -1.000
 3752.00    1.25576   0.80148   -1.000
 3753.00    1.21959   0.86192   -1.000
 3754.00    1.45093   0.94282   -1.000
 3755.00    1.75396   1.01188   -1.000
 3756.00    1.49099   0.97376   -1.000
 3757.00    1.10378   0.80784   -1.000
 3758.00    0.90692   0.63522   -1.000
 3759.00    0.74329   0.63263   -1.000
 3760.00    0.87709   0.73225   -1.000
 3761.00    1.05040   0.80071   -1.000
 3762.00    1.19566   0.81696   -1.000
 3763.00    1.33829   0.78649   -1.000
 3764.00    1.26976   0.78414   -1.000
 3765.00    1.18905   0.83472   -1.000
 3766.00    0.86603   0.80484   -1.000
 3767.00    0.54174   0.73745   -1.000
 3768.00    0.75904   0.78082   -1.000
 3769.00    0.96306   0.84052   -1.000
 3770.00    0.84422   0.80945   -1.000
 3771.00    0.74223   0.80709   -1.000
 3772.00    0.86112   0.90160   -1.000
 3773.00    1.00842   0.96781   -1.000
 3774.00    1.40515   0.95799   -1.000
 3775.00    1.70951   0.92538   -1.000
 3776.00    1.41494   0.93362   -1.000
 3777.00    1.14399   0.95113   -1.000
 3778.00    0.99255   0.95209   -1.000
 3779.00    0.88586   0.98589   -1.000
 3780.00    0.96230   1.04215   -1.000
 3781.00    1.05321   1.05495   -1.000
 3782.00    1.19319   1.03886   -1.000
 3783.00    1.36229   1.04865   -1.000
 3784.00    1.61469   1.07282   -1.000
 3785.00    1.80942   1.01762   -1.000
 3786.00    1.86324   0.88508   -1.000
 3787.00    1.72259   0.80763   -1.000
 3788.00    1.17202   0.78757   -1.000
 3789.00    0.83265   0.77239   -1.000
 3790.00    0.88013   0.78244   -1.000
 3791.00    1.00536   0.84467   -1.000
 3792.00    1.25506   0.87229   -1.000
 3793.00    1.24753   0.81849   -1.000
 3794.00    0.87868   0.75049   -1.000
 3795.00    0.59202   0.72343   -1.000
 3796.00    0.40695   0.71851   -1.000
 3797.00    0.40347   0.66097   -1.000
 3798.00    0.59782   0.58960   -1.000
 3799.00    0.74349   0.61566   -1.000
 3800.00    0.84236   0.74156   -1.000
 3801.00    1.00490   0.85587   -1.000
 3802.00    1.22138   0.92022   -1.000
 3803.00    1.22826   0.98617   -1.000
 3804.00    1.07873   1.02349   -1.000
 3805.00    1.03401   0.99890   -1.000
 3806.00    1.05801   0.92525   -1.000
 3807.00    1.14892   0.85946   -1.000
 3808.00    1.27822   0.88593   -1.000
 3809.00    1.20384   0.96726   -1.000
 3810.00    1.02765   1.01265   -1.000
 3811.00    0.75139   1.00824   -1.000
 3812.00    0.43184   0.94991   -1.000
 3813.00    0.22660   0.84528   -1.000
 3814.00    0.06373   0.76095   -1.000
 3815.00    0.09606   0.70418   -1.000
 3816.00    0.18973   0.69974   -1.000
 3817.00    0.22392   0.78217   -1.000
 3818.00    0.24249   0.83125   -1.000
 3819.00    0.34567   0.74298   -1.000
 3820.00    0.46698   0.61268   -1.000
 3821.00    0.78368   0.61236   -1.000
 3822.00    1.13355   0.72218   -1.000
 3823.00    1.10637   0.76849   -1.000
 3824.00    1.03082   0.67450   -1.000
 3825.00    0.74166   0.57629   -1.000
 3826.00    0.43332   0.55581   -1.000
 3827.00    0.68693   0.57981   -1.000
 3828.00    0.97074   0.59526   -1.000
 3829.00    0.74562   0.61280   -1.000
 3830.00    0.51236   0.64722   -1.000
 3831.00    0.45271   0.62577   -1.000
 3832.00    0.40032   0.53986   -1.000
 3833.00    0.50920   0.48257   -1.000
 3834.00    0.62334   0.48662   -1.000
 3835.00    0.80284   0.52510   -1.000
 3836.00    0.93128   0.57876   -1.000
 3837.00    0.62823   0.57803   -1.000
 3838.00    0.38213   0.52685   -1.000
 3839.00    0.49432   0.51621   -1.000
 3840.00    0.61284   0.54290   -1.000
 3841.00    0.76258   0.60573   -1.000
 3842.00    0.81560   0.72847   -1.000
 3843.00    0.48140   0.82548   -1.000
 3844.00    0.25916   0.86284   -1.000
 3845.00    0.40913   0.86158   -1.000
 3846.00    0.55587   0.85131   -1.000
 3847.00    0.69355   0.87940    0.000
 3848.00    0.82886   0.88712    0.000
 3849.00    0.95846   0.82210    0.000
 3850.00    1.13511   0.76171    0.000
 3851.00    1.40933   0.80070    0.000
 3852.00    1.46098   0.87045    0.000
 3853.00    1.11117   0.87227    0.000
 3854.00    0.80840   0.83902    0.000
 3855.00    0.57981   0.79518    0.000
 3856.00    0.55327   0.75170    0.000
 3857.00    0.80643   0.74627    0.000
 3858.00    0.88990   0.71288    0.000
 3859.00    0.76659   0.62331    0.000
 3860.00    0.69488   0.59305    0.000
 3861.00    0.67858   0.68884    0.000
 3862.00    0.65005   0.83049    0.000
 3863.00    0.60992   0.90333    0.000
 3864.00    0.60663   0.88822    0.000
 3865.00    0.63410   0.84537    0.000
 3866.00    0.83490   0.83295    0.000
 3867.00    1.16316   0.84416    0.000
 3868.00    1.29796   0.84267    0.000
 3869.00    1.30778   0.82167    0.000
 3870.00    1.32470   0.77076    0.000
 3871.00    1.34563   0.70026    0.000
 3872.00    1.28742   0.64660    0.000
 3873.00    1.19030   0.67834    0.000
 3874.00    1.01873   0.79042    0.000
 3875.00    0.81550   0.87816    0.000
 3876.00    0.90337   0.87347    0.000
 3877.00    1.09728   0.78051    0.000
 3878.00    1.06113   0.68501    0.000
 3879.00    0.95406   0.70590    0.000
 3880.00    0.77571   0.78016    0.000
 3881.00    0.57908   0.76586   -1.000
 3882.00    0.66130   0.71678   -1.000
 3883.00    0.80182   0.75932   -1.000
 3884.00    0.78988   0.83824   -1.000
 3885.00    0.75280   0.78457   -1.000
 3886.00    0.78817   0.66417   -1.000
 3887.00    0.83252   0.63332   -1.000
 3888.00    1.00104   0.64487   -1.000
 3889.00    1.18019   0.64870   -1.000
 3890.00    0.96635   0.71874   -1.000
 3891.00    0.73292   0.83373   -1.000
 3892.00    0.93067   0.91421   -1.000
 3893.00    1.13205   0.92850   -1.000
 3894.00    1.11219   0.89346   -1.000
 3895.00    1.09042   0.84547   -1.000
 3896.00    1.02963   0.86709   -1.000
 3897.00    0.97579   0.92830   -1.000
 3898.00    1.00425   0.91382   -1.000
 3899.00    1.03263   0.86635   -1.000
 3900.00    1.06043   0.87249   -1.000
 3901.00    1.10289   0.92549   -1.000
 3902.00    1.23487   0.92593   -1.000
 3903.00    1.30571   0.89111   -1.000
 3904.00    1.08234   0.88689   -1.000
 3905.00    0.87940   0.83429   -1.000
 3906.00    0.75653   0.78935   -1.000
 3907.00    0.67917   0.85382   -1.000
 3908.00    0.75020   0.95766   -1.000
 3909.00    0.84267   1.00929   -1.000
 3910.00    0.99424   1.01426   -1.000
 3911.00    1.09681   1.03470   -1.000
 3912.00    1.08365   1.06812   -1.000
 3913.00    1.12856   1.04760   -1.000
 3914.00    1.29197   1.01257   -1.000
 3915.00    1.31183   0.99827   -1.000
 3916.00    1.07672   0.97206   -1.000
 3917.00    0.86873   0.95744   -1.000
 3918.00    0.70289   0.94183   -1.000
 3919.00    0.72272   0.89088   -1.000
 3920.00    0.99590   0.81717   -1.000
 3921.00    1.03097   0.77202   -1.000
 3922.00    0.78002   0.78322   -1.000
 3923.00    0.73462   0.81810   -1.000
 3924.00    0.90690   0.84470   -1.000
 3925.00    1.07918   0.82264   -1.000
 3926.00    1.25146   0.76111   -1.000
 3927.00    1.22063   0.67984   -1.000
 3928.00    1.02252   0.57615   -1.000
 3929.00    0.86291   0.48815   -1.000
 3930.00    0.73121   0.41576   -1.000
 3931.00    0.63914   0.34188   -1.000
 3932.00    0.57228   0.27537   -1.000
 3933.00    0.55810   0.22471   -1.000
 3934.00    0.57325   0.21115   -1.000
 3935.00    0.49769   0.25022   -1.000
 3936.00    0.37823   0.33009   -1.000
 3937.00    0.36350   0.42702   -1.000
 3938.00    0.39255   0.52458   -1.000
 3939.00    0.57937   0.62289   -1.000
 3940.00    0.82262   0.69735   -1.000
 3941.00    0.74345   0.72307   -1.000
 3942.00    0.56682   0.73204   -1.000
 3943.00    0.72411   0.71828   -1.000
 3944.00    0.96526   0.70423   -1.000
 3945.00    1.08762   0.78640   -1.000
 3946.00    1.18576   0.91096   -1.000
 3947.00    1.00826   0.93919   -1.000
 3948.00    0.78663   0.90260   -1.000
 3949.00    0.71561   0.91680   -1.000
 3950.00    0.66257   0.99318   -1.000
 3951.00    0.92710   1.03009   -1.000
 3952.00    1.21749   0.97260   -1.000
 3953.00    1.22976   0.95260    0.107
 3954.00    1.22924   1.03180    0.052
 3955.00    1.74954   1.05680    0.051
 3956.00    2.25698   0.97878    0.050
 3957.00    1.74643   0.93050    0.049
 3958.00    1.23755   0.95828    0.049
 3959.00    0.76023   0.99119    0.049
 3960.00    0.32127   0.92962    0.000
 3961.00    0.31454   0.77113    0.000
 3962.00    0.32001   0.65524    0.000
 3963.00    0.42137   0.63372    0.000
 3964.00    0.46183   0.61129    0.000
 3965.00    0.14101   0.53772    0.000
 3966.00   -0.12819   0.42595    0.000
 3967.00   -0.15502   0.31400    0.000
 3968.00   -0.02263   0.23847    0.000
 3969.00    0.71997   0.23170    0.000
 3970.00    1.26833   0.29347    0.000
 3971.00    1.19583   0.39265    0.000
 3972.00    1.11261   0.49673    0.000
 3973.00    1.00032   0.58632    0.000
 3974.00    0.79609   0.67860    0.000
 3975.00    0.37833   0.77961    0.000
 3976.00    0.02852   0.84896    0.000
 3977.00   -0.18484   0.90490    0.000
 3978.00    0.00783   0.97653    0.000
 3979.00    0.91073   1.05267    0.000
 3980.00    1.21020   1.10278    0.000
 3981.00    0.58585   1.09414    0.049
 3982.00    0.37064   1.04211    0.049
 3983.00    0.70567   1.03034    0.051
 3984.00    0.81558   1.07244    0.051
 3985.00    0.65889   1.11555    0.050
 3986.00    0.64396   1.12714    0.050
 3987.00    0.77703   1.13538    0.050
 3988.00    1.02633   1.18105    0.051
 3989.00    1.38267   1.17592    0.051
 3990.00    1.77020   1.14050    0.051
 3991.00    2.18306   1.16803    0.051
 3992.00    1.84365   1.21671    0.050
 3993.00    0.96677   1.23286    0.049
 3994.00    0.62531   1.20019    0.048
 3995.00    0.61956   1.16221    0.047
 3996.00    0.65440   1.12820    0.047
 3997.00    0.71147   1.08538    0.047
 3998.00    1.26945   1.08463    0.048
 3999.00    2.06602   1.16618    0.048
 4000.00    2.28479   1.24027    0.048
 4001.00    2.26608   1.24869    0.049
 4002.00    1.64012   1.26839    0.048
 4003.00    0.80087   1.29990    0.047
 4004.00    0.26939   1.21970    0.046
 4005.00   -0.17090   1.06332    0.000
 4006.00   -0.17948   1.02170    0.000
 4007.00   -0.08202   1.11982    0.000
 4008.00    0.26718   1.21447    0.045
 4009.00    0.66641   1.24537    0.045
 4010.00    1.10461   1.25085    0.045
 4011.00    1.54887   1.26123    0.046
 4012.00    1.80088   1.25830    0.046
 4013.00    2.03080   1.25406    0.045
 4014.00    1.83594   1.25498    0.045
 4015.00    1.60825   1.28183    0.045
 4016.00    1.27724   1.29548    0.046
 4017.00    0.94189   1.25077    0.046
 4018.00    1.31221   1.23714    0.045
 4019.00    1.67410   1.28709    0.045
 4020.00    1.38427   1.29973    0.045
 4021.00    1.09729   1.27089    0.045
 4022.00    0.86039   1.26345    0.044
 4023.00    0.65828   1.26068    0.043
 4024.00    0.83043   1.21758    0.045
 4025.00    0.90823   1.20981    0.046
 4026.00    0.26981   1.27603    0.045
 4027.00   -0.24381   1.34299    0.000
 4028.00   -0.03757   1.37744    0.000
 4029.00    0.17854   1.33784    0.044
 4030.00    0.43990   1.19596    0.045
 4031.00    0.66519   1.07835    0.045
 4032.00    0.75519   1.05457    0.045
 4033.00    0.96049   1.05622    0.044
 4034.00    1.52723   1.08026    0.045
 4035.00    1.87636   1.14666    0.046
 4036.00    1.64654   1.25336    0.045
 4037.00    1.57336   1.36023    0.045
 4038.00    1.85784   1.40399    0.045
 4039.00    1.78355   1.37636    0.046
 4040.00    1.00000   1.30684    0.046
 4041.00    0.84434   1.27163    0.047
 4042.00    1.77036   1.30742    0.048
 4043.00    2.02700   1.29629    0.048
 4044.00    1.27387   1.14584    0.047
 4045.00    0.77834   0.94367    0.046
 4046.00    0.62430   0.90125    0.046
 4047.00    0.65545   1.07727    0.046
 4048.00    0.90281   1.24211    0.045
 4049.00    0.94970   1.29360    0.045
 4050.00    0.79022   1.32557    0.045
 4051.00    0.82257   1.34514    0.045
 4052.00    1.02913   1.31392    0.045
 4053.00    1.12823   1.27122    0.045
 4054.00    1.14131   1.22846    0.044
 4055.00    0.87450   1.20470    0.043
 4056.00    0.41061   1.21328    0.043
 4057.00    0.62046   1.18204    0.044
 4058.00    1.24647   1.14379    0.044
 4059.00    1.22827   1.18929    0.044
 4060.00    0.86246   1.27929    0.043
 4061.00    0.99896   1.31241    0.043
 4062.00    1.37090   1.20869    0.044
 4063.00    1.45584   1.02618    0.044
 4064.00    1.42483   0.98112    0.043
 4065.00    1.44091   1.11069    0.042
 4066.00    1.47324   1.18225    0.042
 4067.00    1.45398   1.17238    0.042
 4068.00    1.41974   1.22748    0.042
 4069.00    1.64585   1.32767    0.043
 4070.00    1.93448   1.31581    0.043
 4071.00    2.01992   1.16519    0.043
 4072.00    2.06597   1.09491    0.044
 4073.00    1.46684   1.20355    0.043
 4074.00    0.77048   1.29426    0.042
 4075.00    0.65360   1.24863    0.042
 4076.00    0.60080   1.12409    0.043
 4077.00    0.76085   1.00686    0.042
 4078.00    0.93649   1.00672    0.041
 4079.00    0.83876   1.11825    0.041
 4080.00    0.73058   1.25459    0.041
 4081.00    0.79318   1.35127    0.042
 4082.00    0.86545   1.35048    0.042
 4083.00    1.26630   1.27806    0.043
 4084.00    1.61797   1.22312    0.043
 4085.00    1.15924   1.21941    0.043
 4086.00    0.77847   1.26507    0.042
 4087.00    1.20009   1.35860    0.043
 4088.00    1.60980   1.44594    0.044
 4089.00    1.93218   1.46451    0.044
 4090.00    2.25301   1.42399    0.045
 4091.00    2.56516   1.37958    0.046
 4092.00    2.60614   1.33857    0.000
 4093.00    1.43359   1.34829    0.000
 4094.00    0.58127   1.37093    0.000
 4095.00    0.90502   1.29609    0.000
 4096.00    0.97121   1.19832    0.000
 4097.00    0.24533   1.17608    0.000
 4098.00   -0.04304   1.18835    0.000
 4099.00    0.81207   1.16339    0.000
 4100.00    1.45674   1.05942    0.000
 4101.00    1.62878   0.91288    0.000
 4102.00    1.79851   0.88784    0.000
 4103.00    1.96375   1.00076    0.000
 4104.00    2.12551   1.11654    0.000
 4105.00    2.28139   1.20292    0.000
 4106.00    2.11929   1.26998    0.000
 4107.00    1.48449   1.29161    0.000
 4108.00    1.04487   1.27828    0.000
 4109.00    0.86026   1.24583    0.000
 4110.00    0.79833   1.21404    0.000
 4111.00    0.87760   1.20842    0.000
 4112.00    0.94866   1.23291    0.000
 4113.00    1.01139   1.28224    0.040
 4114.00    1.12277   1.32446    0.039
 4115.00    1.27773   1.33807    0.038
 4116.00    1.20552   1.35027    0.038
 4117.00    0.95408   1.33630    0.038
 4118.00    0.77848   1.25503    0.038
 4119.00    0.65551   1.19837    0.039
 4120.00    0.71412   1.23747    0.039
 4121.00    0.88321   1.27299    0.039
 4122.00    1.02469   1.25857    0.039
 4123.00    1.15151   1.25343    0.039
 4124.00    1.23217   1.29304    0.039
 4125.00    1.29155   1.33782    0.038
 4126.00    1.14567   1.32591    0.038
 4127.00    0.91830   1.27498    0.037
 4128.00    0.95278   1.23669    0.037
 4129.00    1.07587   1.22806    0.037
 4130.00    1.31878   1.22970    0.038
 4131.00    1.59577   1.19510    0.038
 4132.00    1.86107   1.11528    0.038
 4133.00    2.12362   1.08704    0.038
 4134.00    2.16230   1.11716    0.038
 4135.00    2.15873   1.20139    0.038
 4136.00    1.97188   1.29607    0.038
 4137.00    1.75827   1.31364    0.038
 4138.00    1.45355   1.33109    0.038
 4139.00    1.13914   1.35884    0.037
 4140.00    0.88978   1.35844    0.037
 4141.00    0.64492   1.31434    0.037
 4142.00    0.82190   1.17579    0.073
 4143.00    1.01343   1.01360   36.930
 4144.00    1.13634   0.99900   -1.000
 4145.00    1.25997   1.13311   -1.000
 4146.00    1.41211   1.25008   -1.000
 4147.00    1.56951   1.29076   -1.000
 4148.00    1.80829   1.28510   -1.000
 4149.00    2.02952   1.24050   -1.000
 4150.00    2.07772   1.20626   -1.000
 4151.00    2.12316   1.22103   -1.000
 4152.00    2.14896   1.23020   -1.000
 4153.00    2.11672   1.21311    0.497
 4154.00    1.76765   1.18392    0.067
 4155.00    1.48520   1.18130    0.039
 4156.00    1.49398   1.19092    0.040
 4157.00    1.47063   1.21009    0.040
 4158.00    1.33171   1.25997    0.039
 4159.00    1.27808   1.30565    0.038
 4160.00    1.48179   1.31707    0.038
 4161.00    1.57614   1.30997    0.038
 4162.00    1.38964   1.33957    0.038
 4163.00    1.31026   1.36532    0.037
 4164.00    1.46750   1.32976    0.038
 4165.00    1.34793   1.29708    0.038
 4166.00    0.69812   1.27994    0.037
 4167.00    0.48522   1.23284    0.037
 4168.00    1.00254   1.21955    0.037
 4169.00    1.53279   1.27015    0.038
 4170.00    2.08199   1.29049    0.038
 4171.00    2.14547   1.22482    0.038
 4172.00    1.58335   1.09919    0.037
 4173.00    1.33054   1.03587    0.037
 4174.00    1.42871   1.08067    0.038
 4175.00    1.07616   1.15162    0.038
 4176.00    0.27253   1.18866    0.037
 4177.00    0.12192   1.17346    0.036
 4178.00    0.54776   1.15974    0.037
 4179.00    0.98737   1.21125    0.037
 4180.00    1.43770   1.26187    0.037
 4181.00    1.60405   1.23659    0.036
 4182.00    1.57621   1.18891    0.036
 4183.00    1.63632   1.19912    0.036
 4184.00    1.74915   1.24389    0.036
 4185.00    1.59599   1.28720    0.036
 4186.00    1.30372   1.25315    0.036
 4187.00    1.20544   1.15060    0.035
 4188.00    1.19515   1.14062    0.035
 4189.00    1.31822   1.22200    0.034
 4190.00    1.49334   1.25325    0.034
 4191.00    1.68496   1.21852    0.034
 4192.00    1.88207   1.24143    0.034
 4193.00    1.80408   1.32865    0.034
 4194.00    1.64942   1.33671    0.034
 4195.00    1.59969   1.24593    0.034
 4196.00    1.57404   1.17146    0.034
 4197.00    1.57452   1.13868    0.034
 4198.00    1.57980   1.09275    0.034
 4199.00    1.40239   1.08564    0.034
 4200.00    1.19915   1.12815    0.034
 4201.00    1.22904   1.12091    0.034
 4202.00    1.28270   1.09825    0.033
 4203.00    1.38033   1.14369    0.033
 4204.00    1.48083   1.18885    0.033
 4205.00    1.39388   1.20175    0.032
 4206.00    1.30084   1.23845    0.032
 4207.00    0.99045   1.29020    0.032
 4208.00    0.70669   1.32884    0.032
 4209.00    1.20528   1.31808    0.033
 4210.00    1.68626   1.27743    0.033
 4211.00    1.91068   1.28295    0.033
 4212.00    2.03542   1.31956    0.033
 4213.00    1.21762   1.31617    0.033
 4214.00    0.50861   1.25405    0.032
 4215.00    0.54748   1.14704    0.032
 4216.00    0.67273   1.10879    0.033
 4217.00    1.25698   1.20794    0.033
 4218.00    1.71441   1.31091    0.034
 4219.00    1.63017   1.34700    0.034
 4220.00    1.53444   1.37327    0.034
 4221.00    1.39819   1.38584    0.033
 4222.00    1.31167   1.32690    0.033
 4223.00    1.37237   1.22554    0.034
 4224.00    1.30778   1.12106    0.034
 4225.00    0.92700   0.97644    0.033
 4226.00    0.74485   0.79387    0.033
 4227.00    0.99430   0.75068    0.033
 4228.00    1.17805   0.95133    0.033
 4229.00    1.23793   1.17452    0.033
 4230.00    1.31640   1.27589    0.033
 4231.00    1.42546   1.31832    0.033
 4232.00    1.49716   1.28887    0.033
 4233.00    1.51492   1.21823    0.032
 4234.00    1.38054   1.21291    0.032
 4235.00    1.05299   1.20319    0.031
 4236.00    0.96554   1.13837    0.031
 4237.00    1.14673   1.13938    0.031
 4238.00    1.30202   1.18498    0.031
 4239.00    1.43175   1.19816    0.031
 4240.00    1.42589   1.22099    0.031
 4241.00    1.30201   1.28086    0.031
 4242.00    1.31001   1.29314    0.031
 4243.00    1.41911   1.28241    0.031
 4244.00    1.52424   1.34457    0.031
 4245.00    1.62668   1.38906    0.032
 4246.00    1.48091   1.33315    0.033
 4247.00    1.18858   1.23363    0.033
 4248.00    0.86140   1.17475    0.033
 4249.00    0.51628   1.15083    0.033
 4250.00    0.57959   1.10962    0.033
 4251.00    0.82513   1.13347    0.033
 4252.00    0.99656   1.22979    0.033
 4253.00    1.13958   1.23898    0.033
 4254.00    1.32531   1.14875    0.032
 4255.00    1.52494   1.11465    0.032
 4256.00    1.18081   1.20775    0.032
 4257.00    0.68824   1.31523    0.032
 4258.00    1.06297   1.28087    0.032
 4259.00    1.63205   1.16105    0.033
 4260.00    1.52818   1.06306    0.033
 4261.00    1.30396   1.06027    0.032
 4262.00    1.09449   1.18032    0.032
 4263.00    0.88703   1.30494    0.033
 4264.00    0.89647   1.35087    0.032
 4265.00    0.92709   1.37170    0.031
 4266.00    0.80037   1.38660    0.031
 4267.00    0.66404   1.33164    0.031
 4268.00    0.99957   1.26263    0.031
 4269.00    1.34708   1.22495    0.030
 4270.00    1.54648   1.13858    0.031
 4271.00    1.72605   0.99049    0.031
 4272.00    1.38181   0.93807    0.031
 4273.00    1.05182   1.00642    0.031
 4274.00    0.91774   1.02884    0.030
 4275.00    0.78437   1.04162    0.030
 4276.00    0.65750   1.15219    0.030
 4277.00    0.58085   1.28061    0.030
 4278.00    0.83873   1.34101    0.031
 4279.00    1.03310   1.29479    0.031
 4280.00    0.89871   1.18324    0.030
 4281.00    0.80624   1.15399    0.030
 4282.00    0.88873   1.19351   -2.000
 4283.00    1.11967   1.23577   -2.000
 4284.00    1.86312   1.24983   -2.000
 4285.00    2.38353   1.18446   -2.000
 4286.00    2.25562   1.12652   -2.000
 4287.00    1.92170   1.14371   -2.000
 4288.00    1.07681   1.13612   -2.000
 4289.00    0.49570   1.03294   -2.000
 4290.00    0.47850   0.95365   -2.000
 4291.00    0.65396   1.00363   -2.000
 4292.00    1.18714   1.13113   -2.000
 4293.00    1.54829   1.21606   -2.000
 4294.00    1.63047   1.18688   -2.000
 4295.00    1.62643   1.14886   -2.000
 4296.00    1.49971   1.13992   -2.000
 4297.00    1.40614   1.08923   -2.000
 4298.00    1.35404   0.99821    0.032
 4299.00    1.33896   0.87134    0.032
 4300.00    1.36469   0.80343    0.032
 4301.00    1.28695   0.84874    0.031
 4302.00    1.10854   0.88389    0.031
 4303.00    1.07138   0.88630    0.031
 4304.00    1.15540   0.91710    0.031
 4305.00    1.25870   0.93233    0.031
 4306.00    1.37656   0.91316    0.031
 4307.00    1.42122   0.85162    0.031
 4308.00    1.41727   0.76986    0.031
 4309.00    1.16098   0.76833    0.031
 4310.00    0.75795   0.83815    0.031
 4311.00    0.69451   0.91018    0.031
 4312.00    0.80319   0.97881    0.030
 4313.00    0.85303   1.04799    0.030
 4314.00    0.87705   1.10484    0.029
 4315.00    1.04483   1.21702    0.030
 4316.00    1.26675   1.40931    0.030
 4317.00    1.32088   1.52278    0.030
 4318.00    1.32136   1.51636    0.031
 4319.00    1.44652   1.48609    0.031
 4320.00    1.60501   1.45177    0.031
 4321.00    1.37109   1.39778    0.031
 4322.00    1.05130   1.34490    0.032
 4323.00    0.98748   1.22245    0.032
 4324.00    0.96819   1.05578    0.031
 4325.00    1.01425   0.93569    0.031
 4326.00    1.06895   0.95296    0.031
 4327.00    1.18849   1.14306    0.031
 4328.00    1.31409   1.35067    0.032
 4329.00    1.17852   1.42886    0.031
 4330.00    1.02802   1.39202    0.000
 4331.00    1.21112   1.36832    0.000
 4332.00    1.40016   1.40132    0.000
 4333.00    1.38029   1.42162    0.000
 4334.00    1.36049   1.43244    0.000
 4335.00    1.34213   1.46266    0.000
 4336.00    1.34639   1.41995    0.000
 4337.00    1.64505   1.24499    0.000
 4338.00    1.83293   1.08739    0.000
 4339.00    1.05297   0.99546    0.000
 4340.00    0.38930   0.90420    0.000
 4341.00    0.47677   0.94055    0.000
 4342.00    0.59227   1.12224    0.000
 4343.00    0.84926   1.23441    0.000
 4344.00    1.10118   1.26118    0.000
 4345.00    1.33242   1.32367    0.000
 4346.00    1.48571   1.36096    0.000
 4347.00    1.37531   1.34752    0.000
 4348.00    1.28777   1.38169    0.000
 4349.00    1.26549   1.45708    0.000
 4350.00    1.27165   1.41337    0.000
 4351.00    1.34716   1.21651    0.030
 4352.00    1.41982   1.08686    0.030
 4353.00    1.48647   1.15920    0.030
 4354.00    1.57647   1.27028    0.030
 4355.00    1.70917   1.30414    0.030
 4356.00    1.59290   1.34717    0.031
 4357.00    1.07883   1.40238    0.030
 4358.00    0.85026   1.36967    0.030
 4359.00    1.02196   1.28732    0.030
 4360.00    1.16932   1.29897    0.030
 4361.00    1.28665   1.38975    0.030
 4362.00    1.40872   1.43432    0.030
 4363.00    1.53596   1.41649    0.029
 4364.00    1.61980   1.43839    0.029
 4365.00    1.66201   1.49136    0.029
 4366.00    1.52003   1.45648    0.029
 4367.00    1.22226   1.35024    0.028
 4368.00    1.00058   1.30075    0.029
 4369.00    0.83558   1.32663    0.029
 4370.00    0.73799   1.33784    0.029
 4371.00    0.68451   1.33483    0.029
 4372.00    0.78079   1.34401    0.029
 4373.00    0.96283   1.29948    0.029
 4374.00    1.05968   1.19609    0.029
 4375.00    1.11404   1.13739    0.029
 4376.00    1.19189   1.19798    0.029
 4377.00    1.27987   1.32426    0.029
 4378.00    1.08420   1.40117    0.028
 4379.00    0.78356   1.39241    0.028
 4380.00    0.74502   1.35958    0.028
 4381.00    0.78868   1.33400    0.028
 4382.00    0.87304   1.20885    0.028
 4383.00    0.96805   0.96612    0.028
 4384.00    0.93657   0.84299    0.028
 4385.00    0.87806   0.96260    0.028
 4386.00    0.88983   1.17088    0.027
 4387.00    0.91348   1.27546    0.027
 4388.00    0.97309   1.27633    0.027
 4389.00    1.03731   1.25108    0.028
 4390.00    1.31252   1.22197    0.028
 4391.00    1.60656   1.23104    0.028
 4392.00    1.63151   1.29819    0.028
 4393.00    1.64213   1.33480    0.028
 4394.00    1.61068   1.28475    0.028
 4395.00    1.57817   1.24048    0.028
 4396.00    1.52582   1.30853    0.028
 4397.00    1.47253   1.41670    0.028
 4398.00    1.39863   1.43228    0.028
 4399.00    1.32202   1.35822    0.028
 4400.00    1.21194   1.25933    0.028
 4401.00    1.09621   1.24881    0.028
 4402.00    0.93291   1.35023    0.028
 4403.00    0.81376   1.34878    0.028
 4404.00    0.97129   1.17217    0.028
 4405.00    1.08778   1.07597    0.028
 4406.00    1.00243   1.17327    0.028
 4407.00    0.94064   1.24456    0.028
 4408.00    0.97289   1.21395    0.028
 4409.00    1.02946   1.24212    0.028
 4410.00    1.16667   1.36038    0.027
 4411.00    1.25347   1.44712    0.027
 4412.00    1.19904   1.48373    0.027
 4413.00    1.11608   1.47912    0.027
 4414.00    0.96477   1.36251    0.027
 4415.00    0.94944   1.21617    0.027
 4416.00    1.21552   1.21111    0.028
 4417.00    1.36939   1.29012    0.028
 4418.00    1.32124   1.36977    0.028
 4419.00    1.22459   1.45497    0.028
 4420.00    1.05160   1.48565    0.028
 4421.00    0.94593   1.42804    0.028
 4422.00    0.93329   1.34520    0.027
 4423.00    0.93478   1.32725    0.027
 4424.00    0.95347   1.37074    0.028
 4425.00    1.01143   1.38346    0.028
 4426.00    1.11150   1.35855    0.028
 4427.00    1.25983   1.34525    0.028
 4428.00    1.45381   1.37624    0.028
 4429.00    1.46596   1.38631    0.028
 4430.00    1.32647   1.33343    0.028
 4431.00    1.19901   1.34164    0.028
 4432.00    1.08038   1.40393    0.028
 4433.00    1.07206   1.38475    0.028
 4434.00    1.13484   1.28141    0.028
 4435.00    1.19063   1.19626    0.029
 4436.00    1.24246   1.23276    0.029
 4437.00    1.27132   1.36597    0.029
 4438.00    1.28891   1.47776    0.028
 4439.00    1.39562   1.52232    0.028
 4440.00    1.54016   1.48617    0.029
 4441.00    1.43091   1.39139    0.029
 4442.00    1.22942   1.29435    0.029
 4443.00    1.23074   1.25310    0.029
 4444.00    1.29443   1.30487    0.029
 4445.00    1.18882   1.42075    0.029
 4446.00    1.03986   1.48388    0.029
 4447.00    1.09302   1.46067    0.029
 4448.00    1.18831   1.45817    0.029
 4449.00    1.23011   1.46446    0.029
 4450.00    1.26311   1.42123    0.029
 4451.00    1.32138   1.41025    0.028
 4452.00    1.38277   1.43707    0.027
 4453.00    1.41930   1.40662    0.028
 4454.00    1.45371   1.30206    0.028
 4455.00    1.28290   1.21036    0.028
 4456.00    1.10195   1.22520    0.027
 4457.00    0.91431   1.28433    0.027
 4458.00    0.73488   1.29406    0.026
 4459.00    1.07707   1.27288    0.027
 4460.00    1.39526   1.26468    0.028
 4461.00    1.22723   1.23360    0.000
 4462.00    1.06216   1.22577    0.000
 4463.00    0.93172   1.31836    0.000
 4464.00    0.84036   1.39777    0.000
 4465.00    1.06582   1.39888    0.000
 4466.00    1.25520   1.38688    0.000
 4467.00    1.22492   1.38566    0.000
 4468.00    1.19209   1.36601    0.000
 4469.00    1.14694   1.32587    0.000
 4470.00    1.13583   1.33058    0.000
 4471.00    1.25762   1.37910    0.000
 4472.00    1.36497   1.43413    0.000
 4473.00    1.42541   1.49498    0.000
 4474.00    1.47650   1.53175    0.000
 4475.00    1.50187   1.51492    0.000
 4476.00    1.50786   1.51192    0.000
 4477.00    1.46816   1.56097    0.000
 4478.00    1.43841   1.57859    0.000
 4479.00    1.42892   1.50882    0.000
 4480.00    1.45147   1.40054    0.000
 4481.00    1.53081   1.32418    0.000
 4482.00    1.64589   1.31428    0.027
 4483.00    1.81638   1.39003    0.027
 4484.00    1.73859   1.48951    0.027
 4485.00    1.32265   1.54560    0.027
 4486.00    1.12534   1.56538    0.027
 4487.00    1.19019   1.54370    0.028
 4488.00    1.25999   1.46598    0.028
 4489.00    1.33502   1.37640    0.027
 4490.00    1.38194   1.35741    0.027
 4491.00    1.40265   1.42277    0.028
 4492.00    1.34299   1.49561    0.027
 4493.00    1.21724   1.49166    0.027
 4494.00    1.14062   1.40918    0.027
 4495.00    1.09955   1.34599    0.026
 4496.00    1.23232   1.34694    0.027
 4497.00    1.47552   1.40077    0.027
 4498.00    1.48994   1.47968    0.027
 4499.00    1.37727   1.52749    0.027
 4500.00    1.26966   1.51352    0.027
 4501.00    1.16448   1.45495    0.027
 4502.00    1.12343   1.46567    0.027
 4503.00    1.10914   1.56827    0.027
 4504.00    1.41449   1.63652    0.027
 4505.00    1.83390   1.63179    0.027
 4506.00    1.90081   1.59508    0.027
 4507.00    1.86144   1.55863    0.027
 4508.00    1.52826   1.54565    0.027
 4509.00    1.12150   1.56029    0.026
 4510.00    1.26981   1.58613    0.026
 4511.00    1.53095   1.58355    0.026
 4512.00    1.64954   1.53901    0.026
 4513.00    1.74540   1.49443    0.027
 4514.00    1.61992   1.47294    0.026
 4515.00    1.46814   1.47537    0.026
 4516.00    1.31395   1.49731    0.026
 4517.00    1.15957   1.48009    0.026
 4518.00    1.41728   1.44235    0.026
 4519.00    1.69374   1.46579    0.027
 4520.00    1.38302   1.52537    0.026
 4521.00    1.07506   1.55644    0.026
 4522.00    1.27537   1.50083    0.026
 4523.00    1.45584   1.43120    0.026
 4524.00    1.26410   1.43062    0.026
 4525.00    1.10727   1.42033    0.026
 4526.00    1.34165   1.36356    0.026
 4527.00    1.53193   1.30044    0.026
 4528.00    1.37713   1.25729    0.026
 4529.00    1.23477   1.25522    0.026
 4530.00    1.16596   1.28905    0.026
 4531.00    1.14271   1.33104    0.026
 4532.00    1.33268   1.38181    0.026
 4533.00    1.47093   1.36196    0.026
 4534.00    1.41150   1.28224    0.026
 4535.00    1.32213   1.23486    0.026
 4536.00    1.13728   1.30093    0.026
 4537.00    1.07180   1.46283    0.026
 4538.00    1.32890   1.55057    0.026
 4539.00    1.50625   1.52423    0.026
 4540.00    1.49881   1.46206    0.026
 4541.00    1.50950   1.42750    0.026
 4542.00    1.55656   1.45922    0.026
 4543.00    1.59016   1.49609    0.026
 4544.00    1.60027   1.45863    0.026
 4545.00    1.47314   1.40870    0.025
 4546.00    1.13628   1.42426    0.026
 4547.00    1.04405   1.45169    0.026
 4548.00    1.28020   1.42582    0.026
 4549.00    1.39557   1.35841    0.026
 4550.00    1.36817   1.36013    0.000
 4551.00    1.32140   1.43043    0.000
 4552.00    1.25445   1.43926    0.000
 4553.00    1.24998   1.39404    0.000
 4554.00    1.30295   1.34770    0.000
 4555.00    1.36581   1.33812    0.000
 4556.00    1.43670   1.39643    0.000
 4557.00    1.36120   1.49095    0.000
 4558.00    1.18130   1.54521    0.000
 4559.00    1.10606   1.55009    0.000
 4560.00    1.09630   1.53883    0.000
 4561.00    1.06858   1.54206    0.000
 4562.00    1.03102   1.53932    0.000
 4563.00    1.14460   1.48050    0.000
 4564.00    1.33004   1.41016    0.000
 4565.00    1.35141   1.38972    0.000
 4566.00    1.30550   1.43518    0.000
 4567.00    1.23791   1.52200    0.000
 4568.00    1.16273   1.56762    0.000
 4569.00    1.11884   1.56554    0.000
 4570.00    1.08418   1.52332    0.000
 4571.00    1.16177   1.42417    0.000
 4572.00    1.26686   1.40143    0.000
 4573.00    1.35700   1.49971    0.000
 4574.00    1.44418   1.55526    0.000
 4575.00    1.39887   1.53464    0.000
 4576.00    1.33305   1.52918    0.000
 4577.00    1.39958   1.53289    0.000
 4578.00    1.48126   1.50708    0.000
 4579.00    1.31433   1.44312    0.000
 4580.00    1.12832   1.37892    0.000
 4581.00    1.32617   1.36734    0.000
 4582.00    1.54000   1.41072    0.000
 4583.00    1.35964   1.43849    0.000
 4584.00    1.17957   1.43160    0.000
 4585.00    1.15923   1.41896    0.000
 4586.00    1.14494   1.41064    0.000
 4587.00    1.23634   1.45304    0.000
 4588.00    1.33274   1.52005    0.000
 4589.00    1.48263   1.54845    0.000
 4590.00    1.61050   1.52823    0.000
 4591.00    1.57200   1.47609    0.000
 4592.00    1.52681   1.42754    0.000
 4593.00    1.44318   1.42102    0.000
 4594.00    1.35008   1.42860    0.000
 4595.00    1.21372   1.42706    0.000
 4596.00    1.11256   1.43958    0.000
 4597.00    1.14313   1.45344    0.000
 4598.00    1.16059   1.46485    0.000
 4599.00    1.13708   1.47664    0.000
 4600.00    1.12122   1.44300    0.000
 4601.00    1.12566   1.41672    0.000
 4602.00    1.17929   1.43887    0.000
 4603.00    1.34501   1.45934    0.000
 4604.00    1.40661   1.46663    0.000
 4605.00    1.26283   1.45660    0.000
 4606.00    1.21669   1.45398    0.000
 4607.00    1.33844   1.48362    0.000
 4608.00    1.40059   1.54908    0.000
 4609.00    1.37300   1.60192    0.000
 4610.00    1.27287   1.59291    0.000
 4611.00    1.07679   1.54828    0.000
 4612.00    1.14444   1.51824    0.000
 4613.00    1.51946   1.49860    0.000
 4614.00    1.68196   1.51246    0.000
 4615.00    1.62606   1.54104    0.000
 4616.00    1.59640   1.52939    0.000
 4617.00    1.59053   1.53377    0.000
 4618.00    1.52715   1.53896    0.000
 4619.00    1.41782   1.50405    0.000
 4620.00    1.39514   1.50691    0.000
 4621.00    1.43335   1.55479    0.000
 4622.00    1.44906   1.56284    0.000
 4623.00    1.45090   1.55155    0.000
 4624.00    1.40444   1.55262    0.000
 4625.00    1.33198   1.53414    0.000
 4626.00    1.35454   1.51697    0.000
 4627.00    1.42154   1.53001    0.000
 4628.00    1.44534   1.52694    0.000
 4629.00    1.45173   1.48924    0.000
 4630.00    1.38517   1.49650    0.000
 4631.00    1.29352   1.55302    0.000
 4632.00    1.25964   1.55362    0.000
 4633.00    1.24250   1.49655    0.000
 4634.00    1.34219   1.47361    0.000
 4635.00    1.46986   1.48268    0.000
 4636.00    1.52040   1.48099    0.000
 4637.00    1.55605   1.45332    0.000
 4638.00    1.44867   1.42642    0.000
 4639.00    1.31982   1.41444    0.000
 4640.00    1.24291   1.41987    0.000
 4641.00    1.17172   1.47480    0.000
 4642.00    1.28474   1.52233    0.000
 4643.00    1.41116   1.51350    0.000
 4644.00    1.41379   1.48546    0.000
 4645.00    1.41174   1.44316    0.000
 4646.00    1.39665   1.36898    0.000
 4647.00    1.37958   1.32903    0.000
 4648.00    1.29169   1.35494    0.000
 4649.00    1.21087   1.40926    0.000
 4650.00    1.24555   1.45917    0.000
 4651.00    1.27713   1.47764    0.000
 4652.00    1.27706   1.48572    0.000
 4653.00    1.26813   1.49233    0.000
 4654.00    1.19441   1.44610    0.000
 4655.00    1.14491   1.39113    0.000
 4656.00    1.23084   1.38314    0.000
 4657.00    1.30627   1.42514    0.000
 4658.00    1.33485   1.51548    0.000
 4659.00    1.36780   1.59310    0.000
 4660.00    1.41674   1.61282    0.000
 4661.00    1.44072   1.57512    0.000
 4662.00    1.38812   1.51119    0.000
 4663.00    1.30654   1.46409    0.000
 4664.00    1.14937   1.46010    0.000
 4665.00    1.07363   1.46344    0.000
 4666.00    1.18037   1.39205    0.000
 4667.00    1.26050   1.27231    0.000
 4668.00    1.28893   1.23757    0.000
 4669.00    1.29206   1.30617    0.000
 4670.00    1.25235   1.39555    0.000
 4671.00    1.24926   1.46384    0.000
 4672.00    1.30054   1.48226    0.000
 4673.00    1.35227   1.46148    0.000
 4674.00    1.40461   1.44654    0.000
 4675.00    1.40215   1.46342    0.000
 4676.00    1.33672   1.51178    0.000
 4677.00    1.35036   1.52980    0.000
 4678.00    1.44411   1.48715    0.000
 4679.00    1.43305   1.43473    0.000
 4680.00    1.32829   1.40084    0.000
 4681.00    1.39284   1.38151    0.000
 4682.00    1.59074   1.38905    0.000
 4683.00    1.51660   1.43849    0.000
 4684.00    1.25403   1.48052    0.000
 4685.00    1.24099   1.48428    0.000
 4686.00    1.37952   1.47629    0.000
 4687.00    1.41902   1.45959    0.000
 4688.00    1.40602   1.45237    0.000
 4689.00    1.46137   1.46567    0.000
 4690.00    1.54818   1.45896    0.000
 4691.00    1.39498   1.43497    0.000
 4692.00    1.14669   1.44616    0.000
 4693.00    1.05474   1.47876    0.000
 4694.00    1.01558   1.50426    0.000
 4695.00    1.15099   1.53372    0.000
 4696.00    1.33594   1.55369    0.000
 4697.00    1.37534   1.52282    0.000
 4698.00    1.38067   1.44264    0.000
 4699.00    1.16543   1.39724    0.000
 4700.00    0.90868   1.41964    0.000
 4701.00    0.93076   1.43018    0.000
 4702.00    0.99339   1.39296    0.000
 4703.00    1.17178   1.35699    0.000
 4704.00    1.36241   1.39047    0.000
 4705.00    1.39431   1.44936    0.000
 4706.00    1.41532   1.44962    0.000
 4707.00    1.41451   1.39934    0.000
 4708.00    1.41295   1.36168    0.000
 4709.00    1.26594   1.35449    0.000
 4710.00    1.12629   1.39210    0.000
 4711.00    1.23336   1.46831    0.000
 4712.00    1.32947   1.50718    0.000
 4713.00    1.25723   1.48041    0.000
 4714.00    1.18782   1.42056    0.000
 4715.00    1.14614   1.39988    0.000
 4716.00    1.11629   1.45463    0.000
 4717.00    1.17010   1.51042    0.000
 4718.00    1.18981   1.52483    0.000
 4719.00    1.02406   1.53744    0.000
 4720.00    0.93493   1.55157    0.000
 4721.00    1.17974   1.54465    0.000
 4722.00    1.38596   1.51393    0.000
 4723.00    1.45378   1.50551    0.000
 4724.00    1.44767   1.53903    0.000
 4725.00    1.21905   1.56728    0.000
 4726.00    1.03854   1.53763    0.000
 4727.00    0.98134   1.44303    0.000
 4728.00    0.98168   1.36834    0.000
 4729.00    1.10889   1.36837    0.000
 4730.00    1.17298   1.39181    0.000
 4731.00    1.11644   1.40437    0.000
 4732.00    1.12266   1.42935    0.000
 4733.00    1.23359   1.45259    0.000
 4734.00    1.30854   1.46826    0.000
 4735.00    1.33090   1.48673    0.000
 4736.00    1.34631   1.45416    0.000
 4737.00    1.35278   1.42327    0.000
 4738.00    1.37832   1.46867    0.000
 4739.00    1.42546   1.50585    0.000
 4740.00    1.46134   1.48065    0.000
 4741.00    1.48599   1.45299    0.000
 4742.00    1.38935   1.46457    0.000
 4743.00    1.18586   1.49871    0.000
 4744.00    1.07755   1.50746    0.000
 4745.00    1.04313   1.49115    0.000
 4746.00    1.16851   1.50513    0.000
 4747.00    1.40298   1.53188    0.000
 4748.00    1.42653   1.52740    0.000
 4749.00    1.32390   1.51754    0.000
 4750.00    1.23758   1.52643    0.000
 4751.00    1.15977   1.52751    0.000
 4752.00    1.18450   1.50257    0.000
 4753.00    1.25563   1.47512    0.000
 4754.00    1.27294   1.45674    0.000
 4755.00    1.26930   1.45294    0.000
 4756.00    1.20463   1.45015    0.000
 4757.00    1.11974   1.45003    0.000
 4758.00    1.24218   1.45494    0.000
 4759.00    1.42227   1.47238    0.000
 4760.00    1.45611   1.49411    0.000
 4761.00    1.45649   1.46572    0.023
 4762.00    1.34814   1.39657    0.023
 4763.00    1.21988   1.36112    0.023
 4764.00    1.25219   1.36222    0.023
 4765.00    1.30712   1.35285    0.022
 4766.00    1.30299   1.34623    0.022
 4767.00    1.29287   1.37445    0.022
 4768.00    1.30808   1.41542    0.022
 4769.00    1.32492   1.46049    0.022
 4770.00    1.25360   1.48628    0.022
 4771.00    1.17995   1.45526    0.022
 4772.00    1.27423   1.41635    0.022
 4773.00    1.35882   1.43252    0.022
 4774.00    1.16255   1.48881    0.022
 4775.00    0.98515   1.51530    0.022
 4776.00    1.08052   1.50202    0.022
 4777.00    1.17922   1.50269    0.022
 4778.00    1.30931   1.50483    0.022
 4779.00    1.42205   1.47922    0.022
 4780.00    1.41595   1.46141    0.022
 4781.00    1.41256   1.46515    0.022
 4782.00    1.42343   1.44958    0.021
 4783.00    1.41591   1.41346    0.021
 4784.00    1.33012   1.41872    0.021
 4785.00    1.25685   1.44249    0.021
 4786.00    1.22761   1.40797    0.021
 4787.00    1.18094   1.39010    0.022
 4788.00    1.08275   1.41013    0.021
 4789.00    1.04255   1.40146    0.021
 4790.00    1.14834   1.40664    0.021
 4791.00    1.23838   1.43474    0.022
 4792.00    1.29430   1.45292    0.022
 4793.00    1.32163   1.48730    0.022
 4794.00    1.29517   1.53720    0.021
 4795.00    1.31520   1.56092    0.021
 4796.00    1.41161   1.54374    0.022
 4797.00    1.38688   1.50563    0.022
 4798.00    1.18762   1.45738    0.022
 4799.00    1.12534   1.41870    0.021
 4800.00    1.23667   1.41944    0.022
 4801.00    1.23025   1.46250    0.022
 4802.00    1.09232   1.51439    0.022
 4803.00    1.11115   1.53037    0.022
 4804.00    1.28440   1.49563    0.022
 4805.00    1.37463   1.44797    0.022
 4806.00    1.39275   1.43771    0.022
 4807.00    1.35847   1.43445    0.022
 4808.00    1.28410   1.42363    0.022
 4809.00    1.27675   1.43966    0.021
 4810.00    1.31447   1.46231    0.021
 4811.00    1.33421   1.46584    0.021
 4812.00    1.34336   1.46638    0.022
 4813.00    1.37552   1.47189    0.022
 4814.00    1.41951   1.47907    0.022
 4815.00    1.43837   1.48574    0.022
 4816.00    1.44605   1.49767    0.022
 4817.00    1.21601   1.51439    0.021
 4818.00    0.89502   1.52316    0.021
 4819.00    1.01662   1.53001    0.021
 4820.00    1.28211   1.52396    0.021
 4821.00    1.38361   1.51394    0.021
 4822.00    1.44046   1.48519    0.021
 4823.00    1.45472   1.41025    0.021
 4824.00    1.45946   1.37641    0.021
 4825.00    1.38696   1.42874    0.021
 4826.00    1.30069   1.48146    0.021
 4827.00    1.20540   1.48166    0.021
 4828.00    1.10888   1.45213    0.021
 4829.00    1.07675   1.43814    0.021
 4830.00    1.05089   1.45016    0.021
 4831.00    1.12234   1.43154    0.021
 4832.00    1.19970   1.39448    0.021
 4833.00    1.13895   1.41494    0.021
 4834.00    1.07509   1.46420    0.021
 4835.00    1.10854   1.47703    0.021
 4836.00    1.14149   1.46492    0.021
 4837.00    1.16165   1.46905    0.021
 4838.00    1.18041   1.45807    0.021
 4839.00    1.18022   1.41431    0.021
 4840.00    1.19526   1.38500    0.021
 4841.00    1.34791   1.40616    0.021
 4842.00    1.47076   1.42795    0.020
 4843.00    1.39588   1.40976    0.020
 4844.00    1.32395   1.41728    0.021
 4845.00    1.26731   1.46775    0.020
 4846.00    1.21815   1.49455    0.020
 4847.00    1.20012   1.46954    0.021
 4848.00    1.21308   1.41223    0.000
 4849.00    1.33271   1.39573    0.000
 4850.00    1.43793   1.43649    0.000
 4851.00    1.50136   1.45448    0.000
 4852.00    1.49528   1.44785    0.000
 4853.00    1.31715   1.44661    0.000
 4854.00    1.17744   1.40115    0.000
 4855.00    1.11971   1.31737    0.000
 4856.00    1.07614   1.30558    0.000
 4857.00    1.05881   1.36534    0.000
 4858.00    1.06763   1.37137    0.000
 4859.00    1.11876   1.27783    0.000
 4860.00    1.12904   1.10941    0.000
 4861.00    1.08131   0.95954    0.000
 4862.00    1.05645   1.00057    0.000
 4863.00    1.06017   1.17190    0.000
 4864.00    1.01561   1.26787    0.000
 4865.00    0.91788   1.31000    0.000
 4866.00    0.93414   1.35532    0.000
 4867.00    1.06112   1.37798    0.000
 4868.00    1.13231   1.38268    0.000
 4869.00    1.15572   1.39319    0.000
 4870.00    1.09716   1.35215    0.000
 4871.00    0.97675   1.25477    0.000
 4872.00    0.87160   1.23127    0.000
 4873.00    0.77656   1.30938    0.000
 4874.00    0.81653   1.36989    0.000
 4875.00    0.93488   1.37076    0.020
 4876.00    1.06512   1.37773    0.020
 4877.00    1.20136   1.39696    0.020
 4878.00    1.19362   1.40664    0.020
 4879.00    1.12282   1.45296    0.020
 4880.00    1.17707   1.47391    0.020
 4881.00    1.27831   1.41148    0.020
 4882.00    1.26639   1.37489    0.020
 4883.00    1.21837   1.40428    0.020
 4884.00    1.15586   1.40768    0.020
 4885.00    1.08950   1.36216    0.020
 4886.00    1.08132   1.33033    0.020
 4887.00    1.08584   1.34608    0.020
 4888.00    1.06703   1.36735    0.020
 4889.00    1.04416   1.35482    0.020
 4890.00    1.00859   1.29671    0.020
 4891.00    0.97134   1.23952    0.020
 4892.00    1.07704   1.29987    0.020
 4893.00    1.19602   1.42539    0.020
 4894.00    1.17266   1.50599    0.020
 4895.00    1.14123   1.54839    0.020
 4896.00    1.14625   1.56026    0.021
 4897.00    1.15207   1.55612    0.021
 4898.00    1.15560   1.54307    0.021
 4899.00    1.16050   1.48843    0.020
 4900.00    1.19776   1.43574    0.020
 4901.00    1.23952   1.44884    0.020
 4902.00    1.33945   1.45914    0.020
 4903.00    1.41640   1.42246    0.020
 4904.00    1.29357   1.41470    0.020
 4905.00    1.19333   1.47079    0.020
 4906.00    1.23841   1.52609    0.020
 4907.00    1.27046   1.51897    0.020
 4908.00    1.23694   1.47174    0.020
 4909.00    1.21442   1.41083    0.021
 4910.00    1.23662   1.35629    0.020
 4911.00    1.24274   1.36064    0.020
 4912.00    1.19455   1.41110    0.020
 4913.00    1.18135   1.44238    0.021
 4914.00    1.26774   1.45935    0.021
 4915.00    1.30926   1.49665    0.020
 4916.00    1.24165   1.51654    0.021
 4917.00    1.22189   1.47083    0.021
 4918.00    1.30257   1.36093    0.020
 4919.00    1.31535   1.24251    0.020
 4920.00    1.20422   1.17648    0.021
 4921.00    1.11535   1.20917    0.021
 4922.00    1.06197   1.31447    0.021
 4923.00    1.08586   1.37561    0.021
 4924.00    1.21790   1.35926    0.021
 4925.00    1.27442   1.36006    0.021
 4926.00    1.23791   1.42073    0.021
 4927.00    1.21448   1.46979    0.021
 4928.00    1.20523   1.48861    0.021
 4929.00    1.23461   1.51425    0.021
 4930.00    1.30100   1.52356    0.021
 4931.00    1.32964   1.51982    0.021
 4932.00    1.32641   1.48663    0.020
 4933.00    1.27397   1.38924    0.020
 4934.00    1.18494   1.33140    0.020
 4935.00    1.23363   1.38898    0.021
 4936.00    1.37226   1.43795    0.021
 4937.00    1.24726   1.39469    0.020
 4938.00    0.97155   1.30798    0.020
 4939.00    1.03134   1.27526    0.020
 4940.00    1.25813   1.35004    0.000
 4941.00    1.29179   1.44644    0.000
 4942.00    1.24228   1.47502    0.000
 4943.00    1.27048   1.48943    0.000
 4944.00    1.32737   1.50828    0.000
 4945.00    1.33055   1.48497    0.000
 4946.00    1.31693   1.45447    0.000
 4947.00    1.28414   1.47478    0.000
 4948.00    1.24635   1.50917    0.000
 4949.00    1.27661   1.51951    0.000
 4950.00    1.32137   1.52352    0.000
 4951.00    1.32272   1.53259    0.000
 4952.00    1.31676   1.51737    0.000
 4953.00    1.27022   1.48795    0.000
 4954.00    1.21851   1.47379    0.000
 4955.00    1.23525   1.45692    0.000
 4956.00    1.25806   1.37488    0.000
 4957.00    1.19389   1.22041    0.000
 4958.00    1.12513   1.18711    0.000
 4959.00    1.18536   1.32716    0.000
 4960.00    1.24892   1.44468    0.000
 4961.00    1.38010   1.46171    0.000
 4962.00    1.50147   1.44546    0.000
 4963.00    1.40970   1.45096    0.000
 4964.00    1.32536   1.43994    0.000
 4965.00    1.33221   1.38686    0.000
 4966.00    1.33431   1.35218    0.000
 4967.00    1.29652   1.35571    0.000
 4968.00    1.26828   1.36221    0.000
 4969.00    1.29964   1.37214    0.000
 4970.00    1.33306   1.38139    0.000
 4971.00    1.37657   1.40010    0.000
 4972.00    1.41725   1.43056    0.000
 4973.00    1.44665   1.44942    0.000
 4974.00    1.44294   1.46814    0.000
 4975.00    1.32968   1.47005    0.000
 4976.00    1.24452   1.45159    0.000
 4977.00    1.23789   1.42899    0.000
 4978.00    1.22423   1.39050    0.000
 4979.00    1.19380   1.36706    0.000
 4980.00    1.14471   1.36323    0.000
 4981.00    1.05708   1.31694    0.000
 4982.00    1.07197   1.23108    0.000
 4983.00    1.27105   1.19313    0.000
 4984.00    1.35125   1.22857    0.000
 4985.00    1.24467   1.27804    0.000
 4986.00    1.12079   1.32952    0.000
 4987.00    0.97305   1.39092    0.000
 4988.00    0.92511   1.41502    0.000
 4989.00    0.99832   1.39248    0.000
 4990.00    1.06056   1.35840    0.000
 4991.00    1.11105   1.34432    0.000
 4992.00    1.16644   1.37731    0.000
 4993.00    1.22647   1.38998    0.000
 4994.00    1.20027   1.36964    0.000
 4995.00    1.10229   1.39134    0.000
 4996.00    1.07431   1.41459    0.000
 4997.00    1.09763   1.40933    0.000
 4998.00    1.17945   1.39124    0.000
 4999.00    1.29890   1.33661    0.000
 5000.00    1.29102   1.28888    0.000
 5001.00    1.21144   1.28751    0.000
 5002.00    1.15460   1.30694    0.000
 5003.00    1.10890   1.32844    0.000
 5004.00    1.12653   1.32840    0.000
 5005.00    1.17099   1.27675    0.000
 5006.00    1.08615   1.22052    0.000
 5007.00    0.95443   1.24560    0.000
 5008.00    1.04014   1.33382    0.000
 5009.00    1.19255   1.38267    0.000
 5010.00    1.25097   1.37281    0.000
 5011.00    1.28539   1.33285    0.000
 5012.00    1.16076   1.26518    0.000
 5013.00    1.00308   1.20623    0.000
 5014.00    1.02017   1.18147    0.000
 5015.00    1.06587   1.21870    0.000
 5016.00    1.01780   1.27747    0.000
 5017.00    0.95823   1.28183    0.000
 5018.00    1.01616   1.26297    0.000
 5019.00    1.08403   1.28699    0.000
 5020.00    1.15547   1.32642    0.000
 5021.00    1.22710   1.32424    0.000
 5022.00    1.15279   1.28437    0.000
 5023.00    1.07685   1.29073    0.000
 5024.00    1.03928   1.33966    0.000
 5025.00    1.00202   1.35991    0.000
 5026.00    0.97105   1.35083    0.000
 5027.00    0.95542   1.31133    0.000
 5028.00    1.11883   1.30220    0.000
 5029.00    1.25082   1.35250    0.019
 5030.00    1.12913   1.38462    0.019
 5031.00    1.06533   1.39595    0.019
 5032.00    1.35256   1.42620    0.019
 5033.00    1.55856   1.45603    0.019
 5034.00    1.37612   1.43748    0.019
 5035.00    1.20705   1.35081    0.020
 5036.00    1.09007   1.27958    0.020
 5037.00    1.02338   1.30029    0.020
 5038.00    1.11978   1.31657    0.020
 5039.00    1.18152   1.26213    0.020
 5040.00    1.14812   1.16748    0.020
 5041.00    1.12695   1.09797    0.020
 5042.00    1.13452   1.16227    0.020
 5043.00    1.18576   1.29631    0.020
 5044.00    1.32578   1.37541    0.019
 5045.00    1.38375   1.42588    0.019
 5046.00    1.29655   1.46408    0.019
 5047.00    1.25802   1.44599    0.019
 5048.00    1.29483   1.36660    0.019
 5049.00    1.29690   1.29677    0.019
 5050.00    1.25174   1.28125    0.019
 5051.00    1.19691   1.28881    0.019
 5052.00    1.13049   1.30427    0.019
 5053.00    1.11375   1.34998    0.019
 5054.00    1.14946   1.39660    0.019
 5055.00    1.19446   1.42137    0.019
 5056.00    1.24811   1.42320    0.019
 5057.00    1.20231   1.42245    0.019
 5058.00    1.07490   1.42908    0.019
 5059.00    1.08203   1.42367    0.019
 5060.00    1.18634   1.42323    0.019
 5061.00    1.13671   1.44461    0.019
 5062.00    0.98948   1.45454    0.018
 5063.00    0.99537   1.41887    0.019
 5064.00    1.08616   1.32444    0.019
 5065.00    1.14113   1.25931    0.019
 5066.00    1.17884   1.29561    0.019
 5067.00    1.16535   1.33229    0.019
 5068.00    1.13056   1.31844    0.019
 5069.00    1.14998   1.32363    0.019
 5070.00    1.18871   1.36466    0.019
 5071.00    1.19583   1.36035    0.019
 5072.00    1.19346   1.31297    0.019
 5073.00    1.08349   1.31944    0.019
 5074.00    0.94664   1.35498    0.018
 5075.00    0.98014   1.34728    0.018
 5076.00    1.04817   1.33208    0.019
 5077.00    1.04030   1.35047    0.018
 5078.00    1.02037   1.33289    0.018
 5079.00    0.96936   1.22744    0.018
 5080.00    0.91468   1.16159    0.018
 5081.00    1.00201   1.20513    0.018
 5082.00    1.10077   1.25776    0.018
 5083.00    1.13290   1.26146    0.017
 5084.00    1.16204   1.28067    0.017
 5085.00    1.12767   1.33117    0.017
 5086.00    1.09513   1.35860    0.017
 5087.00    1.19080   1.35118    0.017
 5088.00    1.27841   1.34720    0.017
 5089.00    1.21606   1.36092    0.017
 5090.00    1.16075   1.36610    0.018
 5091.00    1.18389   1.36595    0.018
 5092.00    1.19194   1.38596    0.018
 5093.00    1.08237   1.41651    0.018
 5094.00    0.99731   1.41842    0.018
 5095.00    1.05664   1.38395    0.018
 5096.00    1.11086   1.34385    0.018
 5097.00    1.14128   1.30920    0.018
 5098.00    1.15798   1.25880    0.018
 5099.00    1.12238   1.21672    0.018
 5100.00    1.10565   1.25458    0.018
 5101.00    1.14896   1.32895    0.018
 5102.00    1.19087   1.36031    0.018
 5103.00    1.22904   1.34970    0.018
 5104.00    1.22081   1.32952    0.018
 5105.00    1.10532   1.31569    0.018
 5106.00    1.01949   1.29734    0.018
 5107.00    0.99299   1.26042    0.018
 5108.00    0.99061   1.25270    0.018
 5109.00    1.03025   1.26831    0.018
 5110.00    1.03674   1.25922    0.018
 5111.00    0.99269   1.28036    0.018
 5112.00    1.02720   1.32517    0.019
 5113.00    1.16699   1.33956    0.019
 5114.00    1.19809   1.35124    0.019
 5115.00    1.10095   1.36234    0.019
 5116.00    1.07915   1.37178    0.019
 5117.00    1.13575   1.39714    0.019
 5118.00    1.15661   1.41009    0.019
 5119.00    1.14468   1.39282    0.019
 5120.00    1.21240   1.36231    0.019
 5121.00    1.34456   1.33261    0.019
 5122.00    1.37138   1.29920    0.019
 5123.00    1.32321   1.24113    0.019
 5124.00    1.20957   1.20116    0.019
 5125.00    1.05503   1.22139    0.018
 5126.00    1.01046   1.24992    0.018
 5127.00    1.02592   1.25099    0.019
 5128.00    0.97862   1.24228    0.019
 5129.00    0.90154   1.23332    0.018
 5130.00    1.03578   1.24035    0.019
 5131.00    1.25649   1.27534    0.019
 5132.00    1.16903   1.30528    0.019
 5133.00    0.97382   1.30981    0.019
 5134.00    0.93516   1.32152    0.018
 5135.00    0.94265   1.35657    0.018
 5136.00    0.99246   1.34805    0.018
 5137.00    1.05260   1.29852    0.018
 5138.00    1.07911   1.25918    0.018
 5139.00    1.09897   1.22306    0.018
 5140.00    1.15994   1.25119    0.018
 5141.00    1.22725   1.29168    0.019
 5142.00    1.23844   1.24019    0.019
 5143.00    1.24323   1.21342    0.018
 5144.00    1.19708   1.26582    0.018
 5145.00    1.14704   1.28073    0.018
 5146.00    1.02673   1.24927    0.018
 5147.00    0.90353   1.23154    0.018
 5148.00    0.99004   1.24647    0.018
 5149.00    1.07617   1.28206    0.018
 5150.00    1.07394   1.27713    0.018
 5151.00    1.07126   1.23377    0.018
 5152.00    1.06079   1.20984    0.018
 5153.00    1.05445   1.20925    0.018
 5154.00    1.09215   1.21953    0.018
 5155.00    1.13061   1.25611    0.018
 5156.00    1.17478   1.30849    0.018
 5157.00    1.20306   1.35450    0.018
 5158.00    1.14034   1.37474    0.018
 5159.00    1.10782   1.36661    0.018
 5160.00    1.21280   1.36984    0.018
 5161.00    1.26437   1.36962    0.018
 5162.00    1.11658   1.33269    0.018
 5163.00    1.00106   1.31064    0.018
 5164.00    0.98625   1.29634    0.018
 5165.00    0.97063   1.21413    0.018
 5166.00    0.95288   1.06470    0.018
 5167.00    0.93780   0.92096    0.018
 5168.00    0.92883   0.89600    0.018
 5169.00    0.94677   1.00341    0.018
 5170.00    1.01771   1.11346    0.018
 5171.00    1.01831   1.06587    0.018
 5172.00    0.89817   0.89746    0.018
 5173.00    0.82984   0.85682    0.018
 5174.00    0.83939   1.02289    0.018
 5175.00    0.86338   1.19789    0.018
 5176.00    0.90646   1.26071    0.018
 5177.00    0.95181   1.27718    0.018
 5178.00    0.99979   1.29113    0.017
 5179.00    1.05945   1.28556    0.017
 5180.00    1.13109   1.26064    0.017
 5181.00    1.11290   1.20632    0.017
 5182.00    1.01343   1.07703    0.017
 5183.00    0.93239   0.89055    0.017
 5184.00    0.86602   0.84900    0.017
 5185.00    0.84609   1.02459    0.018
 5186.00    0.85873   1.21168    0.018
 5187.00    0.89903   1.28585    0.018
 5188.00    0.95636   1.27878    0.018
 5189.00    0.94898   1.29078    0.018
 5190.00    0.90682   1.32411    0.000
 5191.00    0.95498   1.26093    0.000
 5192.00    1.04529   1.15447    0.000
 5193.00    1.04899   1.15820    0.000
 5194.00    1.01786   1.22013    0.000
 5195.00    1.05395   1.23136    0.000
 5196.00    1.11312   1.24489    0.000
 5197.00    1.09228   1.28494    0.000
 5198.00    1.04833   1.31069    0.000
 5199.00    1.02428   1.33247    0.000
 5200.00    1.00498   1.34773    0.000
 5201.00    1.12538   1.33693    0.000
 5202.00    1.27269   1.31317    0.000
 5203.00    1.21444   1.29123    0.000
 5204.00    1.12547   1.23239    0.000
 5205.00    0.94900   1.14866    0.000
 5206.00    0.76294   1.12666    0.000
 5207.00    0.82322   1.14617    0.000
 5208.00    0.90129   1.11936    0.000
 5209.00    0.96509   1.11247    0.000
 5210.00    1.02837   1.16566    0.000
 5211.00    1.04281   1.23940    0.018
 5212.00    1.05912   1.32109    0.018
 5213.00    1.15149   1.37529    0.018
 5214.00    1.23586   1.37220    0.018
 5215.00    1.19056   1.31343    0.018
 5216.00    1.15227   1.26507    0.018
 5217.00    1.18518   1.27470    0.018
 5218.00    1.21514   1.32347    0.018
 5219.00    1.22355   1.36396    0.018
 5220.00    1.22311   1.38115    0.018
 5221.00    1.17336   1.39667    0.018
 5222.00    1.13488   1.39474    0.018
 5223.00    1.14648   1.35685    0.018
 5224.00    1.14483   1.28774    0.018
 5225.00    1.09473   1.20551    0.017
 5226.00    1.05674   1.12212    0.017
 5227.00    1.05581   1.09523    0.017
 5228.00    1.05913   1.19531    0.017
 5229.00    1.07349   1.31057    0.017
 5230.00    1.05458   1.35382    0.017
 5231.00    0.96126   1.37168    0.017
 5232.00    0.95064   1.33740    0.017
 5233.00    1.10032   1.26834    0.017
 5234.00    1.19326   1.25326    0.017
 5235.00    1.19030   1.28712    0.017
 5236.00    1.20005   1.34438    0.017
 5237.00    1.22862   1.39124    0.017
 5238.00    1.22066   1.40124    0.017
 5239.00    1.16514   1.38771    0.017
 5240.00    1.14553   1.38060    0.017
 5241.00    1.16713   1.38888    0.017
 5242.00    1.17792   1.38462    0.017
 5243.00    1.17778   1.37728    0.017
 5244.00    1.17830   1.40300    0.017
 5245.00    1.17941   1.41828    0.018
 5246.00    1.14278   1.35385    0.018
 5247.00    1.07649   1.26757    0.018
 5248.00    1.12845   1.26811    0.018
 5249.00    1.26219   1.29291    0.018
 5250.00    1.25464   1.25901    0.018
 5251.00    1.16146   1.24839    0.018
 5252.00    1.08796   1.29034    0.018
 5253.00    1.02489   1.32214    0.018
 5254.00    0.99746   1.30886    0.018
 5255.00    0.98639   1.27788    0.018
 5256.00    1.06221   1.31526    0.018
 5257.00    1.17237   1.39344    0.018
 5258.00    1.17046   1.43422    0.018
 5259.00    1.13079   1.43065    0.018
 5260.00    1.13606   1.39627    0.018
 5261.00    1.15404   1.33240    0.019
 5262.00    1.14088   1.24908    0.019
 5263.00    1.12046   1.18005    0.019
 5264.00    1.05312   1.13665    0.019
 5265.00    0.97697   1.10467    0.019
 5266.00    0.93568   1.10569    0.019
 5267.00    0.89945   1.18386    0.019
 5268.00    0.95577   1.20835    0.019
 5269.00    1.02183   1.08031    0.019
 5270.00    1.07128   1.00638    0.019
 5271.00    1.11960   1.12710    0.019
 5272.00    1.06291   1.25898    0.019
 5273.00    1.00270   1.28482    0.019
 5274.00    0.91677   1.27707    0.018
 5275.00    0.84218   1.25861    0.018
 5276.00    1.13171   1.26977    0.018
 5277.00    1.39565   1.35390    0.019
 5278.00    1.27004   1.42303    0.018
 5279.00    1.15704   1.42334    0.018
 5280.00    1.16709   1.38034    0.018
 5281.00    1.16961   1.33128    0.018
 5282.00    1.11919   1.29227    0.018
 5283.00    1.07826   1.25968    0.017
 5284.00    1.08878   1.26469    0.017
 5285.00    1.09629   1.34526    0.017
 5286.00    1.09073   1.42931    0.017
 5287.00    1.07829   1.44889    0.017
 5288.00    1.04122   1.42647    0.017
 5289.00    1.02866   1.41644    0.017
 5290.00    1.08972   1.43216    0.017
 5291.00    1.16173   1.44083    0.017
 5292.00    1.26172   1.42439    0.017
 5293.00    1.32430   1.40252    0.017
 5294.00    1.30457   1.40332    0.017
 5295.00    1.22163   1.39332    0.017
 5296.00    1.01808   1.32922    0.017
 5297.00    0.95172   1.23466    0.017
 5298.00    1.11376   1.19577    0.017
 5299.00    1.23328   1.25720    0.017
 5300.00    1.29074   1.32099    0.018
 5301.00    1.27892   1.31729    0.018
 5302.00    1.17820   1.31076    0.018
 5303.00    1.12729   1.35171    0.017
 5304.00    1.13271   1.41270    0.017
 5305.00    1.15312   1.44120    0.017
 5306.00    1.18846   1.42249    0.017
 5307.00    1.22477   1.38727    0.017
 5308.00    1.26192   1.38696    0.017
 5309.00    1.26448   1.41866    0.018
 5310.00    1.24022   1.43559    0.018
 5311.00    1.27933   1.42759    0.018
 5312.00    1.36162   1.41449    0.017
 5313.00    1.32892   1.40313    0.017
 5314.00    1.22754   1.40060    0.017
 5315.00    1.22604   1.39240    0.017
 5316.00    1.27657   1.36223    0.017
 5317.00    1.31474   1.34929    0.017
 5318.00    1.34734   1.37088    0.018
 5319.00    1.33863   1.38153    0.018
 5320.00    1.31388   1.37594    0.018
 5321.00    1.26788   1.37187    0.018
 5322.00    1.21485   1.36290    0.018
 5323.00    1.16181   1.32771    0.018
 5324.00    1.10875   1.28360    0.018
 5325.00    1.02176   1.29464    0.018
 5326.00    0.92703   1.31055    0.018
 5327.00    0.99277   1.21343    0.018
 5328.00    1.08780   1.06620    0.018
 5329.00    1.11334   1.08152    0.018
 5330.00    1.12915   1.22949    0.018
 5331.00    1.04341   1.33166    0.017
 5332.00    0.94743   1.34027    0.017
 5333.00    1.10431   1.32946    0.017
 5334.00    1.27741   1.36128    0.018
 5335.00    1.29997   1.39194    0.017
 5336.00    1.31800   1.37950    0.017
 5337.00    1.31162   1.36017    0.017
 5338.00    1.30602   1.36218    0.017
 5339.00    1.32267   1.33226    0.017
 5340.00    1.33349   1.25739    0.017
 5341.00    1.26049   1.23741    0.017
 5342.00    1.20085   1.30143    0.017
 5343.00    1.26623   1.35694    0.017
 5344.00    1.32657   1.36964    0.017
 5345.00    1.35257   1.34804    0.017
 5346.00    1.36228   1.32934    0.017
 5347.00    1.28595   1.34021    0.017
 5348.00    1.21471   1.32347    0.017
 5349.00    1.16512   1.28952    0.017
 5350.00    1.12035   1.30999    0.017
 5351.00    1.09250   1.36853    0.017
 5352.00    1.08210   1.39776    0.017
 5353.00    1.12316   1.39306    0.017
 5354.00    1.16707   1.40959    0.017
 5355.00    1.21814   1.44288    0.017
 5356.00    1.27850   1.45206    0.017
 5357.00    1.35895   1.45017    0.017
 5358.00    1.42614   1.45256    0.017
 5359.00    1.46839   1.45385    0.017
 5360.00    1.47449   1.43942    0.017
 5361.00    1.42128   1.40094    0.017
 5362.00    1.31992   1.36437    0.017
 5363.00    1.14929   1.35615    0.017
 5364.00    1.11002   1.35029    0.017
 5365.00    1.23694   1.33192    0.017
 5366.00    1.28716   1.33302    0.017
 5367.00    1.25188   1.34211    0.017
 5368.00    1.22735   1.34085   -2.000
 5369.00    1.21340   1.30557   -2.000
 5370.00    1.19228   1.22853   -2.000
 5371.00    1.16497   1.17131   -2.000
 5372.00    0.98457   1.21408   -2.000
 5373.00    0.68723   1.32292   -2.000
 5374.00    0.73231   1.39406   -2.000
 5375.00    1.00730   1.41957   -2.000
 5376.00    1.16793   1.41209   -2.000
 5377.00    1.26129   1.39514   -2.000
 5378.00    1.36697   1.39987   -2.000
 5379.00    1.47896   1.40143   -2.000
 5380.00    1.40461   1.38108   -2.000
 5381.00    1.24747   1.36154   -2.000
 5382.00    1.24206   1.35183   -2.000
 5383.00    1.29457   1.33858    0.018
 5384.00    1.25951   1.34810    0.018
 5385.00    1.19606   1.37645    0.018
 5386.00    1.21083   1.38826    0.017
 5387.00    1.24685   1.38567    0.017
 5388.00    1.23750   1.37321    0.017
 5389.00    1.21804   1.34548    0.017
 5390.00    1.15920   1.32028    0.017
 5391.00    1.09337   1.31199    0.017
 5392.00    1.11201   1.30863    0.017
 5393.00    1.14210   1.30149    0.016
 5394.00    1.13207   1.29834    0.016
 5395.00    1.11815   1.29549    0.017
 5396.00    1.13253   1.24853    0.016
 5397.00    1.14860   1.19440    0.016
 5398.00    1.12141   1.23604    0.016
 5399.00    1.09333   1.31363    0.017
 5400.00    1.10584   1.33122    0.017
 5401.00    1.11818   1.33106    0.016
 5402.00    1.12634   1.34623    0.016
 5403.00    1.13726   1.31845    0.016
 5404.00    1.18553   1.23641    0.016
 5405.00    1.22035   1.16544    0.016
 5406.00    1.13421   1.16515    0.016
 5407.00    1.07135   1.23314    0.016
 5408.00    1.16236   1.27871    0.016
 5409.00    1.23127   1.24996    0.016
 5410.00    1.18649   1.21970    0.017
 5411.00    1.14104   1.26316    0.017
 5412.00    1.09278   1.33148    0.017
 5413.00    1.05919   1.35978    0.017
 5414.00    1.07598   1.34853    0.017
 5415.00    1.10639   1.33858    0.017
 5416.00    1.17618   1.36271    0.017
 5417.00    1.22104   1.38924    0.017
 5418.00    1.20432   1.38545    0.016
 5419.00    1.20257   1.36316    0.016
 5420.00    1.23270   1.34182    0.017
 5421.00    1.25241   1.34441    0.017
 5422.00    1.25288   1.36664    0.017
 5423.00    1.25287   1.34886    0.017
 5424.00    1.25209   1.30324    0.017
 5425.00    1.25714   1.31314    0.017
 5426.00    1.27043   1.36804    0.017
 5427.00    1.28173   1.40670    0.018
 5428.00    1.29054   1.36776    0.018
 5429.00    1.28901   1.25702    0.018
 5430.00    1.27614   1.21990    0.018
 5431.00    1.24625   1.28370    0.017
 5432.00    1.19988   1.30695    0.017
 5433.00    1.17204   1.27289    0.017
 5434.00    1.16005   1.23776    0.017
 5435.00    1.13631   1.23180    0.017
 5436.00    1.10373   1.26310    0.017
 5437.00    1.16388   1.31142    0.017
 5438.00    1.28539   1.36433    0.017
 5439.00    1.30379   1.40071    0.017
 5440.00    1.26246   1.41480    0.017
 5441.00    1.25041   1.41568    0.017
 5442.00    1.25314   1.41566    0.017
 5443.00    1.24138   1.41589    0.016
 5444.00    1.22328   1.38817    0.016
 5445.00    1.24355   1.31702    0.016
 5446.00    1.27821   1.22035    0.017
 5447.00    1.26005   1.18425    0.016
 5448.00    1.22507   1.25217    0.016
 5449.00    1.17493   1.32857    0.016
 5450.00    1.12076   1.35596    0.016
 5451.00    1.16289   1.35561    0.016
 5452.00    1.22596   1.34791    0.016
 5453.00    1.25555   1.32954    0.016
 5454.00    1.27936   1.27572    0.016
 5455.00    1.29437   1.20024    0.016
 5456.00    1.30824   1.19676    0.016
 5457.00    1.23744   1.28104    0.016
 5458.00    1.15882   1.35076    0.016
 5459.00    1.18506   1.36448    0.016
 5460.00    1.21719   1.34417    0.016
 5461.00    1.19618   1.31887    0.016
 5462.00    1.17418   1.28532    0.016
 5463.00    1.17216   1.25585    0.016
 5464.00    1.17323   1.27850    0.016
 5465.00    1.24666   1.31943    0.017
 5466.00    1.31128   1.32562    0.017
 5467.00    1.26279   1.32894    0.017
 5468.00    1.21149   1.34453    0.017
 5469.00    1.13592   1.33918    0.017
 5470.00    1.07004   1.31463    0.017
 5471.00    1.06621   1.30726    0.017
 5472.00    1.06053   1.30791    0.017
 5473.00    1.04561   1.28570    0.017
 5474.00    1.03946   1.27412    0.017
 5475.00    1.06893   1.26451    0.017
 5476.00    1.09391   1.20245    0.017
 5477.00    1.10381   1.17247    0.017
 5478.00    1.12892   1.24235   -2.000
 5479.00    1.19723   1.31522   -2.000
 5480.00    1.21770   1.30540   -2.000
 5481.00    1.12202   1.25397   -2.000
 5482.00    1.05966   1.24383   -2.000
 5483.00    1.06706   1.27873   -2.000
 5484.00    0.98731   1.32366   -2.000
 5485.00    0.74884   1.35549   -2.000
 5486.00    0.29282   1.34467   -2.000
 5487.00   -0.50949   1.30232   -2.000
 5488.00   -0.91025   1.28727   -2.000
 5489.00   -0.75009   1.30683   -2.000
 5490.00   -0.15202   1.31261   -2.000
 5491.00    0.98439   1.32168   -2.000
 5492.00    2.06143   1.33523   -2.000
 5493.00    3.07414   1.32203   -2.000
 5494.00    3.35961   1.31487   -2.000
 5495.00    2.94992   1.33209   -2.000
 5496.00    2.20527   1.32411   -2.000
 5497.00    1.17829   1.28349   -2.000
 5498.00    0.87261   1.29001   -2.000
 5499.00    1.10226   1.33944   -2.000
 5500.00    1.13864   1.33893   -2.000
 5501.00    1.04902   1.29019   -2.000
 5502.00    1.02653   1.27064    0.016
 5503.00    1.04234   1.29195    0.016
 5504.00    1.05960   1.31187    0.016
 5505.00    1.07758   1.29800    0.016
 5506.00    1.19214   1.25326    0.016
 5507.00    1.34820   1.25022    0.016
 5508.00    1.29389   1.29779    0.016
 5509.00    1.16209   1.31904    0.016
 5510.00    1.15191   1.30953    0.016
 5511.00    1.17968   1.28474    0.017
 5512.00    1.19305   1.24255    0.016
 5513.00    1.20268   1.22378    0.016
 5514.00    1.21525   1.23707    0.016
 5515.00    1.22845   1.26594    0.016
 5516.00    1.21331   1.29315    0.017
 5517.00    1.19342   1.31630    0.017
 5518.00    1.20308   1.34716    0.017
 5519.00    1.21647   1.36608    0.017
 5520.00    1.29870   1.36043    0.017
 5521.00    1.38700   1.34974    0.017
 5522.00    1.28244   1.34493    0.017
 5523.00    1.16781   1.34676    0.016
 5524.00    1.17441   1.34536    0.017
 5525.00    1.18274   1.32764    0.017
 5526.00    1.15029   1.29462    0.017
 5527.00    1.11983   1.24961    0.017
 5528.00    1.13218   1.21422    0.016
 5529.00    1.14454   1.24368    0.016
 5530.00    1.15695   1.30925    0.016
 5531.00    1.16413   1.33860    0.016
 5532.00    1.12773   1.32998    0.016
 5533.00    1.10158   1.31595    0.016
 5534.00    1.13925   1.29935    0.016
 5535.00    1.17895   1.28463    0.016
 5536.00    1.22853   1.29942    0.016
 5537.00    1.25925   1.31924    0.016
 5538.00    1.21512   1.31943    0.016
 5539.00    1.21041   1.32993    0.016
 5540.00    1.33578   1.35469    0.016
 5541.00    1.40822   1.36727    0.016
 5542.00    1.33305   1.35051    0.016
 5543.00    1.30839   1.31950    0.016
 5544.00    1.40427   1.31027    0.016
 5545.00    1.43264   1.31514    0.016
 5546.00    1.32184   1.31341    0.016
 5547.00    1.21334   1.32580    0.016
 5548.00    1.10897   1.35342    0.016
 5549.00    1.10116   1.36790    0.016
 5550.00    1.24480   1.36836    0.016
 5551.00    1.32217   1.36490    0.016
 5552.00    1.30828   1.35355    0.016
 5553.00    1.28777   1.32884    0.016
 5554.00    1.25922   1.30664    0.016
 5555.00    1.21270   1.30888    0.016
 5556.00    1.14699   1.32401    0.016
 5557.00    1.10150   1.32427    0.016
 5558.00    1.07507   1.32211    0.016
 5559.00    1.11126   1.32775    0.016
 5560.00    1.19950   1.33034    0.016
 5561.00    1.24060   1.32497    0.016
 5562.00    1.24723   1.30741    0.016
 5563.00    1.25506   1.28817    0.016
 5564.00    1.26365   1.28771    0.016
 5565.00    1.25973   1.28522    0.017
 5566.00    1.24876   1.27672    0.017
 5567.00    1.25428   1.28140    0.017
 5568.00    1.26787   1.28608    0.016
 5569.00    1.27988   1.27229    0.017
 5570.00    1.29123   1.27592    0.017
 5571.00    1.26714   1.29935    0.017
 5572.00    1.23024   1.27943    0.017
 5573.00    1.22832   1.25902    0.016
 5574.00    1.23712   1.29174    0.016
 5575.00    1.21098   1.31173    0.016
 5576.00    1.17594   1.30123    0.016
 5577.00    1.22700   1.31101    0.016
 5578.00    1.29590   1.31910    0.016
 5579.00    1.29305   1.31929    0.016
 5580.00    1.27849   1.32780    0.016
 5581.00    1.30323   1.31774    0.016
 5582.00    1.33276   1.29937    0.016
 5583.00    1.37730   1.30469    0.016
 5584.00    1.42310   1.30886    0.016
 5585.00    1.31582   1.28691    0.016
 5586.00    1.20115   1.23752    0.016
 5587.00    1.15459   1.18462    0.016
 5588.00    1.11018   1.16252    0.016
 5589.00    1.13241   1.17306    0.016
 5590.00    1.15267   1.21029    0.016
 5591.00    1.13375   1.24949    0.016
 5592.00    1.11668   1.26136    0.016
 5593.00    1.12112   1.25201    0.016
 5594.00    1.13235   1.23853    0.016
 5595.00    1.19815   1.26296    0.016
 5596.00    1.25161   1.31207    0.016
 5597.00    1.23047   1.30513    0.017
 5598.00    1.20767   1.25063    0.017
 5599.00    1.17690   1.23100    0.017
 5600.00    1.16606   1.23836    0.017
 5601.00    1.23262   1.22493    0.017
 5602.00    1.26884   1.20103    0.017
 5603.00    1.20692   1.20660    0.017
 5604.00    1.17693   1.26089    0.017
 5605.00    1.23442   1.31769    0.016
 5606.00    1.28007   1.34539    0.016
 5607.00    1.29792   1.35237    0.016
 5608.00    1.29399   1.34914    0.016
 5609.00    1.24589   1.34257    0.016
 5610.00    1.22719   1.33851    0.016
 5611.00    1.26040   1.34452    0.016
 5612.00    1.29213   1.35485    0.016
 5613.00    1.32160   1.34610    0.016
 5614.00    1.34160   1.28415    0.016
 5615.00    1.34877   1.19266    0.016
 5616.00    1.34539   1.18169    0.016
 5617.00    1.32942   1.24674    0.016
 5618.00    1.27935   1.28476    0.016
 5619.00    1.19337   1.28227    0.016
 5620.00    1.19028   1.28202    0.016
 5621.00    1.26423   1.30033    0.016
 5622.00    1.27640   1.31705    0.015
 5623.00    1.23795   1.29376    0.015
 5624.00    1.20443   1.23551    0.015
 5625.00    1.17447   1.21563    0.015
 5626.00    1.16302   1.25290    0.015
 5627.00    1.16329   1.28469    0.015
 5628.00    1.17736   1.29686    0.015
 5629.00    1.19906   1.31356    0.015
 5630.00    1.19556   1.32732    0.015
 5631.00    1.17993   1.33070    0.015
 5632.00    1.24508   1.32784    0.015
 5633.00    1.34380   1.31865    0.015
 5634.00    1.39935   1.30885    0.015
 5635.00    1.43955   1.29698    0.015
 5636.00    1.31852   1.27981    0.015
 5637.00    1.14911   1.26279    0.015
 5638.00    1.08562   1.26208    0.015
 5639.00    1.04850   1.27624    0.015
 5640.00    1.10065   1.27361    0.015
 5641.00    1.17084   1.25466    0.015
 5642.00    1.17374   1.25944    0.015
 5643.00    1.16598   1.27690    0.015
 5644.00    1.14228   1.28288    0.015
 5645.00    1.11670   1.28869    0.015
 5646.00    1.08268   1.29479    0.016
 5647.00    1.04798   1.30220    0.016
 5648.00    1.05249   1.30438    0.016
 5649.00    1.05875   1.29666    0.016
 5650.00    1.19610   1.29356    0.016
 5651.00    1.32995   1.30522    0.016
 5652.00    1.21998   1.32117    0.016
 5653.00    1.12002   1.32240    0.016
 5654.00    1.20431   1.29918    0.016
 5655.00    1.28436   1.28172    0.015
 5656.00    1.31746   1.28580    0.015
 5657.00    1.33362   1.25149    0.016
 5658.00    1.21833   1.17542    0.016
 5659.00    1.12393   1.17161    0.016
 5660.00    1.15220   1.23959    0.015
 5661.00    1.17075   1.26433    0.015
 5662.00    1.14404   1.23437    0.015
 5663.00    1.12305   1.23020    0.015
 5664.00    1.12381   1.26671    0.015
 5665.00    1.13649   1.29595    0.015
 5666.00    1.18702   1.29318    0.014
 5667.00    1.21558   1.26798    0.014
 5668.00    1.18507   1.25294    0.014
 5669.00    1.17795   1.25883    0.015
 5670.00    1.22482   1.27051    0.015
 5671.00    1.26402   1.28073    0.015
 5672.00    1.28794   1.30226    0.015
 5673.00    1.28311   1.32677    0.015
 5674.00    1.22829   1.32982    0.015
 5675.00    1.19722   1.31591    0.015
 5676.00    1.20230   1.31809    0.015
 5677.00    1.21165   1.33092    0.015
 5678.00    1.22671   1.32387    0.015
 5679.00    1.25093   1.30940    0.015
 5680.00    1.28593   1.30896    0.015
 5681.00    1.31024   1.30349    0.016
 5682.00    1.32344   1.27093    0.016
 5683.00    1.32048   1.25117    0.015
 5684.00    1.30270   1.26288    0.015
 5685.00    1.27176   1.28176    0.015
 5686.00    1.23020   1.27657    0.015
 5687.00    1.23436   1.25186    0.015
 5688.00    1.27101   1.23984    0.015
 5689.00    1.28153   1.25593    0.015
 5690.00    1.27577   1.28589    0.015
 5691.00    1.25084   1.30746    0.015
 5692.00    1.21547   1.32347    0.015
 5693.00    1.21973   1.32827    0.015
 5694.00    1.24276   1.31755    0.015
 5695.00    1.20983   1.31248    0.015
 5696.00    1.15404   1.31641    0.015
 5697.00    1.19420   1.30913    0.015
 5698.00    1.26782   1.28113    0.015
 5699.00    1.28578   1.26830    0.015
 5700.00    1.28738   1.26347    0.015
 5701.00    1.29400   1.24253    0.015
 5702.00    1.30185   1.23361    0.015
 5703.00    1.32399   1.25293    0.015
 5704.00    1.34895   1.27809    0.015
 5705.00    1.32169   1.27561    0.015
 5706.00    1.28640   1.24738    0.014
 5707.00    1.25914   1.22474    0.015
 5708.00    1.23279   1.19899    0.015
 5709.00    1.20147   1.17498    0.015
 5710.00    1.16979   1.18421    0.014
 5711.00    1.14413   1.19368    0.014
 5712.00    1.11873   1.20486    0.014
 5713.00    1.18281   1.25248    0.014
 5714.00    1.24613   1.28974    0.014
 5715.00    1.24941   1.29751    0.014
 5716.00    1.25157   1.30457    0.015
 5717.00    1.23472   1.30236    0.014
 5718.00    1.22069   1.29667    0.014
 5719.00    1.23638   1.30737    0.015
 5720.00    1.24841   1.31910    0.015
 5721.00    1.23289   1.32786    0.015
 5722.00    1.22240   1.33914    0.014
 5723.00    1.24058   1.34229    0.015
 5724.00    1.24977   1.33735    0.015
 5725.00    1.21817   1.32689    0.015
 5726.00    1.19273   1.30037    0.015
 5727.00    1.19023   1.27020    0.015
 5728.00    1.21941   1.27773    0.015
 5729.00    1.34719   1.30772    0.015
 5730.00    1.41633   1.31097    0.015
 5731.00    1.33053   1.28576    0.015
 5732.00    1.25840   1.28176    0.015
 5733.00    1.21731   1.30699    0.015
 5734.00    1.20494   1.32451    0.015
 5735.00    1.24899   1.32746    0.015
 5736.00    1.27729   1.31951    0.015
 5737.00    1.27861   1.31218    0.015
 5738.00    1.27323   1.31253    0.015
 5739.00    1.25780   1.31163    0.015
 5740.00    1.24257   1.30892    0.000
 5741.00    1.22762   1.30771    0.000
 5742.00    1.25495   1.30276    0.000
 5743.00    1.33136   1.29863    0.000
 5744.00    1.34943   1.30836    0.000
 5745.00    1.30774   1.32863    0.000
 5746.00    1.30150   1.33508    0.000
 5747.00    1.32729   1.30968    0.000
 5748.00    1.36083   1.28029    0.000
 5749.00    1.40054   1.29137    0.000
 5750.00    1.37440   1.32152    0.000
 5751.00    1.30214   1.32549    0.000
 5752.00    1.22075   1.29289    0.000
 5753.00    1.13374   1.25006    0.000
 5754.00    1.15788   1.23358    0.000
 5755.00    1.24164   1.26257    0.000
 5756.00    1.26247   1.30590    0.000
 5757.00    1.25398   1.33067    0.000
 5758.00    1.29013   1.33611    0.000
 5759.00    1.34419   1.32370    0.000
 5760.00    1.34348   1.29844    0.000
 5761.00    1.32402   1.26977    0.000
 5762.00    1.26663   1.24325    0.000
 5763.00    1.19831   1.24188    0.000
 5764.00    1.25170   1.28235    0.000
 5765.00    1.33408   1.31868    0.000
 5766.00    1.31235   1.32707    0.000
 5767.00    1.27064   1.32593    0.000
 5768.00    1.28190   1.32437    0.000
 5769.00    1.30104   1.31942    0.000
 5770.00    1.39127   1.31601    0.000
 5771.00    1.48924   1.31010    0.000
 5772.00    1.39341   1.30085    0.000
 5773.00    1.28369   1.29931    0.000
 5774.00    1.25100   1.29511    0.000
 5775.00    1.22115   1.29124    0.000
 5776.00    1.31379   1.30143    0.000
 5777.00    1.40259   1.30947    0.000
 5778.00    1.33554   1.30700    0.000
 5779.00    1.27153   1.29032    0.000
 5780.00    1.25646   1.24890    0.000
 5781.00    1.24524   1.20316    0.000
 5782.00    1.27309   1.19672    0.000
 5783.00    1.29458   1.21821    0.000
 5784.00    1.27004   1.22189    0.000
 5785.00    1.24857   1.20984    0.000
 5786.00    1.24411   1.22689    0.000
 5787.00    1.23896   1.26413    0.000
 5788.00    1.23080   1.28469    0.000
 5789.00    1.21704   1.29390    0.000
 5790.00    1.18288   1.27947    0.000
 5791.00    1.15435   1.25934   -2.000
 5792.00    1.14298   1.27182   -2.000
 5793.00    1.12165   1.29510   -2.000
 5794.00    1.07444   1.31111   -2.000
 5795.00    1.03632   1.32231   -2.000
 5796.00    1.01851   1.31338   -2.000
 5797.00    1.06428   1.27992   -2.000
 5798.00    1.23307   1.26380   -2.000
 5799.00    1.34144   1.29360   -2.000
 5800.00    1.34789   1.32849   -2.000
 5801.00    1.33697   1.34449   -2.000
 5802.00    1.30038   1.34875   -2.000
 5803.00    1.28286   1.33350   -2.000
 5804.00    1.29011   1.30316   -2.000
 5805.00    1.29639   1.28622   -2.000
 5806.00    1.30155   1.28950   -2.000
 5807.00    1.28893   1.30074   -2.000
 5808.00    1.25835   1.30754   -2.000
 5809.00    1.23524   1.30887   -2.000
 5810.00    1.21877   1.31478   -2.000
 5811.00    1.23256   1.31945    0.000
 5812.00    1.27010   1.31930    0.000
 5813.00    1.27736   1.31781    0.000
 5814.00    1.26372   1.30686    0.000
 5815.00    1.24805   1.28447    0.000
 5816.00    1.23114   1.26821    0.000
 5817.00    1.26041   1.27889    0.000
 5818.00    1.31407   1.30724    0.000
 5819.00    1.34189   1.32426    0.000
 5820.00    1.35787   1.32878    0.000
 5821.00    1.36143   1.32907    0.000
 5822.00    1.36009   1.32318    0.000
 5823.00    1.39417   1.31526    0.000
 5824.00    1.44015   1.31583    0.000
 5825.00    1.43322   1.32365    0.000
 5826.00    1.41136   1.32467    0.000
 5827.00    1.39676   1.32311    0.000
 5828.00    1.38385   1.32461    0.000
 5829.00    1.36539   1.32950    0.000
 5830.00    1.34589   1.33101    0.000
 5831.00    1.35513   1.32576    0.000
 5832.00    1.36852   1.32332    0.000
 5833.00    1.30998   1.32224    0.000
 5834.00    1.24392   1.31290    0.000
 5835.00    1.22708   1.30692    0.000
 5836.00    1.21357   1.31677    0.000
 5837.00    1.23752   1.31951    0.000
 5838.00    1.26271   1.30726    0.000
 5839.00    1.28585   1.30434    0.000
 5840.00    1.30745   1.31766    0.000
 5841.00    1.28095   1.33076    0.000
 5842.00    1.25882   1.33468    0.000
 5843.00    1.30287   1.33333    0.000
 5844.00    1.34150   1.32686    0.000
 5845.00    1.32751   1.31753    0.000
 5846.00    1.31191   1.30349    0.000
 5847.00    1.28494   1.28598    0.000
 5848.00    1.26414   1.28301    0.000
 5849.00    1.27662   1.29014    0.000
 5850.00    1.29439   1.29332    0.000
 5851.00    1.33502   1.28560    0.000
 5852.00    1.35285   1.25940    0.000
 5853.00    1.28927   1.22880    0.000
 5854.00    1.24360   1.23030    0.000
 5855.00    1.25162   1.25344    0.000
 5856.00    1.25873   1.24627    0.000
 5857.00    1.26353   1.20624    0.000
 5858.00    1.26044   1.19306    0.000
 5859.00    1.24004   1.22225    0.000
 5860.00    1.22835   1.25335    0.000
 5861.00    1.23322   1.26542    0.000
 5862.00    1.23865   1.25672    0.000
 5863.00    1.24498   1.25354    0.000
 5864.00    1.26252   1.26881    0.000
 5865.00    1.29636   1.27434    0.000
 5866.00    1.30403   1.25361    0.000
 5867.00    1.27815   1.24090    0.000
 5868.00    1.22721   1.25945    0.000
 5869.00    1.14798   1.28342    0.000
 5870.00    1.13209   1.29566    0.000
 5871.00    1.17926   1.29764    0.000
 5872.00    1.20090   1.28817    0.000
 5873.00    1.20013   1.27798    0.000
 5874.00    1.19964   1.28115    0.000
 5875.00    1.19938   1.28670    0.000
 5876.00    1.20108   1.28036    0.000
 5877.00    1.20413   1.27052    0.000
 5878.00    1.23076   1.26215    0.000
 5879.00    1.27145   1.24954    0.000
 5880.00    1.26190   1.23466    0.000
 5881.00    1.22624   1.23960    0.000
 5882.00    1.20221   1.25401    0.000
 5883.00    1.18341   1.24893    0.000
 5884.00    1.17246   1.23615    0.000
 5885.00    1.16456   1.24038    0.000
 5886.00    1.19542   1.24839    0.000
 5887.00    1.23907   1.23161    0.000
 5888.00    1.22803   1.14785    0.000
 5889.00    1.20188   0.98081    0.000
 5890.00    1.16727   0.86328    0.000
 5891.00    1.13073   0.93704    0.000
 5892.00    1.10405   1.07120    0.000
 5893.00    1.07916   1.13305    0.000
 5894.00    1.05180   1.12145    0.000
 5895.00    1.02409   1.01731    0.000
 5896.00    1.04803   0.93019    0.000
 5897.00    1.07715   1.00333    0.000
 5898.00    1.08699   1.12267    0.000
 5899.00    1.09561   1.16896    0.000
 5900.00    1.10019   1.19180    0.000
 5901.00    1.10458   1.21983    0.013
 5902.00    1.08180   1.23329    0.013
 5903.00    1.06061   1.23734    0.013
 5904.00    1.08434   1.23902    0.013
 5905.00    1.11111   1.23313    0.013
 5906.00    1.18137   1.22663    0.013
 5907.00    1.24270   1.23439    0.014
 5908.00    1.22086   1.24655    0.013
 5909.00    1.20291   1.24555    0.013
 5910.00    1.21134   1.24313    0.013
 5911.00    1.22163   1.25246    0.013
 5912.00    1.24166   1.25459    0.013
 5913.00    1.25494   1.23034    0.013
 5914.00    1.23963   1.19729    0.013
 5915.00    1.23268   1.19100    0.013
 5916.00    1.25498   1.20106    0.013
 5917.00    1.27462   1.21932    0.013
 5918.00    1.28643   1.23324    0.013
 5919.00    1.29008   1.24036    0.013
 5920.00    1.27328   1.24833    0.013
 5921.00    1.25922   1.24345    0.013
 5922.00    1.25109   1.23134    0.013
 5923.00    1.25416   1.23404    0.013
 5924.00    1.27822   1.24516    0.013
 5925.00    1.28370   1.25255    0.013
 5926.00    1.25875   1.25661    0.013
 5927.00    1.22661   1.25256    0.013
 5928.00    1.18416   1.23885    0.013
 5929.00    1.19011   1.22006    0.013
 5930.00    1.25720   1.20908    0.013
 5931.00    1.29987   1.22808    0.013
 5932.00    1.31537   1.25541    0.013
 5933.00    1.32024   1.25400    0.013
 5934.00    1.31469   1.22911    0.013
 5935.00    1.31273   1.21761    0.013
 5936.00    1.31388   1.23557    0.013
 5937.00    1.32777   1.25100    0.013
 5938.00    1.35136   1.25626    0.013
 5939.00    1.32798   1.26016    0.013
 5940.00    1.27313   1.24690    0.013
 5941.00    1.26425   1.22188    0.013
 5942.00    1.28236   1.21843    0.013
 5943.00    1.29577   1.23328    0.013
 5944.00    1.30679   1.24626    0.013
 5945.00    1.28860   1.25771    0.013
 5946.00    1.25747   1.26501    0.013
 5947.00    1.23702   1.25414    0.013
 5948.00    1.22064   1.22387    0.013
 5949.00    1.19334   1.20581    0.013
 5950.00    1.16250   1.22179    0.012
 5951.00    1.17149   1.23984    0.013
 5952.00    1.19128   1.22506    0.013
 5953.00    1.22095   1.20796    0.013
 5954.00    1.25282   1.22381    0.012
 5955.00    1.28637   1.23776    0.012
 5956.00    1.32021   1.22305    0.013
 5957.00    1.31343   1.20864    0.013
 5958.00    1.30116   1.21707    0.013
 5959.00    1.28057   1.23454    0.013
 5960.00    1.25918   1.25194    0.012
 5961.00    1.27726   1.26371    0.013
 5962.00    1.29770   1.26745    0.013
 5963.00    1.30492   1.26432    0.013
 5964.00    1.31154   1.25860    0.013
 5965.00    1.27759   1.24550    0.013
 5966.00    1.24492   1.23600    0.013
 5967.00    1.24495   1.24586    0.013
 5968.00    1.24808   1.25731    0.013
 5969.00    1.29319   1.26408    0.013
 5970.00    1.33319   1.26958    0.013
 5971.00    1.32748   1.27157    0.013
 5972.00    1.31955   1.26853    0.013
 5973.00    1.29703   1.26596    0.013
 5974.00    1.27713   1.25966    0.013
 5975.00    1.27070   1.23976    0.013
 5976.00    1.26581   1.21827    0.013
 5977.00    1.26732   1.20869    0.013
 5978.00    1.27223   1.21230    0.013
 5979.00    1.28878   1.22754    0.013
 5980.00    1.29424   1.24697    0.013
 5981.00    1.26772   1.25510    0.013
 5982.00    1.24655   1.24824    0.012
 5983.00    1.23860   1.21946    0.013
 5984.00    1.22965   1.18748    0.013
 5985.00    1.21854   1.19210    0.012
 5986.00    1.21906   1.21901    0.012
 5987.00    1.24104   1.23064    0.012
 5988.00    1.26778   1.23292    0.012
 5989.00    1.30218   1.24011    0.012
 5990.00    1.32107   1.24388    0.012
 5991.00    1.31799   1.23351    0.012
 5992.00    1.29671   1.23330    0.012
 5993.00    1.25277   1.25352    0.012
 5994.00    1.23414   1.26902    0.012
 5995.00    1.24328   1.26591    0.013
 5996.00    1.25103   1.25144    0.013
 5997.00    1.25743   1.23394    0.013
 5998.00    1.25928   1.22679    0.013
 5999.00    1.25723   1.23268    0.013
 6000.00    1.23977   1.24205    0.013
 6001.00    1.21074   1.24427    0.013
 6002.00    1.21342   1.22712    0.013
 6003.00    1.23704   1.21279    0.013
 6004.00    1.27133   1.22469    0.013
 6005.00    1.31180   1.23658    0.013
 6006.00    1.30965   1.22631    0.013
 6007.00    1.28603   1.19990    0.013
 6008.00    1.28965   1.17611    0.013
 6009.00    1.30515   1.19323    0.013
 6010.00    1.29546   1.23324    0.013
 6011.00    1.27633   1.24745    0.013
 6012.00    1.25179   1.22931    0.013
 6013.00    1.22553   1.20883    0.013
 6014.00    1.21135   1.21480    0.013
 6015.00    1.20037   1.22846    0.013
 6016.00    1.21607   1.21843    0.013
 6017.00    1.23757   1.21041    0.013
 6018.00    1.22569   1.22136    0.013
 6019.00    1.20807   1.21903    0.013
 6020.00    1.18652   1.19960    0.013
 6021.00    1.16447   1.19291    0.013
 6022.00    1.19424   1.20350    0.013
 6023.00    1.22877   1.21130    0.013
 6024.00    1.23793   1.21299    0.013
 6025.00    1.24567   1.22727    0.012
 6026.00    1.23112   1.23795    0.013
 6027.00    1.21640   1.23304    0.013
 6028.00    1.23277   1.24165    0.013
 6029.00    1.24899   1.25679    0.013
 6030.00    1.26194   1.25754    0.013
 6031.00    1.27611   1.25100    0.013
 6032.00    1.30579   1.25565    0.013
 6033.00    1.32913   1.26428    0.013
 6034.00    1.29796   1.26619    0.013
 6035.00    1.27399   1.26416    0.013
 6036.00    1.29599   1.26360    0.013
 6037.00    1.31674   1.26342    0.013
 6038.00    1.33128   1.26148    0.013
 6039.00    1.34356   1.25339    0.013
 6040.00    1.34664   1.24722    0.012
 6041.00    1.34720   1.24758    0.012
 6042.00    1.33929   1.24798    0.012
 6043.00    1.34005   1.25637    0.012
 6044.00    1.36543   1.26687    0.012
 6045.00    1.39434   1.27069    0.012
 6046.00    1.43179   1.27190    0.012
 6047.00    1.44768   1.27354    0.012
 6048.00    1.41852   1.27128    0.012
 6049.00    1.38365   1.26691    0.012
 6050.00    1.33840   1.26996    0.012
 6051.00    1.32126   1.27300    0.012
 6052.00    1.34880   1.26750    0.012
 6053.00    1.35213   1.25823    0.012
 6054.00    1.32170   1.25217    0.013
 6055.00    1.32251   1.24357    0.013
 6056.00    1.36166   1.23258    0.013
 6057.00    1.37863   1.23291    0.017
 6058.00    1.37163   1.24220    0.051
 6059.00    1.33481   1.25583   -1.000
 6060.00    1.26954   1.26402   -1.000
 6061.00    1.22040   1.26389   -1.000
 6062.00    1.18484   1.25469   -1.000
 6063.00    1.14304   1.23952   -1.000
 6064.00    1.09662   1.21509   -1.000
 6065.00    1.06672   1.18333   -1.000
 6066.00    1.04757   1.19269   -1.000
 6067.00    1.09481   1.23884    0.038
 6068.00    1.17987   1.26864    0.015
 6069.00    1.25653   1.27540    0.012
 6070.00    1.32901   1.27651    0.012
 6071.00    1.35028   1.27781    0.012
 6072.00    1.34958   1.27870    0.013
 6073.00    1.32208   1.27847    0.012
 6074.00    1.28473   1.27707    0.012
 6075.00    1.25527   1.27582    0.012
 6076.00    1.22826   1.26889    0.012
 6077.00    1.20609   1.25417    0.012
 6078.00    1.18518   1.23077    0.012
 6079.00    1.25349   1.22096    0.012
 6080.00    1.34069   1.23038    0.012
 6081.00    1.34888   1.22603    0.012
 6082.00    1.34386   1.21244    0.012
 6083.00    1.31104   1.21542    0.012
 6084.00    1.27470   1.22469    0.012
 6085.00    1.27024   1.21975    0.012
 6086.00    1.26857   1.22019    0.012
 6087.00    1.28320   1.23432    0.012
 6088.00    1.29866   1.24518    0.012
 6089.00    1.32808   1.23103    0.012
 6090.00    1.35691   1.20689    0.012
 6091.00    1.32354   1.20486    0.012
 6092.00    1.29157   1.21550    0.012
 6093.00    1.28959   1.21964    0.013
 6094.00    1.28954   1.23297    0.013
 6095.00    1.31306   1.25345    0.013
 6096.00    1.33169   1.25467    0.013
 6097.00    1.30975   1.24268    0.012
 6098.00    1.28948   1.24242    0.012
 6099.00    1.27959   1.25257    0.012
 6100.00    1.26813   1.25669    0.012
 6101.00    1.24906   1.22869    0.012
 6102.00    1.23801   1.15625    0.012
 6103.00    1.25869   1.12119    0.012
 6104.00    1.27434   1.17323    0.012
 6105.00    1.27339   1.22970    0.012
 6106.00    1.27092   1.24387    0.012
 6107.00    1.26421   1.23114    0.012
 6108.00    1.26455   1.21925    0.012
 6109.00    1.28169   1.23267    0.012
 6110.00    1.30679   1.24567    0.012
 6111.00    1.34825   1.23369    0.012
 6112.00    1.36985   1.22815    0.012
 6113.00    1.35589   1.24264    0.012
 6114.00    1.34005   1.25561    0.012
 6115.00    1.32126   1.25223    0.012
 6116.00    1.30817   1.23587    0.012
 6117.00    1.30291   1.23520    0.012
 6118.00    1.30656   1.24694    0.012
 6119.00    1.32097   1.23568    0.012
 6120.00    1.33012   1.20566    0.012
 6121.00    1.33364   1.16724    0.012
 6122.00    1.32809   1.13212    0.012
 6123.00    1.31401   1.15755    0.012
 6124.00    1.30103   1.21447    0.012
 6125.00    1.28896   1.23033    0.012
 6126.00    1.29895   1.21832    0.012
 6127.00    1.32504   1.20879    0.012
 6128.00    1.33634   1.20455    0.012
 6129.00    1.33816   1.21173    0.012
 6130.00    1.33054   1.23304    0.012
 6131.00    1.31762   1.24659    0.012
 6132.00    1.30337   1.24464    0.012
 6133.00    1.28845   1.24141    0.012
 6134.00    1.27126   1.22673    0.012
 6135.00    1.25311   1.18577    0.012
 6136.00    1.23686   1.11548    0.012
 6137.00    1.22130   1.05995    0.012
 6138.00    1.19806   1.09631    0.012
 6139.00    1.17247   1.18437    0.012
 6140.00    1.16547   1.21839    0.012
 6141.00    1.16318   1.18397    0.012
 6142.00    1.21685   1.16211    0.012
 6143.00    1.28207   1.19525    0.012
 6144.00    1.28430   1.23580    0.012
 6145.00    1.27629   1.24785    0.012
 6146.00    1.27284   1.24409    0.012
 6147.00    1.26994   1.23374    0.012
 6148.00    1.26824   1.21319    0.012
 6149.00    1.26663   1.19343    0.012
 6150.00    1.26119   1.18569    0.012
 6151.00    1.25557   1.19548    0.012
 6152.00    1.26001   1.21560    0.012
 6153.00    1.26525   1.22916    0.012
 6154.00    1.30817   1.21456    0.012
 6155.00    1.34723   1.19761    0.012
 6156.00    1.31024   1.20162    0.012
 6157.00    1.27438   1.20373    0.012
 6158.00    1.25145   1.19809    0.012
 6159.00    1.22913   1.19012    0.012
 6160.00    1.21164   1.15503    0.012
 6161.00    1.19171   1.07775    0.012
 6162.00    1.15700   1.01705    0.012
 6163.00    1.12526   1.02757    0.012
 6164.00    1.10770   1.07923    0.012
 6165.00    1.09560   1.12113    0.012
 6166.00    1.10474   1.13764    0.012
 6167.00    1.11499   1.15040    0.012
 6168.00    1.12884   1.13949    0.012
 6169.00    1.15168   1.08796    0.012
 6170.00    1.19909   1.06826    0.012
 6171.00    1.24198   1.11535    0.012
 6172.00    1.27432   1.15830    0.012
 6173.00    1.27960   1.15797    0.012
 6174.00    1.23013   1.15465    0.012
 6175.00    1.18615   1.15978    0.012
 6176.00    1.15186   1.15738    0.012
 6177.00    1.14651   1.15689    0.012
 6178.00    1.18580   1.17345    0.012
 6179.00    1.21978   1.18155    0.012
 6180.00    1.24655   1.17417    0.012
 6181.00    1.25957   1.18075    0.012
 6182.00    1.25620   1.19337    0.012
 6183.00    1.22884   1.19487    0.012
 6184.00    1.17627   1.19262    0.012
 6185.00    1.14844   1.18668    0.012
 6186.00    1.14358   1.16706    0.012
 6187.00    1.14720   1.14942    0.012
 6188.00    1.15776   1.14295    0.012
 6189.00    1.16658   1.14165    0.012
 6190.00    1.17415   1.12058    0.012
 6191.00    1.15275   1.07340    0.012
 6192.00    1.11306   1.07167    0.012
 6193.00    1.01763   1.12696    0.012
 6194.00    0.89142   1.16549    0.013
 6195.00    0.58094   1.17403    0.014
 6196.00    0.18199   1.17923   -2.000
 6197.00   -0.35198   1.18509   -2.000
 6198.00   -0.94193   1.17569   -2.000
 6199.00   -0.98258   1.14400   -2.000
 6200.00   -0.82854   1.12380   -2.000
 6201.00   -0.07421   1.14063   -2.000
 6202.00    0.85976   1.16873   -2.000
 6203.00    1.56040   1.18179   -2.000
 6204.00    2.20308   1.18032   -2.000
 6205.00    2.22580   1.18038   -2.000
 6206.00    2.12370   1.18734   -2.000
 6207.00    1.82064   1.19237   -2.000
 6208.00    1.48589   1.19253    0.013
 6209.00    1.37674   1.19040    0.013
 6210.00    1.29404   1.18085    0.012
 6211.00    1.28108   1.17029    0.012
 6212.00    1.27366   1.15642    0.012
 6213.00    1.20327   1.12203    0.012
 6214.00    1.13011   1.09413    0.012
 6215.00    1.13864   1.08840    0.012
 6216.00    1.14794   1.09776    0.012
 6217.00    1.15140   1.12417    0.012
 6218.00    1.15393   1.13627    0.012
 6219.00    1.13965   1.11407    0.012
 6220.00    1.12500   1.09953    0.012
 6221.00    1.10637   1.11016    0.012
 6222.00    1.09386   1.12885    0.011
 6223.00    1.12856   1.13676    0.011
 6224.00    1.14716   1.13161    0.012
 6225.00    1.07158   1.13473    0.012
 6226.00    0.92370   1.14290    0.012
 6227.00    0.44046   1.14382    0.011
 6228.00    0.06495   1.13911    0.011
 6229.00    0.09781   1.11222    0.011
 6230.00    0.22732   1.06425    0.012
 6231.00    0.66273   1.04539    0.012
 6232.00    1.02613   1.06994    0.012
 6233.00    1.19623   1.10105    0.012
 6234.00    1.30339   1.13724    0.012
 6235.00    1.26563   1.16474    0.012
 6236.00    1.22361   1.16303    0.012
 6237.00    1.17313   1.14567    0.012
 6238.00    1.15081   1.12569    0.012
 6239.00    1.17738   1.10757    0.012
 6240.00    1.19259   1.09610    0.012
 6241.00    1.19053   1.10663    0.012
 6242.00    1.18883   1.10717    0.012
 6243.00    1.18761   1.08257    0.012
 6244.00    1.18010   1.07861    0.012
 6245.00    1.16520   1.08476    0.012
 6246.00    1.14497   1.08145    0.012
 6247.00    1.11921   1.09889    0.012
 6248.00    1.11667   1.13295    0.012
 6249.00    1.13537   1.15207    0.012
 6250.00    1.14560   1.15237    0.012
 6251.00    1.14900   1.13029    0.012
 6252.00    1.16099   1.08853    0.012
 6253.00    1.17907   1.06746    0.012
 6254.00    1.17513   1.07416    0.012
 6255.00    1.15749   1.08534    0.012
 6256.00    1.14343   1.07790    0.012
 6257.00    1.13133   1.05723    0.012
 6258.00    1.09989   1.04042    0.012
 6259.00    1.05932   1.05435    0.013
 6260.00    0.92841   1.09094    0.013
 6261.00    0.76069   1.10870    0.014
 6262.00    0.74229   1.12623    0.015
 6263.00    0.77585   1.15122    0.015
 6264.00    1.03361   1.14729    0.015
 6265.00    1.35713   1.12180    0.015
 6266.00    1.54024   1.12269    0.014
 6267.00    1.68924   1.14212    0.013
 6268.00    1.62038   1.14282    0.013
 6269.00    1.50876   1.12932    0.012
 6270.00    1.41730   1.12331    0.012
 6271.00    1.32893   1.13142    0.012
 6272.00    1.29604   1.14681    0.012
 6273.00    1.26941   1.15517    0.012
 6274.00    1.26058   1.15075    0.012
 6275.00    1.25308   1.14824    0.012
 6276.00    1.29446   1.14997    0.012
 6277.00    1.33781   1.15009    0.012
 6278.00    1.37684   1.14609    0.012
 6279.00    1.41413   1.12993    0.012
 6280.00    1.38231   1.10520    0.000
 6281.00    1.35056   1.10085    0.000
 6282.00    1.32010   1.11742    0.000
 6283.00    1.28954   1.13396    0.000
 6284.00    1.25798   1.14290    0.000
 6285.00    1.22980   1.14034    0.000
 6286.00    1.22683   1.14833    0.000
 6287.00    1.22595   1.16676    0.000
 6288.00    1.23687   1.18020    0.000
 6289.00    1.24669   1.18408    0.000
 6290.00    1.25152   1.17121    0.000
 6291.00    1.26395   1.15388    0.000
 6292.00    1.30458   1.14692    0.000
 6293.00    1.33032   1.14840    0.000
 6294.00    1.30981   1.15704    0.000
 6295.00    1.28612   1.15430    0.000
 6296.00    1.25405   1.12854    0.000
 6297.00    1.21518   1.10686    0.000
 6298.00    1.16091   1.11287    0.000
 6299.00    1.13096   1.13129    0.000
 6300.00    1.14870   1.12890    0.000
 6301.00    1.18145   1.10520    0.000
 6302.00    1.23987   1.09474    0.000
 6303.00    1.28704   1.11486    0.000
 6304.00    1.31735   1.13922    0.000
 6305.00    1.32852   1.14559    0.000
 6306.00    1.31450   1.14975    0.000
 6307.00    1.28959   1.16879    0.000
 6308.00    1.25205   1.18124    0.000
 6309.00    1.23928   1.17459    0.000
 6310.00    1.25183   1.15987    0.000
 6311.00    1.26634   1.14825    0.000
 6312.00    1.28262   1.14622    0.000
 6313.00    1.27362   1.15191    0.000
 6314.00    1.24454   1.13918    0.000
 6315.00    1.20731   1.11620    0.000
 6316.00    1.16440   1.12144    0.000
 6317.00    1.15757   1.12429    0.000
 6318.00    1.17286   1.10180    0.000
 6319.00    1.19381   1.10316    0.000
 6320.00    1.21779   1.13120    0.000
 6321.00    1.23552   1.14576    0.012
 6322.00    1.25036   1.14374    0.012
 6323.00    1.27249   1.14962    0.012
 6324.00    1.29756   1.16587    0.012
 6325.00    1.30506   1.17241    0.012
 6326.00    1.30657   1.17190    0.012
 6327.00    1.28494   1.16642    0.012
 6328.00    1.25665   1.16880    0.012
 6329.00    1.25010   1.17277    0.012
 6330.00    1.24871   1.16331    0.012
 6331.00    1.28143   1.16417    0.012
 6332.00    1.32068   1.18091    0.012
 6333.00    1.34338   1.19155    0.011
 6334.00    1.36362   1.17239    0.011
 6335.00    1.34682   1.12459    0.011
 6336.00    1.32599   1.09648    0.011
 6337.00    1.31238   1.11357    0.012
 6338.00    1.29928   1.14062    0.012
 6339.00    1.28877   1.15299    0.012
 6340.00    1.27836   1.16731    0.012
 6341.00    1.27062   1.18042    0.012
 6342.00    1.26312   1.17457    0.012
 6343.00    1.26349   1.15122    0.012
 6344.00    1.26370   1.12626    0.012
 6345.00    1.26138   1.12861    0.012
 6346.00    1.25892   1.14294    0.012
 6347.00    1.25505   1.15245    0.012
 6348.00    1.25452   1.16417    0.012
 6349.00    1.27802   1.17458    0.011
 6350.00    1.30083   1.17864    0.011
 6351.00    1.31981   1.17807    0.011
 6352.00    1.33492   1.17449    0.012
 6353.00    1.33289   1.16208    0.012
 6354.00    1.32627   1.13887    0.012
 6355.00    1.30296   1.12430    0.011
 6356.00    1.28247   1.13431    0.011
 6357.00    1.27059   1.13823    0.011
 6358.00    1.25884   1.11272    0.011
 6359.00    1.24740   1.09514    0.011
 6360.00    1.24003   1.10361    0.012
 6361.00    1.24172   1.10691    0.012
 6362.00    1.23969   1.09666    0.012
 6363.00    1.23049   1.09625    0.012
 6364.00    1.22246   1.10914    0.012
 6365.00    1.21639   1.12370    0.012
 6366.00    1.23240   1.13451    0.012
 6367.00    1.28098   1.14732    0.012
 6368.00    1.30558   1.16169    0.012
 6369.00    1.29905   1.16141    0.012
 6370.00    1.28949   1.15464    0.012
 6371.00    1.27647   1.15693    0.012
 6372.00    1.27661   1.17100    0.012
 6373.00    1.29001   1.18353    0.012
 6374.00    1.30424   1.18360    0.012
 6375.00    1.31919   1.17915    0.012
 6376.00    1.30573   1.17841    0.012
 6377.00    1.27002   1.17480    0.012
 6378.00    1.25673   1.15832    0.011
 6379.00    1.25890   1.14341    0.011
 6380.00    1.28228   1.13993    0.011
 6381.00    1.31847   1.14308    0.011
 6382.00    1.33048   1.15581    0.011
 6383.00    1.32974   1.16460    0.011
 6384.00    1.33724   1.15898    0.011
 6385.00    1.34851   1.15379    0.011
 6386.00    1.33786   1.16022    0.012
 6387.00    1.31858   1.16678    0.012
 6388.00    1.31199   1.16454    0.012
 6389.00    1.30967   1.16153    0.012
 6390.00    1.32658   1.16128    0.012
 6391.00    1.34890   1.15769    0.012
 6392.00    1.31956   1.13394    0.012
 6393.00    1.27824   1.09603    0.012
 6394.00    1.23801   1.09440    0.012
 6395.00    1.19799   1.13432    0.012
 6396.00    1.21906   1.16824    0.012
 6397.00    1.24891   1.18086    0.013
 6398.00    1.28300   1.17096    0.012
 6399.00    1.31753   1.12297    0.012
 6400.00    1.32606   1.07640    0.012
 6401.00    1.33285   1.10257    0.012
 6402.00    1.27382   1.15815    0.012
 6403.00    1.21265   1.18385    0.012
 6404.00    1.17767   1.18948    0.025
 6405.00    1.14477   1.18582   -1.000
 6406.00    1.17633   1.17216   -1.000
 6407.00    1.20892   1.14734   -1.000
 6408.00    1.25693   1.13214   -1.000
 6409.00    1.30256   1.15135   -1.000
 6410.00    1.32523   1.16468   -1.000
 6411.00    1.34409   1.13981   -1.000
 6412.00    1.33633   1.12400   -1.000
 6413.00    1.32878   1.13755   -1.000
 6414.00    1.32237   1.15018   -1.000
 6415.00    1.32172   1.15536    0.125
 6416.00    1.34593   1.16105    0.020
 6417.00    1.36523   1.16240    0.012
 6418.00    1.36704   1.15931    0.012
 6419.00    1.36324   1.14315    0.012
 6420.00    1.34273   1.11149    0.012
 6421.00    1.33218   1.09486    0.012
 6422.00    1.34700   1.12210    0.012
 6423.00    1.35099   1.16632    0.012
 6424.00    1.33127   1.18058    0.012
 6425.00    1.30145   1.17502    0.012
 6426.00    1.25246   1.17612    0.012
 6427.00    1.22964   1.18349    0.012
 6428.00    1.25023   1.18427    0.012
 6429.00    1.27226   1.16526    0.012
 6430.00    1.29637   1.12474    0.012
 6431.00    1.30586   1.09939    0.012
 6432.00    1.29667   1.11721    0.012
 6433.00    1.30099   1.14657    0.012
 6434.00    1.32053   1.16578    0.012
 6435.00    1.32565   1.17537    0.012
 6436.00    1.31646   1.18021    0.012
 6437.00    1.30505   1.16881    0.012
 6438.00    1.29169   1.12802    0.012
 6439.00    1.30726   1.09711    0.012
 6440.00    1.34516   1.12537    0.012
 6441.00    1.35548   1.17190    0.012
 6442.00    1.34707   1.19143    0.012
 6443.00    1.32683   1.19583    0.012
 6444.00    1.29954   1.19569    0.012
 6445.00    1.28068   1.19542    0.012
 6446.00    1.26619   1.19697    0.012
 6447.00    1.25888   1.19193    0.012
 6448.00    1.25479   1.16314    0.012
 6449.00    1.23239   1.10009    0.012
 6450.00    1.20291   1.05687    0.012
 6451.00    1.21589   1.08792    0.012
 6452.00    1.24284   1.14180    0.012
 6453.00    1.26926   1.17085    0.012
 6454.00    1.29553   1.16911    0.011
 6455.00    1.28537   1.14024    0.011
 6456.00    1.26695   1.12246    0.011
 6457.00    1.23746   1.14411    0.011
 6458.00    1.20595   1.17597    0.011
 6459.00    1.21762   1.19281    0.011
 6460.00    1.23528   1.19241    0.012
 6461.00    1.29357   1.16139    0.012
 6462.00    1.35591   1.09724    0.012
 6463.00    1.34211   1.07302    0.012
 6464.00    1.32350   1.11504    0.011
 6465.00    1.29728   1.15604    0.012
 6466.00    1.27102   1.17509    0.012
 6467.00    1.29575   1.18319    0.012
 6468.00    1.31863   1.18120    0.012
 6469.00    1.29002   1.16890    0.012
 6470.00    1.26360   1.15633    0.012
 6471.00    1.26807   1.14134    0.012
 6472.00    1.27033   1.13894    0.012
 6473.00    1.25210   1.15234    0.012
 6474.00    1.23355   1.14866    0.012
 6475.00    1.21285   1.13104    0.012
 6476.00    1.20561   1.13258    0.012
 6477.00    1.26890   1.15200    0.012
 6478.00    1.31933   1.16154    0.012
 6479.00    1.31538   1.16160    0.012
 6480.00    1.31262   1.15299    0.012
 6481.00    1.31402   1.12337    0.012
 6482.00    1.31522   1.09087    0.012
 6483.00    1.31582   1.09045    0.012
 6484.00    1.31616   1.11519    0.012
 6485.00    1.31582   1.13653    0.012
 6486.00    1.32212   1.14490    0.012
 6487.00    1.34272   1.14833    0.012
 6488.00    1.35057   1.14916    0.012
 6489.00    1.33454   1.14249    0.012
 6490.00    1.31628   1.12810    0.012
 6491.00    1.29436   1.11499    0.012
 6492.00    1.26544   1.10329    0.012
 6493.00    1.22648   1.06490    0.012
 6494.00    1.20656   1.00128    0.012
 6495.00    1.21066   0.96792    0.012
 6496.00    1.20244   0.97276    0.012
 6497.00    1.18055   0.99746    0.012
 6498.00    1.17304   1.02915    0.012
 6499.00    1.17960   1.04508    0.012
 6500.00    1.19314   1.06743    0.012
 6501.00    1.21270   1.09739    0.012
 6502.00    1.22467   1.11669    0.012
 6503.00    1.23085   1.12713    0.012
 6504.00    1.23041   1.13197    0.012
 6505.00    1.22554   1.13831    0.011
 6506.00    1.23633   1.14341    0.011
 6507.00    1.25629   1.13833    0.012
 6508.00    1.29614   1.12689    0.012
 6509.00    1.34614   1.12439    0.012
 6510.00    1.36399   1.13408    0.012
 6511.00    1.36762   1.14130    0.012
 6512.00    1.37600   1.14078    0.012
 6513.00    1.38618   1.13827    0.012
 6514.00    1.37514   1.13005    0.012
 6515.00    1.35726   1.11483    0.012
 6516.00    1.33828   1.10198    0.012
 6517.00    1.31900   1.09866    0.012
 6518.00    1.29933   1.09360    0.012
 6519.00    1.27958   1.09833    0.012
 6520.00    1.26201   1.11945    0.012
 6521.00    1.24483   1.13608    0.012
 6522.00    1.27372   1.13918    0.012
 6523.00    1.30881   1.13662    0.012
 6524.00    1.30363   1.13838    0.012
 6525.00    1.29460   1.13843    0.012
 6526.00    1.30488   1.12439    0.012
 6527.00    1.31630   1.11167    0.012
 6528.00    1.32868   1.11925    0.000
 6529.00    1.34117   1.13479    0.000
 6530.00    1.36459   1.14041    0.000
 6531.00    1.38732   1.13216    0.000
 6532.00    1.39288   1.11967    0.000
 6533.00    1.39621   1.11390    0.000
 6534.00    1.36972   1.12209    0.000
 6535.00    1.34310   1.13535    0.000
 6536.00    1.31531   1.14138    0.000
 6537.00    1.29365   1.13764    0.000
 6538.00    1.31220   1.13639    0.000
 6539.00    1.32873   1.14411    0.000
 6540.00    1.33500   1.15141    0.000
 6541.00    1.33954   1.14743    0.000
 6542.00    1.33697   1.13517    0.000
 6543.00    1.33361   1.12303    0.000
 6544.00    1.32756   1.11427    0.000
 6545.00    1.32940   1.09621    0.000
 6546.00    1.35399   1.07218    0.000
 6547.00    1.37168   1.07724    0.000
 6548.00    1.37241   1.10188    0.000
 6549.00    1.37448   1.11369    0.000
 6550.00    1.37941   1.10873    0.000
 6551.00    1.38272   1.09990    0.000
 6552.00    1.38304   1.09614    0.000
 6553.00    1.36510   1.09085    0.000
 6554.00    1.31777   1.07492    0.000
 6555.00    1.26830   1.05771    0.000
 6556.00    1.21583   1.05522    0.000
 6557.00    1.19154   1.06651    0.000
 6558.00    1.20228   1.07296    0.000
 6559.00    1.22143   1.06381    0.000
 6560.00    1.24979   1.03906    0.000
 6561.00    1.27139   0.95524    0.000
 6562.00    1.28645   0.78461    0.000
 6563.00    1.29268   0.69452    0.000
 6564.00    1.29136   0.81187    0.000
 6565.00    1.29006   0.97478    0.000
 6566.00    1.28876   1.05187    0.000
 6567.00    1.26191   1.07783    0.000
 6568.00    1.21821   1.08025    0.000
 6569.00    1.18551   1.06845    0.000
 6570.00    1.15915   1.07173    0.000
 6571.00    1.16318   1.08179    0.000
 6572.00    1.18249   1.07224    0.000
 6573.00    1.19290   1.05231    0.000
 6574.00    1.19943   1.04299    0.000
 6575.00    1.20159   1.05273    0.000
 6576.00    1.20212   1.08195    0.000
 6577.00    1.23085   1.10978    0.000
 6578.00    1.26852   1.11935    0.000
 6579.00    1.28274   1.11505    0.000
 6580.00    1.29078   1.10164    0.000
 6581.00    1.29023   1.09111    0.000
 6582.00    1.28783   1.10059    0.000
 6583.00    1.35217   1.11524    0.000
 6584.00    1.42795   1.11776    0.000
 6585.00    1.44654   1.10992    0.000
 6586.00    1.45770   1.10011    0.000
 6587.00    1.43438   1.10615    0.000
 6588.00    1.40791   1.12211    0.000
 6589.00    1.41509   1.12924    0.000
 6590.00    1.42412   1.12812    0.000
 6591.00    1.38726   1.11075    0.000
 6592.00    1.34936   1.06635    0.000
 6593.00    1.30531   1.02406    0.000
 6594.00    1.26265   1.03412    0.000
 6595.00    1.25158   1.07923    0.000
 6596.00    1.24412   1.10587    0.000
 6597.00    1.28232   1.10399    0.000
 6598.00    1.31501   1.09115    0.000
 6599.00    1.30052   1.08988    0.000
 6600.00    1.28887   1.10813    0.000
 6601.00    1.29531   1.12506    0.000
 6602.00    1.30047   1.12723    0.000
 6603.00    1.29924   1.11880    0.000
 6604.00    1.29194   1.10412    0.000
 6605.00    1.26019   1.09394    0.000
 6606.00    1.22689   1.09261    0.000
 6607.00    1.18838   1.08997    0.000
 6608.00    1.16734   1.07644    0.000
 6609.00    1.19571   1.06506    0.012
 6610.00    1.23008   1.08114    0.012
 6611.00    1.27896   1.11155    0.012
 6612.00    1.31325   1.12037    0.012
 6613.00    1.31711   1.10695    0.012
 6614.00    1.30939   1.09981    0.012
 6615.00    1.28067   1.11194    0.012
 6616.00    1.27261   1.12138    0.012
 6617.00    1.29732   1.12096    0.012
 6618.00    1.31101   1.11809    0.012
 6619.00    1.30936   1.11991    0.012
 6620.00    1.31240   1.12492    0.012
 6621.00    1.32118   1.12646    0.012
 6622.00    1.30618   1.12222    0.012
 6623.00    1.26550   1.10915    0.012
 6624.00    1.25578   1.08929    0.012
 6625.00    1.27555   1.07934    0.012
 6626.00    1.29570   1.08963    0.012
 6627.00    1.31616   1.10051    0.012
 6628.00    1.33763   1.10379    0.012
 6629.00    1.35985   1.10334    0.012
 6630.00    1.37404   1.09996    0.012
 6631.00    1.38303   1.09588    0.012
 6632.00    1.35187   1.08635    0.012
 6633.00    1.29790   1.06899    0.012
 6634.00    1.25794   1.06008    0.012
 6635.00    1.22492   1.07385    0.012
 6636.00    1.22641   1.09327    0.012
 6637.00    1.24267   1.10429    0.013
 6638.00    1.26346   1.10558    0.013
 6639.00    1.28591   1.10076    0.012
 6640.00    1.31037   1.09929    0.013
 6641.00    1.33545   1.10709    0.013
 6642.00    1.34079   1.10321    0.013
 6643.00    1.34101   1.07416    0.012
 6644.00    1.29219   1.05917    0.012
 6645.00    1.23302   1.07695    0.012
 6646.00    1.21606   1.09367    0.012
 6647.00    1.20612   1.09485    0.012
 6648.00    1.24007   1.09501    0.012
 6649.00    1.27952   1.09996    0.012
 6650.00    1.27086   1.09851    0.012
 6651.00    1.25800   1.09057    0.012
 6652.00    1.25676   1.08554    0.012
 6653.00    1.25612   1.08666    0.012
 6654.00    1.27815   1.08907    0.012
 6655.00    1.30008   1.09101    0.012
 6656.00    1.28667   1.08940    0.012
 6657.00    1.27436   1.08897    0.013
 6658.00    1.28530   1.09139    0.013
 6659.00    1.29508   1.09097    0.013
 6660.00    1.29075   1.08615    0.013
 6661.00    1.28511   1.08053    0.013
 6662.00    1.26870   1.06748    0.013
 6663.00    1.25175   1.04535    0.013
 6664.00    1.23147   1.04542    0.013
 6665.00    1.20964   1.06434    0.013
 6666.00    1.18026   1.07259    0.013
 6667.00    1.17254   1.07178    0.013
 6668.00    1.25030   1.07449    0.013
 6669.00    1.30747   1.08542    0.013
 6670.00    1.29707   1.09503    0.013
 6671.00    1.28978   1.09844    0.013
 6672.00    1.29118   1.09617    0.013
 6673.00    1.28327   1.09492    0.013
 6674.00    1.25325   1.09524    0.012
 6675.00    1.23961   1.09513    0.012
 6676.00    1.25958   1.08427    0.013
 6677.00    1.27682   1.04790    0.013
 6678.00    1.28918   1.01550    0.013
 6679.00    1.27666   1.02920    0.013
 6680.00    1.22529   1.05957    0.013
 6681.00    1.18205   1.06827    0.013
 6682.00    1.14996   1.06969    0.013
 6683.00    1.15214   1.07577    0.013
 6684.00    1.19573   1.08265    0.013
 6685.00    1.24178   1.08401    0.013
 6686.00    1.29045   1.08176    0.013
 6687.00    1.31200   1.07804    0.013
 6688.00    1.30810   1.07501    0.013
 6689.00    1.29716   1.07777    0.013
 6690.00    1.28038   1.08084    0.013
 6691.00    1.25983   1.08193    0.013
 6692.00    1.23652   1.08070    0.013
 6693.00    1.22955   1.08123    0.013
 6694.00    1.23303   1.07907    0.013
 6695.00    1.22371   1.06805    0.013
 6696.00    1.20723   1.05440    0.000
 6697.00    1.19622   1.05322    0.000
 6698.00    1.18787   1.06118    0.000
 6699.00    1.21847   1.07010    0.000
 6700.00    1.26546   1.08120    0.000
 6701.00    1.28451   1.08633    0.000
 6702.00    1.29350   1.08004    0.000
 6703.00    1.30773   1.06754    0.000
 6704.00    1.32355   1.05816    0.000
 6705.00    1.25302   1.06156    0.000
 6706.00    1.16062   1.07183    0.000
 6707.00    1.14720   1.07798    0.000
 6708.00    1.15004   1.07799    0.000
 6709.00    1.15431   1.07578    0.000
 6710.00    1.15880   1.06907    0.000
 6711.00    1.18908   1.06888    0.000
 6712.00    1.22248   1.07190    0.000
 6713.00    1.28682   1.06492    0.000
 6714.00    1.35374   1.05436    0.000
 6715.00    1.31867   1.04299    0.000
 6716.00    1.27877   1.02695    0.000
 6717.00    1.38563   1.00543    0.000
 6718.00    1.49041   1.00296    0.000
 6719.00    1.36196   1.02915    0.000
 6720.00    1.23834   1.05066    0.000
 6721.00    1.20871   1.05256    0.000
 6722.00    1.18587   1.05079    0.000
 6723.00    1.24095   1.05664    0.000
 6724.00    1.28312   1.06066    0.000
 6725.00    1.22248   1.05556    0.000
 6726.00    1.17703   1.04712    0.000
 6727.00    1.22270   1.04980    0.000
 6728.00    1.26200   1.05797    0.000
 6729.00    1.27115   1.06340    0.000
 6730.00    1.27990   1.06638    0.000
 6731.00    1.28713   1.06553    0.000
 6732.00    1.30696   1.06152    0.000
 6733.00    1.36733   1.05701    0.000
 6734.00    1.39518   1.05754    0.000
 6735.00    1.33437   1.06086    0.000
 6736.00    1.27671   1.06394    0.000
 6737.00    1.22642   1.06065    0.000
 6738.00    1.18735   1.04889    0.000
 6739.00    1.17093   1.03972    0.000
 6740.00    1.15724   1.04202    0.000
 6741.00    1.14835   1.04990    0.000
 6742.00    1.14026   1.04559    0.000
 6743.00    1.13340   1.03630    0.000
 6744.00    1.10621   1.04062    0.000
 6745.00    1.05154   1.05068    0.000
 6746.00    1.05001   1.05132    0.000
 6747.00    1.11175   1.04669    0.000
 6748.00    1.16346   1.04096    0.000
 6749.00    1.20465   1.03031    0.000
 6750.00    1.21667   1.02224    0.000
 6751.00    1.20166   1.02866    0.000
 6752.00    1.14191   1.03482    0.000
 6753.00    1.04562   1.03226    0.015
 6754.00    1.00340   1.03935    0.015
 6755.00    1.00003   1.04917    0.016
 6756.00    1.00449   1.05540    0.016
 6757.00    1.01388   1.06176    0.016
 6758.00    1.09254   1.06659    0.016
 6759.00    1.20937   1.06887    0.016
 6760.00    1.29592   1.07032    0.016
 6761.00    1.36795   1.06933    0.017
 6762.00    1.46322   1.06501    0.017
 6763.00    1.56810   1.06531    0.017
 6764.00    1.56222   1.06710    0.017
 6765.00    1.51716   1.06337    0.017
 6766.00    1.43111   1.05017    0.016
 6767.00    1.33283   1.03290    0.016
 6768.00    1.31085   1.03068    0.016
 6769.00    1.30777   1.04363    0.016
 6770.00    1.39048   1.04620    0.016
 6771.00    1.49041   1.03911    0.016
 6772.00    1.41325   1.04171    0.016
 6773.00    1.30826   1.05299    0.016
 6774.00    1.33998   1.06351    0.015
 6775.00    1.38764   1.07163    0.015
 6776.00    1.35747   1.07547    0.015
 6777.00    1.32117   1.07444    0.015
 6778.00    1.36573   1.07435    0.016
 6779.00    1.41381   1.07728    0.016
 6780.00    1.33896   1.07566    0.016
 6781.00    1.26542   1.06764    0.016
 6782.00    1.31328   1.05213    0.016
 6783.00    1.36062   1.03501    0.016
 6784.00    1.39827   1.02496    0.016
 6785.00    1.42945   1.02529    0.016
 6786.00    1.38983   1.03026    0.015
 6787.00    1.33997   1.03796    0.015
 6788.00    1.21134   1.04672    0.015
 6789.00    1.11946   1.04795    0.015
 6790.00    1.24182   1.04441    0.016
 6791.00    1.34981   1.04649    0.016
 6792.00    1.39132   1.04744    0.016
 6793.00    1.41041   1.04020    0.016
 6794.00    1.34472   1.03435    0.016
 6795.00    1.30519   1.03635    0.016
 6796.00    1.34830   1.04039    0.016
 6797.00    1.34518   1.04631    0.016
 6798.00    1.21829   1.04896    0.016
 6799.00    1.15144   1.05104    0.016
 6800.00    1.22256   1.05454    0.016
 6801.00    1.27941   1.05830    0.016
 6802.00    1.30787   1.05993    0.016
 6803.00    1.31749   1.05581    0.016
 6804.00    1.29445   1.04953    0.016
 6805.00    1.27435   1.04998    0.015
 6806.00    1.25871   1.04797    0.015
 6807.00    1.25892   1.04380    0.015
 6808.00    1.28027   1.04817    0.015
 6809.00    1.27699   1.04946    0.015
 6810.00    1.24481   1.04390    0.015
 6811.00    1.23293   1.04597    0.015
 6812.00    1.24204   1.05061    0.015
 6813.00    1.24906   1.05156    0.016
 6814.00    1.25419   1.04395    0.016
 6815.00    1.28835   1.03560    0.016
 6816.00    1.34589   1.04092    0.016
 6817.00    1.34205   1.05249    0.016
 6818.00    1.29476   1.05525    0.016
 6819.00    1.27256   1.04792    0.016
 6820.00    1.26595   1.04108    0.016
 6821.00    1.27674   1.04482    0.015
 6822.00    1.29697   1.05507    0.015
 6823.00    1.26519   1.06073    0.015
 6824.00    1.20890   1.06163    0.016
 6825.00    1.17938   1.06245    0.015
 6826.00    1.16075   1.06101    0.015
 6827.00    1.15155   1.04859    0.015
 6828.00    1.14563   1.03295    0.015
 6829.00    1.17168   1.03262    0.015
 6830.00    1.20709   1.04642    0.016
 6831.00    1.19977   1.05723    0.015
 6832.00    1.18210   1.05539    0.015
 6833.00    1.22897   1.05083    0.015
 6834.00    1.28847   1.05505    0.015
 6835.00    1.37908   1.06095    0.016
 6836.00    1.47443   1.06010    0.016
 6837.00    1.37704   1.05478    0.016
 6838.00    1.25801   1.04557    0.017
 6839.00    1.18077   1.03348    0.017
 6840.00    1.10666   1.02198    0.017
 6841.00    1.06700   1.00970    0.017
 6842.00    1.02871   1.00606    0.017
 6843.00    1.12878   1.01600    0.016
 6844.00    1.22828   1.03253    0.016
 6845.00    1.26680   1.04702    0.016
 6846.00    1.29792   1.05027    0.016
 6847.00    1.20386   1.04844    0.016
 6848.00    1.12322   1.04963    0.016
 6849.00    1.18302   1.04884    0.016
 6850.00    1.23793   1.04515    0.016
 6851.00    1.25648   1.04366    0.016
 6852.00    1.27426   1.04550    0.015
 6853.00    1.28759   1.04466    0.015
 6854.00    1.28729   1.03070    0.015
 6855.00    1.22546   1.01295    0.015
 6856.00    1.19505   1.01329    0.015
 6857.00    1.28095   1.02268    0.015
 6858.00    1.31181   1.02718    0.016
 6859.00    1.17218   1.03207    0.016
 6860.00    1.05204   1.02899    0.016
 6861.00    0.98312   1.01492    0.016
 6862.00    0.99283   1.01240    0.016
 6863.00    1.18021   1.03103    0.016
 6864.00    1.26984   1.05149    0.016
 6865.00    1.16815   1.05439    0.016
 6866.00    1.11493   1.04411    0.016
 6867.00    1.14441   1.03057    0.017
 6868.00    1.15879   1.01985    0.017
 6869.00    1.15063   1.02253    0.016
 6870.00    1.15739   1.03483    0.016
 6871.00    1.18375   1.03392    0.016
 6872.00    1.22070   1.02342    0.016
 6873.00    1.26992   1.02436    0.015
 6874.00    1.28421   1.03266    0.015
 6875.00    1.26283   1.03536    0.015
 6876.00    1.23666   1.03931    0.015
 6877.00    1.20615   1.04756    0.015
 6878.00    1.22238   1.05470    0.015
 6879.00    1.27568   1.05634    0.015
 6880.00    1.27780   1.05302    0.015
 6881.00    1.24421   1.04040    0.016
 6882.00    1.22300   1.02584    0.016
 6883.00    1.20937   1.02226    0.016
 6884.00    1.22331   1.03136    0.016
 6885.00    1.25199   1.03751    0.016
 6886.00    1.22105   1.03499    0.016
 6887.00    1.16246   1.03911    0.016
 6888.00    1.21504   1.05037    0.016
 6889.00    1.31205   1.05604    0.016
 6890.00    1.32560   1.05674    0.016
 6891.00    1.31070   1.05956    0.016
 6892.00    1.27204   1.05963    0.016
 6893.00    1.22658   1.05479    0.016
 6894.00    1.20824   1.05257    0.016
 6895.00    1.19632   1.04947    0.015
 6896.00    1.20360   1.04462    0.015
 6897.00    1.21454   1.04472    0.015
 6898.00    1.25334   1.04912    0.016
 6899.00    1.29627   1.04838    0.016
 6900.00    1.24468   1.03843    0.016
 6901.00    1.18290   1.03740    0.016
 6902.00    1.22925   1.04980    0.016
 6903.00    1.28325   1.05816    0.016
 6904.00    1.31973   1.05634    0.016
 6905.00    1.35558   1.05171    0.016
 6906.00    1.29117   1.05628    0.016
 6907.00    1.22950   1.06565    0.016
 6908.00    1.27398   1.06881    0.016
 6909.00    1.30814   1.06621    0.016
 6910.00    1.17907   1.06139    0.016
 6911.00    1.07007   1.05575    0.016
 6912.00    1.16209   1.05196    0.016
 6913.00    1.23680   1.04203    0.016
 6914.00    1.18709   1.02743    0.016
 6915.00    1.15020   1.02750    0.016
 6916.00    1.18403   1.03491    0.016
 6917.00    1.20777   1.03641    0.016
 6918.00    1.18705   1.04207    0.015
 6919.00    1.17082   1.04614    0.015
 6920.00    1.17089   1.05076    0.015
 6921.00    1.16925   1.05801    0.015
 6922.00    1.16242   1.06028    0.016
 6923.00    1.16730   1.05047    0.016
 6924.00    1.20247   1.03049    0.016
 6925.00    1.23937   1.01984    0.016
 6926.00    1.28013   1.02537    0.016
 6927.00    1.32144   1.03998    0.016
 6928.00    1.36384   1.05183    0.016
 6929.00    1.34580   1.05562    0.016
 6930.00    1.22620   1.05354    0.016
 6931.00    1.16512   1.04908    0.016
 6932.00    1.19022   1.04162    0.017
 6933.00    1.20054   1.03230    0.017
 6934.00    1.19171   1.03477    0.017
 6935.00    1.18103   1.04514    0.017
 6936.00    1.16825   1.04843    0.016
 6937.00    1.15501   1.04650    0.016
 6938.00    1.14131   1.04483    0.016
 6939.00    1.13545   1.04733    0.016
 6940.00    1.13655   1.05265    0.016
 6941.00    1.20894   1.05622    0.016
 6942.00    1.33707   1.05472    0.016
 6943.00    1.35768   1.04644    0.016
 6944.00    1.30437   1.02897    0.016
 6945.00    1.22068   1.01402    0.016
 6946.00    1.11869   1.02306    0.017
 6947.00    1.06621   1.04351    0.018
 6948.00    1.03977   1.05265    0.018
 6949.00    1.06901   1.05487    0.018
 6950.00    1.12366   1.05066    0.018
 6951.00    1.07111   1.03939    0.018
 6952.00    0.97646   1.03283    0.018
 6953.00    1.10334   1.03149    0.018
 6954.00    1.30431   1.02964    0.017
 6955.00    1.31853   1.03421    0.017
 6956.00    1.28030   1.04441    0.017
 6957.00    1.20740   1.05074    0.016
 6958.00    1.12648   1.05144    0.016
 6959.00    1.12933   1.05210    0.016
 6960.00    1.14773   1.05307    0.016
 6961.00    1.17586   1.05565    0.016
 6962.00    1.20538   1.05801    0.016
 6963.00    1.20354   1.06056    0.016
 6964.00    1.19845   1.06125    0.016
 6965.00    1.22463   1.05470    0.016
 6966.00    1.25289   1.04949    0.016
 6967.00    1.24616   1.05443    0.016
 6968.00    1.23829   1.06319    0.016
 6969.00    1.20755   1.06490    0.016
 6970.00    1.17875   1.05864    0.016
 6971.00    1.20953   1.05031    0.016
 6972.00    1.24176   1.05076    0.016
 6973.00    1.29570   1.05879    0.016
 6974.00    1.32851   1.05786    0.017
 6975.00    1.15846   1.04756    0.016
 6976.00    1.01222   1.03444    0.016
 6977.00    1.03164   1.01429    0.016
 6978.00    1.05878   0.98345    0.016
 6979.00    1.12742   0.97336    0.016
 6980.00    1.17731   1.00218    0.016
 6981.00    1.14647   1.03584    0.016
 6982.00    1.13067   1.05360    0.016
 6983.00    1.16831   1.06059    0.016
 6984.00    1.17751   1.06124    0.016
 6985.00    1.10190   1.06033    0.016
 6986.00    1.05770   1.06099    0.016
 6987.00    1.09327   1.05820    0.016
 6988.00    1.11734   1.04788    0.016
 6989.00    1.11630   1.03715    0.016
 6990.00    1.14412   1.03715    0.016
 6991.00    1.22668   1.04574    0.016
 6992.00    1.24234   1.05465    0.016
 6993.00    1.14726   1.05534    0.016
 6994.00    1.06151   1.04912    0.016
 6995.00    0.98929   1.04650    0.016
 6996.00    1.02113   1.04993    0.017
 6997.00    1.18579   1.05254    0.017
 6998.00    1.24598   1.04595    0.017
 6999.00    1.18868   1.02952    0.017
 7000.00    1.13099   1.02055    0.017
 7001.00    1.07292   1.02939    0.017
 7002.00    1.04421   1.04408    0.017
 7003.00    1.04119   1.04473    0.017
 7004.00    1.04751   1.03165    0.017
 7005.00    1.06101   1.02366    0.017
 7006.00    0.90182   1.02687    0.017
 7007.00    0.62561   1.03500    0.016
 7008.00    0.67699   1.04281    0.016
 7009.00    0.92288   1.04931    0.017
 7010.00    1.07600   1.04934    0.017
 7011.00    1.18107   1.04299    0.017
 7012.00    1.20820   1.04201    0.018
 7013.00    1.20034   1.04847    0.018
 7014.00    1.10206   1.04547    0.018
 7015.00    0.96889   1.01985    0.018
 7016.00    0.99996   0.98601    0.018
 7017.00    1.08495   0.98740    0.018
 7018.00    1.07306   1.02417    0.018
 7019.00    1.03451   1.05091    0.018
 7020.00    1.11409   1.05823    0.019
 7021.00    1.22036   1.05786    0.019
 7022.00    1.18003   1.04783    0.019
 7023.00    1.11321   1.02774    0.018
 7024.00    1.15695   1.01419    0.018
 7025.00    1.21601   1.02093    0.018
 7026.00    1.14098   1.03752    0.018
 7027.00    1.05263   1.04476    0.018
 7028.00    1.03837   1.04511    0.018
 7029.00    1.02875   1.04774    0.018
 7030.00    1.12885   1.05225    0.018
 7031.00    1.23147   1.05523    0.018
 7032.00    1.17502   1.05101    0.017
 7033.00    1.12084   1.04561    0.017
 7034.00    1.12905   1.04320    0.018
 7035.00    1.13741   1.04718    0.018
 7036.00    1.14791   1.05217    0.018
 7037.00    1.16104   1.03970    0.019
 7038.00    1.19839   1.01444    0.019
 7039.00    1.21636   1.01502    0.018
 7040.00    1.10370   1.04739    0.019
 7041.00    1.02559   1.07474    0.019
 7042.00    1.12805   1.08513    0.019
 7043.00    1.20819   1.08479    0.019
 7044.00    1.19434   1.07518    0.019
 7045.00    1.16262   1.06472    0.018
 7046.00    1.06872   1.06651    0.018
 7047.00    1.02174   1.07744    0.018
 7048.00    1.11207   1.08591    0.019
 7049.00    0.95138   1.08619    0.019
 7050.00    0.16409   1.08007   -2.000
 7051.00   -0.10073   1.06738   -2.000
 7052.00    0.75823   1.04430   -2.000
 7053.00    1.31488   1.01822   -2.000
 7054.00    1.30698   1.00078   -2.000
 7055.00    1.29645   0.99500   -2.000
 7056.00    1.28164   1.00514   -2.000
 7057.00    1.29142   1.02110   -2.000
 7058.00    1.33635   1.02448   -2.000
 7059.00    1.34637   1.01028   -2.000
 7060.00    1.31246   0.99289   -2.000
 7061.00    1.23760   0.99000   -2.000
 7062.00    1.11735   0.99711   -2.000
 7063.00    1.10429   1.00320   -2.000
 7064.00    1.19605   1.00978   -2.000
 7065.00    1.20233   1.00944   -2.000
 7066.00    1.13486   0.99772   -2.000
 7067.00    1.12709   0.98791   -2.000
 7068.00    1.16467   0.97915   -2.000
 7069.00    1.25144   0.98287   -2.000
 7070.00    1.37106   1.00231   -2.000
 7071.00    1.32712   1.01863   -2.000
 7072.00    1.18753   1.02346   -2.000
 7073.00    1.19843   1.02623   -2.000
 7074.00    1.28606   1.02756   -2.000
 7075.00    1.29667   1.02410   -2.000
 7076.00    1.27327   1.02204   -2.000
 7077.00    1.27344   1.02182   -2.000
 7078.00    1.28256   1.02377   -2.000
 7079.00    1.38988   1.02579   -2.000
 7080.00    1.52883   1.02917   -2.000
 7081.00    1.54456   1.03026   -2.000
 7082.00    1.52710   1.02151   -2.000
 7083.00    1.36395   1.00145   -2.000
 7084.00    1.16864   0.97463   -2.000
 7085.00    1.15136   0.96124   -2.000
 7086.00    1.16537   0.96788   -2.000
 7087.00    1.31576   0.96692   -2.000
 7088.00    1.48442   0.95376   -2.000
 7089.00    1.21469   0.94434   -2.000
 7090.00    0.90331   0.94092   -2.000
 7091.00    0.90970   0.94496   -2.000
 7092.00    0.93473   0.95301   -2.000
 7093.00    1.06510   0.95263   -2.000
 7094.00    1.19746   0.95199   -2.000
 7095.00    1.24636   0.95029   -2.000
 7096.00    1.28883   0.94893   -2.000
 7097.00    1.17174   0.95083   -2.000
 7098.00    1.07076   0.95783   -2.000
 7099.00    1.18380   0.97558   -2.000
 7100.00    1.27506   0.98181   -2.000
 7101.00    1.17330   0.97863   -2.000
 7102.00    1.08973   0.96934   -2.000
 7103.00    1.12501   0.96398   -2.000
 7104.00    1.16448   0.97094   -2.000
 7105.00    1.22532   0.98257   -2.000
 7106.00    1.25845   0.98416   -2.000
 7107.00    1.17755   0.97873   -2.000
 7108.00    1.12529   0.97992   -2.000
 7109.00    1.17070   0.98258   -2.000
 7110.00    1.19883   0.97412   -2.000
 7111.00    1.17729   0.95934   -2.000
 7112.00    1.17984   0.95774   -2.000
 7113.00    1.24151   0.97021   -2.000
 7114.00    1.25306   0.97957   -2.000
 7115.00    1.15858   0.98187   -2.000
 7116.00    1.12863   0.98734   -2.000
 7117.00    1.21737   0.99303   -2.000
 7118.00    1.26268   0.99378   -2.000
 7119.00    1.23823   0.99223   -2.000
 7120.00    1.25699   0.98856   -2.000
 7121.00    1.33665   0.98133   -2.000
 7122.00    1.38073   0.97188   -2.000
 7123.00    1.38068   0.97730   -2.000
 7124.00    1.28371   0.98665   -2.000
 7125.00    1.08077   0.97400   -2.000
 7126.00    1.03777   0.95293   -2.000
 7127.00    1.14901   0.94794   -2.000
 7128.00    1.12629   0.95397   -2.000
 7129.00    0.98963   0.95210   -2.000
 7130.00    1.00688   0.93655   -2.000
 7131.00    1.13938   0.92442   -2.000
 7132.00    0.94079   0.93359   -2.000
 7133.00    0.52437   0.95005   -2.000
 7134.00    0.63464   0.96368   -2.000
 7135.00    1.04830   0.97029   -2.000
 7136.00    1.25199   0.97158   -2.000
 7137.00    1.35033   0.97412   -2.000
 7138.00    1.28868   0.97014   -2.000
 7139.00    1.15756   0.96227   -2.000
 7140.00    1.16475   0.96489   -2.000
 7141.00    1.22346   0.97542   -2.000
 7142.00    1.15518   0.97977   -2.000
 7143.00    1.04679   0.98007   -2.000
 7144.00    1.10771   0.98060   -2.000
 7145.00    1.21329   0.97940   -2.000
 7146.00    1.29246   0.97851   -2.000
 7147.00    1.36595   0.96345   -2.000
 7148.00    1.19796   0.94044   -2.000
 7149.00    0.98869   0.94583   -2.000
 7150.00    1.02844   0.96960   -2.000
 7151.00    1.10042   0.98242   -2.000
 7152.00    1.13452   0.99263   -2.000
 7153.00    1.16519   1.00478   -2.000
 7154.00    1.24320   1.00661   -2.000
 7155.00    1.32380   1.00074   -2.000
 7156.00    1.22914   1.00666   -2.000
 7157.00    1.13341   1.02145   -2.000
 7158.00    1.27510   1.02160   -2.000
 7159.00    1.40408   1.00877   -2.000
 7160.00    1.24439   1.00074   -2.000
 7161.00    0.75251   1.00728   -2.000
 7162.00   -3.92309   1.01452   -2.000
 7163.00   -7.62967   0.96962   -2.000
 7164.00   -3.06924   0.92537   -2.000
 7165.00    0.90418   0.90754   -2.000
 7166.00    1.15723   0.92320   -2.000
 7167.00    1.31418   0.94861   -2.000
 7168.00    0.99394   0.95971   -2.000
 7169.00    0.71965   0.95800   -2.000
 7170.00    0.63033   0.95716   -2.000
 7171.00    0.60683   0.96277   -2.000
 7172.00    0.80326   0.96996   -2.000
 7173.00    0.94966   0.97303   -2.000
 7174.00    0.95495   0.96946   -2.000
 7175.00    0.93736   0.96060   -2.000
 7176.00    0.86459   0.95158   -2.000
 7177.00    0.83227   0.95387   -2.000
 7178.00    0.88421   0.96276   -2.000
 7179.00    0.89265   0.95959   -2.000
 7180.00    0.82233   0.94012   -2.000
 7181.00    0.79049   0.92358   -2.000
 7182.00    0.81956   0.93032   -2.000
 7183.00    0.85594   0.95614   -2.000
 7184.00    0.90249   0.97351   -2.000
 7185.00    0.90516   0.97090   -2.000
 7186.00    0.85417   0.95316   -2.000
 7187.00    0.83137   0.92461   -2.000
 7188.00    0.83894   0.91035   -2.000
 7189.00    0.81294   0.91693   -2.000
 7190.00    0.75503   0.93263   -2.000
 7191.00    0.74549   0.94989   -2.000
 7192.00    0.77648   0.95143   -2.000
 7193.00    0.78009   0.94630   -2.000
 7194.00    0.76346   0.95049   -2.000
 7195.00    0.75174   0.96011   -2.000
 7196.00    0.74319   0.95707   -2.000
 7197.00    0.75209   0.94171   -2.000
 7198.00    0.77090   0.94057   -2.000
 7199.00    0.71730   0.95210   -2.000
 7200.00    0.62794   0.95766   -2.000
 7201.00    0.53252   0.94678   -2.000
 7202.00    0.43453   0.93122   -2.000
 7203.00    0.49738   0.94076   -2.000
 7204.00    0.61908   0.96212   -2.000
 7205.00    0.82261   0.96720   -2.000
 7206.00    1.05148   0.94600   -2.000
 7207.00    0.96313   0.91176   -2.000
 7208.00    0.79291   0.90286   -2.000
 7209.00    0.82509   0.91821   -2.000
 7210.00    0.89984   0.93942   -2.000
 7211.00    0.22242   0.96112   -2.000
 7212.00   -0.57993   0.96590   -2.000
 7213.00   -0.07499   0.95573   -2.000
 7214.00    0.59329   0.94630   -2.000
 7215.00    0.66570   0.94320   -2.000
 7216.00    0.68649   0.94679   -2.000
 7217.00    0.71629   0.95548   -2.000
 7218.00    0.74655   0.96708   -2.000
