###################################################################
## OUTPUT of StarlightChains_v04.for    [Cid@UFSC - 01/Apr/2007] ##
###################################################################

## Some input info
KUG0210-078._33_42.txt                   [arq_obs]
Base.CB07.vall.4m                        [arq_base]
Masks.EmLines.NEW.gm                     [arq_masks]
StCv04.C11.config                        [arq_config]
   66                                    [N_base]
    0                                    [N_YAV_components = # of components with extra extinction!]
    0                                    [i_FitPowerLaw (1/0 = Yes/No)]
-9.99                                    [alpha_PowerLaw]
CCM                                      [red_law_option]
 1.458241                                [q_norm = A(l_norm)/A(V)]

## (Re)Sampling Parameters
 3741.00                                 [l_ini (A)]
 7218.00                                 [l_fin (A)]
    1.00                                 [dl    (A)]     (OBS: dl_cushion =    50.00 A)

## Normalization info
 4020.00                                 [l_norm (A) - for base]
 4010.00                                 [llow_norm (A) - window for f_obs]
 4060.00                                 [lupp_norm (A) - window for f_obs]
1.120802E-17                             [fobs_norm (in input units)]

## S/N
 3691.00                                 [llow_SN (A) - window for S/N]
 7268.00                                 [lupp_SN (A) - window for S/N]
   5.256                                 [S/N in S/N window]
   4.218                                 [S/N in norm. window]
   0.018                                 [S/N_err in S/N window]
   0.014                                 [S/N_err in norm. window]
  1.0000                                 [fscale_chi2]

## etc...
    -2007517                             [idum_orig]
  2423                                   [NOl_eff]
  2406                                   [Nl_eff]
    17    NSIGMA                         [Ntot_cliped & clip_method]
  1033900                                [Nglobal_steps]
   7                                     [N_chains]
  17                                     [NEX0s_base = N_base in EX0s-fits]
 0   0   1       17   2.0   1.919E+03    [Clip-Bug, RC-Crash & Burn-In warning-flags, n_censored_weights, wei_nsig_threshold & wei_limit]
    18     18.443     17.948      0.494  [idt_all, wdt_TotTime, wdt_UsrTime & wdt_SysTime (sec)]

## Synthesis Results - Best model ##

 7.74535E-06                             [chi2/Nl_eff]
    11.55164                             [adev (%)]

   115.59846                             [sum-of-x (%)]
 1.40268E-17                             [Flux_tot (units of input spectrum!)]
 4.52767E-13                             [Mini_tot (???)]
 2.35984E-13                             [Mcor_tot (???)]

-320.02                                  [v0_min  (km/s)]
 328.40                                  [vd_min  (km/s)]
 0.0591                                  [AV_min  (mag)]
 0.0000                                  [YAV_min (mag)]

# j     x_j(%)      Mini_j(%)     Mcor_j(%)     age_j(yr)     Z_j      (L/M)_j    YAV?  Mstars   component_j        a/Fe...       SSP_chi2r SSP_adev(%)   SSP_AV   SSP_x(%)
  1      0.0000     0.0000E+00    0.0000E+00    1.000000E+06  0.00400  1.094E-02    0   1.0000   age020_m42            0.0000     1.1670E-05    14.6181   3.5551    96.4006
  2      0.0000     0.0000E+00    0.0000E+00    3.160000E+06  0.00400  4.007E-02    0   0.9999   age045_m42            0.0000     1.0339E-05    13.8112   2.8101   103.8034
  3      0.0000     0.0000E+00    0.0000E+00    5.010000E+06  0.00400  2.539E-02    0   0.9488   age055_m42            0.0000     1.0884E-05    14.1664   3.1409   100.8486
  4      0.0000     0.0000E+00    0.0000E+00    6.610000E+06  0.00400  2.620E-02    0   0.9220   age061_m42            0.0000     1.0327E-05    13.7983   2.7384   103.9714
  5      0.0000     0.0000E+00    0.0000E+00    1.000000E+07  0.00400  1.322E-02    0   0.8862   age070_m42            0.0000     1.0939E-05    14.5851   2.4752   105.4208
  6      0.0000     0.0000E+00    0.0000E+00    1.445000E+07  0.00400  7.883E-03    0   0.8571   age078_m42            0.0000     1.1211E-05    14.7198   2.8041   102.6675
  7      0.0000     0.0000E+00    0.0000E+00    2.512000E+07  0.00400  5.251E-03    0   0.8174   age090_m42            0.0000     1.0987E-05    14.6901   2.3460   105.9946
  8      0.0000     0.0000E+00    0.0000E+00    4.000000E+07  0.00400  3.649E-03    0   0.7851   age104_m42            0.0000     1.0635E-05    14.4181   2.1130   107.1219
  9      0.0000     0.0000E+00    0.0000E+00    5.500000E+07  0.00400  3.098E-03    0   0.7629   age110_m42            0.0000     1.0263E-05    13.9002   2.2550   107.6133
 10      0.0000     0.0000E+00    0.0000E+00    1.015200E+08  0.00400  2.228E-03    0   0.7207   age116_m42            0.0000     1.0072E-05    13.5694   2.2683   108.1142
 11      0.0000     0.0000E+00    0.0000E+00    2.861200E+08  0.00400  1.093E-03    0   0.6648   age125_m42            0.0000     1.0069E-05    13.8291   1.6941   111.3762
 12      0.0000     0.0000E+00    0.0000E+00    5.088000E+08  0.00400  6.597E-04    0   0.6365   age130_m42            0.0000     9.6776E-06    13.2057   1.6718   112.8786
 13      0.0000     0.0000E+00    0.0000E+00    1.434000E+09  0.00400  2.132E-04    0   0.5798   age139_m42            0.0000     8.5701E-06    12.3667   0.6945   115.4481
 14      0.0000     0.0000E+00    0.0000E+00    4.250000E+09  0.00400  5.895E-05    0   0.5377   age158_m42            0.0000     7.9163E-06    11.9705   0.2470   111.2371
 15     23.8478     1.8208E+01    1.8208E+01    7.500000E+09  0.00400  3.510E-05    0   0.5212   age171_m42            0.0000     7.8708E-06    11.8646   0.0520   110.7329
 16      0.0000     0.0000E+00    0.0000E+00    1.300000E+10  0.00400  2.005E-05    0   0.5034   age193_m42            0.0000     7.8877E-06    11.8256  -0.1184   110.2803
 17      0.0000     0.0000E+00    0.0000E+00    1.800000E+10  0.00400  1.525E-05    0   0.4967   age213_m42            0.0000     7.9122E-06    11.8901  -0.1399   109.7241
 18      0.0000     0.0000E+00    0.0000E+00    1.000000E+06  0.00800  1.238E-02    0   1.0000   age020_m52            0.0000     1.1684E-05    14.6213   3.5514    96.5882
 19      0.0000     0.0000E+00    0.0000E+00    3.160000E+06  0.00800  3.074E-02    0   0.9966   age045_m52            0.0000     1.1551E-05    14.5206   3.4738    97.4999
 20      0.0000     0.0000E+00    0.0000E+00    5.010000E+06  0.00800  2.668E-02    0   0.9443   age055_m52            0.0000     1.1060E-05    14.2705   3.2262    99.8407
 21      5.7499     7.2143E-03    1.2702E-02    6.610000E+06  0.00800  2.136E-02    0   0.9177   age061_m52            0.0000     1.0415E-05    14.2999   1.9755   106.6172
 22      0.0000     0.0000E+00    0.0000E+00    1.000000E+07  0.00800  1.215E-02    0   0.8827   age070_m52            0.0000     1.1410E-05    15.0549   2.6593   104.9382
 23      0.0000     0.0000E+00    0.0000E+00    1.445000E+07  0.00800  8.717E-03    0   0.8552   age078_m52            0.0000     1.1082E-05    14.6503   2.7680   104.1671
 24      0.0000     0.0000E+00    0.0000E+00    2.512000E+07  0.00800  5.592E-03    0   0.8162   age090_m52            0.0000     1.0984E-05    14.7395   2.4081   107.3085
 25      0.0000     0.0000E+00    0.0000E+00    4.000000E+07  0.00800  3.896E-03    0   0.7841   age104_m52            0.0000     1.0583E-05    14.3900   2.3112   108.5117
 26      0.0000     0.0000E+00    0.0000E+00    1.015200E+08  0.00800  2.148E-03    0   0.7226   age116_m52            0.0000     1.0061E-05    13.7808   2.2387   108.8319
 27      0.0000     0.0000E+00    0.0000E+00    2.861200E+08  0.00800  9.925E-04    0   0.6683   age125_m52            0.0000     9.6525E-06    13.1562   1.7367   113.9682
 28      0.0000     0.0000E+00    0.0000E+00    9.047900E+08  0.00800  3.141E-04    0   0.6138   age135_m52            0.0000     8.5045E-06    12.1010   0.9149   119.7326
 29      0.0000     0.0000E+00    0.0000E+00    1.434000E+09  0.00800  1.719E-04    0   0.5853   age139_m52            0.0000     8.0255E-06    12.1161   0.3358   117.1069
 30      0.0000     0.0000E+00    0.0000E+00    2.500000E+09  0.00800  7.872E-05    0   0.5600   age150_m52            0.0000     7.7761E-06    11.6233   0.0594   114.3784
 31     14.5192     8.9740E+00    9.3424E+00    4.250000E+09  0.00800  4.336E-05    0   0.5426   age158_m52            0.0000     7.8146E-06    11.6850   0.0451   113.2625
 32      0.0000     0.0000E+00    0.0000E+00    6.250000E+09  0.00800  3.159E-05    0   0.5319   age166_m52            0.0000     7.8931E-06    11.5581  -0.1685   113.7111
 33      0.0000     0.0000E+00    0.0000E+00    1.300000E+10  0.00800  1.361E-05    0   0.5073   age193_m52            0.0000     8.2368E-06    11.4901  -0.6494   113.4449
 34      0.0000     0.0000E+00    0.0000E+00    1.800000E+10  0.00800  9.886E-06    0   0.4990   age213_m52            0.0000     8.6584E-06    11.5571  -0.7694   113.3527
 35      0.0000     0.0000E+00    0.0000E+00    1.000000E+06  0.02000  1.544E-02    0   1.0000   age020_m62            0.0000     1.1747E-05    14.6574   3.5492    96.7515
 36      0.0000     0.0000E+00    0.0000E+00    3.160000E+06  0.02000  3.762E-02    0   0.9858   age045_m62            0.0000     1.1709E-05    14.6164   3.4870    97.6329
 37      0.0000     0.0000E+00    0.0000E+00    5.010000E+06  0.02000  3.296E-02    0   0.9342   age055_m62            0.0000     1.0612E-05    13.9205   3.0930   102.4133
 38      0.0000     0.0000E+00    0.0000E+00    8.710000E+06  0.02000  1.154E-02    0   0.8861   age067_m62            0.0000     1.4567E-05    18.0001   2.1413   106.3398
 39      0.0000     0.0000E+00    0.0000E+00    1.445000E+07  0.02000  7.663E-03    0   0.8472   age078_m62            0.0000     1.1974E-05    15.8104   2.3090   107.0479
 40      0.0000     0.0000E+00    0.0000E+00    2.512000E+07  0.02000  4.532E-03    0   0.8099   age090_m62            0.0000     1.2129E-05    15.9586   2.3008   106.7490
 41      1.2239     1.2002E-02    1.7489E-02    5.500000E+07  0.02000  2.733E-03    0   0.7595   age110_m62            0.0000     1.0625E-05    14.4098   2.2957   107.6462
 42      0.0000     0.0000E+00    0.0000E+00    1.609000E+08  0.02000  1.369E-03    0   0.6985   age120_m62            0.0000     1.0041E-05    13.5232   2.1139   111.5360
 43      0.0000     0.0000E+00    0.0000E+00    2.861200E+08  0.02000  9.013E-04    0   0.6714   age125_m62            0.0000     9.8156E-06    12.9864   1.8508   115.3513
 44      0.0000     0.0000E+00    0.0000E+00    5.088000E+08  0.02000  5.028E-04    0   0.6449   age130_m62            0.0000     9.1768E-06    12.1753   1.4516   119.3713
 45      0.0000     0.0000E+00    0.0000E+00    9.047900E+08  0.02000  2.428E-04    0   0.6179   age135_m62            0.0000     8.0847E-06    11.6358   0.8536   119.1338
 46     38.1717     8.0997E+00    9.1813E+00    1.434000E+09  0.02000  1.263E-04    0   0.5908   age139_m62            0.0000     7.7628E-06    11.5360   0.4087   117.3818
 47      0.0000     0.0000E+00    0.0000E+00    2.500000E+09  0.02000  5.985E-05    0   0.5673   age150_m62            0.0000     7.8262E-06    11.4695   0.0332   116.1300
 48      0.0000     0.0000E+00    0.0000E+00    4.250000E+09  0.02000  3.271E-05    0   0.5468   age158_m62            0.0000     8.1874E-06    11.4536  -0.2868   115.7348
 49      8.5748     1.6897E+01    1.6751E+01    1.000000E+10  0.02000  1.360E-05    0   0.5167   age181_m62            0.0000     9.0002E-06    11.5804  -0.6556   116.0632
 50      9.9543     3.7447E+01    3.6017E+01    1.800000E+10  0.02000  7.124E-06    0   0.5013   age213_m62            0.0000     9.8614E-06    11.8580  -0.8823   115.7703
 51      0.0000     0.0000E+00    0.0000E+00    1.000000E+06  0.05000  2.592E-02    0   0.9998   age020_m72            0.0000     1.1946E-05    14.7762   3.5418    96.7197
 52      0.0000     0.0000E+00    0.0000E+00    3.160000E+06  0.05000  4.845E-02    0   0.9577   age045_m72            0.0000     1.1208E-05    14.2893   3.3614    99.2775
 53      0.0000     0.0000E+00    0.0000E+00    5.010000E+06  0.05000  3.072E-02    0   0.9147   age055_m72            0.0000     1.1908E-05    15.4970   2.8863   103.2050
 54      0.0000     0.0000E+00    0.0000E+00    6.610000E+06  0.05000  1.455E-02    0   0.8877   age061_m72            0.0000     1.7791E-05    20.6674   2.1715   107.0545
 55      0.0000     0.0000E+00    0.0000E+00    1.000000E+07  0.05000  9.074E-03    0   0.8524   age070_m72            0.0000     1.2634E-05    16.2004   3.0510   103.1848
 56      0.0000     0.0000E+00    0.0000E+00    2.512000E+07  0.05000  4.250E-03    0   0.7902   age090_m72            0.0000     1.1691E-05    15.4750   2.7553   105.3272
 57      0.0000     0.0000E+00    0.0000E+00    4.000000E+07  0.05000  3.087E-03    0   0.7618   age104_m72            0.0000     1.1687E-05    15.5375   2.5255   107.1748
 58      0.0000     0.0000E+00    0.0000E+00    1.015200E+08  0.05000  1.700E-03    0   0.7096   age116_m72            0.0000     1.0452E-05    14.0214   2.2587   110.8902
 59      0.0000     0.0000E+00    0.0000E+00    2.861200E+08  0.05000  7.384E-04    0   0.6633   age125_m72            0.0000     9.5108E-06    12.5457   1.7065   117.5014
 60      0.4375     3.0700E-02    3.7533E-02    5.088000E+08  0.05000  3.819E-04    0   0.6372   age130_m72            0.0000     8.5156E-06    11.7416   1.1981   120.1797
 61      5.7482     9.1915E-01    1.0775E+00    9.047900E+08  0.05000  1.676E-04    0   0.6110   age135_m72            0.0000     7.9282E-06    11.3926   0.4864   118.6856
 62      5.4902     1.6650E+00    1.8765E+00    1.434000E+09  0.05000  8.837E-05    0   0.5874   age139_m72            0.0000     7.9431E-06    11.4552   0.0245   118.1925
 63      0.0000     0.0000E+00    0.0000E+00    2.500000E+09  0.05000  4.233E-05    0   0.5598   age150_m72            0.0000     8.3846E-06    11.4946  -0.2968   117.1423
 64      0.0000     0.0000E+00    0.0000E+00    6.250000E+09  0.05000  1.435E-05    0   0.5249   age166_m72            0.0000     9.2807E-06    11.7194  -0.7605   115.8903
 65      1.8810     7.7399E+00    7.4784E+00    1.300000E+10  0.05000  6.513E-06    0   0.5036   age193_m72            0.0000     1.0479E-05    11.7434  -1.0000   115.4560
 66      0.0000     0.0000E+00    0.0000E+00    1.800000E+10  0.05000  4.527E-06    0   0.4945   age213_m72            0.0000     1.1939E-05    11.6023  -1.0000   109.2066


## Synthesis Results - Average & Chains ##

# j      x_j: min, <> & last-chain-values for 1 ...  7 chains
  1      0.0000      1.7653      0.0000      0.0000      0.0000      0.0527      0.0000      0.0000      0.0000
  2      0.0000      1.6186      0.0000      0.0000      0.0000      0.0000      0.0000      0.0000      0.0000
  3      0.0000      1.3815      0.0000      0.0000      0.0000      0.0000      0.0000      0.0000      0.0000
  4      0.0000      0.9335      0.0000      0.0000      0.0000      0.0000      0.0000      0.0000      0.0000
  5      0.0000      1.4496      0.0029      0.0031      0.0000      0.0000      0.0000      0.0000      0.0000
  6      0.0000      1.8308      0.0000      0.0000      0.0000      0.0000      0.0000      0.0000      0.0000
  7      0.0000      1.4780      0.0000      0.0000      0.0000      0.0000      0.0000      0.0020      0.0000
  8      0.0000      1.5200      0.0000      0.0000      0.0000      0.0000      0.0000      0.0000      0.0000
  9      0.0000      1.2895      0.0000      0.0153      0.0000      0.0000      0.0000      0.0000      0.0000
 10      0.0000      1.6123      0.0000      0.0059      0.0000      0.0000      0.0005      0.0000      0.0000
 11      0.0000      1.2169      0.0000      0.0000      0.0000      0.0000      0.0000      0.0000      0.0000
 12      0.0000      1.4095      0.0000      0.0000      0.0000      0.0000      0.0000      0.0000      0.0000
 13      0.0000      1.3358      0.0000      0.0000      0.0000      0.0000      0.0000      0.0000      0.0135
 14      0.0000      1.2672      0.0000      0.0000      0.0392      0.0706      0.1755      0.0000      0.0000
 15     23.8478      1.2079      0.0000      0.0008      0.0000      0.0000      0.0000      0.6658      0.3175
 16      0.0000      0.7955      0.0000      0.0000      0.0000      0.0000      0.0023      0.0000      0.0000
 17      0.0000      1.2281      0.7875      0.0000      0.0000      0.0000      0.0000      0.0000      0.0000
 18      0.0000      1.4494      0.0000      0.0000      0.0000      0.0000      0.0000      0.0483      0.0000
 19      0.0000      1.3486      0.0004      0.0000      0.0000      0.0000      0.0000      0.0000      0.0000
 20      0.0000      1.6060      0.0000      0.0000      0.0016      0.0000      0.0000      0.0000      0.0000
 21      5.7499      1.2882      0.0000      0.0000      0.0000      0.0000      0.0000      1.3437      0.0000
 22      0.0000      1.7159      0.0000      0.0000      0.0000      0.0000      0.0000      0.4483      0.0000
 23      0.0000      1.3720      0.0000      0.0000      0.0000      0.0000      0.0000      0.0000      0.0000
 24      0.0000      1.6100      0.0000      0.0000      0.0000      0.0000      0.0000      0.0000      0.0000
 25      0.0000      1.3518      0.0000      0.0000      0.0000      0.0000      0.0072      0.0000      0.0000
 26      0.0000      1.3663      0.0000      0.0000      0.0000      0.0000      0.0000      0.0000      0.0000
 27      0.0000      1.0266      0.0000      0.0000      0.0000      0.0000      0.0000      0.0000      0.0000
 28      0.0000      1.2845      0.0054      0.0000      0.3990      0.0000      0.0000      0.0000      0.0000
 29      0.0000      1.5165      0.0000      0.0577      0.0000      0.0000      0.0000      0.0000      0.0000
 30      0.0000      1.4912      0.0000      0.0000      0.0232      0.2644      0.6557      0.0000      0.0738
 31     14.5192      1.4889      0.0000      0.0281      0.7390      0.5719      0.8232      3.2328      0.0000
 32      0.0000      1.8755      0.0000      0.0000      0.0000      0.9285      0.0000      0.0000      0.9869
 33      0.0000      1.4000      0.0000      0.0000      0.0000      0.0000      0.0042      0.0000      0.0000
 34      0.0000      1.3390      0.0000      0.0000      0.0641      0.0000      0.0000      0.0000      0.0000
 35      0.0000      1.6259      0.0000      0.0000      0.0000      0.0000      0.0005      0.0000      0.0000
 36      0.0000      1.6342      0.0000      0.0000      0.0000      0.0000      0.0000      0.0000      0.9957
 37      0.0000      1.6209      6.0046      5.9113      4.3750      5.2562      3.8646      6.7847      4.9235
 38      0.0000      1.4254      0.0000      0.0000      0.0000      0.0000      0.0000      0.0000      0.0000
 39      0.0000      1.4160      0.0000      0.0171      0.0000      0.0000      0.0000      0.0000      0.0000
 40      0.0000      1.0526      0.0000      0.0000      0.0000      0.0000      0.0000      0.0005      0.0000
 41      1.2239      1.3442      0.0000      0.0000      0.0000      0.0000      0.0000      1.5699      0.0000
 42      0.0000      1.1984      0.0000      0.0000      0.0000      0.0000      0.0000      0.0000      0.0020
 43      0.0000      1.1665      0.0000      0.0000      0.0000      0.0000      0.0000      0.0000      0.0000
 44      0.0000      1.4886      0.0000      0.0000      0.0175      0.0868      0.0076      0.0000      0.0000
 45      0.0000      1.2355      0.9700      1.7997      0.7142      1.0408      0.9255      0.3502      1.2424
 46     38.1717      1.6907      0.7693      1.6140      1.8964      1.4816      1.5278      1.1620      1.4386
 47      0.0000      1.5717      0.8241      1.1072      1.7116      0.9626      2.3214      0.3314      0.0000
 48      0.0000      1.6393      0.0000      0.1664      1.1062      0.3352      0.4289      0.0000      0.8067
 49      8.5748      1.3870      3.8982      0.4341      1.3926      0.7672      0.6252      0.7959      0.6759
 50      9.9543      1.5960      1.6864      1.7975      1.0369      0.7250      1.1162      1.2391      0.4004
 51      0.0000      1.4476      0.0000      0.0000      0.0000      0.0000      0.0000      0.4679      0.5356
 52      0.0000      1.5100      0.0000      2.3871      3.3108      2.1909      3.1296      3.2981      3.0462
 53      0.0000      1.6203      0.0000      0.0000      0.0000      0.0000      0.0000      0.0000      0.0000
 54      0.0000      1.4495      0.0000      0.0000      0.0000      0.0000      0.0000      0.0000      0.0000
 55      0.0000      1.2724      0.0000      0.0000      0.0000      0.0000      0.0000      1.7328      0.0000
 56      0.0000      1.4487      0.0000      0.0000      0.0000      0.0000      0.0000      0.0000      0.0000
 57      0.0000      1.5777      0.0000      0.0000      0.0000      0.0000      0.0000      0.0000      0.0000
 58      0.0000      1.2246      0.0000      0.0058      0.0000      0.0000      0.0000      0.0000      0.0000
 59      0.0000      0.9724      0.0387      0.1704      0.0740      0.0000      0.1347      0.3576      0.2195
 60      0.4375      1.3489      3.2363      3.6705      3.3742      3.1252      3.1811      4.0638      3.6387
 61      5.7482      2.3422     12.8500     14.9150     13.6751     16.5848     13.9711     13.7853     12.3848
 62      5.4902      2.2945      9.7909      9.3485     10.5080      8.9639      9.6852      8.1673      9.5424
 63      0.0000      3.6788     22.9259     26.3793     24.8267     23.2519     25.0423     25.2352     26.5739
 64      0.0000      1.4967      2.6994      3.3940      3.6667      2.8479      4.6076      0.2182      2.8862
 65      1.8810      1.7982      5.9521      3.5936      3.2756      4.4456      3.1024      4.4429      4.0460
 66      0.0000      4.1276     30.1010     24.2239     24.4638     27.0113     25.0886     23.1724     26.1864

# j      m_j: min, <> & last-chain-values for 1 ...  7 chains
  1  0.0000E+00  1.3096E-02  0.0000E+00  0.0000E+00  0.0000E+00  1.2154E-04  0.0000E+00  0.0000E+00  0.0000E+00
  2  0.0000E+00  3.2780E-03  0.0000E+00  0.0000E+00  0.0000E+00  0.0000E+00  0.0000E+00  0.0000E+00  0.0000E+00
  3  0.0000E+00  4.1900E-03  0.0000E+00  0.0000E+00  0.0000E+00  0.0000E+00  0.0000E+00  0.0000E+00  0.0000E+00
  4  0.0000E+00  2.6662E-03  0.0000E+00  0.0000E+00  0.0000E+00  0.0000E+00  0.0000E+00  0.0000E+00  0.0000E+00
  5  0.0000E+00  7.8868E-03  4.2028E-06  5.6840E-06  0.0000E+00  0.0000E+00  0.0000E+00  0.0000E+00  0.0000E+00
  6  0.0000E+00  1.6156E-02  0.0000E+00  0.0000E+00  0.0000E+00  0.0000E+00  0.0000E+00  0.0000E+00  0.0000E+00
  7  0.0000E+00  1.8673E-02  0.0000E+00  0.0000E+00  0.0000E+00  0.0000E+00  0.0000E+00  8.7338E-06  0.0000E+00
  8  0.0000E+00  2.6541E-02  0.0000E+00  0.0000E+00  0.0000E+00  0.0000E+00  0.0000E+00  0.0000E+00  0.0000E+00
  9  0.0000E+00  2.5773E-02  0.0000E+00  1.0190E-04  0.0000E+00  0.0000E+00  0.0000E+00  0.0000E+00  0.0000E+00
 10  0.0000E+00  4.2327E-02  0.0000E+00  5.1520E-05  0.0000E+00  0.0000E+00  4.3774E-06  0.0000E+00  0.0000E+00
 11  0.0000E+00  6.0073E-02  0.0000E+00  0.0000E+00  0.0000E+00  0.0000E+00  0.0000E+00  0.0000E+00  0.0000E+00
 12  0.0000E+00  1.1037E-01  0.0000E+00  0.0000E+00  0.0000E+00  0.0000E+00  0.0000E+00  0.0000E+00  0.0000E+00
 13  0.0000E+00  2.9484E-01  0.0000E+00  0.0000E+00  0.0000E+00  0.0000E+00  0.0000E+00  0.0000E+00  9.5272E-04
 14  0.0000E+00  9.3811E-01  0.0000E+00  0.0000E+00  9.6742E-03  1.6251E-02  4.2597E-02  0.0000E+00  0.0000E+00
 15  1.8208E+01  1.4557E+00  0.0000E+00  3.3768E-04  0.0000E+00  0.0000E+00  0.0000E+00  2.8195E-01  1.2263E-01
 16  0.0000E+00  1.6211E+00  0.0000E+00  0.0000E+00  0.0000E+00  0.0000E+00  1.5354E-03  0.0000E+00  0.0000E+00
 17  0.0000E+00  3.2464E+00  5.6073E-01  0.0000E+00  0.0000E+00  0.0000E+00  0.0000E+00  0.0000E+00  0.0000E+00
 18  0.0000E+00  9.5018E-03  0.0000E+00  0.0000E+00  0.0000E+00  0.0000E+00  0.0000E+00  1.1122E-04  0.0000E+00
 19  0.0000E+00  3.5485E-03  2.8097E-07  0.0000E+00  0.0000E+00  0.0000E+00  0.0000E+00  0.0000E+00  0.0000E+00
 20  0.0000E+00  4.6134E-03  0.0000E+00  0.0000E+00  1.5178E-06  0.0000E+00  0.0000E+00  0.0000E+00  0.0000E+00
 21  1.2702E-02  4.4919E-03  0.0000E+00  0.0000E+00  0.0000E+00  0.0000E+00  0.0000E+00  1.6465E-03  0.0000E+00
 22  0.0000E+00  1.0118E-02  0.0000E+00  0.0000E+00  0.0000E+00  0.0000E+00  0.0000E+00  9.2882E-04  0.0000E+00
 23  0.0000E+00  1.0924E-02  0.0000E+00  0.0000E+00  0.0000E+00  0.0000E+00  0.0000E+00  0.0000E+00  0.0000E+00
 24  0.0000E+00  1.9072E-02  0.0000E+00  0.0000E+00  0.0000E+00  0.0000E+00  0.0000E+00  0.0000E+00  0.0000E+00
 25  0.0000E+00  2.2081E-02  0.0000E+00  0.0000E+00  0.0000E+00  0.0000E+00  3.8565E-05  0.0000E+00  0.0000E+00
 26  0.0000E+00  3.7303E-02  0.0000E+00  0.0000E+00  0.0000E+00  0.0000E+00  0.0000E+00  0.0000E+00  0.0000E+00
 27  0.0000E+00  5.6104E-02  0.0000E+00  0.0000E+00  0.0000E+00  0.0000E+00  0.0000E+00  0.0000E+00  0.0000E+00
 28  0.0000E+00  2.0372E-01  2.3126E-04  0.0000E+00  2.1083E-02  0.0000E+00  0.0000E+00  0.0000E+00  0.0000E+00
 29  0.0000E+00  4.1908E-01  0.0000E+00  5.3249E-03  0.0000E+00  0.0000E+00  0.0000E+00  0.0000E+00  0.0000E+00
 30  0.0000E+00  8.6093E-01  0.0000E+00  0.0000E+00  4.4669E-03  4.7485E-02  1.2410E-01  0.0000E+00  1.3650E-02
 31  9.3424E+00  1.5122E+00  0.0000E+00  9.5278E-03  2.5003E-01  1.8067E-01  2.7406E-01  1.1538E+00  0.0000E+00
 32  0.0000E+00  2.5629E+00  0.0000E+00  0.0000E+00  0.0000E+00  3.9468E-01  0.0000E+00  0.0000E+00  4.3224E-01
 33  0.0000E+00  4.2351E+00  0.0000E+00  0.0000E+00  0.0000E+00  0.0000E+00  4.2122E-03  0.0000E+00  0.0000E+00
 34  0.0000E+00  5.4852E+00  0.0000E+00  0.0000E+00  8.7499E-02  0.0000E+00  0.0000E+00  0.0000E+00  0.0000E+00
 35  0.0000E+00  8.5467E-03  0.0000E+00  0.0000E+00  0.0000E+00  0.0000E+00  8.2543E-07  0.0000E+00  0.0000E+00
 36  0.0000E+00  3.4755E-03  0.0000E+00  0.0000E+00  0.0000E+00  0.0000E+00  0.0000E+00  0.0000E+00  6.7865E-04
 37  0.0000E+00  3.7286E-03  3.7208E-03  4.5420E-03  3.3526E-03  3.7609E-03  2.9142E-03  5.4845E-03  3.6299E-03
 38  0.0000E+00  8.8828E-03  0.0000E+00  0.0000E+00  0.0000E+00  0.0000E+00  0.0000E+00  0.0000E+00  0.0000E+00
 39  0.0000E+00  1.2705E-02  0.0000E+00  5.1114E-05  0.0000E+00  0.0000E+00  0.0000E+00  0.0000E+00  0.0000E+00
 40  0.0000E+00  1.5266E-02  0.0000E+00  0.0000E+00  0.0000E+00  0.0000E+00  0.0000E+00  2.5393E-06  0.0000E+00
 41  1.7489E-02  3.0318E-02  0.0000E+00  0.0000E+00  0.0000E+00  0.0000E+00  0.0000E+00  1.2443E-02  0.0000E+00
 42  0.0000E+00  4.9627E-02  0.0000E+00  0.0000E+00  0.0000E+00  0.0000E+00  0.0000E+00  0.0000E+00  2.7125E-05
 43  0.0000E+00  7.0523E-02  0.0000E+00  0.0000E+00  0.0000E+00  0.0000E+00  0.0000E+00  0.0000E+00  0.0000E+00
 44  0.0000E+00  1.5495E-01  0.0000E+00  0.0000E+00  6.0851E-04  2.8118E-03  2.5969E-04  0.0000E+00  0.0000E+00
 45  0.0000E+00  2.5517E-01  5.3967E-02  1.2416E-01  4.9141E-02  6.6867E-02  6.2664E-02  2.5421E-02  8.2244E-02
 46  9.1813E+00  6.4187E-01  7.8677E-02  2.0466E-01  2.3985E-01  1.7495E-01  1.9014E-01  1.5502E-01  1.7504E-01
 47  0.0000E+00  1.2091E+00  1.7077E-01  2.8450E-01  4.3865E-01  2.3034E-01  5.8539E-01  8.9577E-02  0.0000E+00
 48  0.0000E+00  2.2240E+00  0.0000E+00  7.5417E-02  4.9994E-01  1.4145E-01  1.9073E-01  0.0000E+00  3.5075E-01
 49  1.6751E+01  4.2768E+00  3.2379E+00  4.4707E-01  1.4305E+00  7.3578E-01  6.3193E-01  8.6237E-01  6.6794E-01
 50  3.6017E+01  9.1150E+00  2.5943E+00  3.4288E+00  1.9727E+00  1.2879E+00  2.0897E+00  2.4867E+00  7.3282E-01
 51  0.0000E+00  4.5318E-03  0.0000E+00  0.0000E+00  0.0000E+00  0.0000E+00  0.0000E+00  5.1470E-04  5.3740E-04
 52  0.0000E+00  2.4224E-03  0.0000E+00  1.2791E-03  1.7694E-03  1.0932E-03  1.6458E-03  1.8593E-03  1.5662E-03
 53  0.0000E+00  3.9154E-03  0.0000E+00  0.0000E+00  0.0000E+00  0.0000E+00  0.0000E+00  0.0000E+00  0.0000E+00
 54  0.0000E+00  7.1771E-03  0.0000E+00  0.0000E+00  0.0000E+00  0.0000E+00  0.0000E+00  0.0000E+00  0.0000E+00
 55  0.0000E+00  9.7005E-03  0.0000E+00  0.0000E+00  0.0000E+00  0.0000E+00  0.0000E+00  4.6424E-03  0.0000E+00
 56  0.0000E+00  2.1861E-02  0.0000E+00  0.0000E+00  0.0000E+00  0.0000E+00  0.0000E+00  0.0000E+00  0.0000E+00
 57  0.0000E+00  3.1598E-02  0.0000E+00  0.0000E+00  0.0000E+00  0.0000E+00  0.0000E+00  0.0000E+00  0.0000E+00
 58  0.0000E+00  4.1484E-02  0.0000E+00  6.5181E-05  0.0000E+00  0.0000E+00  0.0000E+00  0.0000E+00  0.0000E+00
 59  0.0000E+00  7.0895E-02  7.6099E-04  4.1501E-03  1.7960E-03  0.0000E+00  3.2180E-03  9.1611E-03  5.1296E-03
 60  3.7533E-02  1.8266E-01  1.1805E-01  1.6602E-01  1.5221E-01  1.3163E-01  1.4121E-01  1.9338E-01  1.5792E-01
 61  1.0775E+00  6.9299E-01  1.0242E+00  1.4740E+00  1.3479E+00  1.5263E+00  1.3550E+00  1.4333E+00  1.1744E+00
 62  1.8765E+00  1.2378E+00  1.4228E+00  1.6845E+00  1.8885E+00  1.5041E+00  1.7127E+00  1.5483E+00  1.6499E+00
 63  0.0000E+00  3.9484E+00  6.6284E+00  9.4570E+00  8.8768E+00  7.7626E+00  8.8107E+00  9.5180E+00  9.1411E+00
 64  0.0000E+00  4.4433E+00  2.1587E+00  3.3655E+00  3.6263E+00  2.6298E+00  4.4839E+00  2.2761E-01  2.7460E+00
 65  7.4784E+00  1.1285E+01  1.0062E+01  7.5325E+00  6.8478E+00  8.6775E+00  6.3819E+00  9.7976E+00  8.1375E+00
 66  0.0000E+00  3.6593E+01  7.1885E+01  7.1731E+01  7.2249E+01  7.4484E+01  7.2910E+01  7.2190E+01  7.4403E+01

# AV, chi2 & Mass for <> & i_chain = 1 ...  7 solutions
AV       0.0591     -0.1189     -0.1681      0.0142      0.0036     -0.0329     -0.0157      0.0429      0.0014
chi2 7.7453E-06  5.9348E-05  1.0314E-05  1.0493E-05  1.0582E-05  1.0576E-05  1.0689E-05  9.9343E-06  1.0471E-05
Mass 2.3598E-13  1.1772E-13  4.0903E-13  4.2143E-13  4.1653E-13  4.2477E-13  4.1252E-13  4.1629E-13  4.3170E-13
-320.02                                  [v0_min (km/s) before EX0s...]
 328.40                                  [vd_min (km/s) before EX0s...]


## Synthetic spectrum (Best Model) ##l_obs f_obs f_syn wei
 3478    [Nl_obs]
 3741.00    0.81681   0.56190    0.000
 3742.00    0.95861   0.55233    0.000
 3743.00    0.93245   0.54728    0.000
 3744.00    0.80430   0.54464    0.000
 3745.00    0.61672   0.54799    0.031
 3746.00    0.52273   0.55902    0.029
 3747.00    0.47626   0.57500    0.028
 3748.00    0.33586   0.59273    0.027
 3749.00    0.15415   0.60911    0.027
 3750.00    0.52769   0.62565    0.028
 3751.00    1.11084   0.63975    0.029
 3752.00    1.19645   0.64906    0.028
 3753.00    1.12260   0.65300    0.027
 3754.00    0.97954   0.65286    0.027
 3755.00    0.81794   0.65350    0.026
 3756.00    0.91666   0.65391    0.026
 3757.00    1.07253   0.65146    0.026
 3758.00    0.92285   0.64905    0.027
 3759.00    0.71982   0.64671    0.027
 3760.00    0.33813   0.64474    0.037
 3761.00   -0.06730   0.64407    0.000
 3762.00   -0.06324   0.64222    0.000
 3763.00   -0.02070   0.64165    0.000
 3764.00    0.41778   0.64452    0.025
 3765.00    0.87910   0.64909    0.026
 3766.00    0.95035   0.65547    0.028
 3767.00    1.01078   0.66603    0.032
 3768.00    0.88086   0.68053    0.030
 3769.00    0.75245   0.69667    0.028
 3770.00    0.66081   0.71411    0.026
 3771.00    0.58660   0.73198    0.024
 3772.00    0.74104   0.74998    0.025
 3773.00    0.87295   0.76771    0.026
 3774.00    0.80697   0.78259    0.025
 3775.00    0.75083   0.79512    0.024
 3776.00    0.75846   0.80406    0.024
 3777.00    0.75588   0.80713    0.025
 3778.00    0.70159   0.80656    0.024
 3779.00    0.66034   0.80142    0.023
 3780.00    0.67250   0.79227    0.024
 3781.00    0.64792   0.77916    0.024
 3782.00    0.49874   0.76189    0.024
 3783.00    0.39064   0.74438    0.024
 3784.00    0.40002   0.72609    0.024
 3785.00    0.39364   0.70721    0.024
 3786.00    0.34876   0.68880    0.025
 3787.00    0.23723   0.67127    0.025
 3788.00   -0.01479   0.65415    0.000
 3789.00   -0.11241   0.63799    0.000
 3790.00    0.07279   0.62475    0.024
 3791.00    0.22811   0.61536    0.024
 3792.00    0.33558   0.61083    0.024
 3793.00    0.33051   0.61049    0.024
 3794.00    0.16733   0.61616    0.024
 3795.00    0.17156   0.62847    0.024
 3796.00    0.38270   0.64620    0.024
 3797.00    0.55144   0.66670    0.025
 3798.00    0.67399   0.68777    0.026
 3799.00    0.53816   0.71011    0.026
 3800.00    0.15403   0.73049    0.025
 3801.00    0.04414   0.74776    0.024
 3802.00    0.16664   0.76115    0.024
 3803.00    0.35099   0.76978    0.025
 3804.00    0.58149   0.77550    0.026
 3805.00    0.77854   0.77742    0.027
 3806.00    0.95365   0.77463    0.026
 3807.00    0.83072   0.76845    0.025
 3808.00    0.53676   0.75985    0.024
 3809.00    0.43846   0.74867    0.023
 3810.00    0.43795   0.73700    0.024
 3811.00    0.52082   0.72480    0.025
 3812.00    0.63974   0.71292    0.027
 3813.00    0.92234   0.70285    0.026
 3814.00    1.26563   0.69173    0.025
 3815.00    1.13357   0.67996    0.024
 3816.00    0.85208   0.66864    0.023
 3817.00    0.53661   0.65810    0.023
 3818.00    0.21224   0.64813    0.022
 3819.00    0.19490   0.63625    0.022
 3820.00    0.24334   0.62202    0.021
 3821.00    0.38272   0.60812    0.022
 3822.00    0.53754   0.59470    0.023
 3823.00    0.61430   0.58082    0.024
 3824.00    0.68104   0.56647    0.025
 3825.00    0.35607   0.55138    0.023
 3826.00   -0.00405   0.53724    0.000
 3827.00   -0.06707   0.52476    0.000
 3828.00   -0.11412   0.51327    0.000
 3829.00    0.19567   0.50490    0.023
 3830.00    0.51033   0.50105    0.025
 3831.00    0.63308   0.50170    0.025
 3832.00    0.74858   0.50790    0.025
 3833.00    0.70312   0.51923    0.024
 3834.00    0.66602   0.53460    0.024
 3835.00    0.73295   0.55527    0.024
 3836.00    0.81770   0.57940    0.025
 3837.00    1.05316   0.60515    0.031
 3838.00    1.23537   0.63242    0.040
 3839.00    1.08251   0.65746    0.031
 3840.00    0.94508   0.68065    0.026
 3841.00    0.88382   0.70175    0.025
 3842.00    0.86163   0.71921    0.025
 3843.00    0.99581   0.73405    0.026
 3844.00    1.05067   0.74451    0.028
 3845.00    0.84177   0.75137    0.026
 3846.00    0.66609   0.75582    0.026
 3847.00    0.58368   0.75806    0.000
 3848.00    0.46450   0.75863    0.000
 3849.00    0.25701   0.75636    0.000
 3850.00    0.07348   0.75269    0.000
 3851.00   -0.06039   0.74941    0.000
 3852.00   -0.09445   0.74636    0.000
 3853.00    0.05152   0.74491    0.000
 3854.00    0.22356   0.74416    0.000
 3855.00    0.43673   0.74494    0.000
 3856.00    0.51415   0.74888    0.000
 3857.00    0.40362   0.75439    0.000
 3858.00    0.35650   0.76101    0.000
 3859.00    0.38664   0.76638    0.000
 3860.00    0.53183   0.77032    0.000
 3861.00    0.80060   0.77271    0.000
 3862.00    0.91688   0.77361    0.000
 3863.00    0.88867   0.77284    0.000
 3864.00    0.79268   0.76932    0.000
 3865.00    0.64008   0.76465    0.000
 3866.00    0.73557   0.75824    0.000
 3867.00    1.01355   0.75205    0.000
 3868.00    1.17537   0.74713    0.000
 3869.00    1.26216   0.74264    0.000
 3870.00    1.05228   0.73880    0.000
 3871.00    0.67473   0.73404    0.000
 3872.00    0.57226   0.72796    0.000
 3873.00    0.60511   0.72224    0.000
 3874.00    0.55113   0.71515    0.000
 3875.00    0.46023   0.70726    0.000
 3876.00    0.37508   0.69823    0.000
 3877.00    0.29202   0.68624    0.000
 3878.00    0.47010   0.67385    0.000
 3879.00    0.72869   0.66120    0.000
 3880.00    0.61588   0.64970    0.000
 3881.00    0.40772   0.64035    0.022
 3882.00    0.46343   0.63211    0.023
 3883.00    0.57430   0.62836    0.023
 3884.00    0.58207   0.63018    0.023
 3885.00    0.57284   0.63685    0.023
 3886.00    0.55073   0.64856    0.023
 3887.00    0.52702   0.66241    0.023
 3888.00    0.49657   0.67914    0.023
 3889.00    0.46553   0.69658    0.023
 3890.00    0.36315   0.71424    0.023
 3891.00    0.25722   0.73141    0.023
 3892.00    0.09427   0.74589    0.023
 3893.00   -0.06323   0.75924    0.000
 3894.00    0.19171   0.76895    0.023
 3895.00    0.45052   0.77797    0.022
 3896.00    0.78842   0.78563    0.023
 3897.00    1.09693   0.79220    0.023
 3898.00    1.05784   0.79959    0.022
 3899.00    1.01314   0.80478    0.022
 3900.00    0.92276   0.81187    0.021
 3901.00    0.85344   0.82061    0.021
 3902.00    0.91273   0.83003    0.021
 3903.00    0.95177   0.84104    0.021
 3904.00    0.89337   0.85077    0.019
 3905.00    0.82632   0.86037    0.018
 3906.00    0.72541   0.86839    0.019
 3907.00    0.67003   0.87308    0.019
 3908.00    0.76309   0.87585    0.019
 3909.00    0.81392   0.87514    0.020
 3910.00    0.74831   0.87029    0.020
 3911.00    0.72971   0.86326    0.020
 3912.00    0.82213   0.85308    0.020
 3913.00    0.89210   0.84124    0.021
 3914.00    0.91626   0.82734    0.021
 3915.00    0.81569   0.81162    0.022
 3916.00    0.49360   0.79557    0.022
 3917.00    0.34167   0.77666    0.022
 3918.00    0.45413   0.75631    0.022
 3919.00    0.49118   0.73196    0.022
 3920.00    0.42535   0.70387    0.022
 3921.00    0.30694   0.67204    0.022
 3922.00    0.12539   0.63598    0.022
 3923.00    0.16736   0.59867    0.022
 3924.00    0.44605   0.55977    0.022
 3925.00    0.60344   0.52270    0.023
 3926.00    0.64750   0.48922    0.023
 3927.00    0.62484   0.46169    0.024
 3928.00    0.54725   0.44347    0.023
 3929.00    0.47659   0.43515    0.023
 3930.00    0.41096   0.43788    0.023
 3931.00    0.45302   0.45094    0.024
 3932.00    0.56361   0.47278    0.024
 3933.00    0.50246   0.50178    0.024
 3934.00    0.34574   0.53549    0.024
 3935.00    0.43251   0.57116    0.024
 3936.00    0.63714   0.60746    0.024
 3937.00    0.77289   0.64203    0.024
 3938.00    0.87984   0.67408    0.024
 3939.00    0.68188   0.70430    0.023
 3940.00    0.37486   0.73178    0.023
 3941.00    0.55801   0.75545    0.023
 3942.00    0.88932   0.77565    0.023
 3943.00    1.05394   0.79375    0.024
 3944.00    1.17670   0.80945    0.024
 3945.00    1.02900   0.82237    0.024
 3946.00    0.82614   0.83203    0.023
 3947.00    0.90993   0.83905    0.023
 3948.00    1.03963   0.84314    0.023
 3949.00    1.28127   0.84219    0.024
 3950.00    1.53628   0.83699    0.024
 3951.00    1.10215   0.82809    0.024
 3952.00    0.61189   0.81471    0.023
 3953.00    0.65785   0.79603    0.023
 3954.00    0.72845   0.77145    0.022
 3955.00    0.68085   0.74112    0.022
 3956.00    0.62974   0.70625    0.022
 3957.00    0.47422   0.66778    0.022
 3958.00    0.33211   0.62731    0.022
 3959.00    0.44412   0.58672    0.022
 3960.00    0.55590   0.54685    0.000
 3961.00    0.66503   0.51076    0.000
 3962.00    0.78332   0.48095    0.000
 3963.00    0.97369   0.46069    0.000
 3964.00    1.10689   0.45211    0.000
 3965.00    0.90081   0.45488    0.000
 3966.00    0.66558   0.46898    0.000
 3967.00    0.29339   0.49313    0.000
 3968.00    0.04461   0.52605    0.000
 3969.00    0.26872   0.56629    0.000
 3970.00    0.45425   0.61049    0.000
 3971.00    0.51644   0.65645    0.000
 3972.00    0.61655   0.70257    0.000
 3973.00    0.81936   0.74585    0.000
 3974.00    0.99730   0.78559    0.000
 3975.00    1.11751   0.82012    0.000
 3976.00    1.13906   0.84957    0.000
 3977.00    0.96243   0.87539    0.000
 3978.00    0.76553   0.89698    0.000
 3979.00    0.53319   0.91622    0.000
 3980.00    0.51988   0.93239    0.000
 3981.00    0.84190   0.94587    0.024
 3982.00    1.16757   0.95916    0.025
 3983.00    1.49813   0.96930    0.025
 3984.00    1.59095   0.97845    0.025
 3985.00    1.40225   0.98734    0.024
 3986.00    1.24656   0.99455    0.024
 3987.00    1.12535   1.00084    0.024
 3988.00    1.13428   1.00435    0.024
 3989.00    1.26305   1.00773    0.024
 3990.00    1.26007   1.01006    0.024
 3991.00    1.15012   1.01145    0.024
 3992.00    1.01276   1.01380    0.023
 3993.00    0.85581   1.01732    0.023
 3994.00    0.83702   1.02097    0.023
 3995.00    0.90485   1.02335    0.023
 3996.00    0.87370   1.02595    0.023
 3997.00    0.78831   1.02838    0.023
 3998.00    0.91562   1.02978    0.023
 3999.00    1.14425   1.02984    0.023
 4000.00    1.16369   1.03205    0.023
 4001.00    1.09715   1.03582    0.023
 4002.00    1.13834   1.03963    0.023
 4003.00    1.21737   1.04452    0.023
 4004.00    1.21629   1.05027    0.023
 4005.00    1.19148   1.05751    0.022
 4006.00    1.15892   1.06410    0.022
 4007.00    1.12446   1.07243    0.022
 4008.00    1.05279   1.08069    0.022
 4009.00    0.97373   1.08801    0.022
 4010.00    0.90649   1.09448    0.022
 4011.00    0.84109   1.09874    0.022
 4012.00    0.81996   1.10295    0.022
 4013.00    0.80393   1.10654    0.022
 4014.00    0.89635   1.10861    0.021
 4015.00    0.99717   1.10957    0.021
 4016.00    0.90100   1.10923    0.021
 4017.00    0.79653   1.10851    0.021
 4018.00    1.05556   1.10591    0.021
 4019.00    1.31685   1.10261    0.021
 4020.00    1.53149   1.09956    0.022
 4021.00    1.72043   1.09441    0.022
 4022.00    1.45634   1.08731    0.022
 4023.00    1.19676   1.07942    0.022
 4024.00    0.98566   1.07048    0.022
 4025.00    0.81002   1.06179    0.022
 4026.00    0.90363   1.05571    0.022
 4027.00    0.96911   1.05170    0.022
 4028.00    0.87237   1.05135    0.022
 4029.00    0.80459   1.05354    0.022
 4030.00    0.86955   1.05867    0.022
 4031.00    0.94513   1.06553    0.022
 4032.00    1.06056   1.07221    0.022
 4033.00    1.12990   1.07918    0.022
 4034.00    1.05477   1.08349    0.022
 4035.00    0.98318   1.08517    0.022
 4036.00    0.92104   1.08411    0.022
 4037.00    0.95398   1.07964    0.022
 4038.00    1.20405   1.07296    0.022
 4039.00    1.29209   1.06605    0.023
 4040.00    1.05985   1.06005    0.023
 4041.00    0.92839   1.05752    0.023
 4042.00    0.97057   1.05679    0.023
 4043.00    1.12550   1.05826    0.023
 4044.00    1.45053   1.06135    0.023
 4045.00    1.46811   1.06422    0.023
 4046.00    1.07816   1.06684    0.023
 4047.00    1.02974   1.06861    0.023
 4048.00    1.38006   1.07035    0.024
 4049.00    1.41892   1.06916    0.023
 4050.00    1.13710   1.06592    0.023
 4051.00    1.02088   1.06159    0.023
 4052.00    1.05506   1.05646    0.023
 4053.00    1.04517   1.05127    0.023
 4054.00    1.00000   1.04575    0.023
 4055.00    0.92074   1.04018    0.023
 4056.00    0.81749   1.03487    0.022
 4057.00    0.83494   1.03126    0.023
 4058.00    0.92696   1.02847    0.023
 4059.00    1.11511   1.02745    0.023
 4060.00    1.35514   1.02793    0.023
 4061.00    1.27975   1.02965    0.023
 4062.00    1.05652   1.03161    0.022
 4063.00    1.19868   1.03296    0.022
 4064.00    1.48847   1.03388    0.022
 4065.00    1.30779   1.03494    0.022
 4066.00    0.96490   1.03584    0.022
 4067.00    0.86235   1.03542    0.022
 4068.00    0.82960   1.03277    0.021
 4069.00    1.01388   1.02977    0.022
 4070.00    1.25029   1.02783    0.022
 4071.00    1.33104   1.02654    0.022
 4072.00    1.38162   1.02725    0.022
 4073.00    1.44470   1.03080    0.022
 4074.00    1.50965   1.03710    0.021
 4075.00    1.29205   1.04464    0.021
 4076.00    1.04320   1.05290    0.021
 4077.00    1.04803   1.06210    0.021
 4078.00    1.07144   1.07205    0.021
 4079.00    1.18602   1.08270    0.021
 4080.00    1.30410   1.09314    0.021
 4081.00    1.14237   1.10173    0.021
 4082.00    0.98665   1.10802    0.021
 4083.00    1.11539   1.11150    0.021
 4084.00    1.23094   1.11121    0.021
 4085.00    1.12913   1.10815    0.021
 4086.00    1.03234   1.10154    0.021
 4087.00    0.98731   1.08994    0.021
 4088.00    0.95750   1.07470    0.021
 4089.00    1.03938   1.05529    0.021
 4090.00    1.07690   1.03286    0.021
 4091.00    0.86558   1.00809    0.021
 4092.00    0.71695   0.98252    0.000
 4093.00    0.84884   0.95721    0.000
 4094.00    0.93666   0.93523    0.000
 4095.00    0.86262   0.91871    0.000
 4096.00    0.82511   0.90698    0.000
 4097.00    0.89991   0.90190    0.000
 4098.00    0.93034   0.90373    0.000
 4099.00    0.84482   0.91117    0.000
 4100.00    0.82586   0.92365    0.000
 4101.00    0.95640   0.93939    0.000
 4102.00    1.03234   0.95720    0.000
 4103.00    1.00203   0.97659    0.000
 4104.00    0.96923   0.99631    0.000
 4105.00    0.93221   1.01503    0.000
 4106.00    0.97877   1.03151    0.000
 4107.00    1.14957   1.04611    0.000
 4108.00    1.19774   1.05830    0.000
 4109.00    1.08568   1.06820    0.000
 4110.00    1.13102   1.07533    0.000
 4111.00    1.35753   1.08037    0.000
 4112.00    1.36597   1.08472    0.000
 4113.00    1.15304   1.08702    0.022
 4114.00    1.19984   1.08803    0.022
 4115.00    1.47916   1.08812    0.022
 4116.00    1.55155   1.08770    0.022
 4117.00    1.46066   1.08711    0.022
 4118.00    1.28939   1.08528    0.022
 4119.00    1.06233   1.08313    0.022
 4120.00    0.90360   1.07986    0.022
 4121.00    0.78644   1.07735    0.022
 4122.00    0.75016   1.07355    0.022
 4123.00    0.75683   1.06951    0.022
 4124.00    1.00165   1.06488    0.022
 4125.00    1.35628   1.06187    0.022
 4126.00    1.37241   1.06026    0.022
 4127.00    1.25413   1.05996    0.022
 4128.00    1.19460   1.06250    0.022
 4129.00    1.15496   1.06542    0.021
 4130.00    1.15470   1.07106    0.021
 4131.00    1.16566   1.07651    0.021
 4132.00    0.95388   1.08180    0.021
 4133.00    0.68982   1.08526    0.021
 4134.00    0.90887   1.08684    0.021
 4135.00    1.21910   1.08670    0.021
 4136.00    1.20119   1.08467    0.021
 4137.00    1.13536   1.08264    0.021
 4138.00    0.95249   1.07870    0.021
 4139.00    0.75718   1.07494    0.021
 4140.00    0.93436   1.07173    0.021
 4141.00    1.13731   1.06912    0.021
 4142.00    1.05317   1.06735    0.021
 4143.00    0.95912   1.06652    0.021
 4144.00    1.00396   1.06564    0.021
 4145.00    1.04204   1.06589    0.021
 4146.00    0.84761   1.06634    0.021
 4147.00    0.67444   1.06697    0.021
 4148.00    0.83000   1.06788    0.020
 4149.00    0.97055   1.06928    0.020
 4150.00    0.96301   1.07235    0.020
 4151.00    0.95581   1.07598    0.020
 4152.00    0.95104   1.08190    0.020
 4153.00    0.96010   1.08799    0.020
 4154.00    1.04464   1.09514    0.020
 4155.00    1.09693   1.10216    0.020
 4156.00    1.00830   1.10815    0.020
 4157.00    0.87697   1.11322    0.020
 4158.00    0.59207   1.11587    0.019
 4159.00    0.42937   1.11687    0.019
 4160.00    0.63537   1.11490    0.019
 4161.00    0.81673   1.11065    0.019
 4162.00    0.93481   1.10331    0.020
 4163.00    1.07284   1.09445    0.020
 4164.00    1.25495   1.08424    0.020
 4165.00    1.37243   1.07336    0.020
 4166.00    1.36609   1.06292    0.020
 4167.00    1.26589   1.05323    0.020
 4168.00    1.00881   1.04503    0.020
 4169.00    0.88213   1.03902    0.020
 4170.00    0.94648   1.03588    0.020
 4171.00    0.95793   1.03467    0.020
 4172.00    0.90123   1.03550    0.020
 4173.00    0.90012   1.03827    0.020
 4174.00    0.96208   1.04244    0.020
 4175.00    1.07075   1.04838    0.020
 4176.00    1.22617   1.05422    0.020
 4177.00    1.33755   1.05956    0.020
 4178.00    1.41005   1.06492    0.021
 4179.00    1.36929   1.06978    0.020
 4180.00    1.24045   1.07476    0.020
 4181.00    1.11819   1.07879    0.020
 4182.00    1.00045   1.08279    0.020
 4183.00    0.94879   1.08632    0.020
 4184.00    0.93674   1.08928    0.020
 4185.00    1.04993   1.09128    0.020
 4186.00    1.22862   1.09176    0.020
 4187.00    1.28350   1.09131    0.020
 4188.00    1.28222   1.08800    0.020
 4189.00    1.16846   1.08397    0.020
 4190.00    1.01080   1.07901    0.020
 4191.00    0.97907   1.07245    0.020
 4192.00    0.98916   1.06561    0.020
 4193.00    1.00887   1.05962    0.020
 4194.00    1.03126   1.05558    0.021
 4195.00    1.04977   1.05297    0.021
 4196.00    1.06739   1.05333    0.021
 4197.00    0.99233   1.05606    0.021
 4198.00    0.90024   1.06201    0.021
 4199.00    0.95479   1.06944    0.021
 4200.00    1.03009   1.07851    0.021
 4201.00    0.91664   1.08849    0.020
 4202.00    0.78394   1.09816    0.020
 4203.00    0.82091   1.10661    0.020
 4204.00    0.86894   1.11388    0.020
 4205.00    0.87395   1.11938    0.020
 4206.00    0.87771   1.12295    0.020
 4207.00    0.92208   1.12602    0.020
 4208.00    0.97125   1.12726    0.020
 4209.00    1.16139   1.12805    0.020
 4210.00    1.33894   1.12756    0.021
 4211.00    1.33346   1.12683    0.021
 4212.00    1.32847   1.12461    0.021
 4213.00    1.32826   1.12120    0.021
 4214.00    1.33101   1.11536    0.020
 4215.00    1.35417   1.10693    0.020
 4216.00    1.35312   1.09636    0.020
 4217.00    1.22339   1.08360    0.020
 4218.00    1.10328   1.07130    0.020
 4219.00    1.02426   1.05849    0.020
 4220.00    0.98251   1.04741    0.020
 4221.00    1.07210   1.03885    0.020
 4222.00    1.10084   1.03431    0.020
 4223.00    0.94938   1.03353    0.020
 4224.00    0.84125   1.03648    0.020
 4225.00    0.84249   1.04291    0.020
 4226.00    0.94254   1.05066    0.020
 4227.00    1.25732   1.05983    0.019
 4228.00    1.37730   1.06861    0.019
 4229.00    1.12990   1.07776    0.019
 4230.00    1.01545   1.08568    0.019
 4231.00    1.11985   1.09273    0.019
 4232.00    1.11198   1.09956    0.018
 4233.00    0.94204   1.10594    0.018
 4234.00    0.95365   1.11248    0.018
 4235.00    1.19576   1.11882    0.018
 4236.00    1.28775   1.12527    0.018
 4237.00    1.21177   1.13011    0.018
 4238.00    1.12432   1.13384    0.018
 4239.00    1.02555   1.13563    0.018
 4240.00    1.03304   1.13527    0.018
 4241.00    1.13301   1.13294    0.018
 4242.00    1.17939   1.12865    0.018
 4243.00    1.18469   1.12340    0.018
 4244.00    1.19299   1.11761    0.018
 4245.00    1.20331   1.11249    0.019
 4246.00    1.19633   1.10770    0.019
 4247.00    1.17914   1.10394    0.019
 4248.00    1.15346   1.10139    0.019
 4249.00    1.12342   1.10040    0.019
 4250.00    1.16025   1.10095    0.019
 4251.00    1.22690   1.10253    0.019
 4252.00    1.14310   1.10533    0.019
 4253.00    1.00162   1.10918    0.019
 4254.00    0.97455   1.11400    0.019
 4255.00    0.98477   1.11891    0.018
 4256.00    1.07693   1.12463    0.019
 4257.00    1.19146   1.12981    0.019
 4258.00    1.10545   1.13426    0.019
 4259.00    0.97451   1.13629    0.019
 4260.00    0.81267   1.13574    0.019
 4261.00    0.64531   1.13246    0.019
 4262.00    0.69160   1.12578    0.019
 4263.00    0.76713   1.11713    0.019
 4264.00    0.98928   1.10648    0.019
 4265.00    1.22574   1.09560    0.019
 4266.00    1.38564   1.08530    0.019
 4267.00    1.54086   1.07749    0.019
 4268.00    1.15549   1.07248    0.018
 4269.00    0.75700   1.07120    0.018
 4270.00    0.64589   1.07338    0.018
 4271.00    0.54638   1.07807    0.018
 4272.00    0.75370   1.08450    0.038
 4273.00    0.94125   1.09114   -1.000
 4274.00    0.85711   1.09752   -1.000
 4275.00    0.77926   1.10151   -1.000
 4276.00    0.75843   1.10335   -1.000
 4277.00    0.74444   1.10226   -1.000
 4278.00    0.77603   1.09872   -1.000
 4279.00    0.83840   1.09265   -1.000
 4280.00    1.06007   1.08475   -1.000
 4281.00    1.20511   1.07584   -1.000
 4282.00    1.03024   1.06635   -2.000
 4283.00    0.82873   1.05761   -2.000
 4284.00    0.53522   1.04883   -2.000
 4285.00    0.35462   1.04133   -2.000
 4286.00    0.50223   1.03383   -2.000
 4287.00    0.69140   1.02673   -2.000
 4288.00    0.98369   1.01930   -2.000
 4289.00    1.23386   1.01059   -2.000
 4290.00    1.39395   1.00087   -2.000
 4291.00    1.38644   0.98905   -2.000
 4292.00    1.06773   0.97643   -2.000
 4293.00    0.84558   0.96235   -2.000
 4294.00    0.78001   0.94815   -2.000
 4295.00    0.79968   0.93415   -2.000
 4296.00    0.94062   0.92136   -2.000
 4297.00    1.01631   0.91081   -2.000
 4298.00    1.01034   0.90246    0.020
 4299.00    1.00893   0.89762    0.020
 4300.00    1.01257   0.89579    0.020
 4301.00    0.93251   0.89809    0.019
 4302.00    0.77103   0.90446    0.019
 4303.00    0.72552   0.91515    0.019
 4304.00    0.77952   0.93027    0.019
 4305.00    0.90062   0.94960    0.020
 4306.00    1.07243   0.97304    0.020
 4307.00    1.10542   0.99914    0.020
 4308.00    1.04622   1.02781    0.020
 4309.00    1.02497   1.05623    0.019
 4310.00    1.02577   1.08412    0.019
 4311.00    1.19629   1.10878    0.019
 4312.00    1.45282   1.12926    0.019
 4313.00    1.41090   1.14424    0.019
 4314.00    1.23803   1.15292    0.019
 4315.00    1.13447   1.15626    0.019
 4316.00    1.05701   1.15407    0.019
 4317.00    1.05157   1.14932    0.019
 4318.00    1.06915   1.14189    0.019
 4319.00    1.13283   1.13529    0.019
 4320.00    1.20883   1.12936    0.020
 4321.00    1.18489   1.12637    0.020
 4322.00    1.13907   1.12558    0.020
 4323.00    1.04625   1.12734    0.019
 4324.00    0.94524   1.13004    0.019
 4325.00    0.86354   1.13222    0.020
 4326.00    0.78438   1.13266    0.020
 4327.00    1.04212   1.12949    0.020
 4328.00    1.33134   1.12242    0.020
 4329.00    1.29120   1.11087    0.020
 4330.00    1.23222   1.09534    0.000
 4331.00    1.21542   1.07726    0.000
 4332.00    1.19871   1.05804    0.000
 4333.00    1.07942   1.04043    0.000
 4334.00    0.96009   1.02596    0.000
 4335.00    0.83953   1.01679    0.000
 4336.00    0.74039   1.01362    0.000
 4337.00    0.92010   1.01672    0.000
 4338.00    1.08396   1.02562    0.000
 4339.00    1.10934   1.03899    0.000
 4340.00    1.12430   1.05545    0.000
 4341.00    1.07198   1.07295    0.000
 4342.00    1.04100   1.09045    0.000
 4343.00    1.11767   1.10640    0.000
 4344.00    1.17053   1.12026    0.000
 4345.00    1.12621   1.13199    0.000
 4346.00    1.06570   1.14194    0.000
 4347.00    0.95039   1.15061    0.000
 4348.00    0.90968   1.15900    0.000
 4349.00    1.08179   1.16772    0.000
 4350.00    1.20697   1.17709    0.000
 4351.00    1.21775   1.18732    0.020
 4352.00    1.25269   1.19827    0.020
 4353.00    1.33844   1.20961    0.020
 4354.00    1.39240   1.22077    0.020
 4355.00    1.38823   1.23145    0.020
 4356.00    1.32490   1.24087    0.020
 4357.00    1.16702   1.24870    0.020
 4358.00    1.22301   1.25398    0.020
 4359.00    1.57884   1.25696    0.019
 4360.00    1.66806   1.25720    0.019
 4361.00    1.42833   1.25500    0.020
 4362.00    1.23031   1.25045    0.020
 4363.00    1.07767   1.24417    0.019
 4364.00    1.14038   1.23665    0.019
 4365.00    1.40968   1.22823    0.019
 4366.00    1.48710   1.21968    0.019
 4367.00    1.40221   1.21118    0.019
 4368.00    1.33156   1.20335    0.019
 4369.00    1.27151   1.19566    0.019
 4370.00    1.19162   1.18843    0.019
 4371.00    1.09875   1.18093    0.019
 4372.00    1.09802   1.17323    0.019
 4373.00    1.15007   1.16444    0.019
 4374.00    1.24820   1.15479    0.019
 4375.00    1.36931   1.14427    0.019
 4376.00    1.32794   1.13352    0.019
 4377.00    1.21645   1.12328    0.019
 4378.00    1.26766   1.11455    0.019
 4379.00    1.37907   1.10848    0.019
 4380.00    1.27309   1.10540    0.019
 4381.00    1.09894   1.10595    0.019
 4382.00    0.97293   1.10965    0.019
 4383.00    0.85952   1.11663    0.019
 4384.00    1.04542   1.12582    0.019
 4385.00    1.29525   1.13665    0.018
 4386.00    1.22124   1.14784    0.018
 4387.00    1.09246   1.15902    0.018
 4388.00    1.19211   1.16946    0.018
 4389.00    1.32094   1.17846    0.018
 4390.00    1.32192   1.18550    0.018
 4391.00    1.31149   1.19031    0.019
 4392.00    1.23838   1.19308    0.018
 4393.00    1.16193   1.19357    0.018
 4394.00    1.22983   1.19231    0.018
 4395.00    1.29934   1.18937    0.018
 4396.00    1.27010   1.18565    0.018
 4397.00    1.24391   1.18142    0.018
 4398.00    1.28457   1.17786    0.018
 4399.00    1.32074   1.17551    0.019
 4400.00    1.30149   1.17503    0.019
 4401.00    1.27839   1.17652    0.019
 4402.00    1.22292   1.18002    0.019
 4403.00    1.16790   1.18549    0.019
 4404.00    1.11572   1.19212    0.019
 4405.00    1.09288   1.19969    0.019
 4406.00    1.21436   1.20706    0.019
 4407.00    1.30821   1.21400    0.019
 4408.00    1.29179   1.22005    0.019
 4409.00    1.26531   1.22560    0.019
 4410.00    1.20542   1.23016    0.019
 4411.00    1.14365   1.23424    0.018
 4412.00    1.07658   1.23790    0.018
 4413.00    1.03265   1.24148    0.018
 4414.00    1.04415   1.24472    0.018
 4415.00    1.10192   1.24768    0.018
 4416.00    1.25542   1.25021    0.018
 4417.00    1.37707   1.25203    0.018
 4418.00    1.44136   1.25316    0.018
 4419.00    1.46610   1.25353    0.018
 4420.00    1.42855   1.25320    0.018
 4421.00    1.43198   1.25202    0.018
 4422.00    1.49203   1.25038    0.018
 4423.00    1.47438   1.24815    0.018
 4424.00    1.36224   1.24581    0.018
 4425.00    1.23130   1.24337    0.018
 4426.00    1.08021   1.24141    0.018
 4427.00    1.04484   1.23992    0.018
 4428.00    1.11890   1.23937    0.018
 4429.00    1.14339   1.23964    0.019
 4430.00    1.12654   1.24100    0.019
 4431.00    1.22043   1.24316    0.019
 4432.00    1.39562   1.24612    0.019
 4433.00    1.44208   1.24944    0.019
 4434.00    1.40555   1.25309    0.019
 4435.00    1.28827   1.25673    0.019
 4436.00    1.12545   1.26038    0.019
 4437.00    1.13645   1.26386    0.019
 4438.00    1.23279   1.26725    0.019
 4439.00    1.29098   1.27033    0.019
 4440.00    1.33300   1.27300    0.019
 4441.00    1.33895   1.27483    0.019
 4442.00    1.33180   1.27543    0.019
 4443.00    1.35688   1.27439    0.019
 4444.00    1.39187   1.27128    0.019
 4445.00    1.34656   1.26607    0.019
 4446.00    1.28070   1.25870    0.019
 4447.00    1.29201   1.24968    0.019
 4448.00    1.31939   1.23934    0.019
 4449.00    1.27165   1.22871    0.018
 4450.00    1.21155   1.21821    0.018
 4451.00    1.26617   1.20909    0.018
 4452.00    1.33494   1.20149    0.018
 4453.00    1.25946   1.19647    0.018
 4454.00    1.17172   1.19385    0.018
 4455.00    1.13354   1.19398    0.018
 4456.00    1.09780   1.19647    0.018
 4457.00    1.27445   1.20122    0.018
 4458.00    1.45091   1.20770    0.018
 4459.00    1.40340   1.21556    0.018
 4460.00    1.35164   1.22443    0.018
 4461.00    1.21407   1.23416    0.000
 4462.00    1.09719   1.24432    0.000
 4463.00    1.22339   1.25509    0.000
 4464.00    1.33356   1.26587    0.000
 4465.00    1.31369   1.27707    0.000
 4466.00    1.27319   1.28777    0.000
 4467.00    1.10720   1.29818    0.000
 4468.00    0.98861   1.30737    0.000
 4469.00    1.09744   1.31526    0.000
 4470.00    1.20774   1.32122    0.000
 4471.00    1.32377   1.32517    0.000
 4472.00    1.37118   1.32722    0.000
 4473.00    1.19549   1.32744    0.000
 4474.00    1.11838   1.32657    0.000
 4475.00    1.31249   1.32478    0.000
 4476.00    1.43734   1.32305    0.000
 4477.00    1.39902   1.32129    0.000
 4478.00    1.34182   1.32016    0.000
 4479.00    1.24618   1.31930    0.000
 4480.00    1.21392   1.31882    0.000
 4481.00    1.29401   1.31830    0.000
 4482.00    1.31452   1.31771    0.018
 4483.00    1.24261   1.31676    0.018
 4484.00    1.20408   1.31573    0.018
 4485.00    1.21102   1.31454    0.018
 4486.00    1.28241   1.31389    0.018
 4487.00    1.43108   1.31372    0.018
 4488.00    1.48398   1.31495    0.018
 4489.00    1.43565   1.31735    0.018
 4490.00    1.41431   1.32166    0.018
 4491.00    1.41815   1.32751    0.018
 4492.00    1.37818   1.33517    0.018
 4493.00    1.30219   1.34417    0.019
 4494.00    1.20930   1.35431    0.018
 4495.00    1.10418   1.36509    0.018
 4496.00    1.09485   1.37599    0.018
 4497.00    1.14635   1.38648    0.018
 4498.00    1.19537   1.39607    0.018
 4499.00    1.24300   1.40417    0.018
 4500.00    1.35803   1.41060    0.018
 4501.00    1.50563   1.41485    0.018
 4502.00    1.53077   1.41715    0.018
 4503.00    1.50484   1.41717    0.018
 4504.00    1.44419   1.41549    0.018
 4505.00    1.37116   1.41193    0.018
 4506.00    1.41918   1.40734    0.018
 4507.00    1.50371   1.40155    0.018
 4508.00    1.50810   1.39551    0.018
 4509.00    1.49242   1.38885    0.018
 4510.00    1.54378   1.38252    0.018
 4511.00    1.60878   1.37573    0.018
 4512.00    1.60175   1.36929    0.018
 4513.00    1.58323   1.36211    0.018
 4514.00    1.55069   1.35473    0.018
 4515.00    1.51647   1.34622    0.018
 4516.00    1.37872   1.33681    0.018
 4517.00    1.23259   1.32631    0.018
 4518.00    1.25230   1.31462    0.018
 4519.00    1.27955   1.30265    0.018
 4520.00    1.34349   1.28997    0.018
 4521.00    1.40887   1.27846    0.018
 4522.00    1.52493   1.26733    0.018
 4523.00    1.62611   1.25890    0.018
 4524.00    1.44814   1.25202    0.018
 4525.00    1.27726   1.24873    0.018
 4526.00    1.18581   1.24778    0.018
 4527.00    1.11677   1.25028    0.018
 4528.00    1.22307   1.25517    0.018
 4529.00    1.31980   1.26246    0.018
 4530.00    1.35995   1.27143    0.018
 4531.00    1.36527   1.28118    0.018
 4532.00    1.20756   1.29136    0.018
 4533.00    1.10069   1.30075    0.018
 4534.00    1.18811   1.30918    0.018
 4535.00    1.23920   1.31583    0.018
 4536.00    1.17447   1.32054    0.018
 4537.00    1.13346   1.32331    0.018
 4538.00    1.15655   1.32390    0.018
 4539.00    1.18141   1.32311    0.018
 4540.00    1.21033   1.32067    0.018
 4541.00    1.29119   1.31774    0.018
 4542.00    1.47619   1.31426    0.018
 4543.00    1.57395   1.31113    0.018
 4544.00    1.51945   1.30873    0.018
 4545.00    1.48176   1.30728    0.018
 4546.00    1.46978   1.30762    0.018
 4547.00    1.45412   1.30913    0.018
 4548.00    1.43355   1.31290    0.018
 4549.00    1.35889   1.31760    0.018
 4550.00    1.22031   1.32419    0.000
 4551.00    1.28412   1.33109    0.000
 4552.00    1.55890   1.33884    0.000
 4553.00    1.68819   1.34610    0.000
 4554.00    1.68371   1.35302    0.000
 4555.00    1.61863   1.35890    0.000
 4556.00    1.50443   1.36376    0.000
 4557.00    1.47533   1.36757    0.000
 4558.00    1.50693   1.37037    0.000
 4559.00    1.53624   1.37252    0.000
 4560.00    1.56411   1.37411    0.000
 4561.00    1.41198   1.37550    0.000
 4562.00    1.16139   1.37671    0.000
 4563.00    1.19431   1.37782    0.000
 4564.00    1.36199   1.37878    0.000
 4565.00    1.45878   1.37938    0.000
 4566.00    1.52649   1.37955    0.000
 4567.00    1.57914   1.37899    0.000
 4568.00    1.62652   1.37762    0.000
 4569.00    1.51744   1.37521    0.000
 4570.00    1.36213   1.37181    0.000
 4571.00    1.37471   1.36744    0.000
 4572.00    1.42842   1.36231    0.000
 4573.00    1.36772   1.35673    0.000
 4574.00    1.28434   1.35116    0.000
 4575.00    1.21747   1.34589    0.000
 4576.00    1.15316   1.34162    0.000
 4577.00    1.31272   1.33821    0.000
 4578.00    1.49789   1.33653    0.000
 4579.00    1.34605   1.33569    0.000
 4580.00    1.16832   1.33658    0.000
 4581.00    1.07246   1.33770    0.000
 4582.00    0.98001   1.33994    0.000
 4583.00    1.15304   1.34163    0.000
 4584.00    1.32440   1.34362    0.000
 4585.00    1.32463   1.34459    0.000
 4586.00    1.32413   1.34543    0.000
 4587.00    1.31084   1.34528    0.000
 4588.00    1.29556   1.34510    0.000
 4589.00    1.25896   1.34438    0.000
 4590.00    1.23075   1.34402    0.000
 4591.00    1.26586   1.34371    0.000
 4592.00    1.30360   1.34412    0.000
 4593.00    1.35642   1.34519    0.000
 4594.00    1.38764   1.34705    0.000
 4595.00    1.32021   1.35012    0.000
 4596.00    1.27329   1.35377    0.000
 4597.00    1.30309   1.35898    0.000
 4598.00    1.31500   1.36436    0.000
 4599.00    1.27098   1.37127    0.000
 4600.00    1.24640   1.37786    0.000
 4601.00    1.27347   1.38540    0.000
 4602.00    1.29565   1.39219    0.000
 4603.00    1.30669   1.39894    0.000
 4604.00    1.29713   1.40478    0.000
 4605.00    1.24695   1.40960    0.000
 4606.00    1.23739   1.41372    0.000
 4607.00    1.29767   1.41635    0.000
 4608.00    1.37881   1.41872    0.000
 4609.00    1.49134   1.41965    0.000
 4610.00    1.51115   1.42100    0.000
 4611.00    1.40825   1.42111    0.000
 4612.00    1.33020   1.42201    0.000
 4613.00    1.28110   1.42204    0.000
 4614.00    1.34669   1.42275    0.000
 4615.00    1.53013   1.42287    0.000
 4616.00    1.60193   1.42330    0.000
 4617.00    1.57252   1.42324    0.000
 4618.00    1.54455   1.42308    0.000
 4619.00    1.51774   1.42249    0.000
 4620.00    1.55611   1.42132    0.000
 4621.00    1.64030   1.41982    0.000
 4622.00    1.67740   1.41773    0.000
 4623.00    1.68547   1.41517    0.000
 4624.00    1.53986   1.41179    0.000
 4625.00    1.31147   1.40813    0.000
 4626.00    1.26173   1.40376    0.000
 4627.00    1.29556   1.39914    0.000
 4628.00    1.34693   1.39407    0.000
 4629.00    1.40536   1.38879    0.000
 4630.00    1.43469   1.38353    0.000
 4631.00    1.45401   1.37800    0.000
 4632.00    1.48081   1.37308    0.000
 4633.00    1.50979   1.36772    0.000
 4634.00    1.52429   1.36323    0.000
 4635.00    1.53532   1.35822    0.000
 4636.00    1.41813   1.35403    0.000
 4637.00    1.27618   1.34926    0.000
 4638.00    1.18965   1.34564    0.000
 4639.00    1.11143   1.34162    0.000
 4640.00    1.22514   1.33912    0.000
 4641.00    1.35997   1.33699    0.000
 4642.00    1.36689   1.33673    0.000
 4643.00    1.36450   1.33713    0.000
 4644.00    1.40046   1.33943    0.000
 4645.00    1.43787   1.34230    0.000
 4646.00    1.46209   1.34688    0.000
 4647.00    1.48095   1.35154    0.000
 4648.00    1.30343   1.35709    0.000
 4649.00    1.14887   1.36261    0.000
 4650.00    1.36967   1.36781    0.000
 4651.00    1.55965   1.37268    0.000
 4652.00    1.43416   1.37596    0.000
 4653.00    1.30756   1.37814    0.000
 4654.00    1.17281   1.37779    0.000
 4655.00    1.09444   1.37576    0.000
 4656.00    1.33128   1.37119    0.000
 4657.00    1.51744   1.36513    0.000
 4658.00    1.47751   1.35768    0.000
 4659.00    1.43790   1.34962    0.000
 4660.00    1.39943   1.34187    0.000
 4661.00    1.37161   1.33502    0.000
 4662.00    1.37646   1.33012    0.000
 4663.00    1.38897   1.32730    0.000
 4664.00    1.42142   1.32730    0.000
 4665.00    1.42650   1.32912    0.000
 4666.00    1.37024   1.33291    0.000
 4667.00    1.33066   1.33770    0.000
 4668.00    1.32348   1.34294    0.000
 4669.00    1.31737   1.34829    0.000
 4670.00    1.31306   1.35293    0.000
 4671.00    1.28912   1.35694    0.000
 4672.00    1.23604   1.35976    0.000
 4673.00    1.23521   1.36158    0.000
 4674.00    1.30251   1.36270    0.000
 4675.00    1.32088   1.36343    0.000
 4676.00    1.28303   1.36398    0.000
 4677.00    1.34267   1.36457    0.000
 4678.00    1.50111   1.36538    0.000
 4679.00    1.51077   1.36647    0.000
 4680.00    1.38745   1.36737    0.000
 4681.00    1.26558   1.36873    0.000
 4682.00    1.14484   1.36974    0.000
 4683.00    1.14075   1.37099    0.000
 4684.00    1.21746   1.37186    0.000
 4685.00    1.33603   1.37268    0.000
 4686.00    1.48002   1.37276    0.000
 4687.00    1.48459   1.37254    0.000
 4688.00    1.41524   1.37159    0.000
 4689.00    1.32937   1.36976    0.000
 4690.00    1.23590   1.36715    0.000
 4691.00    1.25544   1.36359    0.000
 4692.00    1.31977   1.35909    0.000
 4693.00    1.23615   1.35407    0.000
 4694.00    1.10257   1.34844    0.000
 4695.00    1.06153   1.34362    0.000
 4696.00    1.04675   1.33847    0.000
 4697.00    1.14805   1.33484    0.000
 4698.00    1.27651   1.33139    0.000
 4699.00    1.26877   1.32999    0.000
 4700.00    1.23540   1.32938    0.000
 4701.00    1.32002   1.33040    0.000
 4702.00    1.42180   1.33254    0.000
 4703.00    1.28379   1.33581    0.000
 4704.00    1.12041   1.34058    0.000
 4705.00    1.10994   1.34599    0.000
 4706.00    1.10998   1.35314    0.000
 4707.00    1.22480   1.36028    0.000
 4708.00    1.34353   1.36866    0.000
 4709.00    1.31850   1.37668    0.000
 4710.00    1.29646   1.38521    0.000
 4711.00    1.37866   1.39333    0.000
 4712.00    1.46116   1.40104    0.000
 4713.00    1.54839   1.40764    0.000
 4714.00    1.60357   1.41298    0.000
 4715.00    1.34447   1.41636    0.000
 4716.00    1.14158   1.41783    0.000
 4717.00    1.33605   1.41724    0.000
 4718.00    1.49573   1.41455    0.000
 4719.00    1.46613   1.41038    0.000
 4720.00    1.42120   1.40462    0.000
 4721.00    1.30949   1.39845    0.000
 4722.00    1.23202   1.39159    0.000
 4723.00    1.27741   1.38536    0.000
 4724.00    1.29973   1.37983    0.000
 4725.00    1.25257   1.37574    0.000
 4726.00    1.24341   1.37353    0.000
 4727.00    1.33165   1.37281    0.000
 4728.00    1.41330   1.37390    0.000
 4729.00    1.48041   1.37596    0.000
 4730.00    1.52116   1.37958    0.000
 4731.00    1.51149   1.38339    0.000
 4732.00    1.45650   1.38807    0.000
 4733.00    1.32592   1.39285    0.000
 4734.00    1.26026   1.39757    0.000
 4735.00    1.28951   1.40256    0.000
 4736.00    1.31586   1.40717    0.000
 4737.00    1.33847   1.41121    0.000
 4738.00    1.36590   1.41482    0.000
 4739.00    1.39880   1.41792    0.000
 4740.00    1.41981   1.42032    0.000
 4741.00    1.42894   1.42181    0.000
 4742.00    1.41451   1.42233    0.000
 4743.00    1.37933   1.42180    0.000
 4744.00    1.35288   1.42072    0.000
 4745.00    1.33319   1.41797    0.000
 4746.00    1.39308   1.41512    0.000
 4747.00    1.50729   1.41078    0.000
 4748.00    1.53552   1.40674    0.000
 4749.00    1.51229   1.40124    0.000
 4750.00    1.44198   1.39636    0.000
 4751.00    1.34708   1.39058    0.000
 4752.00    1.30227   1.38531    0.000
 4753.00    1.28014   1.37963    0.000
 4754.00    1.45783   1.37432    0.000
 4755.00    1.71333   1.36911    0.000
 4756.00    1.64220   1.36448    0.000
 4757.00    1.46283   1.36044    0.000
 4758.00    1.46081   1.35745    0.000
 4759.00    1.50808   1.35532    0.000
 4760.00    1.47273   1.35519    0.000
 4761.00    1.41849   1.35663    0.018
 4762.00    1.37257   1.35958    0.018
 4763.00    1.32817   1.36397    0.018
 4764.00    1.33508   1.36955    0.018
 4765.00    1.34922   1.37616    0.018
 4766.00    1.38355   1.38260    0.018
 4767.00    1.41992   1.38939    0.018
 4768.00    1.52940   1.39487    0.018
 4769.00    1.64361   1.39981    0.018
 4770.00    1.60281   1.40376    0.018
 4771.00    1.55763   1.40651    0.018
 4772.00    1.66966   1.40783    0.018
 4773.00    1.77242   1.40728    0.018
 4774.00    1.60679   1.40596    0.018
 4775.00    1.45154   1.40349    0.018
 4776.00    1.44631   1.40028    0.018
 4777.00    1.44261   1.39676    0.017
 4778.00    1.45337   1.39370    0.018
 4779.00    1.43417   1.39096    0.018
 4780.00    1.20995   1.38906    0.017
 4781.00    1.03526   1.38845    0.017
 4782.00    1.12304   1.38945    0.017
 4783.00    1.22491   1.39126    0.017
 4784.00    1.38684   1.39430    0.017
 4785.00    1.51793   1.39878    0.017
 4786.00    1.54066   1.40325    0.017
 4787.00    1.54366   1.40815    0.017
 4788.00    1.48836   1.41308    0.017
 4789.00    1.44951   1.41702    0.018
 4790.00    1.45210   1.42060    0.017
 4791.00    1.46494   1.42283    0.018
 4792.00    1.50002   1.42424    0.018
 4793.00    1.53317   1.42419    0.018
 4794.00    1.56270   1.42348    0.017
 4795.00    1.50213   1.42207    0.017
 4796.00    1.29348   1.42015    0.018
 4797.00    1.14441   1.41854    0.018
 4798.00    1.08119   1.41662    0.018
 4799.00    1.09566   1.41560    0.018
 4800.00    1.20860   1.41401    0.018
 4801.00    1.27574   1.41357    0.018
 4802.00    1.29172   1.41281    0.018
 4803.00    1.34351   1.41371    0.018
 4804.00    1.43055   1.41480    0.018
 4805.00    1.51119   1.41683    0.018
 4806.00    1.58627   1.41944    0.018
 4807.00    1.59394   1.42251    0.018
 4808.00    1.55003   1.42553    0.018
 4809.00    1.45420   1.42841    0.018
 4810.00    1.32346   1.43080    0.018
 4811.00    1.26549   1.43242    0.017
 4812.00    1.25041   1.43325    0.017
 4813.00    1.28118   1.43284    0.018
 4814.00    1.33550   1.43163    0.018
 4815.00    1.32444   1.42915    0.018
 4816.00    1.28427   1.42605    0.017
 4817.00    1.29518   1.42229    0.017
 4818.00    1.32564   1.41811    0.017
 4819.00    1.41607   1.41411    0.017
 4820.00    1.52601   1.40988    0.017
 4821.00    1.43573   1.40635    0.017
 4822.00    1.29095   1.40370    0.018
 4823.00    1.24649   1.40142    0.018
 4824.00    1.22444   1.39954    0.017
 4825.00    1.13476   1.39784    0.017
 4826.00    1.03303   1.39634    0.017
 4827.00    1.06654   1.39502    0.017
 4828.00    1.11847   1.39386    0.017
 4829.00    1.15475   1.39216    0.017
 4830.00    1.18951   1.39110    0.017
 4831.00    1.15499   1.38939    0.017
 4832.00    1.11627   1.38797    0.017
 4833.00    1.26906   1.38596    0.017
 4834.00    1.42636   1.38415    0.017
 4835.00    1.48073   1.38211    0.017
 4836.00    1.52854   1.37979    0.017
 4837.00    1.40493   1.37762    0.017
 4838.00    1.28522   1.37505    0.017
 4839.00    1.21873   1.37240    0.017
 4840.00    1.16775   1.36858    0.017
 4841.00    1.25696   1.36409    0.017
 4842.00    1.33382   1.35817    0.017
 4843.00    1.32879   1.35049    0.017
 4844.00    1.32264   1.34087    0.017
 4845.00    1.31069   1.32903    0.016
 4846.00    1.26467   1.31496    0.016
 4847.00    1.07685   1.29927    0.016
 4848.00    0.93848   1.28160    0.000
 4849.00    0.97035   1.26263    0.000
 4850.00    1.01280   1.24312    0.000
 4851.00    1.08592   1.22351    0.000
 4852.00    1.14179   1.20487    0.000
 4853.00    1.15495   1.18856    0.000
 4854.00    1.20587   1.17541    0.000
 4855.00    1.33733   1.16585    0.000
 4856.00    1.44690   1.16037    0.000
 4857.00    1.51589   1.15873    0.000
 4858.00    1.50648   1.16127    0.000
 4859.00    1.37014   1.16759    0.000
 4860.00    1.27818   1.17804    0.000
 4861.00    1.24926   1.18958    0.000
 4862.00    1.23362   1.20333    0.000
 4863.00    1.23457   1.21666    0.000
 4864.00    1.14670   1.23005    0.000
 4865.00    0.96103   1.24294    0.000
 4866.00    0.95091   1.25520    0.000
 4867.00    1.11128   1.26697    0.000
 4868.00    1.17423   1.27765    0.000
 4869.00    1.15374   1.28811    0.000
 4870.00    1.13375   1.29821    0.000
 4871.00    1.11415   1.30712    0.000
 4872.00    1.12290   1.31559    0.000
 4873.00    1.15045   1.32183    0.000
 4874.00    1.21160   1.32727    0.000
 4875.00    1.29226   1.33006    0.017
 4876.00    1.33207   1.33251    0.017
 4877.00    1.35123   1.33293    0.017
 4878.00    1.34624   1.33259    0.017
 4879.00    1.33069   1.33170    0.017
 4880.00    1.31334   1.33114    0.017
 4881.00    1.29531   1.33114    0.017
 4882.00    1.24003   1.33250    0.017
 4883.00    1.17287   1.33565    0.017
 4884.00    1.18794   1.34013    0.017
 4885.00    1.22494   1.34748    0.017
 4886.00    1.36988   1.35540    0.017
 4887.00    1.53838   1.36564    0.017
 4888.00    1.51058   1.37517    0.017
 4889.00    1.44875   1.38624    0.017
 4890.00    1.33289   1.39636    0.017
 4891.00    1.20991   1.40557    0.017
 4892.00    1.29456   1.41363    0.017
 4893.00    1.39851   1.41900    0.017
 4894.00    1.41464   1.42273    0.017
 4895.00    1.42580   1.42436    0.017
 4896.00    1.33547   1.42459    0.017
 4897.00    1.24333   1.42333    0.018
 4898.00    1.20647   1.42144    0.018
 4899.00    1.17375   1.41879    0.018
 4900.00    1.23921   1.41555    0.018
 4901.00    1.30874   1.41224    0.018
 4902.00    1.43090   1.40821    0.018
 4903.00    1.53280   1.40410    0.018
 4904.00    1.45849   1.39945    0.018
 4905.00    1.40138   1.39422    0.017
 4906.00    1.45494   1.38854    0.018
 4907.00    1.51036   1.38184    0.018
 4908.00    1.57511   1.37534    0.018
 4909.00    1.60168   1.36816    0.018
 4910.00    1.47281   1.36136    0.018
 4911.00    1.37439   1.35428    0.018
 4912.00    1.37867   1.34823    0.018
 4913.00    1.38616   1.34258    0.018
 4914.00    1.40279   1.33867    0.018
 4915.00    1.36796   1.33652    0.018
 4916.00    1.20795   1.33642    0.018
 4917.00    1.17859   1.33895    0.018
 4918.00    1.42354   1.34365    0.018
 4919.00    1.48731   1.35098    0.018
 4920.00    1.22051   1.35898    0.017
 4921.00    1.10354   1.36785    0.017
 4922.00    1.22550   1.37570    0.017
 4923.00    1.29994   1.38255    0.018
 4924.00    1.30788   1.38762    0.018
 4925.00    1.31910   1.39121    0.017
 4926.00    1.33435   1.39302    0.017
 4927.00    1.28158   1.39308    0.017
 4928.00    1.15498   1.39198    0.017
 4929.00    1.19234   1.39052    0.017
 4930.00    1.38670   1.38863    0.017
 4931.00    1.43140   1.38772    0.017
 4932.00    1.34973   1.38807    0.017
 4933.00    1.38141   1.38987    0.017
 4934.00    1.49736   1.39372    0.017
 4935.00    1.44804   1.39862    0.017
 4936.00    1.29077   1.40449    0.017
 4937.00    1.33290   1.41135    0.017
 4938.00    1.48903   1.41889    0.017
 4939.00    1.62079   1.42592    0.017
 4940.00    1.74044   1.43261    0.000
 4941.00    1.60123   1.43705    0.000
 4942.00    1.35055   1.44007    0.000
 4943.00    1.40513   1.44019    0.000
 4944.00    1.57242   1.43926    0.000
 4945.00    1.51868   1.43622    0.000
 4946.00    1.39579   1.43220    0.000
 4947.00    1.35607   1.42657    0.000
 4948.00    1.33805   1.41988    0.000
 4949.00    1.38145   1.41330    0.000
 4950.00    1.43794   1.40620    0.000
 4951.00    1.37558   1.40038    0.000
 4952.00    1.29319   1.39448    0.000
 4953.00    1.30772   1.39088    0.000
 4954.00    1.33459   1.38738    0.000
 4955.00    1.34843   1.38577    0.000
 4956.00    1.36111   1.38523    0.000
 4957.00    1.31277   1.38542    0.000
 4958.00    1.26121   1.38758    0.000
 4959.00    1.22278   1.38873    0.000
 4960.00    1.18638   1.39025    0.000
 4961.00    1.28952   1.39110    0.000
 4962.00    1.38862   1.39241    0.000
 4963.00    1.39965   1.39334    0.000
 4964.00    1.40376   1.39411    0.000
 4965.00    1.32285   1.39435    0.000
 4966.00    1.24069   1.39443    0.000
 4967.00    1.14802   1.39342    0.000
 4968.00    1.08772   1.39077    0.000
 4969.00    1.22952   1.38728    0.000
 4970.00    1.32926   1.38166    0.000
 4971.00    1.22272   1.37537    0.000
 4972.00    1.12114   1.36769    0.000
 4973.00    1.03927   1.35954    0.000
 4974.00    1.02673   1.35147    0.000
 4975.00    1.24351   1.34347    0.000
 4976.00    1.37585   1.33694    0.000
 4977.00    1.27221   1.33150    0.000
 4978.00    1.18377   1.32829    0.000
 4979.00    1.13167   1.32671    0.000
 4980.00    1.10593   1.32736    0.000
 4981.00    1.13465   1.32939    0.000
 4982.00    1.16316   1.33287    0.000
 4983.00    1.19133   1.33773    0.000
 4984.00    1.23116   1.34272    0.000
 4985.00    1.28934   1.34707    0.000
 4986.00    1.33372   1.35047    0.000
 4987.00    1.35909   1.35263    0.000
 4988.00    1.38672   1.35280    0.000
 4989.00    1.41711   1.35218    0.000
 4990.00    1.39990   1.35003    0.000
 4991.00    1.33173   1.34654    0.000
 4992.00    1.31098   1.34230    0.000
 4993.00    1.33501   1.33624    0.000
 4994.00    1.24188   1.32996    0.000
 4995.00    1.05123   1.32372    0.000
 4996.00    1.03390   1.31699    0.000
 4997.00    1.14360   1.31084    0.000
 4998.00    1.22227   1.30454    0.000
 4999.00    1.28099   1.29899    0.000
 5000.00    1.30570   1.29394    0.000
 5001.00    1.31126   1.28972    0.000
 5002.00    1.27892   1.28559    0.000
 5003.00    1.22801   1.28218    0.000
 5004.00    1.39559   1.27899    0.000
 5005.00    1.65567   1.27597    0.000
 5006.00    1.67715   1.27371    0.000
 5007.00    1.61211   1.27216    0.000
 5008.00    1.46787   1.27116    0.000
 5009.00    1.29935   1.26978    0.000
 5010.00    1.32851   1.26964    0.000
 5011.00    1.40814   1.27031    0.000
 5012.00    1.31820   1.27289    0.000
 5013.00    1.19303   1.27630    0.000
 5014.00    1.10356   1.28127    0.000
 5015.00    1.01993   1.28634    0.000
 5016.00    1.06462   1.29242    0.000
 5017.00    1.12506   1.29876    0.000
 5018.00    1.11768   1.30580    0.000
 5019.00    1.10456   1.31294    0.000
 5020.00    1.22107   1.31955    0.000
 5021.00    1.34392   1.32615    0.000
 5022.00    1.29183   1.33136    0.000
 5023.00    1.23990   1.33621    0.000
 5024.00    1.36294   1.33842    0.000
 5025.00    1.47711   1.34053    0.000
 5026.00    1.41340   1.34055    0.000
 5027.00    1.35537   1.33855    0.000
 5028.00    1.36355   1.33590    0.000
 5029.00    1.36312   1.33084    0.017
 5030.00    1.29326   1.32626    0.017
 5031.00    1.24876   1.32145    0.017
 5032.00    1.35811   1.31704    0.017
 5033.00    1.43258   1.31299    0.017
 5034.00    1.34021   1.31043    0.017
 5035.00    1.26496   1.30895    0.016
 5036.00    1.25640   1.30934    0.017
 5037.00    1.22127   1.31152    0.017
 5038.00    1.09998   1.31396    0.016
 5039.00    1.03323   1.31825    0.016
 5040.00    1.11617   1.32307    0.017
 5041.00    1.21454   1.32931    0.017
 5042.00    1.34918   1.33644    0.017
 5043.00    1.45785   1.34241    0.017
 5044.00    1.51373   1.34799    0.016
 5045.00    1.49058   1.35343    0.016
 5046.00    1.32762   1.35863    0.016
 5047.00    1.33172   1.36337    0.016
 5048.00    1.59443   1.36858    0.016
 5049.00    1.68267   1.37405    0.016
 5050.00    1.53371   1.37932    0.016
 5051.00    1.32175   1.38362    0.016
 5052.00    1.03438   1.38663    0.016
 5053.00    0.99777   1.38836    0.016
 5054.00    1.22578   1.38862    0.016
 5055.00    1.32883   1.38714    0.016
 5056.00    1.31554   1.38458    0.016
 5057.00    1.31538   1.38086    0.016
 5058.00    1.32598   1.37664    0.016
 5059.00    1.40512   1.37118    0.016
 5060.00    1.53375   1.36572    0.016
 5061.00    1.56044   1.36016    0.016
 5062.00    1.52249   1.35403    0.016
 5063.00    1.47988   1.34872    0.016
 5064.00    1.43469   1.34330    0.016
 5065.00    1.29880   1.33950    0.016
 5066.00    1.11917   1.33560    0.016
 5067.00    1.07685   1.33066    0.016
 5068.00    1.09170   1.32648    0.016
 5069.00    1.16892   1.32172    0.016
 5070.00    1.26835   1.31776    0.016
 5071.00    1.33609   1.31329    0.016
 5072.00    1.39428   1.31038    0.016
 5073.00    1.47826   1.30859    0.016
 5074.00    1.56867   1.30704    0.016
 5075.00    1.41443   1.30744    0.016
 5076.00    1.21061   1.30859    0.016
 5077.00    1.29972   1.31173    0.017
 5078.00    1.43537   1.31480    0.017
 5079.00    1.38576   1.31994    0.016
 5080.00    1.31422   1.32651    0.016
 5081.00    1.29218   1.33344    0.016
 5082.00    1.27412   1.33976    0.016
 5083.00    1.22470   1.34539    0.016
 5084.00    1.17386   1.35045    0.016
 5085.00    1.25793   1.35352    0.016
 5086.00    1.34110   1.35508    0.016
 5087.00    1.30021   1.35469    0.016
 5088.00    1.26861   1.35371    0.016
 5089.00    1.40996   1.35106    0.016
 5090.00    1.52850   1.34831    0.016
 5091.00    1.39289   1.34502    0.016
 5092.00    1.27779   1.34145    0.016
 5093.00    1.32241   1.33733    0.016
 5094.00    1.34214   1.33310    0.016
 5095.00    1.21523   1.32946    0.017
 5096.00    1.14021   1.32630    0.017
 5097.00    1.30738   1.32401    0.017
 5098.00    1.40439   1.32204    0.016
 5099.00    1.23399   1.32248    0.017
 5100.00    1.14403   1.32277    0.017
 5101.00    1.30994   1.32410    0.016
 5102.00    1.40058   1.32571    0.016
 5103.00    1.28831   1.32765    0.016
 5104.00    1.21357   1.33067    0.016
 5105.00    1.22563   1.33394    0.016
 5106.00    1.20890   1.33759    0.016
 5107.00    1.13461   1.34117    0.016
 5108.00    1.10499   1.34521    0.016
 5109.00    1.15319   1.34753    0.016
 5110.00    1.26468   1.34897    0.016
 5111.00    1.47270   1.34932    0.016
 5112.00    1.59373   1.34767    0.016
 5113.00    1.59820   1.34413    0.017
 5114.00    1.48249   1.33964    0.017
 5115.00    1.22499   1.33415    0.017
 5116.00    1.13343   1.32849    0.017
 5117.00    1.21453   1.32214    0.017
 5118.00    1.26863   1.31545    0.017
 5119.00    1.29794   1.30966    0.017
 5120.00    1.31423   1.30427    0.016
 5121.00    1.31998   1.30124    0.016
 5122.00    1.29245   1.29847    0.016
 5123.00    1.24121   1.29724    0.016
 5124.00    1.12758   1.29704    0.016
 5125.00    0.97499   1.29863    0.016
 5126.00    0.97702   1.29939    0.016
 5127.00    1.06347   1.29924    0.016
 5128.00    1.14207   1.30035    0.016
 5129.00    1.21696   1.29908    0.016
 5130.00    1.29682   1.29991    0.016
 5131.00    1.37873   1.29954    0.016
 5132.00    1.43028   1.29694    0.016
 5133.00    1.47123   1.29472    0.016
 5134.00    1.37929   1.29333    0.016
 5135.00    1.24818   1.29122    0.016
 5136.00    1.09537   1.28737    0.016
 5137.00    0.93725   1.28545    0.016
 5138.00    0.92682   1.28342    0.016
 5139.00    0.94557   1.28294    0.016
 5140.00    1.07926   1.28341    0.016
 5141.00    1.23067   1.28236    0.016
 5142.00    1.26638   1.28250    0.016
 5143.00    1.28891   1.28471    0.016
 5144.00    1.26408   1.28636    0.016
 5145.00    1.23564   1.28855    0.016
 5146.00    1.21723   1.29173    0.016
 5147.00    1.19924   1.29520    0.016
 5148.00    1.21928   1.29872    0.016
 5149.00    1.23944   1.30071    0.016
 5150.00    1.25168   1.30149    0.016
 5151.00    1.26782   1.30099    0.016
 5152.00    1.35168   1.29810    0.016
 5153.00    1.42217   1.29313    0.016
 5154.00    1.35035   1.28566    0.016
 5155.00    1.28264   1.27473    0.017
 5156.00    1.24590   1.26078    0.017
 5157.00    1.22839   1.24361    0.017
 5158.00    1.32095   1.22580    0.017
 5159.00    1.39696   1.20797    0.017
 5160.00    1.39758   1.19200    0.017
 5161.00    1.37989   1.17544    0.017
 5162.00    1.29394   1.15971    0.017
 5163.00    1.22921   1.14839    0.017
 5164.00    1.23072   1.14030    0.017
 5165.00    1.18946   1.13638    0.017
 5166.00    1.03491   1.13514    0.017
 5167.00    0.95403   1.13828    0.016
 5168.00    1.04062   1.14465    0.017
 5169.00    1.09942   1.15203    0.017
 5170.00    1.10347   1.15904    0.017
 5171.00    1.10636   1.16401    0.016
 5172.00    1.10724   1.16978    0.017
 5173.00    1.15449   1.17553    0.017
 5174.00    1.27142   1.18031    0.017
 5175.00    1.35164   1.18445    0.017
 5176.00    1.38336   1.18767    0.017
 5177.00    1.31757   1.19277    0.017
 5178.00    1.13832   1.19603    0.016
 5179.00    1.12421   1.20030    0.016
 5180.00    1.27950   1.20565    0.016
 5181.00    1.28586   1.21004    0.016
 5182.00    1.15746   1.21539    0.016
 5183.00    1.14997   1.22176    0.015
 5184.00    1.23890   1.23220    0.016
 5185.00    1.24140   1.24084    0.016
 5186.00    1.18326   1.24897    0.016
 5187.00    1.18528   1.25556    0.016
 5188.00    1.22432   1.26089    0.016
 5189.00    1.18124   1.26772    0.016
 5190.00    1.09403   1.27148    0.000
 5191.00    1.16252   1.27397    0.000
 5192.00    1.30368   1.27639    0.000
 5193.00    1.41501   1.27890    0.000
 5194.00    1.51434   1.27785    0.000
 5195.00    1.39387   1.27561    0.000
 5196.00    1.19797   1.27363    0.000
 5197.00    1.12969   1.27036    0.000
 5198.00    1.09828   1.26671    0.000
 5199.00    1.06762   1.26438    0.000
 5200.00    1.03714   1.26225    0.000
 5201.00    1.13637   1.26136    0.000
 5202.00    1.26057   1.26350    0.000
 5203.00    1.19194   1.26616    0.000
 5204.00    1.09448   1.27080    0.000
 5205.00    1.12022   1.27610    0.000
 5206.00    1.15945   1.28415    0.000
 5207.00    1.19781   1.29078    0.000
 5208.00    1.23609   1.29807    0.000
 5209.00    1.33686   1.30687    0.000
 5210.00    1.43996   1.31347    0.000
 5211.00    1.35588   1.32027    0.016
 5212.00    1.27289   1.32400    0.016
 5213.00    1.26136   1.32634    0.016
 5214.00    1.25218   1.32597    0.016
 5215.00    1.28112   1.32394    0.016
 5216.00    1.31576   1.32152    0.016
 5217.00    1.40854   1.31768    0.016
 5218.00    1.47234   1.31504    0.016
 5219.00    1.32522   1.31139    0.016
 5220.00    1.22171   1.30984    0.016
 5221.00    1.36122   1.30989    0.016
 5222.00    1.46968   1.30873    0.017
 5223.00    1.44005   1.30995    0.017
 5224.00    1.38557   1.31180    0.017
 5225.00    1.24031   1.31488    0.017
 5226.00    1.13342   1.32057    0.017
 5227.00    1.14397   1.32873    0.017
 5228.00    1.16808   1.33865    0.016
 5229.00    1.22749   1.34609    0.017
 5230.00    1.30062   1.35353    0.017
 5231.00    1.40440   1.36048    0.017
 5232.00    1.45255   1.36491    0.017
 5233.00    1.39285   1.37087    0.017
 5234.00    1.36049   1.37546    0.017
 5235.00    1.37435   1.37880    0.017
 5236.00    1.35857   1.38106    0.017
 5237.00    1.29887   1.38076    0.017
 5238.00    1.24904   1.37909    0.016
 5239.00    1.21205   1.37557    0.016
 5240.00    1.22243   1.37270    0.016
 5241.00    1.28713   1.37023    0.016
 5242.00    1.30180   1.36603    0.016
 5243.00    1.26588   1.36354    0.016
 5244.00    1.23515   1.36163    0.016
 5245.00    1.20906   1.35828    0.016
 5246.00    1.17571   1.35518    0.016
 5247.00    1.13663   1.35225    0.016
 5248.00    1.24004   1.35139    0.016
 5249.00    1.44196   1.34845    0.016
 5250.00    1.46162   1.34458    0.016
 5251.00    1.37078   1.34026    0.016
 5252.00    1.33756   1.33275    0.016
 5253.00    1.33483   1.32358    0.016
 5254.00    1.33085   1.31108    0.016
 5255.00    1.32629   1.29923    0.016
 5256.00    1.32191   1.28747    0.016
 5257.00    1.31760   1.27516    0.016
 5258.00    1.38159   1.26274    0.016
 5259.00    1.46859   1.25213    0.016
 5260.00    1.39263   1.24336    0.016
 5261.00    1.27054   1.23415    0.016
 5262.00    1.18996   1.22964    0.016
 5263.00    1.11908   1.23121    0.016
 5264.00    1.20117   1.23603    0.016
 5265.00    1.31193   1.24123    0.016
 5266.00    1.32751   1.25052    0.016
 5267.00    1.32931   1.26138    0.016
 5268.00    1.27201   1.27080    0.016
 5269.00    1.20850   1.28399    0.016
 5270.00    1.28856   1.29994    0.017
 5271.00    1.37842   1.31497    0.017
 5272.00    1.35693   1.32662    0.017
 5273.00    1.33171   1.33765    0.017
 5274.00    1.26174   1.34833    0.017
 5275.00    1.19664   1.35780    0.016
 5276.00    1.28902   1.36828    0.016
 5277.00    1.37238   1.37929    0.016
 5278.00    1.31833   1.38833    0.016
 5279.00    1.27837   1.39537    0.016
 5280.00    1.37590   1.40096    0.016
 5281.00    1.44629   1.40588    0.016
 5282.00    1.32557   1.41030    0.016
 5283.00    1.23527   1.41286    0.016
 5284.00    1.30991   1.41576    0.016
 5285.00    1.38641   1.41644    0.016
 5286.00    1.47096   1.41496    0.017
 5287.00    1.54768   1.41193    0.017
 5288.00    1.59643   1.40754    0.017
 5289.00    1.60979   1.40330    0.017
 5290.00    1.51687   1.39879    0.017
 5291.00    1.46659   1.39701    0.017
 5292.00    1.52534   1.39572    0.017
 5293.00    1.53311   1.39451    0.017
 5294.00    1.42876   1.39534    0.017
 5295.00    1.33001   1.39737    0.017
 5296.00    1.24197   1.40126    0.016
 5297.00    1.23260   1.40584    0.016
 5298.00    1.35421   1.41203    0.016
 5299.00    1.42634   1.41814    0.016
 5300.00    1.42624   1.42325    0.016
 5301.00    1.40877   1.42861    0.016
 5302.00    1.36900   1.43331    0.016
 5303.00    1.37729   1.43717    0.016
 5304.00    1.43991   1.43921    0.016
 5305.00    1.41317   1.43946    0.016
 5306.00    1.29732   1.43823    0.016
 5307.00    1.29814   1.43643    0.016
 5308.00    1.40157   1.43265    0.016
 5309.00    1.40187   1.42752    0.016
 5310.00    1.32226   1.42283    0.015
 5311.00    1.29133   1.41626    0.015
 5312.00    1.29357   1.40848    0.015
 5313.00    1.35207   1.39890    0.015
 5314.00    1.44418   1.39018    0.015
 5315.00    1.45252   1.38062    0.015
 5316.00    1.41723   1.36995    0.015
 5317.00    1.47565   1.36234    0.015
 5318.00    1.57640   1.35449    0.015
 5319.00    1.57462   1.34655    0.015
 5320.00    1.53300   1.33707    0.015
 5321.00    1.42231   1.33300    0.015
 5322.00    1.28879   1.33268    0.015
 5323.00    1.35597   1.33244    0.015
 5324.00    1.47880   1.33471    0.015
 5325.00    1.50286   1.33677    0.015
 5326.00    1.50441   1.34104    0.015
 5327.00    1.41547   1.34417    0.015
 5328.00    1.31003   1.34982    0.015
 5329.00    1.25888   1.35765    0.015
 5330.00    1.21535   1.36314    0.015
 5331.00    1.22753   1.36747    0.015
 5332.00    1.24532   1.36900    0.015
 5333.00    1.33488   1.37176    0.015
 5334.00    1.42904   1.37584    0.015
 5335.00    1.40232   1.37812    0.015
 5336.00    1.37220   1.38141    0.015
 5337.00    1.42386   1.38377    0.015
 5338.00    1.47552   1.38576    0.015
 5339.00    1.52697   1.38897    0.016
 5340.00    1.56711   1.39213    0.016
 5341.00    1.44502   1.39795    0.016
 5342.00    1.33634   1.40399    0.016
 5343.00    1.35318   1.41065    0.016
 5344.00    1.38083   1.41761    0.016
 5345.00    1.48216   1.42324    0.016
 5346.00    1.54395   1.43059    0.016
 5347.00    1.39692   1.43696    0.016
 5348.00    1.28778   1.44202    0.016
 5349.00    1.33957   1.44688    0.016
 5350.00    1.37215   1.45041    0.016
 5351.00    1.33746   1.45231    0.016
 5352.00    1.33903   1.45133    0.016
 5353.00    1.44747   1.44945    0.016
 5354.00    1.54395   1.44558    0.016
 5355.00    1.61037   1.44013    0.016
 5356.00    1.56602   1.43337    0.016
 5357.00    1.28196   1.42523    0.015
 5358.00    1.14400   1.41822    0.015
 5359.00    1.28051   1.41022    0.015
 5360.00    1.35215   1.40388    0.015
 5361.00    1.31741   1.39720    0.015
 5362.00    1.33699   1.39125    0.015
 5363.00    1.43470   1.38711    0.015
 5364.00    1.49961   1.38439    0.015
 5365.00    1.52302   1.38618    0.015
 5366.00    1.44472   1.38797    0.015
 5367.00    1.25302   1.39157    0.015
 5368.00    1.24610   1.39479   -2.000
 5369.00    1.42088   1.39762   -2.000
 5370.00    1.54682   1.40176   -2.000
 5371.00    1.63041   1.40637   -2.000
 5372.00    1.63291   1.41211   -2.000
 5373.00    1.57347   1.41533   -2.000
 5374.00    1.49879   1.41755   -2.000
 5375.00    1.41386   1.41791   -2.000
 5376.00    1.35778   1.41732   -2.000
 5377.00    1.31866   1.41682   -2.000
 5378.00    1.32166   1.41512   -2.000
 5379.00    1.34627   1.41247   -2.000
 5380.00    1.38998   1.40853   -2.000
 5381.00    1.44219   1.40356   -2.000
 5382.00    1.43597   1.39783   -2.000
 5383.00    1.40744   1.39191    0.014
 5384.00    1.36587   1.38575    0.014
 5385.00    1.32006   1.37991    0.015
 5386.00    1.36448   1.37362    0.015
 5387.00    1.43341   1.36802    0.015
 5388.00    1.45109   1.36144    0.015
 5389.00    1.45734   1.35446    0.015
 5390.00    1.43957   1.34977    0.015
 5391.00    1.41754   1.34462    0.016
 5392.00    1.48344   1.34041    0.015
 5393.00    1.56128   1.33679    0.015
 5394.00    1.43433   1.33436    0.015
 5395.00    1.28759   1.33119    0.015
 5396.00    1.31874   1.32668    0.015
 5397.00    1.36058   1.32462    0.015
 5398.00    1.35173   1.32441    0.015
 5399.00    1.34193   1.32531    0.015
 5400.00    1.39199   1.32697    0.015
 5401.00    1.43848   1.32996    0.015
 5402.00    1.39269   1.33284    0.015
 5403.00    1.34883   1.33686    0.015
 5404.00    1.33117   1.34256    0.015
 5405.00    1.31551   1.34991    0.015
 5406.00    1.31790   1.35849    0.015
 5407.00    1.31622   1.36602    0.015
 5408.00    1.28761   1.37289    0.015
 5409.00    1.26735   1.37909    0.015
 5410.00    1.29000   1.38558    0.015
 5411.00    1.32959   1.39111    0.015
 5412.00    1.43951   1.39503    0.015
 5413.00    1.51373   1.39770    0.015
 5414.00    1.46532   1.39948    0.014
 5415.00    1.40770   1.39998    0.014
 5416.00    1.32341   1.39794    0.014
 5417.00    1.28341   1.39601    0.014
 5418.00    1.35278   1.39415    0.014
 5419.00    1.39993   1.39162    0.014
 5420.00    1.39977   1.38884    0.014
 5421.00    1.37091   1.38438    0.014
 5422.00    1.28896   1.38061    0.014
 5423.00    1.26059   1.37717    0.014
 5424.00    1.31878   1.37497    0.014
 5425.00    1.34913   1.37657    0.014
 5426.00    1.34000   1.37639    0.014
 5427.00    1.36210   1.37670    0.014
 5428.00    1.42314   1.37699    0.014
 5429.00    1.43329   1.37893    0.014
 5430.00    1.38751   1.38572    0.014
 5431.00    1.34890   1.38977    0.014
 5432.00    1.31725   1.39349    0.014
 5433.00    1.30327   1.39572    0.014
 5434.00    1.30441   1.39725    0.014
 5435.00    1.39706   1.40084    0.014
 5436.00    1.55863   1.40209    0.014
 5437.00    1.53418   1.40305    0.014
 5438.00    1.38665   1.40119    0.014
 5439.00    1.32848   1.39805    0.014
 5440.00    1.32209   1.39585    0.014
 5441.00    1.45367   1.39256    0.015
 5442.00    1.65490   1.39022    0.015
 5443.00    1.64409   1.38755    0.015
 5444.00    1.54060   1.38511    0.015
 5445.00    1.46348   1.38239    0.015
 5446.00    1.39624   1.37995    0.015
 5447.00    1.30214   1.37880    0.015
 5448.00    1.19948   1.37836    0.015
 5449.00    1.20839   1.37727    0.015
 5450.00    1.24695   1.37627    0.014
 5451.00    1.34887   1.37795    0.015
 5452.00    1.46456   1.37874    0.015
 5453.00    1.48477   1.37898    0.015
 5454.00    1.48849   1.37822    0.014
 5455.00    1.44927   1.37797    0.015
 5456.00    1.40443   1.38021    0.015
 5457.00    1.42663   1.38039    0.015
 5458.00    1.45501   1.38055    0.015
 5459.00    1.36695   1.38060    0.014
 5460.00    1.27234   1.37878    0.014
 5461.00    1.25610   1.37755    0.014
 5462.00    1.24232   1.37540    0.014
 5463.00    1.30230   1.37241    0.014
 5464.00    1.35952   1.36998    0.014
 5465.00    1.35188   1.36653    0.014
 5466.00    1.34710   1.36408    0.014
 5467.00    1.37898   1.36128    0.014
 5468.00    1.40189   1.35671    0.014
 5469.00    1.34710   1.35408    0.013
 5470.00    1.29486   1.35153    0.013
 5471.00    1.25890   1.35101    0.013
 5472.00    1.23597   1.35240    0.013
 5473.00    1.27837   1.35314    0.014
 5474.00    1.31528   1.35486    0.014
 5475.00    1.32993   1.35491    0.014
 5476.00    1.36101   1.35740    0.014
 5477.00    1.44740   1.36287    0.014
 5478.00    1.50577   1.36785   -2.000
 5479.00    1.48451   1.37150   -2.000
 5480.00    1.48150   1.37302   -2.000
 5481.00    1.52280   1.37570   -2.000
 5482.00    1.54206   1.37887   -2.000
 5483.00    1.51515   1.38238   -2.000
 5484.00    1.53304   1.38443   -2.000
 5485.00    1.63252   1.38537   -2.000
 5486.00    1.72838   1.38626   -2.000
 5487.00    1.81847   1.38596   -2.000
 5488.00    1.91582   1.38630   -2.000
 5489.00    2.02334   1.38585   -2.000
 5490.00    1.94216   1.38515   -2.000
 5491.00    1.62901   1.38401   -2.000
 5492.00    1.47572   1.38213   -2.000
 5493.00    1.49566   1.38058   -2.000
 5494.00    1.55487   1.37881   -2.000
 5495.00    1.65162   1.37617   -2.000
 5496.00    1.65778   1.37309   -2.000
 5497.00    1.58758   1.37186   -2.000
 5498.00    1.52610   1.37061   -2.000
 5499.00    1.47109   1.36857   -2.000
 5500.00    1.44961   1.36571   -2.000
 5501.00    1.44999   1.36367   -2.000
 5502.00    1.43039   1.36470    0.014
 5503.00    1.39939   1.36493    0.014
 5504.00    1.36767   1.36495    0.014
 5505.00    1.33560   1.36555    0.014
 5506.00    1.41458   1.36610    0.014
 5507.00    1.54127   1.36944    0.014
 5508.00    1.50061   1.37261    0.014
 5509.00    1.39831   1.37521    0.014
 5510.00    1.31362   1.37862    0.013
 5511.00    1.23442   1.38087    0.013
 5512.00    1.31023   1.38416    0.013
 5513.00    1.42638   1.38734    0.013
 5514.00    1.45191   1.38860    0.013
 5515.00    1.45821   1.38949    0.013
 5516.00    1.40714   1.38966    0.013
 5517.00    1.34643   1.38961    0.013
 5518.00    1.37252   1.38980    0.013
 5519.00    1.40959   1.38846    0.013
 5520.00    1.46672   1.38668    0.013
 5521.00    1.52563   1.38514    0.013
 5522.00    1.44722   1.38321    0.013
 5523.00    1.36164   1.38366    0.013
 5524.00    1.31062   1.38438    0.014
 5525.00    1.26106   1.38474    0.014
 5526.00    1.27297   1.38545    0.013
 5527.00    1.28418   1.38566    0.013
 5528.00    1.28024   1.38844    0.013
 5529.00    1.28462   1.39129    0.014
 5530.00    1.39048   1.39431    0.014
 5531.00    1.48758   1.39744    0.014
 5532.00    1.51169   1.39916    0.014
 5533.00    1.52363   1.40233    0.014
 5534.00    1.45987   1.40523    0.014
 5535.00    1.40573   1.40824    0.014
 5536.00    1.39858   1.41105    0.014
 5537.00    1.40753   1.41240    0.014
 5538.00    1.48037   1.41461    0.014
 5539.00    1.50200   1.41694    0.016
 5540.00    1.35461   1.41835    0.037
 5541.00    1.24701   1.41938   -1.000
 5542.00    1.25037   1.42010   -1.000
 5543.00    1.25920   1.42055   -1.000
 5544.00    1.28106   1.42072   -1.000
 5545.00    1.30215   1.42021   -1.000
 5546.00    1.32167   1.41911   -1.000
 5547.00    1.34990   1.41759    0.075
 5548.00    1.39379   1.41573    0.020
 5549.00    1.45372   1.41340    0.014
 5550.00    1.53882   1.41122    0.014
 5551.00    1.54381   1.40822    0.014
 5552.00    1.43850   1.40426    0.013
 5553.00    1.34900   1.40144    0.013
 5554.00    1.27865   1.39787    0.013
 5555.00    1.23648   1.39469    0.013
 5556.00    1.22439   1.39123    0.013
 5557.00    1.23858   1.38714    0.013
 5558.00    1.27753   1.38522    0.013
 5559.00    1.33423   1.38229    0.013
 5560.00    1.40569   1.38016    0.013
 5561.00    1.43455   1.37839    0.013
 5562.00    1.43226   1.37645    0.013
 5563.00    1.39366   1.37659    0.013
 5564.00    1.33175   1.37612    0.013
 5565.00    1.31183   1.37664    0.013
 5566.00    1.31550   1.37687    0.013
 5567.00    1.39171   1.37634    0.013
 5568.00    1.50338   1.37797    0.013
 5569.00    1.57795   1.37885    0.013
 5570.00    1.63685   1.37828    0.013
 5571.00    1.54200   1.37749    0.013
 5572.00    1.39152   1.37591    0.013
 5573.00    1.36545   1.37433    0.013
 5574.00    1.37745   1.37236    0.013
 5575.00    1.47396   1.36784    0.013
 5576.00    1.59198   1.36245    0.013
 5577.00    1.53443   1.35847    0.014
 5578.00    1.44052   1.35352    0.014
 5579.00    1.45297   1.34912    0.014
 5580.00    1.48277   1.34436    0.014
 5581.00    1.41296   1.33816    0.014
 5582.00    1.33098   1.33510    0.014
 5583.00    1.24480   1.33237    0.014
 5584.00    1.15826   1.33120    0.014
 5585.00    1.17148   1.33187    0.014
 5586.00    1.18953   1.33054    0.014
 5587.00    1.16723   1.33050    0.014
 5588.00    1.14662   1.33171    0.014
 5589.00    1.26193   1.33458    0.014
 5590.00    1.36908   1.33930    0.014
 5591.00    1.31406   1.34187    0.014
 5592.00    1.27291   1.34308    0.014
 5593.00    1.39288   1.34742    0.014
 5594.00    1.50074   1.35288    0.014
 5595.00    1.51135   1.35819    0.014
 5596.00    1.51562   1.36277    0.014
 5597.00    1.48161   1.36576    0.014
 5598.00    1.44932   1.37187    0.014
 5599.00    1.42525   1.37727    0.014
 5600.00    1.39877   1.38149    0.014
 5601.00    1.36289   1.38536    0.013
 5602.00    1.34061   1.38695    0.013
 5603.00    1.36229   1.38890    0.013
 5604.00    1.36192   1.38809    0.013
 5605.00    1.30114   1.38784    0.013
 5606.00    1.25009   1.38834    0.013
 5607.00    1.22192   1.38614    0.013
 5608.00    1.23361   1.38261    0.013
 5609.00    1.32619   1.37648    0.013
 5610.00    1.36117   1.37419    0.013
 5611.00    1.29447   1.37488    0.013
 5612.00    1.26490   1.37284    0.013
 5613.00    1.29272   1.36933    0.013
 5614.00    1.31265   1.36590    0.013
 5615.00    1.32186   1.36682    0.013
 5616.00    1.29900   1.36963    0.013
 5617.00    1.23784   1.37036    0.013
 5618.00    1.22837   1.36981    0.013
 5619.00    1.27335   1.37036    0.013
 5620.00    1.32352   1.37389    0.013
 5621.00    1.37849   1.37707    0.013
 5622.00    1.38619   1.37854    0.013
 5623.00    1.35515   1.37971    0.014
 5624.00    1.43105   1.38091    0.014
 5625.00    1.58406   1.38233    0.014
 5626.00    1.54827   1.38293    0.014
 5627.00    1.39299   1.38268    0.013
 5628.00    1.33099   1.38249    0.013
 5629.00    1.32060   1.38200    0.013
 5630.00    1.33360   1.38027    0.013
 5631.00    1.35784   1.37893    0.013
 5632.00    1.35097   1.37821    0.013
 5633.00    1.33116   1.37757    0.013
 5634.00    1.28096   1.37729    0.013
 5635.00    1.21996   1.37586    0.013
 5636.00    1.25564   1.37581    0.013
 5637.00    1.32032   1.37671    0.013
 5638.00    1.33317   1.37647    0.013
 5639.00    1.33311   1.37692    0.013
 5640.00    1.36763   1.37714    0.013
 5641.00    1.40912   1.37756    0.012
 5642.00    1.38978   1.37731    0.012
 5643.00    1.36080   1.37542    0.012
 5644.00    1.35633   1.37402    0.012
 5645.00    1.35475   1.37360    0.012
 5646.00    1.34813   1.37170    0.013
 5647.00    1.34111   1.36721    0.013
 5648.00    1.41083   1.36349    0.013
 5649.00    1.48397   1.36165    0.013
 5650.00    1.50535   1.36051    0.012
 5651.00    1.52522   1.35750    0.012
 5652.00    1.50051   1.35279    0.013
 5653.00    1.47566   1.35158    0.013
 5654.00    1.44804   1.35331    0.013
 5655.00    1.41751   1.35461    0.013
 5656.00    1.35472   1.35440    0.013
 5657.00    1.29722   1.35462    0.013
 5658.00    1.28070   1.35795    0.013
 5659.00    1.26807   1.36296    0.013
 5660.00    1.27830   1.36716    0.013
 5661.00    1.28520   1.37003    0.013
 5662.00    1.27660   1.37381    0.013
 5663.00    1.28029   1.37856    0.013
 5664.00    1.33071   1.38296    0.013
 5665.00    1.37189   1.38694    0.013
 5666.00    1.38375   1.38974    0.013
 5667.00    1.39333   1.39235    0.013
 5668.00    1.39676   1.39445    0.013
 5669.00    1.38436   1.39556    0.013
 5670.00    1.33542   1.39642    0.013
 5671.00    1.31069   1.39587    0.013
 5672.00    1.33430   1.39468    0.013
 5673.00    1.38217   1.39335    0.013
 5674.00    1.47221   1.39197    0.013
 5675.00    1.50171   1.39045    0.013
 5676.00    1.43902   1.38770    0.013
 5677.00    1.37723   1.38523    0.013
 5678.00    1.31666   1.38398    0.013
 5679.00    1.32001   1.38379    0.013
 5680.00    1.39866   1.38328    0.013
 5681.00    1.39811   1.38240    0.013
 5682.00    1.31529   1.38176    0.013
 5683.00    1.27160   1.38237    0.013
 5684.00    1.26376   1.38387    0.012
 5685.00    1.31948   1.38410    0.012
 5686.00    1.42654   1.38435    0.012
 5687.00    1.48661   1.38331    0.013
 5688.00    1.51331   1.38267    0.013
 5689.00    1.50294   1.38220    0.013
 5690.00    1.46946   1.37940    0.013
 5691.00    1.43625   1.37723    0.013
 5692.00    1.40320   1.37314    0.013
 5693.00    1.37939   1.36943    0.013
 5694.00    1.35995   1.36640    0.013
 5695.00    1.36965   1.36055    0.013
 5696.00    1.39125   1.35665    0.013
 5697.00    1.36740   1.35245    0.013
 5698.00    1.32771   1.34848    0.013
 5699.00    1.38498   1.34696    0.013
 5700.00    1.47078   1.34322    0.014
 5701.00    1.54704   1.34175    0.014
 5702.00    1.62099   1.34271    0.014
 5703.00    1.60666   1.34316    0.014
 5704.00    1.57494   1.34664    0.013
 5705.00    1.50835   1.34971    0.013
 5706.00    1.43642   1.35325    0.013
 5707.00    1.34919   1.36003    0.013
 5708.00    1.26023   1.36605    0.013
 5709.00    1.31588   1.37275    0.013
 5710.00    1.38250   1.37986    0.013
 5711.00    1.39479   1.38563    0.013
 5712.00    1.40487   1.39244    0.013
 5713.00    1.45984   1.39886    0.013
 5714.00    1.51399   1.40389    0.013
 5715.00    1.51981   1.40827    0.013
 5716.00    1.52509   1.41131    0.013
 5717.00    1.52119   1.41406    0.013
 5718.00    1.51683   1.41678    0.012
 5719.00    1.50760   1.41854    0.012
 5720.00    1.49985   1.41872    0.012
 5721.00    1.50310   1.41840    0.012
 5722.00    1.50029   1.41892    0.012
 5723.00    1.46286   1.41958    0.012
 5724.00    1.42830   1.42011    0.012
 5725.00    1.40683   1.41912    0.012
 5726.00    1.39986   1.41812    0.012
 5727.00    1.44687   1.41891    0.012
 5728.00    1.49128   1.41949    0.012
 5729.00    1.52755   1.41995    0.013
 5730.00    1.54157   1.41954    0.013
 5731.00    1.49681   1.41876    0.013
 5732.00    1.45499   1.41918    0.013
 5733.00    1.41987   1.41928    0.013
 5734.00    1.40205   1.41903    0.013
 5735.00    1.41823   1.41877    0.013
 5736.00    1.42332   1.41753    0.013
 5737.00    1.40943   1.41609    0.013
 5738.00    1.41254   1.41515    0.013
 5739.00    1.44115   1.41420    0.013
 5740.00    1.45144   1.41341    0.000
 5741.00    1.43757   1.41152    0.000
 5742.00    1.41866   1.40867    0.000
 5743.00    1.39388   1.40695    0.000
 5744.00    1.37835   1.40639    0.000
 5745.00    1.37227   1.40573    0.000
 5746.00    1.39808   1.40398    0.000
 5747.00    1.45270   1.40184    0.000
 5748.00    1.49300   1.40063    0.000
 5749.00    1.52191   1.40115    0.000
 5750.00    1.48397   1.40199    0.000
 5751.00    1.39923   1.40137    0.000
 5752.00    1.36335   1.40094    0.000
 5753.00    1.35748   1.40158    0.000
 5754.00    1.43768   1.40299    0.000
 5755.00    1.56406   1.40497    0.000
 5756.00    1.63023   1.40570    0.000
 5757.00    1.66835   1.40630    0.000
 5758.00    1.63446   1.40821    0.000
 5759.00    1.57167   1.40992    0.000
 5760.00    1.47077   1.41107    0.000
 5761.00    1.35683   1.41132    0.000
 5762.00    1.35544   1.41132    0.000
 5763.00    1.38648   1.41147    0.000
 5764.00    1.47478   1.41107    0.000
 5765.00    1.57672   1.40947    0.000
 5766.00    1.61474   1.40647    0.000
 5767.00    1.64051   1.40385    0.000
 5768.00    1.56505   1.40074    0.000
 5769.00    1.47452   1.39666    0.000
 5770.00    1.52027   1.39245    0.000
 5771.00    1.58086   1.38717    0.000
 5772.00    1.57190   1.38290    0.000
 5773.00    1.55796   1.37947    0.000
 5774.00    1.48860   1.37469    0.000
 5775.00    1.41721   1.37123    0.000
 5776.00    1.45012   1.36872    0.000
 5777.00    1.48073   1.36710    0.000
 5778.00    1.41285   1.36780    0.000
 5779.00    1.35142   1.36681    0.000
 5780.00    1.39376   1.36752    0.000
 5781.00    1.43331   1.37094    0.000
 5782.00    1.44464   1.37354    0.000
 5783.00    1.46103   1.37826    0.000
 5784.00    1.51401   1.38138    0.000
 5785.00    1.56024   1.38475    0.000
 5786.00    1.56899   1.39088    0.000
 5787.00    1.57898   1.39473    0.000
 5788.00    1.59453   1.39953    0.000
 5789.00    1.59087   1.40357    0.000
 5790.00    1.51720   1.40627    0.000
 5791.00    1.46572   1.41058   -2.000
 5792.00    1.48201   1.41285   -2.000
 5793.00    1.51050   1.41552   -2.000
 5794.00    1.57067   1.41827   -2.000
 5795.00    1.59802   1.41893   -2.000
 5796.00    1.55216   1.42051   -2.000
 5797.00    1.51558   1.42102   -2.000
 5798.00    1.49696   1.42141   -2.000
 5799.00    1.47277   1.42274   -2.000
 5800.00    1.43917   1.42241   -2.000
 5801.00    1.39773   1.42259   -2.000
 5802.00    1.34468   1.42267   -2.000
 5803.00    1.34811   1.42226   -2.000
 5804.00    1.42494   1.42317   -2.000
 5805.00    1.46851   1.42330   -2.000
 5806.00    1.47401   1.42372   -2.000
 5807.00    1.47974   1.42456   -2.000
 5808.00    1.48572   1.42498   -2.000
 5809.00    1.51029   1.42639   -2.000
 5810.00    1.55143   1.42734   -2.000
 5811.00    1.53709   1.42868    0.000
 5812.00    1.47921   1.43062    0.000
 5813.00    1.46181   1.43197    0.000
 5814.00    1.47233   1.43364    0.000
 5815.00    1.51106   1.43484    0.000
 5816.00    1.56685   1.43629    0.000
 5817.00    1.58782   1.43804    0.000
 5818.00    1.59040   1.43911    0.000
 5819.00    1.60741   1.44001    0.000
 5820.00    1.63104   1.44042    0.000
 5821.00    1.65232   1.44080    0.000
 5822.00    1.67269   1.44134    0.000
 5823.00    1.64408   1.44151    0.000
 5824.00    1.59902   1.44129    0.000
 5825.00    1.56173   1.44090    0.000
 5826.00    1.52664   1.44054    0.000
 5827.00    1.45411   1.44033    0.000
 5828.00    1.37287   1.43998    0.000
 5829.00    1.35906   1.43907    0.000
 5830.00    1.35787   1.43856    0.000
 5831.00    1.38970   1.43813    0.000
 5832.00    1.42630   1.43712    0.000
 5833.00    1.42172   1.43583    0.000
 5834.00    1.41282   1.43410    0.000
 5835.00    1.43084   1.43272    0.000
 5836.00    1.45068   1.43102    0.000
 5837.00    1.46722   1.42812    0.000
 5838.00    1.48364   1.42452    0.000
 5839.00    1.46141   1.42063    0.000
 5840.00    1.43961   1.41721    0.000
 5841.00    1.43232   1.41341    0.000
 5842.00    1.42606   1.40855    0.000
 5843.00    1.43534   1.40294    0.000
 5844.00    1.44166   1.39773    0.000
 5845.00    1.41927   1.39384    0.000
 5846.00    1.39721   1.38978    0.000
 5847.00    1.37744   1.38540    0.000
 5848.00    1.36856   1.38093    0.000
 5849.00    1.41850   1.37803    0.000
 5850.00    1.46766   1.37710    0.000
 5851.00    1.51340   1.37534    0.000
 5852.00    1.54208   1.37389    0.000
 5853.00    1.50988   1.37353    0.000
 5854.00    1.48152   1.37491    0.000
 5855.00    1.46463   1.37760    0.000
 5856.00    1.45853   1.37853    0.000
 5857.00    1.47997   1.37980    0.000
 5858.00    1.47868   1.38250    0.000
 5859.00    1.42747   1.38565    0.000
 5860.00    1.40973   1.38879    0.000
 5861.00    1.45570   1.39016    0.000
 5862.00    1.49927   1.39147    0.000
 5863.00    1.53885   1.39346    0.000
 5864.00    1.55133   1.39467    0.000
 5865.00    1.52432   1.39488    0.000
 5866.00    1.50672   1.39349    0.000
 5867.00    1.50117   1.39178    0.000
 5868.00    1.49611   1.39015    0.000
 5869.00    1.49161   1.38681    0.000
 5870.00    1.49731   1.38150    0.000
 5871.00    1.51316   1.37510    0.000
 5872.00    1.51191   1.36834    0.000
 5873.00    1.49565   1.36079    0.000
 5874.00    1.48264   1.35151    0.000
 5875.00    1.47214   1.33879    0.000
 5876.00    1.47654   1.32501    0.000
 5877.00    1.49105   1.31415    0.000
 5878.00    1.45119   1.30163    0.000
 5879.00    1.37892   1.28747    0.000
 5880.00    1.38042   1.27326    0.000
 5881.00    1.42029   1.25667    0.000
 5882.00    1.42459   1.24575    0.000
 5883.00    1.41286   1.23762    0.000
 5884.00    1.37130   1.22728    0.000
 5885.00    1.31817   1.22258    0.000
 5886.00    1.27714   1.21779    0.000
 5887.00    1.24009   1.21513    0.000
 5888.00    1.18017   1.21991    0.000
 5889.00    1.11392   1.22271    0.000
 5890.00    1.14240   1.22923    0.000
 5891.00    1.19243   1.24063    0.000
 5892.00    1.27157   1.25019    0.000
 5893.00    1.35600   1.26268    0.000
 5894.00    1.35325   1.27430    0.000
 5895.00    1.33832   1.28464    0.000
 5896.00    1.30943   1.29882    0.000
 5897.00    1.27913   1.31141    0.000
 5898.00    1.28684   1.32172    0.000
 5899.00    1.29697   1.33078    0.000
 5900.00    1.33738   1.33760    0.000
 5901.00    1.37878   1.34495    0.012
 5902.00    1.45144   1.35145    0.012
 5903.00    1.52091   1.35619    0.012
 5904.00    1.50050   1.35924    0.012
 5905.00    1.47958   1.36083    0.012
 5906.00    1.45140   1.36369    0.012
 5907.00    1.42276   1.36539    0.012
 5908.00    1.38993   1.36625    0.013
 5909.00    1.36236   1.36763    0.013
 5910.00    1.37051   1.36784    0.012
 5911.00    1.37302   1.36973    0.012
 5912.00    1.34583   1.37097    0.012
 5913.00    1.31899   1.37039    0.012
 5914.00    1.29361   1.37221    0.012
 5915.00    1.28062   1.37322    0.013
 5916.00    1.31095   1.37366    0.013
 5917.00    1.32205   1.37533    0.013
 5918.00    1.27663   1.37525    0.012
 5919.00    1.25130   1.37603    0.012
 5920.00    1.27635   1.37658    0.012
 5921.00    1.30886   1.37533    0.012
 5922.00    1.35750   1.37674    0.012
 5923.00    1.38334   1.37758    0.012
 5924.00    1.36642   1.37694    0.012
 5925.00    1.36496   1.37717    0.012
 5926.00    1.38881   1.37641    0.012
 5927.00    1.40104   1.37718    0.012
 5928.00    1.39658   1.37796    0.012
 5929.00    1.36324   1.37701    0.012
 5930.00    1.29342   1.37798    0.012
 5931.00    1.27443   1.37841    0.012
 5932.00    1.31198   1.37767    0.012
 5933.00    1.34562   1.37805    0.012
 5934.00    1.37541   1.37755    0.012
 5935.00    1.39025   1.37731    0.012
 5936.00    1.39215   1.37779    0.012
 5937.00    1.41206   1.37727    0.012
 5938.00    1.44571   1.37689    0.012
 5939.00    1.40281   1.37567    0.012
 5940.00    1.30862   1.37409    0.012
 5941.00    1.24099   1.37460    0.012
 5942.00    1.18893   1.37499    0.012
 5943.00    1.23014   1.37360    0.012
 5944.00    1.31909   1.37240    0.012
 5945.00    1.37467   1.37309    0.012
 5946.00    1.41546   1.37427    0.013
 5947.00    1.40440   1.37412    0.012
 5948.00    1.37359   1.37389    0.012
 5949.00    1.36643   1.37515    0.012
 5950.00    1.36693   1.37764    0.012
 5951.00    1.37758   1.37930    0.012
 5952.00    1.39097   1.38008    0.012
 5953.00    1.37520   1.38224    0.012
 5954.00    1.35296   1.38476    0.012
 5955.00    1.37943   1.38697    0.012
 5956.00    1.41452   1.38841    0.012
 5957.00    1.44801   1.38946    0.012
 5958.00    1.48127   1.39187    0.012
 5959.00    1.48761   1.39345    0.011
 5960.00    1.49136   1.39401    0.011
 5961.00    1.49303   1.39457    0.011
 5962.00    1.49458   1.39449    0.011
 5963.00    1.46005   1.39458    0.012
 5964.00    1.42454   1.39400    0.012
 5965.00    1.38037   1.39278    0.012
 5966.00    1.33873   1.39151    0.011
 5967.00    1.36133   1.38920    0.012
 5968.00    1.38488   1.38752    0.012
 5969.00    1.42112   1.38561    0.012
 5970.00    1.45504   1.38304    0.012
 5971.00    1.46816   1.38160    0.012
 5972.00    1.47323   1.37949    0.012
 5973.00    1.42527   1.37787    0.012
 5974.00    1.38181   1.37620    0.012
 5975.00    1.36150   1.37320    0.012
 5976.00    1.34044   1.37320    0.012
 5977.00    1.31630   1.37364    0.012
 5978.00    1.31207   1.37267    0.012
 5979.00    1.37609   1.37293    0.012
 5980.00    1.42636   1.37293    0.012
 5981.00    1.43693   1.37410    0.012
 5982.00    1.44039   1.37482    0.012
 5983.00    1.42631   1.37418    0.012
 5984.00    1.39683   1.37621    0.012
 5985.00    1.33462   1.37751    0.012
 5986.00    1.28493   1.37747    0.012
 5987.00    1.25835   1.37806    0.012
 5988.00    1.26189   1.37706    0.012
 5989.00    1.31401   1.37730    0.011
 5990.00    1.36245   1.37728    0.011
 5991.00    1.40568   1.37520    0.011
 5992.00    1.41997   1.37546    0.011
 5993.00    1.39826   1.37408    0.011
 5994.00    1.37770   1.37125    0.011
 5995.00    1.35841   1.37096    0.012
 5996.00    1.33915   1.36864    0.012
 5997.00    1.31992   1.36713    0.012
 5998.00    1.29944   1.36655    0.012
 5999.00    1.27789   1.36266    0.012
 6000.00    1.28696   1.36229    0.012
 6001.00    1.31905   1.36263    0.012
 6002.00    1.34307   1.36013    0.012
 6003.00    1.36176   1.35962    0.012
 6004.00    1.37171   1.35766    0.012
 6005.00    1.37661   1.35698    0.012
 6006.00    1.37962   1.35861    0.012
 6007.00    1.38168   1.35600    0.012
 6008.00    1.37374   1.35540    0.012
 6009.00    1.36145   1.35727    0.012
 6010.00    1.37118   1.35657    0.012
 6011.00    1.38914   1.35708    0.012
 6012.00    1.41507   1.35715    0.012
 6013.00    1.44353   1.35811    0.012
 6014.00    1.40908   1.36138    0.012
 6015.00    1.35795   1.36189    0.012
 6016.00    1.31111   1.36397    0.012
 6017.00    1.26520   1.36770    0.012
 6018.00    1.31439   1.36958    0.012
 6019.00    1.37995   1.37314    0.012
 6020.00    1.41902   1.37646    0.011
 6021.00    1.45463   1.37979    0.012
 6022.00    1.41534   1.38371    0.011
 6023.00    1.36917   1.38625    0.011
 6024.00    1.37711   1.38985    0.011
 6025.00    1.38806   1.39313    0.011
 6026.00    1.43338   1.39535    0.011
 6027.00    1.47862   1.39784    0.011
 6028.00    1.44119   1.39996    0.011
 6029.00    1.40552   1.40223    0.011
 6030.00    1.41086   1.40335    0.012
 6031.00    1.41677   1.40440    0.012
 6032.00    1.42994   1.40606    0.012
 6033.00    1.44133   1.40648    0.012
 6034.00    1.43736   1.40756    0.012
 6035.00    1.43646   1.40840    0.012
 6036.00    1.45519   1.40827    0.012
 6037.00    1.46954   1.40906    0.012
 6038.00    1.46198   1.40914    0.012
 6039.00    1.45069   1.40888    0.012
 6040.00    1.42427   1.40901    0.012
 6041.00    1.40684   1.40828    0.012
 6042.00    1.41959   1.40793    0.012
 6043.00    1.41471   1.40748    0.012
 6044.00    1.35983   1.40578    0.012
 6045.00    1.33126   1.40453    0.012
 6046.00    1.36644   1.40360    0.012
 6047.00    1.41427   1.40202    0.012
 6048.00    1.48858   1.40024    0.012
 6049.00    1.52384   1.39888    0.012
 6050.00    1.48813   1.39790    0.011
 6051.00    1.44595   1.39674    0.011
 6052.00    1.39348   1.39566    0.011
 6053.00    1.36521   1.39417    0.011
 6054.00    1.37066   1.39393    0.011
 6055.00    1.37139   1.39474    0.012
 6056.00    1.36633   1.39357    0.012
 6057.00    1.37540   1.39416    0.012
 6058.00    1.39974   1.39596    0.012
 6059.00    1.41656   1.39630    0.012
 6060.00    1.42621   1.39799    0.012
 6061.00    1.41954   1.39817    0.012
 6062.00    1.39915   1.39877    0.012
 6063.00    1.38615   1.40145    0.012
 6064.00    1.37863   1.40098    0.012
 6065.00    1.34371   1.40091    0.012
 6066.00    1.29094   1.40154    0.012
 6067.00    1.25885   1.40023    0.012
 6068.00    1.23851   1.39996    0.012
 6069.00    1.28031   1.39771    0.012
 6070.00    1.35292   1.39467    0.012
 6071.00    1.38592   1.39416    0.012
 6072.00    1.40194   1.39148    0.012
 6073.00    1.41966   1.38795    0.012
 6074.00    1.43801   1.38591    0.012
 6075.00    1.46533   1.38339    0.011
 6076.00    1.49545   1.38174    0.011
 6077.00    1.48212   1.37964    0.012
 6078.00    1.45752   1.37676    0.012
 6079.00    1.43943   1.37661    0.011
 6080.00    1.42271   1.37621    0.011
 6081.00    1.43734   1.37387    0.011
 6082.00    1.45720   1.37338    0.011
 6083.00    1.43009   1.37399    0.011
 6084.00    1.39706   1.37362    0.011
 6085.00    1.39211   1.37284    0.011
 6086.00    1.38962   1.37258    0.012
 6087.00    1.41922   1.37270    0.012
 6088.00    1.45047   1.37259    0.012
 6089.00    1.44198   1.37225    0.012
 6090.00    1.43218   1.37051    0.012
 6091.00    1.37968   1.36998    0.012
 6092.00    1.33191   1.37126    0.012
 6093.00    1.38477   1.36915    0.012
 6094.00    1.43441   1.36811    0.012
 6095.00    1.44507   1.36947    0.012
 6096.00    1.44512   1.36839    0.012
 6097.00    1.35717   1.36961    0.012
 6098.00    1.28811   1.36985    0.012
 6099.00    1.33615   1.36800    0.012
 6100.00    1.37796   1.37149    0.012
 6101.00    1.38940   1.37261    0.012
 6102.00    1.38823   1.37119    0.012
 6103.00    1.33717   1.37398    0.012
 6104.00    1.31181   1.37402    0.012
 6105.00    1.37109   1.37397    0.013
 6106.00    1.43746   1.37574    0.013
 6107.00    1.52353   1.37283    0.013
 6108.00    1.58136   1.37234    0.014
 6109.00    1.57193   1.37319    0.013
 6110.00    1.55008   1.36888    0.013
 6111.00    1.50267   1.36808    0.012
 6112.00    1.44928   1.36759    0.012
 6113.00    1.38517   1.36347    0.011
 6114.00    1.33644   1.36323    0.011
 6115.00    1.31176   1.36155    0.011
 6116.00    1.29663   1.35835    0.011
 6117.00    1.29461   1.35817    0.011
 6118.00    1.27923   1.35585    0.012
 6119.00    1.24768   1.35456    0.011
 6120.00    1.23901   1.35499    0.011
 6121.00    1.25475   1.35247    0.011
 6122.00    1.28811   1.35092    0.012
 6123.00    1.33806   1.35103    0.012
 6124.00    1.38279   1.34865    0.012
 6125.00    1.42318   1.34521    0.012
 6126.00    1.44170   1.34475    0.012
 6127.00    1.44423   1.34440    0.012
 6128.00    1.42218   1.34222    0.012
 6129.00    1.38438   1.34096    0.012
 6130.00    1.34873   1.34004    0.012
 6131.00    1.31428   1.34085    0.011
 6132.00    1.31661   1.34143    0.011
 6133.00    1.33689   1.33981    0.011
 6134.00    1.33321   1.34194    0.011
 6135.00    1.31944   1.34515    0.011
 6136.00    1.32752   1.34566    0.011
 6137.00    1.34350   1.34694    0.011
 6138.00    1.39022   1.34870    0.012
 6139.00    1.44632   1.35085    0.012
 6140.00    1.39980   1.35199    0.012
 6141.00    1.32723   1.35132    0.012
 6142.00    1.31165   1.35098    0.011
 6143.00    1.30784   1.35011    0.011
 6144.00    1.32520   1.34842    0.011
 6145.00    1.34600   1.34536    0.011
 6146.00    1.33886   1.34103    0.011
 6147.00    1.32832   1.33772    0.012
 6148.00    1.34141   1.33325    0.012
 6149.00    1.35646   1.32640    0.011
 6150.00    1.37577   1.31994    0.012
 6151.00    1.39528   1.31415    0.012
 6152.00    1.40932   1.30929    0.012
 6153.00    1.42268   1.30388    0.012
 6154.00    1.40126   1.29683    0.012
 6155.00    1.37908   1.29347    0.012
 6156.00    1.34172   1.29163    0.012
 6157.00    1.30470   1.28545    0.012
 6158.00    1.27158   1.28232    0.012
 6159.00    1.24240   1.28419    0.012
 6160.00    1.24468   1.28435    0.012
 6161.00    1.24690   1.28443    0.012
 6162.00    1.24877   1.28627    0.012
 6163.00    1.25220   1.28990    0.012
 6164.00    1.26309   1.29421    0.011
 6165.00    1.27855   1.29570    0.011
 6166.00    1.31168   1.29930    0.011
 6167.00    1.34320   1.30589    0.011
 6168.00    1.36954   1.30869    0.011
 6169.00    1.38061   1.31148    0.011
 6170.00    1.34996   1.31646    0.011
 6171.00    1.32394   1.31942    0.011
 6172.00    1.30876   1.32176    0.011
 6173.00    1.30554   1.32344    0.011
 6174.00    1.32656   1.32462    0.012
 6175.00    1.33427   1.32636    0.012
 6176.00    1.31854   1.32485    0.012
 6177.00    1.31999   1.32451    0.012
 6178.00    1.34792   1.32615    0.012
 6179.00    1.37304   1.32230    0.012
 6180.00    1.39435   1.32058    0.012
 6181.00    1.41147   1.32228    0.012
 6182.00    1.42359   1.31946    0.012
 6183.00    1.41777   1.31855    0.012
 6184.00    1.39307   1.31847    0.012
 6185.00    1.38978   1.31755    0.011
 6186.00    1.40634   1.31989    0.011
 6187.00    1.40203   1.31842    0.011
 6188.00    1.38064   1.31808    0.012
 6189.00    1.34518   1.32304    0.012
 6190.00    1.29961   1.32351    0.011
 6191.00    1.29685   1.32430    0.011
 6192.00    1.32113   1.32756    0.011
 6193.00    1.33583   1.32857    0.011
 6194.00    1.34522   1.33082    0.011
 6195.00    1.37979   1.33143    0.012
 6196.00    1.42645   1.33099   -2.000
 6197.00    1.58098   1.33315   -2.000
 6198.00    1.78021   1.33213   -2.000
 6199.00    1.81962   1.33043   -2.000
 6200.00    1.80237   1.33038   -2.000
 6201.00    1.59261   1.32710   -2.000
 6202.00    1.32524   1.32479   -2.000
 6203.00    1.20409   1.32244   -2.000
 6204.00    1.11925   1.31742   -2.000
 6205.00    1.14709   1.31533   -2.000
 6206.00    1.19762   1.31185   -2.000
 6207.00    1.21999   1.30651   -2.000
 6208.00    1.23793   1.30463    0.012
 6209.00    1.25250   1.30064    0.012
 6210.00    1.26668   1.29710    0.012
 6211.00    1.27018   1.29627    0.012
 6212.00    1.27284   1.29236    0.012
 6213.00    1.25958   1.29113    0.011
 6214.00    1.24562   1.29138    0.011
 6215.00    1.28670   1.28780    0.011
 6216.00    1.32875   1.28746    0.011
 6217.00    1.38816   1.28782    0.011
 6218.00    1.44484   1.28531    0.011
 6219.00    1.45192   1.28556    0.011
 6220.00    1.45853   1.28520    0.011
 6221.00    1.45998   1.28379    0.011
 6222.00    1.46155   1.28462    0.011
 6223.00    1.46409   1.28351    0.011
 6224.00    1.45963   1.28278    0.011
 6225.00    1.41426   1.28329    0.011
 6226.00    1.37780   1.28146    0.011
 6227.00    1.38266   1.28094    0.011
 6228.00    1.38528   1.28085    0.012
 6229.00    1.37942   1.27987    0.012
 6230.00    1.37593   1.27999    0.012
 6231.00    1.37999   1.27854    0.012
 6232.00    1.38784   1.27791    0.012
 6233.00    1.40588   1.27745    0.012
 6234.00    1.41059   1.27522    0.012
 6235.00    1.38461   1.27504    0.012
 6236.00    1.35944   1.27334    0.011
 6237.00    1.33589   1.27136    0.011
 6238.00    1.31449   1.27176    0.011
 6239.00    1.29682   1.26889    0.011
 6240.00    1.28992   1.26720    0.011
 6241.00    1.29941   1.26783    0.011
 6242.00    1.29163   1.26497    0.011
 6243.00    1.26079   1.26343    0.011
 6244.00    1.24763   1.26394    0.011
 6245.00    1.25525   1.26248    0.011
 6246.00    1.27058   1.26125    0.011
 6247.00    1.29391   1.26156    0.011
 6248.00    1.31509   1.26186    0.011
 6249.00    1.33430   1.26168    0.011
 6250.00    1.34650   1.26267    0.011
 6251.00    1.35304   1.26488    0.011
 6252.00    1.34642   1.26673    0.011
 6253.00    1.33048   1.26923    0.011
 6254.00    1.30387   1.27173    0.011
 6255.00    1.27061   1.27484    0.011
 6256.00    1.24601   1.27957    0.011
 6257.00    1.22611   1.28246    0.011
 6258.00    1.28350   1.28527    0.012
 6259.00    1.37741   1.28995    0.012
 6260.00    1.45553   1.29323    0.013
 6261.00    1.52721   1.29508    0.014
 6262.00    1.49964   1.29780    0.014
 6263.00    1.43752   1.30134    0.015
 6264.00    1.33588   1.30299    0.015
 6265.00    1.22265   1.30351    0.014
 6266.00    1.12815   1.30601    0.013
 6267.00    1.03820   1.30731    0.012
 6268.00    1.08181   1.30762    0.012
 6269.00    1.15164   1.30973    0.011
 6270.00    1.21974   1.30979    0.011
 6271.00    1.28757   1.31034    0.011
 6272.00    1.27423   1.31245    0.011
 6273.00    1.25173   1.31194    0.011
 6274.00    1.24212   1.31331    0.011
 6275.00    1.23347   1.31502    0.011
 6276.00    1.25635   1.31411    0.011
 6277.00    1.28050   1.31588    0.011
 6278.00    1.31178   1.31679    0.011
 6279.00    1.34285   1.31647    0.011
 6280.00    1.36305   1.31827    0.000
 6281.00    1.38261   1.31736    0.000
 6282.00    1.39143   1.31657    0.000
 6283.00    1.40154   1.31710    0.000
 6284.00    1.42515   1.31551    0.000
 6285.00    1.44380   1.31487    0.000
 6286.00    1.42534   1.31330    0.000
 6287.00    1.40505   1.31068    0.000
 6288.00    1.37434   1.31027    0.000
 6289.00    1.34443   1.30858    0.000
 6290.00    1.31814   1.30644    0.000
 6291.00    1.29439   1.30619    0.000
 6292.00    1.28005   1.30510    0.000
 6293.00    1.27742   1.30387    0.000
 6294.00    1.31115   1.30375    0.000
 6295.00    1.33837   1.30403    0.000
 6296.00    1.34843   1.30424    0.000
 6297.00    1.35713   1.30404    0.000
 6298.00    1.36274   1.30456    0.000
 6299.00    1.36652   1.30529    0.000
 6300.00    1.36670   1.30546    0.000
 6301.00    1.37147   1.30611    0.000
 6302.00    1.38407   1.30607    0.000
 6303.00    1.38568   1.30564    0.000
 6304.00    1.37083   1.30605    0.000
 6305.00    1.35996   1.30545    0.000
 6306.00    1.35435   1.30502    0.000
 6307.00    1.37559   1.30490    0.000
 6308.00    1.42796   1.30369    0.000
 6309.00    1.46627   1.30459    0.000
 6310.00    1.49019   1.30552    0.000
 6311.00    1.49663   1.30405    0.000
 6312.00    1.48731   1.30554    0.000
 6313.00    1.45975   1.30842    0.000
 6314.00    1.41771   1.30814    0.000
 6315.00    1.37139   1.30920    0.000
 6316.00    1.32209   1.31295    0.000
 6317.00    1.27964   1.31443    0.000
 6318.00    1.24138   1.31496    0.000
 6319.00    1.20355   1.31780    0.000
 6320.00    1.16595   1.31896    0.000
 6321.00    1.15475   1.31903   -1.000
 6322.00    1.15582   1.32109   -1.000
 6323.00    1.21369   1.32057    0.029
 6324.00    1.29432   1.32003    0.012
 6325.00    1.32973   1.32129    0.011
 6326.00    1.34970   1.31946    0.011
 6327.00    1.34323   1.31875    0.011
 6328.00    1.32917   1.31896    0.011
 6329.00    1.31179   1.31685    0.011
 6330.00    1.29362   1.31718    0.011
 6331.00    1.29898   1.31661    0.011
 6332.00    1.30883   1.31396    0.011
 6333.00    1.30526   1.31552    0.011
 6334.00    1.29970   1.31609    0.011
 6335.00    1.28787   1.31431    0.011
 6336.00    1.27535   1.31571    0.012
 6337.00    1.30394   1.31587    0.011
 6338.00    1.33546   1.31555    0.011
 6339.00    1.38113   1.31643    0.011
 6340.00    1.42732   1.31458    0.011
 6341.00    1.43439   1.31485    0.011
 6342.00    1.44054   1.31573    0.011
 6343.00    1.41934   1.31272    0.011
 6344.00    1.39659   1.31185    0.011
 6345.00    1.34910   1.31143    0.011
 6346.00    1.30055   1.30834    0.011
 6347.00    1.24139   1.30655    0.011
 6348.00    1.18956   1.30437    0.011
 6349.00    1.19052   1.30196    0.011
 6350.00    1.19870   1.30059    0.011
 6351.00    1.24683   1.29751    0.011
 6352.00    1.28770   1.29616    0.011
 6353.00    1.29650   1.29698    0.011
 6354.00    1.29870   1.29531    0.011
 6355.00    1.27691   1.29486    0.011
 6356.00    1.25997   1.29732    0.011
 6357.00    1.25782   1.29850    0.011
 6358.00    1.27261   1.30005    0.011
 6359.00    1.33129   1.30321    0.011
 6360.00    1.37673   1.30600    0.011
 6361.00    1.39272   1.30953    0.011
 6362.00    1.40085   1.31300    0.011
 6363.00    1.39381   1.31563    0.012
 6364.00    1.39382   1.31948    0.012
 6365.00    1.40569   1.32270    0.012
 6366.00    1.40854   1.32431    0.012
 6367.00    1.39809   1.32686    0.012
 6368.00    1.39480   1.32907    0.011
 6369.00    1.40082   1.33022    0.011
 6370.00    1.38598   1.33170    0.011
 6371.00    1.34731   1.33197    0.011
 6372.00    1.30899   1.33207    0.011
 6373.00    1.27104   1.33322    0.011
 6374.00    1.27439   1.33226    0.011
 6375.00    1.31445   1.33112    0.010
 6376.00    1.33556   1.33179    0.010
 6377.00    1.34183   1.33068    0.011
 6378.00    1.33868   1.32908    0.011
 6379.00    1.32904   1.32916    0.011
 6380.00    1.32567   1.32805    0.011
 6381.00    1.32607   1.32588    0.011
 6382.00    1.28729   1.32509    0.011
 6383.00    1.22786   1.32434    0.011
 6384.00    1.19992   1.32255    0.011
 6385.00    1.18639   1.32169    0.011
 6386.00    1.17229   1.32060    0.011
 6387.00    1.15798   1.31895    0.011
 6388.00    1.15774   1.31951    0.011
 6389.00    1.16221   1.31834    0.011
 6390.00    1.20785   1.31583    0.011
 6391.00    1.26507   1.31856    0.011
 6392.00    1.29153   1.31903    0.011
 6393.00    1.31084   1.31556    0.011
 6394.00    1.32409   1.31874    0.011
 6395.00    1.33621   1.31998    0.011
 6396.00    1.32879   1.31605    0.011
 6397.00    1.31856   1.31897    0.011
 6398.00    1.31381   1.32062    0.011
 6399.00    1.30963   1.31835    0.011
 6400.00    1.29920   1.32017    0.011
 6401.00    1.28834   1.31956    0.011
 6402.00    1.26864   1.31885    0.011
 6403.00    1.24865   1.32070    0.011
 6404.00    1.27205   1.31819    0.011
 6405.00    1.29439   1.31833    0.011
 6406.00    1.28401   1.32114    0.011
 6407.00    1.27234   1.31848    0.011
 6408.00    1.24144   1.31824    0.011
 6409.00    1.21552   1.32096    0.011
 6410.00    1.23777   1.31975    0.011
 6411.00    1.25628   1.31987    0.011
 6412.00    1.24868   1.32188    0.011
 6413.00    1.24047   1.32186    0.011
 6414.00    1.22901   1.32230    0.011
 6415.00    1.22433   1.32357    0.011
 6416.00    1.24897   1.32465    0.011
 6417.00    1.27052   1.32486    0.011
 6418.00    1.28103   1.32515    0.011
 6419.00    1.29134   1.32745    0.011
 6420.00    1.30105   1.32771    0.011
 6421.00    1.30315   1.32684    0.011
 6422.00    1.28586   1.32895    0.011
 6423.00    1.28561   1.32889    0.011
 6424.00    1.32266   1.32795    0.011
 6425.00    1.35965   1.33008    0.011
 6426.00    1.39650   1.32960    0.011
 6427.00    1.41749   1.32914    0.011
 6428.00    1.41217   1.33098    0.011
 6429.00    1.39726   1.33039    0.011
 6430.00    1.36842   1.33156    0.011
 6431.00    1.33398   1.33259    0.011
 6432.00    1.29238   1.33094    0.011
 6433.00    1.27713   1.33313    0.011
 6434.00    1.29157   1.33356    0.011
 6435.00    1.30718   1.33105    0.011
 6436.00    1.32394   1.33275    0.011
 6437.00    1.34053   1.33265    0.011
 6438.00    1.35696   1.33083    0.011
 6439.00    1.38212   1.33102    0.011
 6440.00    1.41400   1.32927    0.011
 6441.00    1.42433   1.32864    0.011
 6442.00    1.42003   1.32777    0.011
 6443.00    1.41186   1.32500    0.011
 6444.00    1.40140   1.32591    0.011
 6445.00    1.39005   1.32511    0.011
 6446.00    1.37824   1.32211    0.011
 6447.00    1.37243   1.32381    0.011
 6448.00    1.36933   1.32426    0.011
 6449.00    1.37108   1.32206    0.011
 6450.00    1.37470   1.32344    0.011
 6451.00    1.36216   1.32482    0.011
 6452.00    1.34430   1.32313    0.011
 6453.00    1.34648   1.32389    0.011
 6454.00    1.35420   1.32657    0.011
 6455.00    1.36337   1.32514    0.011
 6456.00    1.37288   1.32477    0.011
 6457.00    1.39292   1.32815    0.011
 6458.00    1.41486   1.32723    0.012
 6459.00    1.37078   1.32590    0.012
 6460.00    1.31752   1.32916    0.011
 6461.00    1.27292   1.32908    0.011
 6462.00    1.22918   1.32739    0.011
 6463.00    1.25858   1.32953    0.011
 6464.00    1.29259   1.32929    0.011
 6465.00    1.30934   1.32716    0.011
 6466.00    1.32560   1.32835    0.011
 6467.00    1.34299   1.32792    0.011
 6468.00    1.36080   1.32523    0.011
 6469.00    1.39006   1.32502    0.011
 6470.00    1.41680   1.32449    0.011
 6471.00    1.40784   1.32149    0.011
 6472.00    1.39488   1.31935    0.011
 6473.00    1.34498   1.31815    0.011
 6474.00    1.30067   1.31510    0.011
 6475.00    1.29419   1.31109    0.011
 6476.00    1.28729   1.30842    0.011
 6477.00    1.27829   1.30514    0.011
 6478.00    1.26961   1.29985    0.011
 6479.00    1.26230   1.29574    0.011
 6480.00    1.26542   1.29180    0.011
 6481.00    1.30497   1.28572    0.011
 6482.00    1.33278   1.28126    0.011
 6483.00    1.32621   1.27689    0.011
 6484.00    1.31329   1.27056    0.011
 6485.00    1.28450   1.26748    0.011
 6486.00    1.27131   1.26434    0.011
 6487.00    1.29173   1.25917    0.011
 6488.00    1.30406   1.25871    0.011
 6489.00    1.30126   1.25826    0.011
 6490.00    1.28874   1.25656    0.011
 6491.00    1.26033   1.25954    0.011
 6492.00    1.22371   1.26156    0.011
 6493.00    1.17531   1.26369    0.011
 6494.00    1.16163   1.26931    0.010
 6495.00    1.19174   1.27290    0.010
 6496.00    1.21337   1.27712    0.011
 6497.00    1.22560   1.28316    0.011
 6498.00    1.22740   1.28701    0.011
 6499.00    1.21900   1.29136    0.011
 6500.00    1.22791   1.29612    0.011
 6501.00    1.25179   1.29901    0.011
 6502.00    1.27020   1.30186    0.011
 6503.00    1.28445   1.30477    0.011
 6504.00    1.31646   1.30670    0.011
 6505.00    1.36034   1.30772    0.011
 6506.00    1.36215   1.30879    0.011
 6507.00    1.33929   1.31021    0.011
 6508.00    1.32109   1.31008    0.011
 6509.00    1.30527   1.30994    0.011
 6510.00    1.28113   1.31126    0.011
 6511.00    1.25331   1.31092    0.011
 6512.00    1.26161   1.31053    0.011
 6513.00    1.28364   1.31184    0.011
 6514.00    1.30418   1.31185    0.011
 6515.00    1.32423   1.31194    0.010
 6516.00    1.34439   1.31276    0.010
 6517.00    1.36457   1.31281    0.010
 6518.00    1.41450   1.31359    0.010
 6519.00    1.47101   1.31398    0.010
 6520.00    1.48166   1.31365    0.011
 6521.00    1.48423   1.31456    0.011
 6522.00    1.41695   1.31489    0.011
 6523.00    1.34028   1.31458    0.011
 6524.00    1.28693   1.31490    0.011
 6525.00    1.23580   1.31477    0.011
 6526.00    1.23499   1.31437    0.011
 6527.00    1.23716   1.31380    0.011
 6528.00    1.25688   1.31321    0.000
 6529.00    1.27714   1.31257    0.000
 6530.00    1.31266   1.31068    0.000
 6531.00    1.34839   1.30903    0.000
 6532.00    1.38934   1.30758    0.000
 6533.00    1.42769   1.30434    0.000
 6534.00    1.43119   1.30158    0.000
 6535.00    1.43219   1.29863    0.000
 6536.00    1.41089   1.29351    0.000
 6537.00    1.39134   1.28964    0.000
 6538.00    1.38333   1.28513    0.000
 6539.00    1.38045   1.27798    0.000
 6540.00    1.40379   1.27245    0.000
 6541.00    1.42552   1.26619    0.000
 6542.00    1.44059   1.25789    0.000
 6543.00    1.45828   1.25030    0.000
 6544.00    1.48488   1.24138    0.000
 6545.00    1.51475   1.23228    0.000
 6546.00    1.55403   1.22289    0.000
 6547.00    1.56385   1.21204    0.000
 6548.00    1.50124   1.20360    0.000
 6549.00    1.42885   1.19316    0.000
 6550.00    1.33573   1.18202    0.000
 6551.00    1.26678   1.17736    0.000
 6552.00    1.24235   1.16811    0.000
 6553.00    1.24377   1.15817    0.000
 6554.00    1.28681   1.15975    0.000
 6555.00    1.34435   1.15450    0.000
 6556.00    1.42238   1.14679    0.000
 6557.00    1.53998   1.15513    0.000
 6558.00    1.70676   1.15863    0.000
 6559.00    1.84582   1.15643    0.000
 6560.00    1.95454   1.16718    0.000
 6561.00    1.97157   1.17533    0.000
 6562.00    1.90001   1.17791    0.000
 6563.00    1.76638   1.18949    0.000
 6564.00    1.57987   1.19966    0.000
 6565.00    1.43371   1.20495    0.000
 6566.00    1.31782   1.21560    0.000
 6567.00    1.28052   1.22489    0.000
 6568.00    1.29501   1.23033    0.000
 6569.00    1.29957   1.23938    0.000
 6570.00    1.29841   1.24665    0.000
 6571.00    1.30410   1.25073    0.000
 6572.00    1.31322   1.25753    0.000
 6573.00    1.31957   1.26220    0.000
 6574.00    1.32470   1.26440    0.000
 6575.00    1.33848   1.26919    0.000
 6576.00    1.35550   1.27161    0.000
 6577.00    1.43359   1.27222    0.000
 6578.00    1.53101   1.27537    0.000
 6579.00    1.63158   1.27587    0.000
 6580.00    1.73297   1.27507    0.000
 6581.00    1.76356   1.27731    0.000
 6582.00    1.77885   1.27703    0.000
 6583.00    1.71501   1.27513    0.000
 6584.00    1.63761   1.27686    0.000
 6585.00    1.55266   1.27685    0.000
 6586.00    1.46673   1.27467    0.000
 6587.00    1.38812   1.27624    0.000
 6588.00    1.31017   1.27705    0.000
 6589.00    1.26996   1.27569    0.000
 6590.00    1.23184   1.27730    0.000
 6591.00    1.23757   1.27830    0.000
 6592.00    1.24441   1.27767    0.000
 6593.00    1.26660   1.27930    0.000
 6594.00    1.28951   1.28045    0.000
 6595.00    1.32869   1.28038    0.000
 6596.00    1.36481   1.28163    0.000
 6597.00    1.36218   1.28274    0.000
 6598.00    1.35772   1.28316    0.000
 6599.00    1.33750   1.28400    0.000
 6600.00    1.31552   1.28516    0.000
 6601.00    1.28239   1.28623    0.000
 6602.00    1.25099   1.28706    0.000
 6603.00    1.22825   1.28810    0.000
 6604.00    1.21717   1.28940    0.000
 6605.00    1.25312   1.29057    0.000
 6606.00    1.28648   1.29150    0.000
 6607.00    1.31115   1.29246    0.000
 6608.00    1.32378   1.29340    0.000
 6609.00    1.30237   1.29400    0.011
 6610.00    1.29965   1.29456    0.011
 6611.00    1.34208   1.29466    0.011
 6612.00    1.37617   1.29434    0.010
 6613.00    1.39285   1.29449    0.010
 6614.00    1.39816   1.29348    0.011
 6615.00    1.38285   1.29192    0.011
 6616.00    1.36710   1.29186    0.011
 6617.00    1.35065   1.29015    0.011
 6618.00    1.34363   1.28767    0.011
 6619.00    1.34974   1.28751    0.011
 6620.00    1.33815   1.28556    0.011
 6621.00    1.30488   1.28276    0.011
 6622.00    1.26697   1.28283    0.011
 6623.00    1.22403   1.28113    0.011
 6624.00    1.21005   1.27832    0.011
 6625.00    1.22365   1.27897    0.011
 6626.00    1.25167   1.27825    0.011
 6627.00    1.29181   1.27581    0.011
 6628.00    1.30056   1.27685    0.011
 6629.00    1.28609   1.27706    0.010
 6630.00    1.27047   1.27491    0.011
 6631.00    1.25411   1.27615    0.011
 6632.00    1.24842   1.27738    0.011
 6633.00    1.24880   1.27552    0.011
 6634.00    1.24010   1.27626    0.010
 6635.00    1.22691   1.27795    0.010
 6636.00    1.22390   1.27705    0.011
 6637.00    1.22526   1.27726    0.011
 6638.00    1.21908   1.27843    0.011
 6639.00    1.21014   1.27824    0.011
 6640.00    1.20023   1.27815    0.011
 6641.00    1.19001   1.27845    0.011
 6642.00    1.20562   1.27862    0.011
 6643.00    1.22791   1.27822    0.011
 6644.00    1.26729   1.27753    0.011
 6645.00    1.31027   1.27777    0.011
 6646.00    1.33477   1.27714    0.011
 6647.00    1.35619   1.27541    0.011
 6648.00    1.39028   1.27547    0.011
 6649.00    1.42596   1.27484    0.011
 6650.00    1.38957   1.27231    0.011
 6651.00    1.34690   1.27212    0.011
 6652.00    1.34459   1.27183    0.011
 6653.00    1.34435   1.26902    0.011
 6654.00    1.36496   1.26879    0.011
 6655.00    1.38502   1.26896    0.010
 6656.00    1.34012   1.26656    0.011
 6657.00    1.29471   1.26668    0.011
 6658.00    1.23873   1.26705    0.011
 6659.00    1.18787   1.26514    0.011
 6660.00    1.19873   1.26587    0.011
 6661.00    1.21198   1.26623    0.011
 6662.00    1.24500   1.26444    0.011
 6663.00    1.27152   1.26573    0.011
 6664.00    1.25785   1.26587    0.011
 6665.00    1.24622   1.26366    0.011
 6666.00    1.24447   1.26532    0.011
 6667.00    1.24232   1.26559    0.011
 6668.00    1.23855   1.26306    0.011
 6669.00    1.23559   1.26471    0.011
 6670.00    1.23526   1.26526    0.011
 6671.00    1.24025   1.26302    0.011
 6672.00    1.26001   1.26458    0.011
 6673.00    1.26832   1.26544    0.011
 6674.00    1.24942   1.26386    0.010
 6675.00    1.24505   1.26529    0.010
 6676.00    1.27049   1.26633    0.010
 6677.00    1.28364   1.26539    0.010
 6678.00    1.27484   1.26663    0.011
 6679.00    1.27179   1.26745    0.011
 6680.00    1.27772   1.26669    0.011
 6681.00    1.27879   1.26763    0.011
 6682.00    1.27317   1.26798    0.011
 6683.00    1.25591   1.26692    0.011
 6684.00    1.22460   1.26752    0.011
 6685.00    1.20843   1.26738    0.011
 6686.00    1.20839   1.26599    0.011
 6687.00    1.20377   1.26635    0.011
 6688.00    1.19486   1.26576    0.011
 6689.00    1.21351   1.26424    0.011
 6690.00    1.25500   1.26451    0.011
 6691.00    1.29303   1.26356    0.011
 6692.00    1.32853   1.26209    0.011
 6693.00    1.32811   1.26240    0.011
 6694.00    1.30469   1.26109    0.010
 6695.00    1.29072   1.25967    0.010
 6696.00    1.28202   1.25987    0.000
 6697.00    1.29134   1.25815    0.000
 6698.00    1.30943   1.25658    0.000
 6699.00    1.32050   1.25650    0.000
 6700.00    1.32861   1.25448    0.000
 6701.00    1.34412   1.25259    0.000
 6702.00    1.36231   1.25208    0.000
 6703.00    1.35906   1.25018    0.000
 6704.00    1.34930   1.24822    0.000
 6705.00    1.30948   1.24749    0.000
 6706.00    1.26205   1.24605    0.000
 6707.00    1.25432   1.24440    0.000
 6708.00    1.25478   1.24395    0.000
 6709.00    1.30373   1.24341    0.000
 6710.00    1.36055   1.24244    0.000
 6711.00    1.40143   1.24262    0.000
 6712.00    1.44038   1.24314    0.000
 6713.00    1.46618   1.24298    0.000
 6714.00    1.49089   1.24387    0.000
 6715.00    1.50162   1.24514    0.000
 6716.00    1.51169   1.24555    0.000
 6717.00    1.50465   1.24682    0.000
 6718.00    1.49659   1.24832    0.000
 6719.00    1.44468   1.24885    0.000
 6720.00    1.39196   1.24997    0.000
 6721.00    1.32336   1.25116    0.000
 6722.00    1.25991   1.25143    0.000
 6723.00    1.25565   1.25197    0.000
 6724.00    1.25698   1.25244    0.000
 6725.00    1.30292   1.25230    0.000
 6726.00    1.34952   1.25212    0.000
 6727.00    1.40002   1.25174    0.000
 6728.00    1.44114   1.25120    0.000
 6729.00    1.43778   1.25049    0.000
 6730.00    1.42315   1.24938    0.000
 6731.00    1.36498   1.24857    0.000
 6732.00    1.30773   1.24775    0.000
 6733.00    1.25346   1.24623    0.000
 6734.00    1.21676   1.24530    0.000
 6735.00    1.22797   1.24488    0.000
 6736.00    1.24157   1.24339    0.000
 6737.00    1.26078   1.24247    0.000
 6738.00    1.27688   1.24287    0.000
 6739.00    1.28672   1.24185    0.000
 6740.00    1.30143   1.24109    0.000
 6741.00    1.32470   1.24248    0.000
 6742.00    1.33490   1.24222    0.000
 6743.00    1.32499   1.24173    0.000
 6744.00    1.31433   1.24398    0.000
 6745.00    1.30267   1.24449    0.000
 6746.00    1.25994   1.24427    0.000
 6747.00    1.18023   1.24697    0.000
 6748.00    1.14044   1.24789    0.000
 6749.00    1.14255   1.24777    0.000
 6750.00    1.15455   1.25038    0.000
 6751.00    1.17569   1.25123    0.000
 6752.00    1.23929   1.25096    0.000
 6753.00    1.33755   1.25310    0.012
 6754.00    1.38928   1.25356    0.013
 6755.00    1.40757   1.25297    0.013
 6756.00    1.34852   1.25458    0.013
 6757.00    1.24071   1.25468    0.012
 6758.00    1.18469   1.25386    0.012
 6759.00    1.15721   1.25511    0.012
 6760.00    1.23133   1.25518    0.012
 6761.00    1.35414   1.25430    0.012
 6762.00    1.42055   1.25538    0.013
 6763.00    1.46362   1.25569    0.013
 6764.00    1.44619   1.25485    0.013
 6765.00    1.40736   1.25568    0.013
 6766.00    1.42943   1.25627    0.013
 6767.00    1.46967   1.25532    0.013
 6768.00    1.49661   1.25563    0.013
 6769.00    1.52026   1.25627    0.012
 6770.00    1.48018   1.25501    0.012
 6771.00    1.42730   1.25457    0.013
 6772.00    1.40077   1.25510    0.013
 6773.00    1.37837   1.25352    0.012
 6774.00    1.39062   1.25239    0.012
 6775.00    1.40691   1.25285    0.012
 6776.00    1.33621   1.25122    0.012
 6777.00    1.25865   1.24974    0.011
 6778.00    1.29057   1.25033    0.012
 6779.00    1.32726   1.24907    0.012
 6780.00    1.33305   1.24765    0.012
 6781.00    1.33703   1.24853    0.012
 6782.00    1.27106   1.24788    0.012
 6783.00    1.20785   1.24684    0.012
 6784.00    1.19470   1.24792    0.011
 6785.00    1.18235   1.24784    0.011
 6786.00    1.17867   1.24731    0.012
 6787.00    1.18086   1.24837    0.012
 6788.00    1.22828   1.24859    0.012
 6789.00    1.27959   1.24859    0.012
 6790.00    1.35358   1.24939    0.012
 6791.00    1.40277   1.24954    0.012
 6792.00    1.33724   1.25002    0.012
 6793.00    1.29056   1.25041    0.012
 6794.00    1.31514   1.25025    0.012
 6795.00    1.33124   1.25108    0.012
 6796.00    1.32052   1.25109    0.012
 6797.00    1.31975   1.25059    0.012
 6798.00    1.34563   1.25160    0.012
 6799.00    1.38003   1.25138    0.012
 6800.00    1.43401   1.25073    0.011
 6801.00    1.47688   1.25175    0.011
 6802.00    1.49768   1.25149    0.011
 6803.00    1.49176   1.25098    0.012
 6804.00    1.43956   1.25194    0.012
 6805.00    1.38665   1.25180    0.011
 6806.00    1.33267   1.25162    0.011
 6807.00    1.27410   1.25249    0.011
 6808.00    1.20941   1.25252    0.011
 6809.00    1.19204   1.25270    0.011
 6810.00    1.23019   1.25345    0.012
 6811.00    1.27144   1.25358    0.012
 6812.00    1.31589   1.25393    0.012
 6813.00    1.32808   1.25451    0.012
 6814.00    1.31081   1.25461    0.013
 6815.00    1.29676   1.25485    0.013
 6816.00    1.28530   1.25514    0.012
 6817.00    1.24514   1.25504    0.012
 6818.00    1.18467   1.25495    0.012
 6819.00    1.19790   1.25484    0.011
 6820.00    1.25692   1.25437    0.011
 6821.00    1.28702   1.25387    0.011
 6822.00    1.30142   1.25326    0.011
 6823.00    1.30378   1.25236    0.011
 6824.00    1.30044   1.25147    0.011
 6825.00    1.28696   1.25042    0.011
 6826.00    1.26934   1.24915    0.011
 6827.00    1.27063   1.24805    0.011
 6828.00    1.27847   1.24681    0.011
 6829.00    1.31819   1.24540    0.012
 6830.00    1.36724   1.24433    0.012
 6831.00    1.38306   1.24327    0.012
 6832.00    1.39084   1.24206    0.012
 6833.00    1.37066   1.24124    0.012
 6834.00    1.34500   1.24069    0.012
 6835.00    1.34947   1.23988    0.012
 6836.00    1.35854   1.23932    0.012
 6837.00    1.41560   1.23937    0.013
 6838.00    1.47806   1.23890    0.013
 6839.00    1.39014   1.23834    0.013
 6840.00    1.29099   1.23882    0.012
 6841.00    1.22842   1.23845    0.012
 6842.00    1.16731   1.23751    0.011
 6843.00    1.18468   1.23818    0.011
 6844.00    1.20555   1.23777    0.011
 6845.00    1.34448   1.23624    0.011
 6846.00    1.46967   1.23690    0.011
 6847.00    1.36280   1.23660    0.011
 6848.00    1.26331   1.23461    0.011
 6849.00    1.24101   1.23515    0.011
 6850.00    1.22441   1.23525    0.011
 6851.00    1.25009   1.23322    0.011
 6852.00    1.27385   1.23356    0.011
 6853.00    1.28676   1.23425    0.012
 6854.00    1.30603   1.23265    0.012
 6855.00    1.35402   1.23270    0.012
 6856.00    1.39282   1.23387    0.012
 6857.00    1.39758   1.23302    0.012
 6858.00    1.37977   1.23280    0.012
 6859.00    1.29206   1.23410    0.012
 6860.00    1.23717   1.23407    0.012
 6861.00    1.26863   1.23376    0.012
 6862.00    1.30298   1.23491    0.012
 6863.00    1.34385   1.23548    0.011
 6864.00    1.35819   1.23535    0.011
 6865.00    1.32059   1.23631    0.011
 6866.00    1.29099   1.23713    0.011
 6867.00    1.27505   1.23734    0.011
 6868.00    1.26167   1.23832    0.011
 6869.00    1.25211   1.23912    0.012
 6870.00    1.25827   1.23960    0.012
 6871.00    1.28506   1.24092    0.012
 6872.00    1.30841   1.24165    0.012
 6873.00    1.32779   1.24215    0.012
 6874.00    1.30521   1.24400    0.012
 6875.00    1.23981   1.24488    0.012
 6876.00    1.20990   1.24514    0.012
 6877.00    1.21194   1.24741    0.011
 6878.00    1.23386   1.24871    0.011
 6879.00    1.27155   1.24863    0.011
 6880.00    1.29068   1.25093    0.011
 6881.00    1.29685   1.25271    0.011
 6882.00    1.29197   1.25240    0.011
 6883.00    1.28032   1.25426    0.011
 6884.00    1.27245   1.25632    0.011
 6885.00    1.26661   1.25599    0.011
 6886.00    1.23952   1.25716    0.011
 6887.00    1.20257   1.25915    0.011
 6888.00    1.18753   1.25900    0.011
 6889.00    1.18124   1.25952    0.011
 6890.00    1.20023   1.26113    0.011
 6891.00    1.22782   1.26119    0.011
 6892.00    1.24520   1.26126    0.011
 6893.00    1.25965   1.26236    0.012
 6894.00    1.25864   1.26247    0.012
 6895.00    1.25397   1.26222    0.012
 6896.00    1.22503   1.26285    0.012
 6897.00    1.19146   1.26276    0.012
 6898.00    1.20683   1.26213    0.012
 6899.00    1.22944   1.26243    0.012
 6900.00    1.24073   1.26200    0.012
 6901.00    1.25081   1.26090    0.012
 6902.00    1.23123   1.26104    0.011
 6903.00    1.20955   1.26036    0.011
 6904.00    1.24435   1.25881    0.011
 6905.00    1.28118   1.25892    0.011
 6906.00    1.24783   1.25828    0.011
 6907.00    1.21510   1.25649    0.011
 6908.00    1.21151   1.25665    0.011
 6909.00    1.20837   1.25629    0.011
 6910.00    1.21240   1.25455    0.011
 6911.00    1.21583   1.25477    0.011
 6912.00    1.21324   1.25481    0.011
 6913.00    1.21038   1.25336    0.011
 6914.00    1.20557   1.25360    0.011
 6915.00    1.20116   1.25403    0.012
 6916.00    1.19889   1.25297    0.012
 6917.00    1.19347   1.25319    0.012
 6918.00    1.17410   1.25393    0.012
 6919.00    1.15278   1.25327    0.012
 6920.00    1.12438   1.25341    0.012
 6921.00    1.11935   1.25439    0.012
 6922.00    1.18534   1.25403    0.011
 6923.00    1.22987   1.25402    0.011
 6924.00    1.21893   1.25512    0.011
 6925.00    1.21855   1.25493    0.011
 6926.00    1.24163   1.25468    0.011
 6927.00    1.25606   1.25577    0.011
 6928.00    1.25383   1.25558    0.011
 6929.00    1.21006   1.25503    0.011
 6930.00    1.09643   1.25600    0.011
 6931.00    1.05210   1.25569    0.011
 6932.00    1.10982   1.25481    0.011
 6933.00    1.16610   1.25572    0.012
 6934.00    1.22052   1.25530    0.012
 6935.00    1.25693   1.25415    0.012
 6936.00    1.27281   1.25512    0.012
 6937.00    1.28660   1.25479    0.012
 6938.00    1.29828   1.25352    0.012
 6939.00    1.28477   1.25469    0.012
 6940.00    1.24891   1.25472    0.012
 6941.00    1.25811   1.25355    0.011
 6942.00    1.30254   1.25496    0.012
 6943.00    1.28424   1.25554    0.012
 6944.00    1.22281   1.25470    0.011
 6945.00    1.20114   1.25623    0.011
 6946.00    1.20342   1.25731    0.011
 6947.00    1.17537   1.25696    0.011
 6948.00    1.13137   1.25847    0.011
 6949.00    1.18639   1.25974    0.011
 6950.00    1.28662   1.25981    0.012
 6951.00    1.38781   1.26113    0.012
 6952.00    1.48937   1.26215    0.012
 6953.00    1.46392   1.26236    0.012
 6954.00    1.39598   1.26335    0.012
 6955.00    1.28574   1.26370    0.012
 6956.00    1.16363   1.26363    0.012
 6957.00    1.09759   1.26418    0.012
 6958.00    1.04452   1.26363    0.012
 6959.00    1.13826   1.26289    0.012
 6960.00    1.25924   1.26303    0.012
 6961.00    1.27498   1.26169    0.012
 6962.00    1.27565   1.26012    0.012
 6963.00    1.23451   1.26002    0.012
 6964.00    1.18903   1.25840    0.012
 6965.00    1.19806   1.25625    0.011
 6966.00    1.21071   1.25620    0.011
 6967.00    1.24452   1.25508    0.011
 6968.00    1.27899   1.25293    0.011
 6969.00    1.24059   1.25318    0.011
 6970.00    1.20390   1.25321    0.011
 6971.00    1.21900   1.25171    0.011
 6972.00    1.23128   1.25233    0.012
 6973.00    1.20154   1.25365    0.012
 6974.00    1.17407   1.25317    0.012
 6975.00    1.16836   1.25401    0.012
 6976.00    1.16883   1.25611    0.013
 6977.00    1.21228   1.25651    0.012
 6978.00    1.25065   1.25728    0.012
 6979.00    1.26182   1.25937    0.012
 6980.00    1.26148   1.26010    0.012
 6981.00    1.21157   1.26054    0.012
 6982.00    1.18227   1.26198    0.012
 6983.00    1.22613   1.26247    0.012
 6984.00    1.26006   1.26239    0.012
 6985.00    1.26438   1.26300    0.012
 6986.00    1.24151   1.26295    0.012
 6987.00    1.14959   1.26229    0.011
 6988.00    1.08644   1.26222    0.011
 6989.00    1.08621   1.26173    0.012
 6990.00    1.10955   1.26057    0.012
 6991.00    1.17761   1.26008    0.012
 6992.00    1.22931   1.25948    0.012
 6993.00    1.25390   1.25803    0.012
 6994.00    1.24409   1.25732    0.012
 6995.00    1.18433   1.25691    0.012
 6996.00    1.16038   1.25542    0.012
 6997.00    1.18215   1.25456    0.012
 6998.00    1.19908   1.25451    0.012
 6999.00    1.21058   1.25318    0.012
 7000.00    1.19081   1.25216    0.012
 7001.00    1.14004   1.25247    0.012
 7002.00    1.12319   1.25146    0.012
 7003.00    1.13601   1.25028    0.011
 7004.00    1.15424   1.25084    0.011
 7005.00    1.17663   1.25035    0.011
 7006.00    1.20845   1.24906    0.012
 7007.00    1.24667   1.24976    0.012
 7008.00    1.27678   1.24995    0.012
 7009.00    1.30208   1.24876    0.012
 7010.00    1.29528   1.24949    0.012
 7011.00    1.27185   1.25043    0.012
 7012.00    1.20036   1.24958    0.012
 7013.00    1.10730   1.25031    0.012
 7014.00    1.07655   1.25188    0.012
 7015.00    1.06984   1.25152    0.012
 7016.00    1.09875   1.25230    0.012
 7017.00    1.13933   1.25431    0.012
 7018.00    1.16124   1.25440    0.013
 7019.00    1.17800   1.25534    0.013
 7020.00    1.19693   1.25770    0.013
 7021.00    1.21636   1.25808    0.013
 7022.00    1.28940   1.25912    0.012
 7023.00    1.37212   1.26190    0.012
 7024.00    1.31033   1.26254    0.012
 7025.00    1.22851   1.26351    0.012
 7026.00    1.27054   1.26671    0.012
 7027.00    1.32487   1.26775    0.012
 7028.00    1.32214   1.26837    0.012
 7029.00    1.31583   1.27165    0.012
 7030.00    1.28428   1.27312    0.012
 7031.00    1.25196   1.27318    0.012
 7032.00    1.20881   1.27587    0.013
 7033.00    1.16808   1.27747    0.013
 7034.00    1.19401   1.27686    0.013
 7035.00    1.22215   1.27820    0.013
 7036.00    1.28139   1.27915    0.013
 7037.00    1.32367   1.27766    0.013
 7038.00    1.20962   1.27724    0.013
 7039.00    1.12317   1.27684    0.013
 7040.00    1.22262   1.27429    0.013
 7041.00    1.30271   1.27229    0.013
 7042.00    1.28154   1.27028    0.012
 7043.00    1.25852   1.26666    0.012
 7044.00    1.22769   1.26368    0.013
 7045.00    1.21254   1.26053    0.013
 7046.00    1.25193   1.25612    0.012
 7047.00    1.28888   1.25299    0.012
 7048.00    1.31868   1.24966    0.012
 7049.00    1.31539   1.24504    0.012
 7050.00    1.22951   1.24237   -2.000
 7051.00    1.18170   1.23981   -2.000
 7052.00    1.21579   1.23567   -2.000
 7053.00    1.21915   1.23374   -2.000
 7054.00    1.16511   1.23244   -2.000
 7055.00    1.17252   1.22931   -2.000
 7056.00    1.28016   1.22810   -2.000
 7057.00    1.31215   1.22812   -2.000
 7058.00    1.23592   1.22619   -2.000
 7059.00    1.26007   1.22547   -2.000
 7060.00    1.41052   1.22642   -2.000
 7061.00    1.48904   1.22543   -2.000
 7062.00    1.48779   1.22480   -2.000
 7063.00    1.50222   1.22607   -2.000
 7064.00    1.53198   1.22536   -2.000
 7065.00    1.56169   1.22428   -2.000
 7066.00    1.59135   1.22523   -2.000
 7067.00    1.53672   1.22414   -2.000
 7068.00    1.41806   1.22212   -2.000
 7069.00    1.40201   1.22214   -2.000
 7070.00    1.45449   1.22009   -2.000
 7071.00    1.47377   1.21690   -2.000
 7072.00    1.47364   1.21585   -2.000
 7073.00    1.48228   1.21280   -2.000
 7074.00    1.49538   1.20859   -2.000
 7075.00    1.48099   1.20667   -2.000
 7076.00    1.45445   1.20322   -2.000
 7077.00    1.43679   1.19853   -2.000
 7078.00    1.42250   1.19625   -2.000
 7079.00    1.39363   1.19340   -2.000
 7080.00    1.36007   1.18903   -2.000
 7081.00    1.34730   1.18695   -2.000
 7082.00    1.34013   1.18544   -2.000
 7083.00    1.29193   1.18210   -2.000
 7084.00    1.23468   1.18065   -2.000
 7085.00    1.26828   1.18076   -2.000
 7086.00    1.31784   1.17888   -2.000
 7087.00    1.38171   1.17810   -2.000
 7088.00    1.44750   1.17951   -2.000
 7089.00    1.33075   1.17910   -2.000
 7090.00    1.19665   1.17884   -2.000
 7091.00    1.14720   1.18072   -2.000
 7092.00    1.10271   1.18143   -2.000
 7093.00    1.22186   1.18151   -2.000
 7094.00    1.34413   1.18312   -2.000
 7095.00    1.34230   1.18438   -2.000
 7096.00    1.34029   1.18468   -2.000
 7097.00    1.33400   1.18567   -2.000
 7098.00    1.32184   1.18691   -2.000
 7099.00    1.23184   1.18728   -2.000
 7100.00    1.14461   1.18769   -2.000
 7101.00    1.08194   1.18861   -2.000
 7102.00    1.02802   1.18884   -2.000
 7103.00    1.03119   1.18892   -2.000
 7104.00    1.04022   1.18951   -2.000
 7105.00    1.07908   1.18930   -2.000
 7106.00    1.11622   1.18921   -2.000
 7107.00    1.14624   1.18960   -2.000
 7108.00    1.17149   1.18888   -2.000
 7109.00    1.18048   1.18845   -2.000
 7110.00    1.20914   1.18851   -2.000
 7111.00    1.29429   1.18743   -2.000
 7112.00    1.35135   1.18666   -2.000
 7113.00    1.33948   1.18633   -2.000
 7114.00    1.31468   1.18505   -2.000
 7115.00    1.26251   1.18401   -2.000
 7116.00    1.23220   1.18337   -2.000
 7117.00    1.24209   1.18250   -2.000
 7118.00    1.28713   1.18146   -2.000
 7119.00    1.38863   1.18046   -2.000
 7120.00    1.43545   1.18029   -2.000
 7121.00    1.40516   1.17982   -2.000
 7122.00    1.40226   1.17864   -2.000
 7123.00    1.43331   1.17908   -2.000
 7124.00    1.43317   1.17960   -2.000
 7125.00    1.39894   1.17851   -2.000
 7126.00    1.36657   1.17930   -2.000
 7127.00    1.33600   1.18069   -2.000
 7128.00    1.27692   1.17971   -2.000
 7129.00    1.19360   1.18059   -2.000
 7130.00    1.10332   1.18264   -2.000
 7131.00    1.00782   1.18146   -2.000
 7132.00    1.09380   1.18203   -2.000
 7133.00    1.29919   1.18473   -2.000
 7134.00    1.28680   1.18356   -2.000
 7135.00    1.14897   1.18345   -2.000
 7136.00    1.19650   1.18656   -2.000
 7137.00    1.33703   1.18590   -2.000
 7138.00    1.22375   1.18495   -2.000
 7139.00    1.00025   1.18808   -2.000
 7140.00    1.06956   1.18848   -2.000
 7141.00    1.24795   1.18690   -2.000
 7142.00    1.29812   1.18963   -2.000
 7143.00    1.30779   1.19115   -2.000
 7144.00    1.22011   1.18928   -2.000
 7145.00    1.10676   1.19123   -2.000
 7146.00    1.03371   1.19353   -2.000
 7147.00    0.96935   1.19165   -2.000
 7148.00    1.04134   1.19246   -2.000
 7149.00    1.13664   1.19508   -2.000
 7150.00    1.12761   1.19366   -2.000
 7151.00    1.10507   1.19336   -2.000
 7152.00    1.34446   1.19567   -2.000
 7153.00    1.60763   1.19502   -2.000
 7154.00    1.41712   1.19429   -2.000
 7155.00    1.20178   1.19601   -2.000
 7156.00    1.21621   1.19589   -2.000
 7157.00    1.23448   1.19519   -2.000
 7158.00    1.16305   1.19651   -2.000
 7159.00    1.10954   1.19670   -2.000
 7160.00    1.46277   1.19620   -2.000
 7161.00    1.77708   1.19724   -2.000
 7162.00    1.60115   1.19733   -2.000
 7163.00    1.43319   1.19680   -2.000
 7164.00    1.33325   1.19754   -2.000
 7165.00    1.22971   1.19752   -2.000
 7166.00    1.10336   1.19673   -2.000
 7167.00    1.02255   1.19654   -2.000
 7168.00    1.16785   1.19630   -2.000
 7169.00    1.28664   1.19560   -2.000
 7170.00    1.29874   1.19448   -2.000
 7171.00    1.28778   1.19397   -2.000
 7172.00    1.19981   1.19328   -2.000
 7173.00    1.13379   1.19123   -2.000
 7174.00    1.12965   1.19054   -2.000
 7175.00    1.14500   1.19024   -2.000
 7176.00    1.20736   1.18806   -2.000
 7177.00    1.26973   1.18741   -2.000
 7178.00    1.33211   1.18773   -2.000
 7179.00    1.35517   1.18583   -2.000
 7180.00    1.30704   1.18482   -2.000
 7181.00    1.24313   1.18607   -2.000
 7182.00    1.15422   1.18528   -2.000
 7183.00    1.14698   1.18374   -2.000
 7184.00    1.25318   1.18532   -2.000
 7185.00    1.30105   1.18592   -2.000
 7186.00    1.27758   1.18435   -2.000
 7187.00    1.27301   1.18566   -2.000
 7188.00    1.28882   1.18708   -2.000
 7189.00    1.29126   1.18571   -2.000
 7190.00    1.28097   1.18650   -2.000
 7191.00    1.25751   1.18873   -2.000
 7192.00    1.22300   1.18768   -2.000
 7193.00    1.20598   1.18702   -2.000
 7194.00    1.20186   1.18949   -2.000
 7195.00    1.25257   1.18946   -2.000
 7196.00    1.33883   1.18824   -2.000
 7197.00    1.32604   1.19081   -2.000
 7198.00    1.25707   1.19163   -2.000
 7199.00    1.20898   1.19006   -2.000
 7200.00    1.17119   1.19229   -2.000
 7201.00    1.22682   1.19417   -2.000
 7202.00    1.32235   1.19299   -2.000
 7203.00    1.30793   1.19475   -2.000
 7204.00    1.25328   1.19767   -2.000
 7205.00    1.08850   1.19742   -2.000
 7206.00    0.88959   1.19845   -2.000
 7207.00    0.89092   1.20188   -2.000
 7208.00    0.94394   1.20284   -2.000
 7209.00    1.03022   1.20324   -2.000
 7210.00    1.12350   1.20674   -2.000
 7211.00    1.17664   1.20891   -2.000
 7212.00    1.22310   1.20893   -2.000
 7213.00    1.23603   1.21208   -2.000
 7214.00    1.24476   1.21503   -2.000
 7215.00    1.27718   1.21500   -2.000
 7216.00    1.31165   1.21749   -2.000
 7217.00    1.16317   1.22085   -2.000
 7218.00    1.00539   1.22108   -2.000
