###################################################################
## OUTPUT of StarlightChains_v04.for    [Cid@UFSC - 01/Apr/2007] ##
###################################################################

## Some input info
KUG0210-078._51_47.txt                   [arq_obs]
Base.CB07.vall.4m                        [arq_base]
Masks.EmLines.NEW.gm                     [arq_masks]
StCv04.C11.config                        [arq_config]
   66                                    [N_base]
    0                                    [N_YAV_components = # of components with extra extinction!]
    0                                    [i_FitPowerLaw (1/0 = Yes/No)]
-9.99                                    [alpha_PowerLaw]
CCM                                      [red_law_option]
 1.458241                                [q_norm = A(l_norm)/A(V)]

## (Re)Sampling Parameters
 3741.00                                 [l_ini (A)]
 7218.00                                 [l_fin (A)]
    1.00                                 [dl    (A)]     (OBS: dl_cushion =    50.00 A)

## Normalization info
 4020.00                                 [l_norm (A) - for base]
 4010.00                                 [llow_norm (A) - window for f_obs]
 4060.00                                 [lupp_norm (A) - window for f_obs]
6.680367E-18                             [fobs_norm (in input units)]

## S/N
 3691.00                                 [llow_SN (A) - window for S/N]
 7268.00                                 [lupp_SN (A) - window for S/N]
   2.460                                 [S/N in S/N window]
   3.261                                 [S/N in norm. window]
   0.005                                 [S/N_err in S/N window]
   0.007                                 [S/N_err in norm. window]
  1.0000                                 [fscale_chi2]

## etc...
    -2007975                             [idum_orig]
  2360                                   [NOl_eff]
  2348                                   [Nl_eff]
    12    NSIGMA                         [Ntot_cliped & clip_method]
   739620                                [Nglobal_steps]
   7                                     [N_chains]
  37                                     [NEX0s_base = N_base in EX0s-fits]
 0   0   1       12   2.0   9.690E+02    [Clip-Bug, RC-Crash & Burn-In warning-flags, n_censored_weights, wei_nsig_threshold & wei_limit]
    19     18.554     18.054      0.500  [idt_all, wdt_TotTime, wdt_UsrTime & wdt_SysTime (sec)]

## Synthesis Results - Best model ##

 2.11932E-05                             [chi2/Nl_eff]
    35.30102                             [adev (%)]

   113.48199                             [sum-of-x (%)]
 6.74249E-18                             [Flux_tot (units of input spectrum!)]
 9.91091E-14                             [Mini_tot (???)]
 5.01069E-14                             [Mcor_tot (???)]

-314.19                                  [v0_min  (km/s)]
   0.08                                  [vd_min  (km/s)]
-0.0873                                  [AV_min  (mag)]
 0.0000                                  [YAV_min (mag)]

# j     x_j(%)      Mini_j(%)     Mcor_j(%)     age_j(yr)     Z_j      (L/M)_j    YAV?  Mstars   component_j        a/Fe...       SSP_chi2r SSP_adev(%)   SSP_AV   SSP_x(%)
  1      0.0000     0.0000E+00    0.0000E+00    1.000000E+06  0.00400  1.094E-02    0   1.0000   age020_m42            0.0000     2.1345E-05    36.0311   1.7878   104.2172
  2      0.7260     1.0861E-03    2.1481E-03    3.160000E+06  0.00400  4.007E-02    0   0.9999   age045_m42            0.0000     2.2615E-05    36.6949   1.0159   111.1096
  3      0.0000     0.0000E+00    0.0000E+00    5.010000E+06  0.00400  2.539E-02    0   0.9488   age055_m42            0.0000     2.2072E-05    36.1275   1.3725   108.1401
  4      0.0000     0.0000E+00    0.0000E+00    6.610000E+06  0.00400  2.620E-02    0   0.9220   age061_m42            0.0000     2.2822E-05    36.3043   0.9660   110.7425
  5      0.0000     0.0000E+00    0.0000E+00    1.000000E+07  0.00400  1.322E-02    0   0.8862   age070_m42            0.0000     2.2482E-05    35.2547   0.7723   110.9056
  6      2.3954     1.8217E-02    3.0883E-02    1.445000E+07  0.00400  7.883E-03    0   0.8571   age078_m42            0.0000     2.2080E-05    35.2500   1.0967   108.6013
  7      0.0000     0.0000E+00    0.0000E+00    2.512000E+07  0.00400  5.251E-03    0   0.8174   age090_m42            0.0000     2.2543E-05    35.0765   0.6600   111.0571
  8      2.0557     3.3772E-02    5.2445E-02    4.000000E+07  0.00400  3.649E-03    0   0.7851   age104_m42            0.0000     2.2771E-05    35.2830   0.4125   112.2505
  9      0.3913     7.5712E-03    1.1425E-02    5.500000E+07  0.00400  3.098E-03    0   0.7629   age110_m42            0.0000     2.3375E-05    35.7145   0.5284   113.0103
 10      0.9111     2.4516E-02    3.4948E-02    1.015200E+08  0.00400  2.228E-03    0   0.7207   age116_m42            0.0000     2.3964E-05    35.9857   0.5248   113.5302
 11      0.0000     0.0000E+00    0.0000E+00    2.861200E+08  0.00400  1.093E-03    0   0.6648   age125_m42            0.0000     2.4395E-05    35.6576  -0.0151   115.6266
 12      0.0000     0.0000E+00    0.0000E+00    5.088000E+08  0.00400  6.597E-04    0   0.6365   age130_m42            0.0000     2.5212E-05    36.1417  -0.0660   117.3256
 13      0.7065     1.9865E-01    2.2782E-01    1.434000E+09  0.00400  2.132E-04    0   0.5798   age139_m42            0.0000     2.5167E-05    35.6385  -1.0000   119.7792
 14      2.4123     2.4531E+00    2.6090E+00    4.250000E+09  0.00400  5.895E-05    0   0.5377   age158_m42            0.0000     2.4925E-05    34.1831  -1.0000   110.3104
 15      0.0645     1.1009E-01    1.1349E-01    7.500000E+09  0.00400  3.510E-05    0   0.5212   age171_m42            0.0000     2.5784E-05    36.6460  -1.0000   106.4946
 16      3.6784     1.0998E+01    1.0951E+01    1.300000E+10  0.00400  2.005E-05    0   0.5034   age193_m42            0.0000     2.6827E-05    39.6210  -1.0000   102.7932
 17      0.0000     0.0000E+00    0.0000E+00    1.800000E+10  0.00400  1.525E-05    0   0.4967   age213_m42            0.0000     2.6708E-05    40.1746  -1.0000   101.9857
 18      0.0000     0.0000E+00    0.0000E+00    1.000000E+06  0.00800  1.238E-02    0   1.0000   age020_m52            0.0000     2.1338E-05    36.0934   1.7805   104.4518
 19      0.0000     0.0000E+00    0.0000E+00    3.160000E+06  0.00800  3.074E-02    0   0.9966   age045_m52            0.0000     2.1368E-05    36.2111   1.6932   105.5252
 20      0.0000     0.0000E+00    0.0000E+00    5.010000E+06  0.00800  2.668E-02    0   0.9443   age055_m52            0.0000     2.1785E-05    36.1233   1.4530   107.3827
 21      0.0000     0.0000E+00    0.0000E+00    6.610000E+06  0.00800  2.136E-02    0   0.9177   age061_m52            0.0000     2.1865E-05    35.5525   0.2462   113.0447
 22      6.0828     3.0013E-02    5.2400E-02    1.000000E+07  0.00800  1.215E-02    0   0.8827   age070_m52            0.0000     2.2090E-05    35.0043   0.9775   110.3426
 23      0.0000     0.0000E+00    0.0000E+00    1.445000E+07  0.00800  8.717E-03    0   0.8552   age078_m52            0.0000     2.2144E-05    35.2619   1.0606   110.0833
 24      0.0000     0.0000E+00    0.0000E+00    2.512000E+07  0.00800  5.592E-03    0   0.8162   age090_m52            0.0000     2.2546E-05    35.1183   0.7221   112.4214
 25      0.0000     0.0000E+00    0.0000E+00    4.000000E+07  0.00800  3.896E-03    0   0.7841   age104_m52            0.0000     2.2941E-05    35.4107   0.6092   113.6671
 26      0.0000     0.0000E+00    0.0000E+00    1.015200E+08  0.00800  2.148E-03    0   0.7226   age116_m52            0.0000     2.3579E-05    35.8205   0.5070   114.2194
 27      0.0000     0.0000E+00    0.0000E+00    2.861200E+08  0.00800  9.925E-04    0   0.6683   age125_m52            0.0000     2.5164E-05    36.1978  -0.0062   118.6559
 28      0.5992     1.1436E-01    1.3884E-01    9.047900E+08  0.00800  3.141E-04    0   0.6138   age135_m52            0.0000     2.5852E-05    38.4885  -0.9424   126.3406
 29      0.0000     0.0000E+00    0.0000E+00    1.434000E+09  0.00800  1.719E-04    0   0.5853   age139_m52            0.0000     2.5379E-05    33.7870  -1.0000   116.7863
 30      0.0000     0.0000E+00    0.0000E+00    2.500000E+09  0.00800  7.872E-05    0   0.5600   age150_m52            0.0000     2.6447E-05    36.2768  -1.0000   109.7038
 31      1.2807     1.7707E+00    1.9004E+00    4.250000E+09  0.00800  4.336E-05    0   0.5426   age158_m52            0.0000     2.6395E-05    36.6028  -1.0000   108.5500
 32      0.0000     0.0000E+00    0.0000E+00    6.250000E+09  0.00800  3.159E-05    0   0.5319   age166_m52            0.0000     2.8122E-05    40.0344  -1.0000   104.4316
 33      0.0000     0.0000E+00    0.0000E+00    1.300000E+10  0.00800  1.361E-05    0   0.5073   age193_m52            0.0000     3.2203E-05    48.7888  -1.0000    92.8030
 34     12.4364     7.5414E+01    7.4434E+01    1.800000E+10  0.00800  9.886E-06    0   0.4990   age213_m52            0.0000     3.4047E-05    50.1659  -1.0000    89.3646
 35     18.6370     7.2362E-02    1.4313E-01    1.000000E+06  0.02000  1.544E-02    0   1.0000   age020_m62            0.0000     2.1292E-05    36.1159   1.7745   104.7435
 36      0.0000     0.0000E+00    0.0000E+00    3.160000E+06  0.02000  3.762E-02    0   0.9858   age045_m62            0.0000     2.1273E-05    36.1343   1.7088   105.7535
 37      0.5948     1.0818E-03    1.9989E-03    5.010000E+06  0.02000  3.296E-02    0   0.9342   age055_m62            0.0000     2.2324E-05    36.3605   1.3110   109.7987
 38     25.3260     1.3156E-01    2.3059E-01    8.710000E+06  0.02000  1.154E-02    0   0.8861   age067_m62            0.0000     2.1210E-05    34.7016   0.5865   109.8235
 39      2.0288     1.5872E-02    2.6596E-02    1.445000E+07  0.02000  7.663E-03    0   0.8472   age078_m62            0.0000     2.1768E-05    34.8397   0.6650   111.8352
 40      0.0000     0.0000E+00    0.0000E+00    2.512000E+07  0.02000  4.532E-03    0   0.8099   age090_m62            0.0000     2.1959E-05    34.7830   0.6671   111.1435
 41      0.2025     4.4423E-03    6.6735E-03    5.500000E+07  0.02000  2.733E-03    0   0.7595   age110_m62            0.0000     2.2804E-05    35.2775   0.5968   112.8592
 42      0.1105     4.8400E-03    6.6869E-03    1.609000E+08  0.02000  1.369E-03    0   0.6985   age120_m62            0.0000     2.4481E-05    35.7097   0.3932   116.2736
 43      0.0000     0.0000E+00    0.0000E+00    2.861200E+08  0.02000  9.013E-04    0   0.6714   age125_m62            0.0000     2.5724E-05    36.0275   0.1168   119.6963
 44      0.3255     3.8805E-02    4.9499E-02    5.088000E+08  0.02000  5.028E-04    0   0.6449   age130_m62            0.0000     2.6584E-05    37.7932  -0.3704   125.1328
 45      0.0000     0.0000E+00    0.0000E+00    9.047900E+08  0.02000  2.428E-04    0   0.6179   age135_m62            0.0000     2.5729E-05    38.5554  -1.0000   126.2173
 46      0.0000     0.0000E+00    0.0000E+00    1.434000E+09  0.02000  1.263E-04    0   0.5908   age139_m62            0.0000     2.5649E-05    33.7995  -1.0000   118.5493
 47      0.0000     0.0000E+00    0.0000E+00    2.500000E+09  0.02000  5.985E-05    0   0.5673   age150_m62            0.0000     2.7156E-05    36.5900  -1.0000   110.8221
 48      0.0000     0.0000E+00    0.0000E+00    4.250000E+09  0.02000  3.271E-05    0   0.5468   age158_m62            0.0000     2.9876E-05    41.5580  -1.0000   103.2250
 49      0.0000     0.0000E+00    0.0000E+00    1.000000E+10  0.02000  1.360E-05    0   0.5167   age181_m62            0.0000     3.4014E-05    47.2421  -1.0000    93.8886
 50      0.0000     0.0000E+00    0.0000E+00    1.800000E+10  0.02000  7.124E-06    0   0.5013   age213_m62            0.0000     3.7023E-05    50.0824  -1.0000    87.3183
 51     25.0795     5.8005E-02    1.1471E-01    1.000000E+06  0.05000  2.592E-02    0   0.9998   age020_m72            0.0000     2.1148E-05    36.0470   1.7717   104.7599
 52      0.0547     6.7636E-05    1.2812E-04    3.160000E+06  0.05000  4.845E-02    0   0.9577   age045_m72            0.0000     2.1604E-05    36.2765   1.5772   107.2757
 53      0.0000     0.0000E+00    0.0000E+00    5.010000E+06  0.05000  3.072E-02    0   0.9147   age055_m72            0.0000     2.1545E-05    35.2464   1.1981   109.2005
 54      1.5192     6.2593E-03    1.0990E-02    6.610000E+06  0.05000  1.455E-02    0   0.8877   age061_m72            0.0000     2.1071E-05    36.3283   0.6851   109.3760
 55      0.0000     0.0000E+00    0.0000E+00    1.000000E+07  0.05000  9.074E-03    0   0.8524   age070_m72            0.0000     2.1646E-05    35.7360   1.3771   108.7954
 56      0.7423     1.0471E-02    1.6366E-02    2.512000E+07  0.05000  4.250E-03    0   0.7902   age090_m72            0.0000     2.2303E-05    35.3618   1.0803   110.4468
 57      3.1053     6.0303E-02    9.0865E-02    4.000000E+07  0.05000  3.087E-03    0   0.7618   age104_m72            0.0000     2.2664E-05    35.3453   0.8592   111.8041
 58      0.0000     0.0000E+00    0.0000E+00    1.015200E+08  0.05000  1.700E-03    0   0.7096   age116_m72            0.0000     2.4166E-05    35.4471   0.5609   115.2795
 59      0.0000     0.0000E+00    0.0000E+00    2.861200E+08  0.05000  7.384E-04    0   0.6633   age125_m72            0.0000     2.6249E-05    37.0143  -0.0771   122.5374
 60      0.0000     0.0000E+00    0.0000E+00    5.088000E+08  0.05000  3.819E-04    0   0.6372   age130_m72            0.0000     2.6089E-05    39.1522  -0.6967   127.5977
 61      0.0000     0.0000E+00    0.0000E+00    9.047900E+08  0.05000  1.676E-04    0   0.6110   age135_m72            0.0000     2.6110E-05    34.4852  -1.0000   121.3588
 62      0.0000     0.0000E+00    0.0000E+00    1.434000E+09  0.05000  8.837E-05    0   0.5874   age139_m72            0.0000     2.7650E-05    36.7013  -1.0000   112.3315
 63      0.0000     0.0000E+00    0.0000E+00    2.500000E+09  0.05000  4.233E-05    0   0.5598   age150_m72            0.0000     3.0409E-05    41.4912  -1.0000   104.0695
 64      2.0158     8.4213E+00    8.7432E+00    6.250000E+09  0.05000  1.435E-05    0   0.5249   age166_m72            0.0000     3.5105E-05    48.8417  -1.0000    91.0262
 65      0.0000     0.0000E+00    0.0000E+00    1.300000E+10  0.05000  6.513E-06    0   0.5036   age193_m72            0.0000     3.9047E-05    52.3588  -1.0000    83.8511
 66      0.0000     0.0000E+00    0.0000E+00    1.800000E+10  0.05000  4.527E-06    0   0.4945   age213_m72            0.0000     4.1348E-05    54.0541  -1.0000    78.9994


## Synthesis Results - Average & Chains ##

# j      x_j: min, <> & last-chain-values for 1 ...  7 chains
  1      0.0000      1.0908      0.9460      0.7938      0.0000      0.0000      1.3757      0.4636      3.4460
  2      0.7260      1.1289      0.0000      0.4012      1.3395      0.0000      3.3366      0.0000      0.6279
  3      0.0000      1.0633      0.0909      2.2778      0.1739      1.0494      0.8466      3.0909      1.6703
  4      0.0000      1.3226      2.7549      1.1373      0.0000      4.7462      1.4886      1.3053      0.0840
  5      0.0000      1.1466      0.0000      0.0218      2.1296      3.8993      6.5883      0.0000      0.5362
  6      2.3954      0.7860      0.0000      0.2327      1.4343      0.0000      0.2506      0.7149      0.0000
  7      0.0000      0.9917      0.0602      0.0000      0.0000      0.1158      0.0000      0.0000      1.0739
  8      2.0557      0.9600      2.0097      0.0521      0.8462      0.0000      1.0188      0.6481      2.3708
  9      0.3913      1.2470      2.4609      6.1149      0.4655      0.0000      0.0000      1.7681      1.1354
 10      0.9111      1.1604      0.2760      0.6654      1.1700      2.0904      0.0000      2.9904      1.4732
 11      0.0000      1.2883      1.6042      1.9471      2.3859      0.2867      0.0000      0.0000      0.3566
 12      0.0000      1.1523      0.0000      0.5526      0.1040      0.0000      1.2370      0.9294      0.0000
 13      0.7065      1.1109      1.5519      0.0000      0.2357      1.3806      0.0000      1.1466      1.2761
 14      2.4123      0.6137      1.0987      0.6114      1.5713      2.3352      0.0000      0.0000      0.0000
 15      0.0645      1.0745      0.0310      0.4031      3.5327      0.3958      0.3955      0.0000      1.8159
 16      3.6784      1.0421      0.2522      0.4145      3.1502      0.0000      1.1002      0.0752      1.6942
 17      0.0000      0.8400      0.0000      0.0000      1.3282      0.0000      7.7114      3.4648      0.0162
 18      0.0000      1.1417      1.9745      2.9823      0.0000      1.6235      0.6139      0.1275      0.0000
 19      0.0000      0.8965      0.5964      3.7916      0.2297      0.3207      0.0000      0.0000      2.4741
 20      0.0000      1.0993      1.0874      0.0986      0.1807      0.0000      8.8750      0.5603      0.0567
 21      0.0000      0.8785      0.7152      0.0000      0.0000      2.1492      0.0000      0.5383      0.8864
 22      6.0828      1.2935      0.0000      0.0000      1.5846      1.6584      0.8347      1.6686      2.7087
 23      0.0000      0.8936      3.1714      0.0000      0.1234      0.2751      0.0699      1.9191      0.4663
 24      0.0000      1.0657      0.0000      0.1617      0.0000      0.0000      0.0000      1.1224      0.3083
 25      0.0000      1.1868      0.0512      1.8432      0.0000      0.0000      2.0650      0.2541      0.1598
 26      0.0000      1.4013      1.2439      2.0577      3.7270      2.1210      1.5814      0.9920      0.0852
 27      0.0000      0.9364      0.3238      0.4413      0.0488      0.0000      0.0000      0.0000      0.0045
 28      0.5992      1.4670      0.4318      0.0000      0.6935      0.0000      0.8780      0.6423      0.0000
 29      0.0000      1.1817      0.3540      0.0000      0.0000      0.9567      0.0000      1.0798      0.0504
 30      0.0000      1.1586      0.5570      0.0485      0.0043      1.4780      0.0000      5.5443      4.0490
 31      1.2807      0.9309      1.1169      0.0000      0.3316      1.2099      0.0000      0.0000      0.9698
 32      0.0000      1.0489      0.0000      0.4116      5.1338      0.8447      0.4156      4.1793      0.0000
 33      0.0000      0.9387      0.7616      3.0002      0.1275      0.1160      4.5196      0.0000      1.2936
 34     12.4364      0.9958      6.5268      3.7321      1.6208      0.8555      0.4994      1.8369      2.1391
 35     18.6370      1.2580      4.7663      1.3236      1.3436      0.0000      3.7208      0.1138      0.8249
 36      0.0000      1.4886      0.2327      0.7523      3.4974      0.8013      4.9971      0.0000      1.1785
 37      0.5948      0.9849      0.3747      1.2389      2.3066      2.5055      0.0000      0.1960      0.0000
 38     25.3260      0.8469      0.0000      5.7280      0.8300      1.5351      0.2006      0.9413      3.5267
 39      2.0288      1.1480      0.5767      0.1028      0.6176      1.7046      0.0000      1.6319      4.9768
 40      0.0000      0.9432      0.0707      0.0338      9.1438      0.7234      0.1913      7.3875      0.0000
 41      0.2025      1.0845      1.9395      0.0000      1.8909      0.3178      4.0035      0.5926      0.0000
 42      0.1105      1.1878      0.0000      0.4382      1.6973      3.9012      1.3080      0.0000      0.6230
 43      0.0000      0.5303      1.4059      0.7850      0.0000      0.0000      0.0000      0.0000      1.2420
 44      0.3255      1.1034      0.0932      0.0000      2.6699      4.9467      0.0000      0.1434      0.0000
 45      0.0000      0.9918      0.0000      1.4276      0.0000      2.7048      0.0000      0.3343      0.1184
 46      0.0000      0.9377      0.9986      0.0000      0.0325      1.0218      1.5625      0.4806      0.1343
 47      0.0000      1.0163      0.0000      0.0000      0.2578      0.0000      1.3276      0.0000      1.0811
 48      0.0000      1.1999      0.5420      0.5103      0.6642      0.0000      0.2644      1.8576      0.4097
 49      0.0000      1.1227      0.3550      0.0000      0.0000      4.0429      0.8559      0.1668      6.1541
 50      0.0000      1.2577      5.0137      3.3849      0.2325      0.1315      0.0000      0.8883      0.2805
 51     25.0795      1.3538      0.0278      1.5671      2.1117      0.5635      3.0473      3.0555      1.7821
 52      0.0547      0.7765      1.2356      0.2478      4.3586      0.0000      0.0990      0.0000      0.8700
 53      0.0000      0.8629      0.8112      0.0000      0.0000      0.0000      0.1715      0.0000      1.5794
 54      1.5192      1.0720     12.2218      0.6965      0.7050      1.7997      1.4758      0.0766      0.0000
 55      0.0000      1.3506      4.4289      0.3260      0.2106      1.8511      0.1160      4.7869      1.3961
 56      0.7423      1.0801      0.0000      5.3909      0.6352      2.3369      0.0390      1.6080      1.0244
 57      3.1053      0.8469      0.0414      0.9577      2.6522      0.0000      0.0000      2.4909      1.8880
 58      0.0000      0.9198      1.1396      3.7887      2.7566      3.4701      0.0000      1.3452      2.0044
 59      0.0000      1.0189      0.0000      0.4932      0.0000      0.0000      0.1266      0.0463      0.0000
 60      0.0000      1.0147      0.1185      0.0000      0.0000      1.9170      0.0000      0.4990      1.9640
 61      0.0000      1.1248      0.2294      2.6226      0.0000      0.0000      0.0000      1.2530      0.5906
 62      0.0000      0.8698      1.0546      0.8238      0.0000      2.4843      0.3636      0.0000      0.3030
 63      0.0000      0.6660      0.5750      0.0377      0.0000      0.0000      0.0000      0.6254      0.0000
 64      2.0158      1.0196      0.0000      0.0000      0.2789      2.7014      2.2938      3.6352      1.8864
 65      0.0000      0.8992      1.3463      1.0812      0.0000      0.0000      0.0000      0.4099      2.5332
 66      0.0000      2.7820      0.1011      4.9795      2.1571      4.5699      1.5021      0.2516      0.0000

# j      m_j: min, <> & last-chain-values for 1 ...  7 chains
  1  0.0000E+00  1.2203E-02  9.4302E-03  5.8843E-03  0.0000E+00  0.0000E+00  1.5711E-02  6.6028E-03  3.8359E-02
  2  2.1481E-03  3.4478E-03  0.0000E+00  8.1195E-04  5.0863E-03  0.0000E+00  1.0403E-02  0.0000E+00  1.9080E-03
  3  0.0000E+00  4.8631E-03  3.7037E-04  6.9027E-03  9.8860E-04  4.2286E-03  3.9528E-03  1.7997E-02  7.6011E-03
  4  0.0000E+00  5.6964E-03  1.0572E-02  3.2456E-03  0.0000E+00  1.8010E-02  6.5452E-03  7.1571E-03  3.6016E-04
  5  0.0000E+00  9.4072E-03  0.0000E+00  1.1842E-04  2.1722E-02  2.8186E-02  5.5180E-02  0.0000E+00  4.3777E-03
  6  3.0883E-02  1.0459E-02  0.0000E+00  2.0522E-03  2.3730E-02  0.0000E+00  3.4041E-03  1.2111E-02  0.0000E+00
  7  0.0000E+00  1.8893E-02  1.0218E-03  0.0000E+00  0.0000E+00  1.9432E-03  0.0000E+00  0.0000E+00  2.0358E-02
  8  5.2445E-02  2.5279E-02  4.7155E-02  9.0977E-04  2.7704E-02  0.0000E+00  2.7387E-02  2.1728E-02  6.2119E-02
  9  1.1425E-02  3.7583E-02  6.6087E-02  1.2212E-01  1.7445E-02  0.0000E+00  0.0000E+00  6.7841E-02  3.4049E-02
 10  3.4948E-02  4.5939E-02  9.7354E-03  1.7455E-02  5.7588E-02  7.2916E-02  0.0000E+00  1.5072E-01  5.8033E-02
 11  0.0000E+00  9.5901E-02  1.0641E-01  9.6042E-02  2.2082E-01  1.8804E-02  0.0000E+00  0.0000E+00  2.6416E-02
 12  0.0000E+00  1.3608E-01  0.0000E+00  4.3237E-02  1.5265E-02  0.0000E+00  1.4912E-01  1.3972E-01  0.0000E+00
 13  2.2782E-01  3.6976E-01  4.6025E-01  0.0000E+00  9.7542E-02  4.0486E-01  0.0000E+00  4.8587E-01  4.2262E-01
 14  2.6090E+00  6.8509E-01  1.0928E+00  4.5227E-01  2.1809E+00  2.2968E+00  0.0000E+00  0.0000E+00  0.0000E+00
 15  1.1349E-01  1.9527E+00  5.0253E-02  4.8546E-01  7.9820E+00  6.3371E-01  7.3374E-01  0.0000E+00  3.2836E+00
 16  1.0951E+01  3.2024E+00  6.9043E-01  8.4389E-01  1.2035E+01  0.0000E+00  3.4513E+00  2.9420E-01  5.1800E+00
 17  0.0000E+00  3.3486E+00  0.0000E+00  0.0000E+00  6.5828E+00  0.0000E+00  3.1381E+01  1.7583E+01  6.4098E-02
 18  0.0000E+00  1.1287E-02  1.7393E-02  1.9536E-02  0.0000E+00  1.4141E-02  6.1952E-03  1.6051E-03  0.0000E+00
 19  0.0000E+00  3.5572E-03  2.1087E-03  9.9687E-03  1.1332E-03  1.1211E-03  0.0000E+00  0.0000E+00  9.7682E-03
 20  0.0000E+00  4.7620E-03  4.1970E-03  2.8299E-04  9.7333E-04  0.0000E+00  3.9246E-02  3.0899E-03  2.4435E-04
 21  0.0000E+00  4.6197E-03  3.3510E-03  0.0000E+00  0.0000E+00  9.9571E-03  0.0000E+00  3.6036E-03  4.6376E-03
 22  5.2400E-02  1.1501E-02  0.0000E+00  0.0000E+00  1.7517E-02  1.2992E-02  7.5770E-03  1.8888E-02  2.3965E-02
 23  0.0000E+00  1.0730E-02  3.3930E-02  0.0000E+00  1.8419E-03  2.9107E-03  8.5688E-04  2.9336E-02  5.5712E-03
 24  0.0000E+00  1.9038E-02  0.0000E+00  1.9135E-03  0.0000E+00  0.0000E+00  0.0000E+00  2.5526E-02  5.4797E-03
 25  0.0000E+00  2.9234E-02  1.1237E-03  3.0083E-02  0.0000E+00  0.0000E+00  5.1926E-02  7.9697E-03  3.9169E-03
 26  0.0000E+00  5.7697E-02  4.5635E-02  5.6136E-02  1.9078E-01  7.6941E-02  6.6466E-02  5.1995E-02  3.4897E-03
 27  0.0000E+00  7.7172E-02  2.3779E-02  2.4097E-02  4.9950E-03  0.0000E+00  0.0000E+00  0.0000E+00  3.7223E-04
 28  1.3884E-01  3.5087E-01  9.2024E-02  0.0000E+00  2.0620E-01  0.0000E+00  2.1437E-01  1.9556E-01  0.0000E+00
 29  0.0000E+00  4.9246E-01  1.3145E-01  0.0000E+00  0.0000E+00  3.5125E-01  0.0000E+00  5.7287E-01  2.0881E-02
 30  0.0000E+00  1.0088E+00  4.3207E-01  2.7959E-02  4.6664E-03  1.1338E+00  0.0000E+00  6.1454E+00  3.5077E+00
 31  1.9004E+00  1.4257E+00  1.5243E+00  0.0000E+00  6.3145E-01  1.6326E+00  0.0000E+00  0.0000E+00  1.4779E+00
 32  0.0000E+00  2.1616E+00  0.0000E+00  5.6201E-01  1.3153E+01  1.5336E+00  8.7423E-01  1.0965E+01  0.0000E+00
 33  0.0000E+00  4.2822E+00  3.0958E+00  9.0689E+00  7.2326E-01  4.6605E-01  2.1048E+01  0.0000E+00  5.8719E+00
 34  7.4434E+01  6.1521E+00  3.5927E+01  1.5277E+01  1.2449E+01  4.6562E+00  3.1492E+00  1.4447E+01  1.3149E+01
 35  1.4313E-01  9.9719E-03  3.3664E-02  6.9521E-03  1.3241E-02  0.0000E+00  3.0109E-02  1.1486E-03  6.5060E-03
 36  0.0000E+00  4.7740E-03  6.6511E-04  1.5987E-03  1.3945E-02  2.2641E-03  1.6360E-02  0.0000E+00  3.7609E-03
 37  1.9989E-03  3.4164E-03  1.1580E-03  2.8476E-03  9.9482E-03  7.6576E-03  0.0000E+00  8.6571E-04  0.0000E+00
 38  2.3059E-01  7.9594E-03  0.0000E+00  3.5668E-02  9.6977E-03  1.2711E-02  1.9243E-03  1.1261E-02  3.2978E-02
 39  2.6596E-02  1.5534E-02  6.9529E-03  9.2143E-04  1.0389E-02  2.0321E-02  0.0000E+00  2.8111E-02  6.7006E-02
 40  0.0000E+00  2.0630E-02  1.3779E-03  4.8984E-04  2.4864E-01  1.3940E-02  4.2723E-03  2.0571E-01  0.0000E+00
 41  6.6735E-03  3.6886E-02  5.8778E-02  0.0000E+00  7.9958E-02  9.5246E-03  1.3901E-01  2.5659E-02  0.0000E+00
 42  6.6869E-03  7.4175E-02  0.0000E+00  1.8130E-02  1.3177E-01  2.1464E-01  8.3380E-02  0.0000E+00  3.8710E-02
 43  0.0000E+00  4.8347E-02  1.1421E-01  4.7423E-02  0.0000E+00  0.0000E+00  0.0000E+00  0.0000E+00  1.1267E-01
 44  4.9499E-02  1.7322E-01  1.3037E-02  0.0000E+00  5.2108E-01  6.8417E-01  0.0000E+00  2.8664E-02  0.0000E+00
 45  0.0000E+00  3.0893E-01  0.0000E+00  2.9462E-01  0.0000E+00  7.4224E-01  0.0000E+00  1.3256E-01  3.6691E-02
 46  0.0000E+00  5.3682E-01  5.0942E-01  0.0000E+00  2.3130E-02  5.1543E-01  9.1318E-01  3.5028E-01  7.6508E-02
 47  0.0000E+00  1.1790E+00  0.0000E+00  0.0000E+00  3.7179E-01  0.0000E+00  1.5723E+00  0.0000E+00  1.2480E+00
 48  0.0000E+00  2.4550E+00  9.8813E-01  6.9181E-01  1.6895E+00  0.0000E+00  5.5216E-01  4.8385E+00  8.3398E-01
 49  0.0000E+00  5.2206E+00  1.4708E+00  0.0000E+00  0.0000E+00  1.6563E+01  4.0630E+00  9.8761E-01  2.8474E+01
 50  0.0000E+00  1.0831E+01  3.8474E+01  1.9316E+01  2.4891E+00  9.9790E-01  0.0000E+00  9.7399E+00  2.4041E+00
 51  1.1471E-01  6.3910E-03  1.1678E-04  4.9020E-03  1.2394E-02  2.3436E-03  1.4686E-02  1.8364E-02  8.3711E-03
 52  1.2812E-04  1.8784E-03  2.6635E-03  3.9722E-04  1.3110E-02  0.0000E+00  2.4457E-04  0.0000E+00  2.0942E-03
 53  0.0000E+00  3.1446E-03  2.6342E-03  0.0000E+00  0.0000E+00  0.0000E+00  6.3789E-04  0.0000E+00  5.7269E-03
 54  1.0990E-02  8.0046E-03  8.1316E-02  3.4461E-03  6.5448E-03  1.1840E-02  1.1250E-02  7.2783E-04  0.0000E+00
 55  0.0000E+00  1.5528E-02  4.5371E-02  2.4832E-03  3.0100E-03  1.8751E-02  1.3613E-03  7.0065E-02  1.5971E-02
 56  1.6366E-02  2.4579E-02  0.0000E+00  8.1285E-02  1.7970E-02  4.6852E-02  9.0530E-04  4.6583E-02  2.3196E-02
 57  9.0865E-02  2.5580E-02  1.1146E-03  1.9166E-02  9.9590E-02  0.0000E+00  0.0000E+00  9.5780E-02  5.6740E-02
 58  0.0000E+00  4.6988E-02  5.1875E-02  1.2825E-01  1.7509E-01  1.5619E-01  0.0000E+00  8.7491E-02  1.0189E-01
 59  0.0000E+00  1.1202E-01  0.0000E+00  3.5930E-02  0.0000E+00  0.0000E+00  1.4211E-02  6.4860E-03  0.0000E+00
 60  0.0000E+00  2.0721E-01  2.1563E-02  0.0000E+00  0.0000E+00  3.4491E-01  0.0000E+00  1.2974E-01  3.9907E-01
 61  0.0000E+00  5.0185E-01  9.1200E-02  7.7536E-01  0.0000E+00  0.0000E+00  0.0000E+00  7.1176E-01  2.6219E-01
 62  0.0000E+00  7.0765E-01  7.6449E-01  4.4408E-01  0.0000E+00  1.7806E+00  3.0194E-01  0.0000E+00  2.4527E-01
 63  0.0000E+00  1.0779E+00  8.2933E-01  4.0466E-02  0.0000E+00  0.0000E+00  0.0000E+00  1.2886E+00  0.0000E+00
 64  8.7432E+00  4.5644E+00  0.0000E+00  0.0000E+00  1.5525E+00  1.0655E+01  1.0483E+01  2.0718E+01  8.4030E+00
 65  0.0000E+00  8.5094E+00  1.1353E+01  6.7798E+00  0.0000E+00  0.0000E+00  0.0000E+00  4.9385E+00  2.3853E+01
 66  0.0000E+00  3.7193E+01  1.2046E+00  4.4110E+01  3.5854E+01  5.3828E+01  2.0501E+01  4.2826E+00  0.0000E+00

# AV, chi2 & Mass for <> & i_chain = 1 ...  7 solutions
AV      -0.0873      0.0269      0.2267      0.2287      0.4642      0.1137      0.2205      0.5678      0.1581
chi2 2.1193E-05  3.2678E-05  3.1142E-05  3.1064E-05  2.9898E-05  3.0869E-05  3.0274E-05  3.1254E-05  3.1663E-05
Mass 5.0107E-14  5.6588E-14  8.3056E-14  1.1200E-13  8.1899E-14  7.2173E-14  7.1894E-14  9.1915E-14  6.7829E-14
-314.19                                  [v0_min (km/s) before EX0s...]
   0.08                                  [vd_min (km/s) before EX0s...]


## Synthetic spectrum (Best Model) ##l_obs f_obs f_syn wei
 3478    [Nl_obs]
 3741.00    1.32024   1.06453    0.000
 3742.00    1.55164   1.02950    0.000
 3743.00    1.75950   0.99272    0.000
 3744.00    1.37303   0.93207    0.000
 3745.00    0.64028   0.85852    0.026
 3746.00    0.41684   0.83125    0.026
 3747.00    0.45203   0.87952    0.026
 3748.00    1.41992   0.95872    0.027
 3749.00    2.79793   1.02028    0.027
 3750.00    1.46749   1.06070    0.027
 3751.00   -0.88549   1.09493    0.000
 3752.00   -1.12590   1.11490    0.000
 3753.00   -0.68927   1.10102    0.000
 3754.00   -1.13978   1.08307    0.000
 3755.00   -1.82803   1.07814    0.000
 3756.00   -1.43958   1.08965    0.000
 3757.00   -0.81481   1.11760    0.000
 3758.00   -0.58102   1.12861    0.000
 3759.00   -0.41548   1.12025    0.000
 3760.00    1.00664   1.11408    0.024
 3761.00    2.59568   1.10553    0.024
 3762.00    1.15462   1.07201    0.023
 3763.00   -0.57119   1.02391    0.000
 3764.00   -1.08647   0.98112    0.000
 3765.00   -1.53192   0.92602    0.000
 3766.00   -0.63338   0.86124    0.000
 3767.00    0.29310   0.85018    0.022
 3768.00    0.73990   0.91298    0.022
 3769.00    1.14097   0.98426    0.022
 3770.00    0.43093   1.03312    0.021
 3771.00   -0.23367   1.07575    0.000
 3772.00   -0.30267   1.11303    0.000
 3773.00   -0.27653   1.13701    0.000
 3774.00    0.58481   1.15163    0.021
 3775.00    1.30222   1.17103    0.022
 3776.00    1.08633   1.19439    0.022
 3777.00    0.89116   1.20617    0.022
 3778.00    0.80088   1.20748    0.022
 3779.00    0.58884   1.21046    0.022
 3780.00   -0.12154   1.21152    0.000
 3781.00   -0.72971   1.19759    0.000
 3782.00   -0.99116   1.17315    0.000
 3783.00   -1.02201   1.15643    0.000
 3784.00   -0.39331   1.14638    0.000
 3785.00    0.24578   1.13401    0.023
 3786.00    0.91029   1.11618    0.023
 3787.00    1.28976   1.09800    0.024
 3788.00    1.06849   1.08329    0.024
 3789.00    1.28111   1.05745    0.024
 3790.00    2.28851   1.01070    0.024
 3791.00    2.94839   0.95211    0.023
 3792.00    3.05198   0.88181    0.023
 3793.00    2.20933   0.80129    0.022
 3794.00    0.03759   0.76083    0.022
 3795.00   -0.46556   0.80784    0.000
 3796.00    1.09368   0.90469    0.022
 3797.00    1.71966   0.98913    0.022
 3798.00    1.32886   1.04728    0.021
 3799.00    0.58077   1.09319    0.021
 3800.00   -0.51068   1.12397    0.000
 3801.00   -0.72292   1.12958    0.000
 3802.00   -0.19014   1.11746    0.000
 3803.00   -0.17137   1.12034    0.000
 3804.00   -0.53616   1.14918    0.000
 3805.00   -0.22725   1.17707    0.000
 3806.00    0.52331   1.19041    0.020
 3807.00    1.46603   1.19214    0.021
 3808.00    2.51902   1.18251    0.021
 3809.00    2.36016   1.16305    0.021
 3810.00    1.59560   1.14708    0.020
 3811.00    1.19658   1.13632    0.021
 3812.00    0.95565   1.13128    0.021
 3813.00    1.26390   1.13256    0.021
 3814.00    1.77582   1.10321    0.021
 3815.00    0.87814   1.02909    0.021
 3816.00   -0.46266   0.99596    0.000
 3817.00   -0.79535   1.04649    0.000
 3818.00   -0.86358   1.10737    0.000
 3819.00    0.42669   1.12732    0.021
 3820.00    2.00804   1.11017    0.021
 3821.00    1.48459   1.08730    0.021
 3822.00    0.60395   1.07572    0.021
 3823.00    0.26433   1.06871    0.021
 3824.00   -0.00586   1.05704    0.000
 3825.00   -0.00410   1.04005    0.000
 3826.00    0.02207   1.01853    0.021
 3827.00   -0.54328   0.97952    0.000
 3828.00   -1.14042   0.91708    0.000
 3829.00   -0.72884   0.84465    0.000
 3830.00   -0.30340   0.76726    0.000
 3831.00   -0.41347   0.71495    0.000
 3832.00   -0.48973   0.73569    0.000
 3833.00    0.18518   0.80297    0.021
 3834.00    0.77055   0.86520    0.021
 3835.00    0.24242   0.92169    0.020
 3836.00   -0.05349   0.97103    0.000
 3837.00    1.61335   1.01466    0.020
 3838.00    3.02579   1.05855    0.021
 3839.00    2.83775   1.09166    0.020
 3840.00    2.51356   1.11009    0.020
 3841.00    1.51754   1.11971    0.020
 3842.00    0.86692   1.12629    0.020
 3843.00    1.59897   1.13634    0.020
 3844.00    2.11524   1.14079    0.021
 3845.00    1.91412   1.13204    0.021
 3846.00    1.78015   1.12182    0.021
 3847.00    1.83475   1.13016    0.000
 3848.00    1.68874   1.14731    0.000
 3849.00    1.06090   1.14908    0.000
 3850.00    0.78153   1.13996    0.000
 3851.00    1.22487   1.12685    0.000
 3852.00    1.32650   1.11404    0.000
 3853.00    0.81180   1.11656    0.000
 3854.00    0.49622   1.11732    0.000
 3855.00    0.49466   1.10404    0.000
 3856.00    0.80517   1.09754    0.000
 3857.00    1.54771   1.11247    0.000
 3858.00    1.66791   1.13374    0.000
 3859.00    1.02982   1.14129    0.000
 3860.00    0.48769   1.13612    0.000
 3861.00    0.04862   1.13034    0.000
 3862.00   -0.10718   1.12453    0.000
 3863.00    0.00540   1.11286    0.000
 3864.00    0.02577   1.11321    0.000
 3865.00   -0.03089   1.12446    0.000
 3866.00    0.21479   1.11511    0.000
 3867.00    0.68285   1.08584    0.000
 3868.00    0.66398   1.06651    0.000
 3869.00    0.33058   1.08141    0.000
 3870.00    0.34815   1.10877    0.000
 3871.00    0.56406   1.11350    0.000
 3872.00    0.41012   1.09757    0.000
 3873.00    0.07426   1.07991    0.000
 3874.00    0.34953   1.06544    0.000
 3875.00    0.88467   1.06402    0.000
 3876.00    0.75568   1.06699    0.000
 3877.00    0.38477   1.04869    0.000
 3878.00    0.01786   1.01853    0.000
 3879.00   -0.34781   1.00447    0.000
 3880.00    0.34345   0.99324    0.000
 3881.00    1.30605   0.94647    0.018
 3882.00    0.99120   0.87302    0.018
 3883.00    0.40927   0.79939    0.018
 3884.00   -0.22266   0.72488    0.000
 3885.00   -0.86283   0.69106    0.000
 3886.00   -0.65976   0.74812    0.000
 3887.00   -0.35226   0.84919    0.000
 3888.00   -0.27262   0.93050    0.000
 3889.00   -0.21247   0.98157    0.000
 3890.00    0.30241   1.01134    0.019
 3891.00    0.83996   1.03005    0.020
 3892.00    1.11906   1.05360    0.020
 3893.00    1.38754   1.07789    0.020
 3894.00    1.24332   1.08171    0.020
 3895.00    1.08982   1.07736    0.020
 3896.00    0.74631   1.08835    0.020
 3897.00    0.45029   1.10951    0.019
 3898.00    0.71582   1.11644    0.019
 3899.00    0.95914   1.11333    0.019
 3900.00    1.02153   1.11451    0.018
 3901.00    1.02759   1.10762    0.017
 3902.00    0.68971   1.10272    0.017
 3903.00    0.39869   1.11758    0.016
 3904.00    0.33327   1.13838    0.016
 3905.00    0.22107   1.15026    0.016
 3906.00   -0.07432   1.15078    0.000
 3907.00   -0.21490   1.14728    0.000
 3908.00    0.14912   1.14646    0.017
 3909.00    0.68300   1.14714    0.017
 3910.00    1.68528   1.14711    0.017
 3911.00    2.11495   1.14638    0.018
 3912.00    1.19245   1.14107    0.018
 3913.00    0.60655   1.13220    0.018
 3914.00    0.70763   1.11323    0.018
 3915.00    0.95245   1.08412    0.018
 3916.00    1.45255   1.06256    0.018
 3917.00    1.46275   1.06242    0.018
 3918.00    0.71171   1.07454    0.018
 3919.00    0.39488   1.07766    0.018
 3920.00    0.67051   1.07514    0.018
 3921.00    0.97251   1.06758    0.018
 3922.00    1.30617   1.04964    0.018
 3923.00    1.28991   1.03811    0.018
 3924.00    0.90303   1.03386    0.018
 3925.00    0.61049   1.02837    0.018
 3926.00    0.40606   1.02061    0.019
 3927.00    0.37792   1.00635    0.019
 3928.00    0.49496   0.98418    0.019
 3929.00    0.56100   0.95910    0.019
 3930.00    0.59007   0.95165    0.019
 3931.00    0.18723   0.97068    0.019
 3932.00   -0.49047   0.99997    0.000
 3933.00    0.36004   1.02575    0.019
 3934.00    2.06106   1.04539    0.020
 3935.00    1.99644   1.06231    0.019
 3936.00    1.07711   1.07486    0.019
 3937.00    1.30827   1.07784    0.019
 3938.00    2.02042   1.07608    0.020
 3939.00    1.92812   1.06883    0.020
 3940.00    1.54807   1.06064    0.019
 3941.00    0.80579   1.07181    0.019
 3942.00   -0.04598   1.09506    0.000
 3943.00    0.26758   1.09963    0.019
 3944.00    0.87382   1.09248    0.019
 3945.00    0.44001   1.09835    0.019
 3946.00   -0.20589   1.11216    0.000
 3947.00    0.52247   1.11438    0.019
 3948.00    1.47088   1.10059    0.019
 3949.00    0.74569   1.09169    0.019
 3950.00   -0.17933   1.09501    0.000
 3951.00    0.65376   1.09309    0.018
 3952.00    1.63001   1.08067    0.018
 3953.00    1.79768   1.07290    0.019
 3954.00    1.92820   1.07418    0.019
 3955.00    0.43796   1.06983    0.018
 3956.00   -1.01762   1.04005    0.000
 3957.00    0.41607   0.98944    0.018
 3958.00    1.76614   0.95492    0.019
 3959.00    1.53245   0.93715    0.018
 3960.00    1.24491   0.90292    0.000
 3961.00    0.35060   0.86069    0.000
 3962.00   -0.31975   0.81812    0.000
 3963.00    0.77030   0.75696    0.000
 3964.00    1.55980   0.67811    0.000
 3965.00    0.56595   0.60707    0.000
 3966.00   -0.24079   0.59027    0.000
 3967.00   -0.16895   0.65067    0.000
 3968.00    0.08980   0.74193    0.000
 3969.00    1.06480   0.81806    0.000
 3970.00    1.75928   0.88184    0.000
 3971.00    1.55709   0.93635    0.000
 3972.00    1.52801   0.97438    0.000
 3973.00    1.96775   1.00348    0.000
 3974.00    2.15938   1.03135    0.000
 3975.00    1.77490   1.05567    0.000
 3976.00    1.52324   1.07194    0.000
 3977.00    1.53838   1.07405    0.000
 3978.00    1.20362   1.06629    0.000
 3979.00    0.25684   1.06697    0.000
 3980.00   -0.09115   1.08174    0.000
 3981.00    0.47757   1.09715    0.019
 3982.00    0.94187   1.10429    0.019
 3983.00    1.26574   1.11139    0.019
 3984.00    1.35307   1.12091    0.019
 3985.00    1.16027   1.11956    0.019
 3986.00    1.14189   1.11478    0.018
 3987.00    1.30566   1.12066    0.018
 3988.00    1.52946   1.12949    0.018
 3989.00    1.80857   1.12939    0.018
 3990.00    1.93090   1.11661    0.018
 3991.00    1.92596   1.10567    0.018
 3992.00    1.97616   1.10351    0.018
 3993.00    2.06578   1.10053    0.018
 3994.00    2.21575   1.10199    0.018
 3995.00    2.40357   1.11832    0.017
 3996.00    2.25465   1.13306    0.017
 3997.00    1.92120   1.13497    0.017
 3998.00    1.31752   1.13466    0.017
 3999.00    0.58511   1.13057    0.017
 4000.00    0.36914   1.10972    0.017
 4001.00    0.36544   1.08286    0.016
 4002.00    0.69598   1.07920    0.016
 4003.00    1.14393   1.09133    0.016
 4004.00    0.79022   1.09036    0.016
 4005.00    0.19899   1.08265    0.016
 4006.00    0.71395   1.09278    0.017
 4007.00    1.50065   1.11205    0.017
 4008.00    1.77897   1.12230    0.016
 4009.00    1.95621   1.12716    0.016
 4010.00    1.35690   1.13077    0.016
 4011.00    0.63693   1.13575    0.016
 4012.00    0.45043   1.13513    0.016
 4013.00    0.32527   1.12650    0.017
 4014.00    0.26964   1.12625    0.017
 4015.00    0.21940   1.13433    0.017
 4016.00    0.98758   1.13231    0.017
 4017.00    1.79023   1.12055    0.017
 4018.00    1.33822   1.10758    0.017
 4019.00    0.89468   1.08483    0.017
 4020.00    1.32452   1.03920    0.017
 4021.00    1.71355   0.98682    0.017
 4022.00    1.38341   0.97463    0.017
 4023.00    1.03889   1.02469    0.017
 4024.00    0.53971   1.08452    0.017
 4025.00    0.04408   1.10239    0.017
 4026.00   -0.42454   1.08651    0.000
 4027.00   -0.72978   1.07078    0.000
 4028.00   -0.09268   1.06768    0.000
 4029.00    0.44938   1.06807    0.018
 4030.00    0.55585   1.07396    0.017
 4031.00    0.62836   1.09054    0.017
 4032.00    0.57347   1.11773    0.017
 4033.00    0.62301   1.14075    0.017
 4034.00    1.00000   1.14654    0.017
 4035.00    1.23962   1.13733    0.017
 4036.00    1.11381   1.12148    0.017
 4037.00    0.90272   1.11424    0.017
 4038.00    0.49694   1.11761    0.017
 4039.00    0.42816   1.10667    0.017
 4040.00    1.02561   1.07187    0.017
 4041.00    1.37764   1.03988    0.017
 4042.00    1.30690   1.04344    0.017
 4043.00    1.25336   1.07855    0.017
 4044.00    1.22575   1.10698    0.017
 4045.00    1.30743   1.11817    0.016
 4046.00    1.53398   1.12496    0.017
 4047.00    1.56616   1.12552    0.017
 4048.00    1.37141   1.11596    0.017
 4049.00    1.26076   1.10334    0.017
 4050.00    1.23669   1.09181    0.017
 4051.00    0.82535   1.08580    0.016
 4052.00    0.06231   1.08567    0.016
 4053.00   -0.09156   1.08201    0.000
 4054.00    0.24212   1.07935    0.016
 4055.00    0.74773   1.08651    0.016
 4056.00    1.37442   1.09540    0.016
 4057.00    1.55614   1.09249    0.015
 4058.00    1.46302   1.06879    0.015
 4059.00    1.44765   1.04109    0.015
 4060.00    1.47424   1.04328    0.015
 4061.00    1.46121   1.06750    0.015
 4062.00    1.42961   1.07342    0.015
 4063.00    1.51801   1.05956    0.015
 4064.00    1.65488   1.05092    0.015
 4065.00    1.64765   1.04835    0.015
 4066.00    1.59074   1.03808    0.016
 4067.00    1.55660   1.02493    0.015
 4068.00    1.52907   1.03291    0.015
 4069.00    1.24534   1.06172    0.015
 4070.00    0.90008   1.07028    0.015
 4071.00    0.44055   1.04517    0.015
 4072.00   -0.04113   1.01905    0.000
 4073.00    0.57117   1.01335    0.016
 4074.00    1.34831   1.02659    0.015
 4075.00    1.24950   1.05165    0.015
 4076.00    1.05380   1.07798    0.015
 4077.00    0.46612   1.09145    0.016
 4078.00   -0.15027   1.08514    0.000
 4079.00    0.09863   1.06688    0.016
 4080.00    0.38065   1.05225    0.016
 4081.00    0.41393   1.05099    0.015
 4082.00    0.46045   1.06045    0.015
 4083.00    1.05779   1.06701    0.016
 4084.00    1.58950   1.05906    0.016
 4085.00    1.03990   1.05163    0.016
 4086.00    0.59530   1.05655    0.016
 4087.00    1.23130   1.05528    0.016
 4088.00    1.81831   1.04188    0.016
 4089.00    2.04579   1.03247    0.016
 4090.00    2.07192   1.01744    0.016
 4091.00    0.96844   0.97805    0.016
 4092.00    0.13795   0.92880    0.000
 4093.00    0.52906   0.89126    0.000
 4094.00    0.80647   0.86235    0.000
 4095.00    0.66631   0.81341    0.000
 4096.00    0.46980   0.73069    0.000
 4097.00    0.09999   0.65835    0.000
 4098.00   -0.07160   0.66366    0.000
 4099.00    0.27491   0.74032    0.000
 4100.00    0.56118   0.82603    0.000
 4101.00    0.71219   0.89371    0.000
 4102.00    0.85876   0.94263    0.000
 4103.00    0.99666   0.97119    0.000
 4104.00    1.07382   0.98518    0.000
 4105.00    1.04793   0.99103    0.000
 4106.00    0.94985   0.99418    0.000
 4107.00    0.74446   1.00180    0.000
 4108.00    0.78094   1.01658    0.000
 4109.00    1.13345   1.03354    0.000
 4110.00    1.11414   1.04035    0.000
 4111.00    0.66684   1.03530    0.000
 4112.00    0.38458   1.03434    0.000
 4113.00    0.26984   1.03716    0.014
 4114.00    0.38715   1.02440    0.014
 4115.00    0.71222   1.00497    0.014
 4116.00    0.94414   0.99803    0.014
 4117.00    1.10257   1.00591    0.014
 4118.00    1.26108   1.02498    0.014
 4119.00    1.41964   1.04524    0.014
 4120.00    1.19736   1.06070    0.014
 4121.00    0.74334   1.06793    0.014
 4122.00    0.61222   1.05976    0.021
 4123.00    0.65263   1.04250    0.088
 4124.00    0.68601   1.03175   -1.000
 4125.00    0.71615   1.03085   -1.000
 4126.00    0.68827   1.02568   -1.000
 4127.00    0.63735   1.01210   -1.000
 4128.00    0.49886   1.00206   -1.000
 4129.00    0.33072   1.00661   -1.000
 4130.00    0.31895   1.02315    0.035
 4131.00    0.35165   1.04506    0.016
 4132.00    0.69021   1.05869    0.014
 4133.00    1.10056   1.05984    0.015
 4134.00    0.76344   1.06184    0.015
 4135.00    0.28523   1.06460    0.015
 4136.00    0.87360   1.05891    0.015
 4137.00    1.61771   1.03381    0.015
 4138.00    1.54695   0.98212    0.015
 4139.00    1.38960   0.93575    0.015
 4140.00    0.68952   0.94394    0.014
 4141.00   -0.04810   0.99320    0.000
 4142.00    0.26005   1.03041    0.015
 4143.00    0.60427   1.04321    0.015
 4144.00    0.75649   1.04116    0.015
 4145.00    0.90064   1.03048    0.015
 4146.00    0.79110   1.02521    0.015
 4147.00    0.69877   1.02677    0.015
 4148.00    0.87250   1.02248    0.015
 4149.00    0.99706   1.01531    0.015
 4150.00    0.63698   1.01503    0.015
 4151.00    0.40259   1.01770    0.015
 4152.00    1.06054   1.01899    0.015
 4153.00    1.55509   1.02720    0.015
 4154.00    1.15757   1.04183    0.015
 4155.00    0.93705   1.05059    0.015
 4156.00    1.49015   1.04989    0.015
 4157.00    1.86475   1.04747    0.015
 4158.00    1.59731   1.04880    0.014
 4159.00    1.26027   1.04783    0.014
 4160.00    0.71324   1.04221    0.014
 4161.00    0.38627   1.03785    0.014
 4162.00    0.62441   1.03138    0.014
 4163.00    0.76041   1.02056    0.014
 4164.00    0.67076   1.01688    0.014
 4165.00    0.32383   1.02401    0.014
 4166.00   -0.51595   1.02629    0.000
 4167.00   -0.76237   1.00989    0.000
 4168.00   -0.01709   0.98681    0.000
 4169.00    0.55344   0.98137    0.014
 4170.00    0.86799   0.99283    0.014
 4171.00    1.08152   1.00424    0.014
 4172.00    1.16491   1.00656    0.014
 4173.00    1.05659   1.00334    0.014
 4174.00    0.73071   1.00562    0.014
 4175.00    0.57720   1.01650    0.014
 4176.00    0.59620   1.02245    0.014
 4177.00    0.73289   1.01644    0.014
 4178.00    0.97347   1.01107    0.013
 4179.00    0.97416   1.01498    0.013
 4180.00    0.78829   1.02103    0.013
 4181.00    0.50363   1.01856    0.013
 4182.00    0.15142   1.00197    0.013
 4183.00    0.32341   0.98845    0.013
 4184.00    0.80961   0.99464    0.013
 4185.00    1.26864   1.00533    0.013
 4186.00    1.71345   1.00791    0.014
 4187.00    1.57353   1.01127    0.013
 4188.00    1.16837   1.02407    0.013
 4189.00    0.76781   1.03501    0.013
 4190.00    0.36904   1.02555    0.013
 4191.00    0.14074   1.00296    0.013
 4192.00   -0.03093   0.98490    0.000
 4193.00   -0.08346   0.96949    0.000
 4194.00   -0.10278   0.95133    0.000
 4195.00    0.22915   0.94207    0.013
 4196.00    0.64166   0.94682    0.013
 4197.00    1.06349   0.95595    0.013
 4198.00    1.48703   0.96890    0.013
 4199.00    1.27104   0.98554    0.014
 4200.00    0.96463   0.99679    0.014
 4201.00    1.03966   1.00431    0.013
 4202.00    1.15359   1.01499    0.013
 4203.00    0.63230   1.02498    0.013
 4204.00    0.06962   1.02783    0.013
 4205.00    0.17738   1.02124    0.013
 4206.00    0.30564   1.01439    0.013
 4207.00    0.36752   1.01443    0.014
 4208.00    0.43015   1.01595    0.014
 4209.00    0.51475   1.01122    0.014
 4210.00    0.61645   0.99481    0.014
 4211.00    0.96703   0.97736    0.014
 4212.00    1.29937   0.98339    0.014
 4213.00    1.45925   1.00801    0.014
 4214.00    1.56827   1.02505    0.014
 4215.00    1.32760   1.03108    0.014
 4216.00    1.11026   1.03317    0.014
 4217.00    1.01685   1.02593    0.013
 4218.00    0.90030   1.00662    0.013
 4219.00    0.68492   0.98335    0.013
 4220.00    0.56809   0.95607    0.013
 4221.00    0.79852   0.92056    0.013
 4222.00    0.86920   0.89340    0.013
 4223.00    0.46683   0.90530    0.013
 4224.00    0.20808   0.95061    0.013
 4225.00    0.31173   0.98903    0.013
 4226.00    0.56804   1.00663    0.013
 4227.00    1.15605   1.00816    0.013
 4228.00    1.34725   0.99465    0.013
 4229.00    0.79013   0.98321    0.013
 4230.00    0.54031   0.98248    0.013
 4231.00    0.79641   0.97599    0.013
 4232.00    0.79282   0.96719    0.012
 4233.00    0.41436   0.97154    0.012
 4234.00    0.18235   0.97988    0.012
 4235.00    0.13624   0.98426    0.012
 4236.00    0.25875   0.99081    0.012
 4237.00    0.56991   0.99664    0.012
 4238.00    0.82476   0.99892    0.012
 4239.00    1.02403   1.00894    0.012
 4240.00    1.02261   1.02290    0.012
 4241.00    0.84655   1.02006    0.012
 4242.00    0.67240   1.00036    0.012
 4243.00    0.49972   0.98240    0.012
 4244.00    0.40124   0.97348    0.012
 4245.00    0.35277   0.96459    0.013
 4246.00    0.70480   0.95886    0.013
 4247.00    1.29328   0.96812    0.013
 4248.00    1.29163   0.97472    0.013
 4249.00    0.98613   0.96101    0.013
 4250.00    0.76660   0.94884    0.013
 4251.00    0.58543   0.96078    0.013
 4252.00    0.73756   0.98546    0.013
 4253.00    1.01748   0.99422    0.013
 4254.00    0.89851   0.97782    0.013
 4255.00    0.64955   0.95356    0.013
 4256.00    0.51112   0.94134    0.013
 4257.00    0.40287   0.95372    0.012
 4258.00    0.61075   0.98238    0.012
 4259.00    0.88948   1.00378    0.012
 4260.00    0.61673   1.01033    0.012
 4261.00    0.24536   1.00295    0.012
 4262.00    0.21486   0.97923    0.013
 4263.00    0.23100   0.95923    0.013
 4264.00    0.38311   0.96058    0.013
 4265.00    0.54851   0.95947    0.012
 4266.00    0.59385   0.93584    0.012
 4267.00    0.63184   0.91121    0.012
 4268.00    0.60610   0.91072    0.012
 4269.00    0.57910   0.91970    0.012
 4270.00    0.64206   0.91949    0.012
 4271.00    0.70066   0.92615    0.012
 4272.00    0.64407   0.94986    0.012
 4273.00    0.58835   0.97570    0.012
 4274.00    0.54462   0.98631    0.012
 4275.00    0.53756   0.97524    0.012
 4276.00    0.86366   0.95947    0.012
 4277.00    1.14369   0.95534    0.013
 4278.00    1.11681   0.95766    0.013
 4279.00    1.05412   0.95934    0.013
 4280.00    0.80599   0.95371    0.013
 4281.00    0.62356   0.94478    0.013
 4282.00    0.71543   0.94539   -2.000
 4283.00    0.83259   0.94604   -2.000
 4284.00    1.03710   0.92862   -2.000
 4285.00    1.15542   0.90422   -2.000
 4286.00    1.02320   0.90068   -2.000
 4287.00    0.88627   0.92325   -2.000
 4288.00    0.73764   0.94912   -2.000
 4289.00    0.73419   0.95281   -2.000
 4290.00    1.04111   0.94163   -2.000
 4291.00    1.20319   0.93790   -2.000
 4292.00    1.09636   0.93593   -2.000
 4293.00    1.03020   0.92291   -2.000
 4294.00    1.02999   0.89771   -2.000
 4295.00    0.79083   0.87368   -2.000
 4296.00    0.21173   0.87002   -2.000
 4297.00    0.21728   0.87718   -2.000
 4298.00    0.95457   0.87631    0.013
 4299.00    1.24727   0.87602    0.013
 4300.00    1.04958   0.88270    0.013
 4301.00    1.05619   0.88500    0.013
 4302.00    1.26160   0.87508    0.013
 4303.00    1.35001   0.85675    0.013
 4304.00    1.33804   0.84710    0.013
 4305.00    1.12981   0.85703    0.013
 4306.00    0.77328   0.87678    0.013
 4307.00    0.81408   0.89389    0.013
 4308.00    1.11874   0.90479    0.013
 4309.00    1.13181   0.91214    0.013
 4310.00    0.97531   0.92770    0.012
 4311.00    0.72643   0.96013    0.012
 4312.00    0.43073   0.99095    0.012
 4313.00    0.71113   1.00001    0.012
 4314.00    1.24433   0.99343    0.012
 4315.00    1.11703   0.98361    0.012
 4316.00    0.74091   0.97532    0.013
 4317.00    0.55847   0.96841    0.012
 4318.00    0.43795   0.95153    0.012
 4319.00    0.12426   0.91665    0.012
 4320.00   -0.24104   0.87595    0.000
 4321.00   -0.15751   0.85507    0.000
 4322.00    0.02424   0.87495    0.012
 4323.00    0.62763   0.92007    0.012
 4324.00    1.30437   0.95169    0.012
 4325.00    0.71563   0.95316    0.012
 4326.00   -0.04049   0.93996    0.000
 4327.00    0.12154   0.93126    0.012
 4328.00    0.36937   0.92629    0.012
 4329.00    0.58079   0.92040    0.012
 4330.00    0.79014   0.91405    0.000
 4331.00    0.92700   0.89234    0.000
 4332.00    1.05927   0.83541    0.000
 4333.00    0.85673   0.75727    0.000
 4334.00    0.65047   0.68133    0.000
 4335.00    0.35470   0.61419    0.000
 4336.00    0.11883   0.59356    0.000
 4337.00    0.66282   0.65128    0.000
 4338.00    1.12152   0.73703    0.000
 4339.00    0.83513   0.79463    0.000
 4340.00    0.57014   0.83232    0.000
 4341.00    0.44332   0.86343    0.000
 4342.00    0.36153   0.88242    0.000
 4343.00    0.50685   0.89884    0.000
 4344.00    0.70814   0.92132    0.000
 4345.00    1.13786   0.92906    0.000
 4346.00    1.39043   0.90327    0.000
 4347.00    1.04367   0.87202    0.000
 4348.00    0.76997   0.87612    0.000
 4349.00    0.70478   0.90550    0.000
 4350.00    0.58968   0.92819    0.000
 4351.00    0.35292   0.94311    0.012
 4352.00    0.32490   0.95744    0.012
 4353.00    0.73592   0.95933    0.012
 4354.00    0.99130   0.94552    0.012
 4355.00    0.96214   0.93884    0.012
 4356.00    0.98513   0.95111    0.012
 4357.00    1.09142   0.96658    0.012
 4358.00    1.22055   0.97223    0.015
 4359.00    1.38172   0.97606    0.042
 4360.00    1.33415   0.98494   -1.000
 4361.00    1.02905   0.98223   -1.000
 4362.00    0.95287   0.95994   -1.000
 4363.00    1.12565   0.94084   -1.000
 4364.00    0.98106   0.94103   -1.000
 4365.00    0.53200   0.94812   -1.000
 4366.00    0.44233   0.95048    0.042
 4367.00    0.65664   0.94988    0.015
 4368.00    0.82409   0.94272    0.012
 4369.00    0.95664   0.92378    0.012
 4370.00    0.89793   0.90552    0.011
 4371.00    0.71406   0.90845    0.011
 4372.00    0.59846   0.93310    0.011
 4373.00    0.52196   0.95618    0.012
 4374.00    0.57515   0.95996    0.012
 4375.00    0.69304   0.95268    0.012
 4376.00    0.75131   0.94571    0.012
 4377.00    0.78386   0.92416    0.012
 4378.00    0.70951   0.87538    0.012
 4379.00    0.59562   0.83194    0.011
 4380.00    0.74310   0.83392    0.011
 4381.00    0.97256   0.86833    0.012
 4382.00    0.75242   0.88555    0.012
 4383.00    0.41467   0.87757    0.011
 4384.00    0.35639   0.87870    0.011
 4385.00    0.35782   0.89348    0.011
 4386.00    0.63496   0.90825    0.011
 4387.00    0.95873   0.92602    0.011
 4388.00    1.03392   0.93994    0.011
 4389.00    1.07736   0.93501    0.012
 4390.00    0.73111   0.92057    0.011
 4391.00    0.35008   0.92505    0.011
 4392.00    0.44213   0.95092    0.011
 4393.00    0.55937   0.96751    0.011
 4394.00    0.68538   0.95837    0.012
 4395.00    0.80875   0.93487    0.012
 4396.00    0.70408   0.92286    0.012
 4397.00    0.61993   0.93628    0.011
 4398.00    0.98661   0.94297    0.012
 4399.00    1.29907   0.91255    0.012
 4400.00    0.94151   0.87912    0.012
 4401.00    0.57672   0.88333    0.012
 4402.00    0.15106   0.90313    0.012
 4403.00   -0.19837   0.90749    0.000
 4404.00   -0.06995   0.91177    0.000
 4405.00    0.07248   0.93259    0.012
 4406.00    0.28386   0.95390    0.012
 4407.00    0.53495   0.96649    0.012
 4408.00    0.94454   0.96896    0.012
 4409.00    1.14366   0.94407    0.012
 4410.00    0.64480   0.90206    0.012
 4411.00    0.37421   0.88445    0.011
 4412.00    0.74318   0.89806    0.012
 4413.00    0.96932   0.92357    0.012
 4414.00    0.85313   0.95018    0.012
 4415.00    0.83403   0.96562    0.012
 4416.00    1.01585   0.96113    0.012
 4417.00    1.13031   0.94257    0.012
 4418.00    1.12346   0.93042    0.012
 4419.00    1.00195   0.93523    0.012
 4420.00    0.69992   0.94204    0.012
 4421.00    0.48346   0.93883    0.012
 4422.00    0.38523   0.93275    0.012
 4423.00    0.55044   0.93581    0.012
 4424.00    1.03608   0.94058    0.012
 4425.00    1.23314   0.93177    0.012
 4426.00    1.12078   0.92554    0.012
 4427.00    0.95035   0.93454    0.012
 4428.00    0.72500   0.93637    0.012
 4429.00    0.55555   0.91810    0.012
 4430.00    0.43270   0.89549    0.012
 4431.00    0.46150   0.89129    0.012
 4432.00    0.60163   0.90998    0.012
 4433.00    0.67557   0.93859    0.012
 4434.00    0.70682   0.96143    0.012
 4435.00    0.98071   0.96312    0.012
 4436.00    1.39145   0.94165    0.012
 4437.00    1.29148   0.91396    0.012
 4438.00    0.94079   0.89899    0.012
 4439.00    1.12252   0.90723    0.012
 4440.00    1.53016   0.93431    0.012
 4441.00    1.39685   0.95422    0.012
 4442.00    1.06694   0.95158    0.012
 4443.00    1.05497   0.94702    0.012
 4444.00    1.14078   0.94979    0.012
 4445.00    1.31916   0.94608    0.012
 4446.00    1.52124   0.94092    0.012
 4447.00    1.27212   0.94140    0.012
 4448.00    0.92897   0.93661    0.012
 4449.00    0.85056   0.91780    0.012
 4450.00    0.81566   0.89443    0.012
 4451.00    0.59152   0.88832    0.012
 4452.00    0.34405   0.89854    0.012
 4453.00    0.15789   0.90448    0.012
 4454.00   -0.02305   0.90112    0.000
 4455.00    0.23236   0.89725    0.012
 4456.00    0.50931   0.89057    0.012
 4457.00    0.38631   0.88548    0.012
 4458.00    0.26573   0.90043    0.011
 4459.00    0.69635   0.92231    0.011
 4460.00    1.10309   0.92737    0.011
 4461.00    1.02622   0.92166    0.000
 4462.00    0.96606   0.91705    0.000
 4463.00    1.10229   0.90975    0.000
 4464.00    1.18338   0.89379    0.000
 4465.00    0.81725   0.86907    0.000
 4466.00    0.50569   0.84125    0.000
 4467.00    0.52613   0.84212    0.000
 4468.00    0.56878   0.88675    0.000
 4469.00    0.71794   0.93262    0.000
 4470.00    0.88574   0.94794    0.000
 4471.00    1.12632   0.95154    0.000
 4472.00    1.29829   0.96290    0.000
 4473.00    1.24723   0.97042    0.000
 4474.00    1.18729   0.95496    0.000
 4475.00    1.10292   0.91697    0.000
 4476.00    1.05288   0.88171    0.000
 4477.00    1.08376   0.87716    0.000
 4478.00    1.06145   0.90532    0.000
 4479.00    0.93081   0.93902    0.000
 4480.00    0.78695   0.96014    0.000
 4481.00    0.61965   0.96913    0.000
 4482.00    0.60174   0.96510    0.011
 4483.00    0.81552   0.94566    0.011
 4484.00    0.86522   0.92062    0.011
 4485.00    0.69144   0.90958    0.011
 4486.00    0.75884   0.92038    0.011
 4487.00    1.11544   0.93951    0.011
 4488.00    1.07529   0.94494    0.011
 4489.00    0.61569   0.92863    0.011
 4490.00    0.45633   0.90966    0.011
 4491.00    0.57697   0.90520    0.011
 4492.00    0.73748   0.91587    0.011
 4493.00    0.93077   0.93483    0.011
 4494.00    0.94392   0.95007    0.011
 4495.00    0.82671   0.95048    0.011
 4496.00    0.84183   0.93723    0.011
 4497.00    0.94099   0.93468    0.011
 4498.00    1.01919   0.95667    0.011
 4499.00    1.08575   0.97911    0.011
 4500.00    0.81609   0.98303    0.011
 4501.00    0.38401   0.97351    0.011
 4502.00    0.34918   0.96092    0.011
 4503.00    0.48009   0.95396    0.011
 4504.00    0.71138   0.95577    0.011
 4505.00    0.97851   0.96072    0.011
 4506.00    1.03395   0.95935    0.011
 4507.00    1.02558   0.94877    0.011
 4508.00    1.13763   0.93601    0.011
 4509.00    1.27984   0.92495    0.011
 4510.00    1.16863   0.92093    0.011
 4511.00    1.00590   0.92803    0.011
 4512.00    0.87048   0.93091    0.011
 4513.00    0.73941   0.92507    0.011
 4514.00    0.76277   0.92822    0.011
 4515.00    0.80450   0.94190    0.010
 4516.00    0.81754   0.95275    0.010
 4517.00    0.82827   0.94386    0.011
 4518.00    0.72514   0.92385    0.011
 4519.00    0.61684   0.91632    0.011
 4520.00    0.82254   0.91357    0.011
 4521.00    1.02265   0.90230    0.011
 4522.00    0.74087   0.88570    0.011
 4523.00    0.48054   0.86940    0.011
 4524.00    0.62254   0.86121    0.010
 4525.00    0.76153   0.86715    0.010
 4526.00    0.86673   0.88117    0.010
 4527.00    0.91906   0.89714    0.010
 4528.00    0.55764   0.89706    0.010
 4529.00    0.24966   0.87783    0.010
 4530.00    0.25769   0.86229    0.010
 4531.00    0.31449   0.87409    0.010
 4532.00    0.59952   0.91113    0.010
 4533.00    0.82223   0.93600    0.010
 4534.00    0.80670   0.92972    0.010
 4535.00    0.75992   0.90343    0.010
 4536.00    0.61347   0.87801    0.010
 4537.00    0.55738   0.87843    0.010
 4538.00    0.74550   0.89961    0.010
 4539.00    0.87563   0.90814    0.010
 4540.00    0.87139   0.90236    0.010
 4541.00    0.76903   0.90463    0.010
 4542.00    0.46999   0.91246    0.010
 4543.00    0.29204   0.90883    0.010
 4544.00    0.32550   0.89225    0.010
 4545.00    0.49864   0.88864    0.010
 4546.00    0.88522   0.90209    0.010
 4547.00    1.01996   0.90107    0.010
 4548.00    0.81663   0.88822    0.010
 4549.00    0.64799   0.88072    0.010
 4550.00    0.52036   0.88050    0.000
 4551.00    0.57972   0.89334    0.000
 4552.00    0.83399   0.91722    0.000
 4553.00    0.96991   0.93422    0.000
 4554.00    0.99702   0.93876    0.000
 4555.00    0.87054   0.93727    0.000
 4556.00    0.61957   0.93741    0.000
 4557.00    0.62764   0.93708    0.000
 4558.00    0.82042   0.92374    0.000
 4559.00    0.79620   0.90385    0.000
 4560.00    0.63617   0.89479    0.000
 4561.00    0.54248   0.90255    0.000
 4562.00    0.48508   0.91933    0.000
 4563.00    0.67520   0.92944    0.000
 4564.00    0.98298   0.93193    0.000
 4565.00    1.04092   0.92679    0.000
 4566.00    0.99640   0.90652    0.000
 4567.00    0.96242   0.89668    0.000
 4568.00    0.93213   0.91568    0.000
 4569.00    0.82788   0.92958    0.000
 4570.00    0.70176   0.92530    0.000
 4571.00    0.65543   0.92465    0.000
 4572.00    0.62865   0.92822    0.000
 4573.00    0.50004   0.92335    0.000
 4574.00    0.35125   0.90663    0.000
 4575.00    0.53655   0.88820    0.000
 4576.00    0.77358   0.88350    0.000
 4577.00    0.82487   0.89287    0.000
 4578.00    0.85491   0.89924    0.000
 4579.00    0.83691   0.89761    0.000
 4580.00    0.81522   0.89504    0.000
 4581.00    0.85755   0.89309    0.000
 4582.00    0.90255   0.89999    0.000
 4583.00    0.94328   0.91557    0.000
 4584.00    0.97900   0.92619    0.000
 4585.00    0.80108   0.92054    0.000
 4586.00    0.63198   0.90331    0.000
 4587.00    0.61680   0.89116    0.000
 4588.00    0.62090   0.89162    0.000
 4589.00    0.83123   0.89352    0.000
 4590.00    1.01469   0.88876    0.000
 4591.00    0.99506   0.88646    0.000
 4592.00    0.95754   0.89109    0.000
 4593.00    0.81715   0.89946    0.000
 4594.00    0.71938   0.90538    0.000
 4595.00    0.81635   0.89790    0.000
 4596.00    0.90967   0.88650    0.000
 4597.00    0.98929   0.88769    0.000
 4598.00    0.98605   0.89425    0.000
 4599.00    0.72368   0.89821    0.000
 4600.00    0.53083   0.89595    0.000
 4601.00    0.52250   0.89388    0.000
 4602.00    0.57025   0.90155    0.000
 4603.00    0.74578   0.91944    0.000
 4604.00    0.83157   0.93310    0.000
 4605.00    0.74032   0.93000    0.000
 4606.00    0.74531   0.92002    0.000
 4607.00    0.91582   0.91356    0.000
 4608.00    1.02765   0.90753    0.000
 4609.00    1.05116   0.90945    0.000
 4610.00    1.05262   0.91908    0.000
 4611.00    1.02489   0.92005    0.000
 4612.00    1.00133   0.91999    0.000
 4613.00    0.98262   0.91605    0.000
 4614.00    0.92675   0.90245    0.000
 4615.00    0.83268   0.90149    0.000
 4616.00    0.82042   0.91544    0.000
 4617.00    0.88232   0.92105    0.000
 4618.00    0.78424   0.92080    0.000
 4619.00    0.55835   0.92177    0.000
 4620.00    0.38306   0.91686    0.000
 4621.00    0.24333   0.91026    0.000
 4622.00    0.38032   0.91194    0.000
 4623.00    0.68792   0.91203    0.000
 4624.00    0.68181   0.90097    0.000
 4625.00    0.50675   0.89489    0.000
 4626.00    0.41311   0.90394    0.000
 4627.00    0.35756   0.90925    0.000
 4628.00    0.44041   0.89973    0.000
 4629.00    0.57905   0.89227    0.000
 4630.00    0.63768   0.89357    0.000
 4631.00    0.66879   0.89572    0.000
 4632.00    0.84390   0.88883    0.000
 4633.00    1.06071   0.87638    0.000
 4634.00    1.04351   0.86758    0.000
 4635.00    0.97026   0.86591    0.000
 4636.00    0.73508   0.87549    0.000
 4637.00    0.46863   0.88768    0.000
 4638.00    0.53789   0.89218    0.000
 4639.00    0.65753   0.89082    0.000
 4640.00    0.57611   0.87983    0.000
 4641.00    0.47256   0.85096    0.000
 4642.00    0.59944   0.82546    0.000
 4643.00    0.74308   0.82539    0.000
 4644.00    0.77136   0.83867    0.000
 4645.00    0.79528   0.84847    0.000
 4646.00    0.67705   0.85800    0.000
 4647.00    0.56475   0.87405    0.000
 4648.00    0.69848   0.88517    0.000
 4649.00    0.83345   0.87361    0.000
 4650.00    0.98850   0.85977    0.000
 4651.00    1.11690   0.86055    0.000
 4652.00    0.97258   0.87294    0.000
 4653.00    0.83538   0.89673    0.000
 4654.00    0.75023   0.91930    0.000
 4655.00    0.69773   0.92590    0.000
 4656.00    0.82778   0.91253    0.000
 4657.00    0.90934   0.89147    0.000
 4658.00    0.77452   0.87780    0.000
 4659.00    0.66639   0.87531    0.000
 4660.00    0.65601   0.87317    0.000
 4661.00    0.71682   0.85393    0.000
 4662.00    0.99603   0.82443    0.000
 4663.00    1.17515   0.81502    0.000
 4664.00    1.09326   0.83283    0.000
 4665.00    1.03607   0.86041    0.000
 4666.00    1.03423   0.88218    0.000
 4667.00    1.01887   0.88621    0.000
 4668.00    0.97729   0.87533    0.000
 4669.00    0.83044   0.86772    0.000
 4670.00    0.50531   0.87145    0.000
 4671.00    0.33216   0.88391    0.000
 4672.00    0.38449   0.89006    0.000
 4673.00    0.50774   0.88265    0.000
 4674.00    0.72347   0.87027    0.000
 4675.00    0.90304   0.86068    0.000
 4676.00    1.04105   0.85373    0.000
 4677.00    1.01395   0.85311    0.000
 4678.00    0.81956   0.86207    0.000
 4679.00    0.70815   0.86046    0.000
 4680.00    0.67091   0.84003    0.000
 4681.00    0.68556   0.83056    0.000
 4682.00    0.74108   0.84257    0.000
 4683.00    0.83712   0.85840    0.000
 4684.00    0.96124   0.86895    0.000
 4685.00    0.96296   0.87032    0.000
 4686.00    0.89036   0.86413    0.000
 4687.00    0.66556   0.86585    0.000
 4688.00    0.36005   0.87375    0.000
 4689.00    0.40998   0.88059    0.000
 4690.00    0.62348   0.88934    0.000
 4691.00    0.64786   0.89557    0.000
 4692.00    0.59732   0.88744    0.000
 4693.00    0.61700   0.86168    0.000
 4694.00    0.66038   0.84350    0.000
 4695.00    0.64072   0.84879    0.000
 4696.00    0.60317   0.85566    0.000
 4697.00    0.46840   0.84814    0.000
 4698.00    0.31088   0.83937    0.000
 4699.00    0.61720   0.84512    0.000
 4700.00    1.01079   0.85675    0.000
 4701.00    1.07992   0.85785    0.000
 4702.00    1.10186   0.84974    0.000
 4703.00    0.93176   0.84157    0.000
 4704.00    0.74136   0.83794    0.000
 4705.00    0.90269   0.84648    0.000
 4706.00    1.08817   0.86568    0.000
 4707.00    1.06923   0.86275    0.000
 4708.00    1.04335   0.84090    0.000
 4709.00    0.88457   0.83009    0.000
 4710.00    0.73134   0.84105    0.000
 4711.00    0.76522   0.86022    0.000
 4712.00    0.80132   0.87636    0.000
 4713.00    0.87168   0.88365    0.000
 4714.00    0.93421   0.89005    0.000
 4715.00    0.91997   0.89460    0.000
 4716.00    0.91030   0.89241    0.000
 4717.00    0.93296   0.88327    0.000
 4718.00    0.93064   0.87954    0.000
 4719.00    0.79246   0.88831    0.000
 4720.00    0.67233   0.89669    0.000
 4721.00    0.63091   0.88806    0.000
 4722.00    0.62304   0.85961    0.000
 4723.00    0.73557   0.83562    0.000
 4724.00    0.83017   0.83302    0.000
 4725.00    0.87076   0.83876    0.000
 4726.00    0.87078   0.84338    0.000
 4727.00    0.76682   0.85202    0.000
 4728.00    0.81380   0.86003    0.000
 4729.00    1.19346   0.86437    0.000
 4730.00    1.42428   0.86922    0.000
 4731.00    1.37050   0.86058    0.000
 4732.00    1.20589   0.85148    0.000
 4733.00    0.85641   0.86383    0.000
 4734.00    0.66709   0.87450    0.000
 4735.00    0.71196   0.86696    0.000
 4736.00    0.76483   0.85761    0.000
 4737.00    0.82801   0.85972    0.000
 4738.00    0.81917   0.86952    0.000
 4739.00    0.72874   0.87223    0.000
 4740.00    0.72352   0.86759    0.000
 4741.00    0.80343   0.87215    0.000
 4742.00    0.82018   0.87985    0.000
 4743.00    0.78128   0.87796    0.000
 4744.00    0.74798   0.87542    0.000
 4745.00    0.71904   0.87740    0.000
 4746.00    0.62813   0.87558    0.000
 4747.00    0.49493   0.86705    0.000
 4748.00    0.48052   0.85975    0.000
 4749.00    0.53717   0.85477    0.000
 4750.00    0.66151   0.85353    0.000
 4751.00    0.82117   0.85295    0.000
 4752.00    0.89494   0.85304    0.000
 4753.00    0.92983   0.85425    0.000
 4754.00    0.95223   0.85899    0.000
 4755.00    0.96975   0.86435    0.000
 4756.00    0.99769   0.85586    0.000
 4757.00    1.02907   0.83660    0.000
 4758.00    1.17948   0.82692    0.000
 4759.00    1.36298   0.82553    0.000
 4760.00    1.24086   0.82032    0.000
 4761.00    1.04882   0.81686    0.009
 4762.00    0.90747   0.82507    0.009
 4763.00    0.77541   0.83787    0.009
 4764.00    0.69165   0.85135    0.009
 4765.00    0.61468   0.85850    0.009
 4766.00    0.76187   0.84863    0.009
 4767.00    0.93179   0.83702    0.009
 4768.00    0.87142   0.84197    0.009
 4769.00    0.79617   0.85812    0.009
 4770.00    0.79757   0.86524    0.009
 4771.00    0.80165   0.86056    0.009
 4772.00    0.98971   0.86093    0.009
 4773.00    1.16913   0.86165    0.009
 4774.00    1.09836   0.85378    0.009
 4775.00    1.01950   0.84791    0.009
 4776.00    0.82357   0.84828    0.009
 4777.00    0.65179   0.84259    0.009
 4778.00    0.70715   0.83084    0.009
 4779.00    0.74895   0.83222    0.009
 4780.00    0.69787   0.83839    0.009
 4781.00    0.67843   0.82901    0.009
 4782.00    0.82663   0.82496    0.009
 4783.00    0.91841   0.83121    0.009
 4784.00    0.76988   0.82880    0.009
 4785.00    0.68099   0.82992    0.009
 4786.00    0.80168   0.83685    0.009
 4787.00    0.86417   0.84228    0.009
 4788.00    0.75472   0.85355    0.009
 4789.00    0.73757   0.86890    0.009
 4790.00    0.95281   0.87530    0.009
 4791.00    1.07467   0.86926    0.009
 4792.00    0.99399   0.85795    0.009
 4793.00    0.92260   0.84406    0.009
 4794.00    0.86867   0.83195    0.009
 4795.00    0.84148   0.83145    0.009
 4796.00    0.85821   0.84437    0.009
 4797.00    0.86063   0.85857    0.009
 4798.00    0.84244   0.86202    0.009
 4799.00    0.78456   0.85222    0.009
 4800.00    0.67638   0.83884    0.009
 4801.00    0.71880   0.83532    0.009
 4802.00    0.92941   0.83331    0.009
 4803.00    0.99233   0.82949    0.009
 4804.00    0.90978   0.83378    0.009
 4805.00    0.81852   0.84061    0.009
 4806.00    0.71970   0.84230    0.009
 4807.00    0.77516   0.84017    0.009
 4808.00    0.94870   0.83886    0.009
 4809.00    0.93808   0.84028    0.009
 4810.00    0.80359   0.84283    0.009
 4811.00    0.73788   0.84746    0.009
 4812.00    0.71272   0.85410    0.009
 4813.00    0.77734   0.85684    0.009
 4814.00    0.88810   0.85595    0.009
 4815.00    1.13384   0.85336    0.009
 4816.00    1.43968   0.85195    0.009
 4817.00    1.30566   0.84321    0.009
 4818.00    1.00336   0.82032    0.009
 4819.00    0.88515   0.81096    0.009
 4820.00    0.82680   0.82667    0.009
 4821.00    0.91796   0.84175    0.009
 4822.00    1.04984   0.84026    0.009
 4823.00    1.00305   0.82863    0.009
 4824.00    0.91633   0.82360    0.009
 4825.00    0.87025   0.82856    0.009
 4826.00    0.83141   0.82418    0.009
 4827.00    0.89367   0.81305    0.009
 4828.00    0.96970   0.81904    0.009
 4829.00    0.97879   0.83313    0.009
 4830.00    0.98137   0.83593    0.009
 4831.00    0.97328   0.83198    0.009
 4832.00    0.96455   0.83206    0.009
 4833.00    0.80650   0.82745    0.009
 4834.00    0.64701   0.81416    0.009
 4835.00    0.93817   0.80637    0.009
 4836.00    1.21890   0.81131    0.009
 4837.00    1.22727   0.81430    0.009
 4838.00    1.21937   0.80709    0.009
 4839.00    0.98929   0.80922    0.009
 4840.00    0.78423   0.82294    0.009
 4841.00    0.80529   0.82800    0.009
 4842.00    0.83830   0.81713    0.009
 4843.00    0.95063   0.79834    0.009
 4844.00    1.01373   0.79249    0.009
 4845.00    0.82277   0.80173    0.009
 4846.00    0.69699   0.80278    0.009
 4847.00    0.84255   0.79572    0.009
 4848.00    0.92817   0.78821    0.000
 4849.00    0.80743   0.76600    0.000
 4850.00    0.72356   0.73413    0.000
 4851.00    0.74659   0.72148    0.000
 4852.00    0.74693   0.72179    0.000
 4853.00    0.69116   0.69922    0.000
 4854.00    0.69731   0.64436    0.000
 4855.00    0.83558   0.56804    0.000
 4856.00    0.90447   0.51375    0.000
 4857.00    0.84482   0.53884    0.000
 4858.00    0.80151   0.61560    0.000
 4859.00    0.78466   0.67040    0.000
 4860.00    0.81203   0.70354    0.000
 4861.00    0.90218   0.72928    0.000
 4862.00    0.93153   0.74492    0.000
 4863.00    0.88491   0.75583    0.000
 4864.00    0.81926   0.76677    0.000
 4865.00    0.73264   0.75879    0.000
 4866.00    0.75114   0.73555    0.000
 4867.00    0.87174   0.73488    0.000
 4868.00    0.96375   0.76048    0.000
 4869.00    1.03126   0.77860    0.000
 4870.00    1.07416   0.78137    0.000
 4871.00    1.09848   0.78699    0.000
 4872.00    1.06251   0.79559    0.000
 4873.00    0.98657   0.80250    0.000
 4874.00    1.02378   0.81617    0.000
 4875.00    1.12666   0.81853    0.009
 4876.00    1.05191   0.80053    0.009
 4877.00    0.88730   0.79311    0.009
 4878.00    0.82922   0.80124    0.008
 4879.00    0.81780   0.79974    0.008
 4880.00    0.75956   0.78569    0.009
 4881.00    0.68374   0.77788    0.009
 4882.00    0.81479   0.78375    0.009
 4883.00    1.01182   0.79080    0.009
 4884.00    0.95903   0.78659    0.009
 4885.00    0.83965   0.76790    0.009
 4886.00    1.00915   0.75352    0.009
 4887.00    1.24168   0.77454    0.009
 4888.00    1.23782   0.81127    0.009
 4889.00    1.19299   0.83477    0.009
 4890.00    1.03084   0.84764    0.009
 4891.00    0.85324   0.85095    0.009
 4892.00    0.75513   0.84919    0.009
 4893.00    0.66441   0.84312    0.009
 4894.00    0.89603   0.82602    0.009
 4895.00    1.14592   0.81251    0.009
 4896.00    1.07680   0.81680    0.009
 4897.00    1.00137   0.81835    0.009
 4898.00    1.03158   0.80855    0.009
 4899.00    1.05805   0.80865    0.009
 4900.00    0.99579   0.82492    0.009
 4901.00    0.93006   0.83734    0.009
 4902.00    0.81933   0.83232    0.009
 4903.00    0.72988   0.81791    0.009
 4904.00    0.82545   0.80137    0.009
 4905.00    0.92098   0.78871    0.009
 4906.00    1.01632   0.79202    0.009
 4907.00    1.09456   0.80534    0.009
 4908.00    1.08682   0.81421    0.009
 4909.00    1.08329   0.82069    0.009
 4910.00    1.09696   0.83049    0.009
 4911.00    1.07306   0.83177    0.009
 4912.00    0.92243   0.81337    0.009
 4913.00    0.84886   0.77836    0.009
 4914.00    0.99471   0.74185    0.009
 4915.00    1.01922   0.71812    0.009
 4916.00    0.74856   0.71584    0.009
 4917.00    0.61583   0.73944    0.009
 4918.00    0.77264   0.76202    0.009
 4919.00    0.91873   0.76918    0.009
 4920.00    1.04523   0.77828    0.009
 4921.00    1.06161   0.80268    0.009
 4922.00    0.90238   0.82004    0.009
 4923.00    0.83486   0.82774    0.009
 4924.00    0.89569   0.83589    0.009
 4925.00    0.95263   0.83778    0.009
 4926.00    1.00478   0.83417    0.009
 4927.00    1.08129   0.82013    0.009
 4928.00    1.18423   0.79311    0.009
 4929.00    1.08270   0.78293    0.009
 4930.00    0.78536   0.79966    0.009
 4931.00    0.75766   0.80743    0.009
 4932.00    0.95761   0.78974    0.008
 4933.00    0.95598   0.76576    0.008
 4934.00    0.80446   0.76163    0.008
 4935.00    0.65764   0.78346    0.008
 4936.00    0.51390   0.80702    0.008
 4937.00    0.61902   0.81359    0.008
 4938.00    0.86640   0.81918    0.008
 4939.00    0.76924   0.82475    0.008
 4940.00    0.50057   0.81939    0.000
 4941.00    0.54878   0.81372    0.000
 4942.00    0.73344   0.82032    0.000
 4943.00    0.88591   0.82828    0.000
 4944.00    1.02649   0.83088    0.000
 4945.00    1.07754   0.83299    0.000
 4946.00    1.10059   0.83466    0.000
 4947.00    0.95204   0.82878    0.000
 4948.00    0.75872   0.81943    0.000
 4949.00    0.73836   0.81352    0.000
 4950.00    0.75483   0.80378    0.000
 4951.00    0.74025   0.77504    0.000
 4952.00    0.72045   0.73601    0.000
 4953.00    0.71196   0.73579    0.000
 4954.00    0.70491   0.77628    0.000
 4955.00    0.75258   0.80613    0.000
 4956.00    0.80509   0.80963    0.000
 4957.00    0.69844   0.80632    0.000
 4958.00    0.58339   0.80659    0.000
 4959.00    0.69187   0.79925    0.000
 4960.00    0.80415   0.78282    0.000
 4961.00    0.87836   0.77450    0.000
 4962.00    0.95292   0.77616    0.000
 4963.00    1.03514   0.77862    0.000
 4964.00    1.11475   0.78218    0.000
 4965.00    1.16238   0.78617    0.000
 4966.00    1.20704   0.79300    0.000
 4967.00    1.22681   0.80189    0.000
 4968.00    1.20649   0.80751    0.000
 4969.00    0.93582   0.81123    0.000
 4970.00    0.73270   0.80982    0.000
 4971.00    0.86079   0.80377    0.000
 4972.00    0.94568   0.79518    0.000
 4973.00    0.85864   0.78312    0.000
 4974.00    0.77369   0.77656    0.000
 4975.00    0.69569   0.77272    0.000
 4976.00    0.66825   0.75593    0.000
 4977.00    0.78215   0.73179    0.000
 4978.00    0.87727   0.72420    0.000
 4979.00    0.92746   0.73630    0.000
 4980.00    0.92588   0.75175    0.000
 4981.00    0.81737   0.76755    0.000
 4982.00    0.78958   0.78371    0.000
 4983.00    0.90682   0.78838    0.000
 4984.00    0.97738   0.78133    0.000
 4985.00    0.97461   0.77198    0.000
 4986.00    0.93792   0.76968    0.000
 4987.00    0.85445   0.77745    0.000
 4988.00    0.83625   0.77846    0.000
 4989.00    0.89729   0.77528    0.000
 4990.00    0.90123   0.78202    0.000
 4991.00    0.84405   0.78744    0.000
 4992.00    0.79173   0.78505    0.000
 4993.00    0.74397   0.77641    0.000
 4994.00    0.78142   0.75896    0.000
 4995.00    0.88980   0.74394    0.000
 4996.00    0.84296   0.74125    0.000
 4997.00    0.68238   0.74683    0.000
 4998.00    0.67533   0.75391    0.000
 4999.00    0.76707   0.74950    0.000
 5000.00    0.78609   0.73299    0.000
 5001.00    0.76418   0.72290    0.000
 5002.00    0.80223   0.73648    0.000
 5003.00    0.86965   0.76040    0.000
 5004.00    0.94402   0.77009    0.000
 5005.00    1.02133   0.76476    0.000
 5006.00    0.92643   0.75189    0.000
 5007.00    0.76909   0.73290    0.000
 5008.00    0.72235   0.71543    0.000
 5009.00    0.70954   0.70393    0.000
 5010.00    0.77330   0.70436    0.000
 5011.00    0.85661   0.71811    0.000
 5012.00    0.80630   0.72779    0.000
 5013.00    0.72823   0.73218    0.000
 5014.00    0.59582   0.74164    0.000
 5015.00    0.45451   0.75126    0.000
 5016.00    0.54297   0.74783    0.000
 5017.00    0.65963   0.73985    0.000
 5018.00    0.72343   0.74598    0.000
 5019.00    0.78276   0.75880    0.000
 5020.00    0.75961   0.76230    0.000
 5021.00    0.73244   0.75654    0.000
 5022.00    0.84001   0.74637    0.000
 5023.00    0.94664   0.74841    0.000
 5024.00    0.86815   0.76256    0.000
 5025.00    0.79421   0.77048    0.000
 5026.00    0.81170   0.77531    0.000
 5027.00    0.82556   0.78473    0.000
 5028.00    0.79702   0.79103    0.000
 5029.00    0.77945   0.78036    0.008
 5030.00    0.85043   0.75438    0.008
 5031.00    0.93497   0.73957    0.008
 5032.00    1.10170   0.74574    0.008
 5033.00    1.20813   0.74453    0.008
 5034.00    1.02618   0.72234    0.008
 5035.00    0.89417   0.69218    0.008
 5036.00    0.95669   0.68239    0.008
 5037.00    0.99087   0.71080    0.008
 5038.00    0.93312   0.74892    0.008
 5039.00    0.88384   0.76976    0.008
 5040.00    0.85787   0.78300    0.008
 5041.00    0.85305   0.78622    0.008
 5042.00    0.89796   0.76981    0.008
 5043.00    0.90769   0.74583    0.008
 5044.00    0.84592   0.73434    0.008
 5045.00    0.83598   0.73563    0.008
 5046.00    0.91777   0.73888    0.008
 5047.00    0.95772   0.74673    0.008
 5048.00    0.93290   0.76081    0.008
 5049.00    0.86904   0.77079    0.008
 5050.00    0.75211   0.77024    0.008
 5051.00    0.74458   0.76802    0.008
 5052.00    0.86801   0.77204    0.008
 5053.00    0.93181   0.77838    0.008
 5054.00    0.93269   0.77906    0.008
 5055.00    0.88372   0.78193    0.008
 5056.00    0.78834   0.78757    0.008
 5057.00    0.83697   0.78519    0.008
 5058.00    1.00378   0.76702    0.008
 5059.00    1.07188   0.74015    0.008
 5060.00    1.06870   0.72980    0.008
 5061.00    1.12238   0.74038    0.008
 5062.00    1.21214   0.74573    0.008
 5063.00    1.13941   0.74286    0.008
 5064.00    0.97660   0.74812    0.008
 5065.00    0.84544   0.75635    0.008
 5066.00    0.72954   0.75039    0.008
 5067.00    0.76378   0.74063    0.008
 5068.00    0.86052   0.74535    0.008
 5069.00    0.87978   0.75239    0.008
 5070.00    0.87144   0.74941    0.008
 5071.00    0.92673   0.74789    0.008
 5072.00    1.00115   0.74995    0.008
 5073.00    0.78290   0.73609    0.008
 5074.00    0.49156   0.70755    0.008
 5075.00    0.46516   0.69787    0.008
 5076.00    0.49245   0.71118    0.008
 5077.00    0.55841   0.72192    0.008
 5078.00    0.63052   0.72470    0.008
 5079.00    0.82503   0.73321    0.008
 5080.00    1.03403   0.74495    0.008
 5081.00    1.02013   0.74901    0.008
 5082.00    0.98830   0.74773    0.008
 5083.00    0.89752   0.74950    0.008
 5084.00    0.80408   0.75327    0.008
 5085.00    0.86631   0.75369    0.008
 5086.00    0.92728   0.75520    0.008
 5087.00    0.83359   0.76254    0.008
 5088.00    0.74379   0.76913    0.008
 5089.00    0.72660   0.76554    0.008
 5090.00    0.71525   0.75391    0.008
 5091.00    0.76903   0.74153    0.008
 5092.00    0.80606   0.72855    0.008
 5093.00    0.71252   0.71375    0.008
 5094.00    0.65784   0.70882    0.008
 5095.00    0.83205   0.72348    0.008
 5096.00    0.96197   0.74142    0.008
 5097.00    0.88525   0.74651    0.008
 5098.00    0.86364   0.74176    0.008
 5099.00    1.05207   0.73607    0.008
 5100.00    1.09530   0.73247    0.008
 5101.00    0.67665   0.72587    0.008
 5102.00    0.39394   0.71785    0.008
 5103.00    0.47770   0.71724    0.008
 5104.00    0.57322   0.71841    0.008
 5105.00    0.69592   0.71876    0.008
 5106.00    0.77044   0.72774    0.008
 5107.00    0.74857   0.73700    0.008
 5108.00    0.77292   0.73998    0.008
 5109.00    0.87781   0.74408    0.008
 5110.00    0.92013   0.74896    0.008
 5111.00    0.86701   0.75493    0.008
 5112.00    0.84147   0.76157    0.008
 5113.00    0.85286   0.76144    0.008
 5114.00    0.81973   0.75375    0.008
 5115.00    0.73403   0.74322    0.008
 5116.00    0.79072   0.73190    0.008
 5117.00    0.99556   0.71788    0.008
 5118.00    1.03206   0.70258    0.008
 5119.00    0.91406   0.69820    0.008
 5120.00    0.86848   0.70486    0.008
 5121.00    0.88148   0.70816    0.008
 5122.00    0.85350   0.70580    0.008
 5123.00    0.79634   0.70384    0.008
 5124.00    0.72257   0.70483    0.008
 5125.00    0.63842   0.71145    0.008
 5126.00    0.64640   0.72159    0.008
 5127.00    0.70467   0.72639    0.008
 5128.00    0.66884   0.72812    0.008
 5129.00    0.58837   0.73580    0.008
 5130.00    0.57867   0.74258    0.008
 5131.00    0.59795   0.73500    0.008
 5132.00    0.70514   0.72067    0.008
 5133.00    0.84307   0.70864    0.008
 5134.00    0.83935   0.70549    0.008
 5135.00    0.79388   0.71606    0.008
 5136.00    0.85032   0.71702    0.008
 5137.00    0.93165   0.70287    0.008
 5138.00    0.91635   0.70246    0.008
 5139.00    0.88197   0.71199    0.008
 5140.00    0.86991   0.71006    0.008
 5141.00    0.86130   0.70296    0.008
 5142.00    0.72079   0.70250    0.008
 5143.00    0.56525   0.70921    0.008
 5144.00    0.54376   0.71454    0.008
 5145.00    0.53250   0.70817    0.008
 5146.00    0.53450   0.69800    0.008
 5147.00    0.53705   0.69376    0.008
 5148.00    0.60697   0.69416    0.008
 5149.00    0.67713   0.69945    0.008
 5150.00    0.73372   0.71205    0.008
 5151.00    0.78345   0.72812    0.008
 5152.00    0.71441   0.74072    0.008
 5153.00    0.65809   0.74422    0.008
 5154.00    0.73704   0.74223    0.008
 5155.00    0.79591   0.74251    0.008
 5156.00    0.70363   0.73801    0.008
 5157.00    0.62251   0.72817    0.008
 5158.00    0.60525   0.72139    0.008
 5159.00    0.59988   0.70719    0.008
 5160.00    0.64870   0.67308    0.008
 5161.00    0.66220   0.62912    0.008
 5162.00    0.54388   0.60051    0.008
 5163.00    0.48004   0.60779    0.008
 5164.00    0.58613   0.63920    0.008
 5165.00    0.68378   0.65291    0.008
 5166.00    0.75905   0.62516    0.008
 5167.00    0.82474   0.59271    0.008
 5168.00    0.86866   0.60691    0.008
 5169.00    0.88576   0.65601    0.008
 5170.00    0.85006   0.69204    0.008
 5171.00    0.79430   0.70387    0.008
 5172.00    0.70408   0.70854    0.008
 5173.00    0.65762   0.71034    0.008
 5174.00    0.67690   0.70544    0.008
 5175.00    0.68554   0.69365    0.008
 5176.00    0.68014   0.66828    0.008
 5177.00    0.78751   0.62396    0.008
 5178.00    1.02610   0.58917    0.008
 5179.00    1.02378   0.60527    0.008
 5180.00    0.77432   0.65807    0.008
 5181.00    0.67032   0.69878    0.008
 5182.00    0.69795   0.71078    0.008
 5183.00    0.70150   0.71191    0.008
 5184.00    0.68585   0.71842    0.008
 5185.00    0.75336   0.71418    0.008
 5186.00    0.87921   0.68719    0.008
 5187.00    0.85909   0.66860    0.008
 5188.00    0.74915   0.67745    0.008
 5189.00    0.72753   0.68977    0.008
 5190.00    0.75338   0.69389    0.000
 5191.00    0.80605   0.70195    0.000
 5192.00    0.87124   0.71256    0.000
 5193.00    0.90518   0.72059    0.000
 5194.00    0.92655   0.72564    0.000
 5195.00    0.89736   0.72471    0.000
 5196.00    0.85083   0.71910    0.000
 5197.00    0.98335   0.71251    0.000
 5198.00    1.16760   0.69929    0.000
 5199.00    0.97738   0.67451    0.000
 5200.00    0.69771   0.65512    0.000
 5201.00    0.68309   0.65330    0.000
 5202.00    0.71948   0.65309    0.000
 5203.00    0.70911   0.64904    0.000
 5204.00    0.69175   0.65707    0.000
 5205.00    0.74401   0.67737    0.000
 5206.00    0.80390   0.70121    0.000
 5207.00    0.73772   0.72263    0.000
 5208.00    0.66243   0.73270    0.000
 5209.00    0.67472   0.72534    0.000
 5210.00    0.69027   0.70915    0.000
 5211.00    0.72292   0.70290    0.008
 5212.00    0.75501   0.71239    0.008
 5213.00    0.76389   0.72712    0.008
 5214.00    0.77333   0.73675    0.008
 5215.00    0.79189   0.74187    0.008
 5216.00    0.81107   0.74374    0.008
 5217.00    0.83645   0.73660    0.008
 5218.00    0.86737   0.71845    0.008
 5219.00    0.93860   0.69362    0.008
 5220.00    0.98860   0.66691    0.008
 5221.00    0.92035   0.64901    0.008
 5222.00    0.86268   0.66017    0.008
 5223.00    0.85210   0.69528    0.008
 5224.00    0.83783   0.72229    0.008
 5225.00    0.81005   0.73257    0.008
 5226.00    0.83115   0.72947    0.008
 5227.00    1.00188   0.71182    0.008
 5228.00    1.08915   0.69705    0.008
 5229.00    0.95928   0.69968    0.008
 5230.00    0.88907   0.71512    0.008
 5231.00    0.95228   0.73311    0.008
 5232.00    0.99019   0.74287    0.008
 5233.00    0.97902   0.74211    0.008
 5234.00    0.93137   0.73828    0.008
 5235.00    0.82206   0.73812    0.008
 5236.00    0.78101   0.73891    0.008
 5237.00    0.84108   0.73730    0.008
 5238.00    0.83308   0.74024    0.008
 5239.00    0.73648   0.74686    0.008
 5240.00    0.72573   0.73812    0.008
 5241.00    0.81343   0.71222    0.008
 5242.00    0.83324   0.69769    0.008
 5243.00    0.78438   0.70187    0.008
 5244.00    0.66858   0.70037    0.008
 5245.00    0.49308   0.69320    0.008
 5246.00    0.50569   0.69861    0.008
 5247.00    0.66619   0.71075    0.008
 5248.00    0.80253   0.71306    0.008
 5249.00    0.92215   0.70506    0.008
 5250.00    0.93606   0.70658    0.008
 5251.00    0.88587   0.72618    0.008
 5252.00    0.83380   0.74585    0.008
 5253.00    0.78072   0.75174    0.008
 5254.00    0.84079   0.74460    0.008
 5255.00    0.95283   0.72798    0.008
 5256.00    1.00035   0.70478    0.008
 5257.00    1.02237   0.67985    0.008
 5258.00    0.89062   0.65954    0.008
 5259.00    0.70707   0.64557    0.008
 5260.00    0.76500   0.64055    0.008
 5261.00    0.89127   0.65412    0.008
 5262.00    0.74823   0.66978    0.008
 5263.00    0.54231   0.65131    0.008
 5264.00    0.62171   0.61958    0.008
 5265.00    0.75460   0.62866    0.008
 5266.00    0.79882   0.66857    0.008
 5267.00    0.83020   0.69355    0.008
 5268.00    0.69850   0.69758    0.008
 5269.00    0.54965   0.69340    0.008
 5270.00    0.73900   0.69217    0.008
 5271.00    0.95140   0.70903    0.008
 5272.00    0.85794   0.73452    0.008
 5273.00    0.75423   0.74506    0.008
 5274.00    0.90760   0.73722    0.008
 5275.00    1.06297   0.72190    0.008
 5276.00    1.27336   0.70773    0.009
 5277.00    1.46121   0.69623    0.009
 5278.00    1.30598   0.69195    0.009
 5279.00    1.17060   0.70687    0.009
 5280.00    1.22891   0.73495    0.008
 5281.00    1.25387   0.75227    0.008
 5282.00    1.04398   0.75127    0.008
 5283.00    0.85280   0.74555    0.008
 5284.00    0.76306   0.74664    0.008
 5285.00    0.70644   0.75075    0.008
 5286.00    0.79379   0.74913    0.008
 5287.00    0.85335   0.74223    0.008
 5288.00    0.81348   0.73857    0.008
 5289.00    0.78941   0.73648    0.008
 5290.00    0.81283   0.72263    0.008
 5291.00    0.81620   0.69478    0.008
 5292.00    0.76830   0.67296    0.008
 5293.00    0.75853   0.67838    0.008
 5294.00    0.83264   0.69916    0.008
 5295.00    0.89861   0.70792    0.008
 5296.00    0.94906   0.70686    0.008
 5297.00    0.92458   0.71452    0.008
 5298.00    0.77534   0.73239    0.008
 5299.00    0.68133   0.74708    0.008
 5300.00    0.66792   0.74823    0.008
 5301.00    0.65181   0.73918    0.008
 5302.00    0.63224   0.73403    0.008
 5303.00    0.65182   0.73977    0.008
 5304.00    0.71570   0.74730    0.008
 5305.00    0.72423   0.74812    0.008
 5306.00    0.67753   0.74429    0.008
 5307.00    0.67679   0.73943    0.008
 5308.00    0.71647   0.73649    0.008
 5309.00    0.70272   0.73404    0.008
 5310.00    0.64755   0.72662    0.008
 5311.00    0.70694   0.71959    0.008
 5312.00    0.84438   0.72170    0.008
 5313.00    0.89475   0.72664    0.008
 5314.00    0.89314   0.72645    0.007
 5315.00    0.91476   0.72461    0.008
 5316.00    0.94849   0.72295    0.008
 5317.00    0.86452   0.71569    0.008
 5318.00    0.72737   0.70210    0.008
 5319.00    0.67365   0.69718    0.007
 5320.00    0.65234   0.70026    0.008
 5321.00    0.65076   0.68224    0.007
 5322.00    0.65571   0.64039    0.007
 5323.00    0.76021   0.62345    0.007
 5324.00    0.89231   0.65331    0.008
 5325.00    0.83928   0.69271    0.008
 5326.00    0.74403   0.70919    0.008
 5327.00    0.66157   0.70974    0.008
 5328.00    0.58145   0.71566    0.008
 5329.00    0.57352   0.72675    0.008
 5330.00    0.57572   0.72920    0.008
 5331.00    0.54244   0.72413    0.008
 5332.00    0.50559   0.72120    0.008
 5333.00    0.54803   0.71390    0.008
 5334.00    0.59556   0.69374    0.008
 5335.00    0.63732   0.67953    0.008
 5336.00    0.67925   0.68997    0.008
 5337.00    0.85860   0.70948    0.008
 5338.00    1.02583   0.71899    0.008
 5339.00    0.84671   0.71493    0.008
 5340.00    0.68627   0.70690    0.008
 5341.00    0.79372   0.70675    0.008
 5342.00    0.89420   0.70584    0.008
 5343.00    0.92934   0.69723    0.008
 5344.00    0.96614   0.69706    0.008
 5345.00    1.01423   0.71221    0.008
 5346.00    1.02314   0.72724    0.008
 5347.00    0.82514   0.73155    0.008
 5348.00    0.67912   0.73500    0.008
 5349.00    0.75388   0.74379    0.008
 5350.00    0.79283   0.74960    0.008
 5351.00    0.70624   0.75047    0.008
 5352.00    0.64838   0.75077    0.008
 5353.00    0.67521   0.75092    0.008
 5354.00    0.68919   0.74758    0.008
 5355.00    0.67089   0.73735    0.007
 5356.00    0.68711   0.72432    0.007
 5357.00    0.77802   0.71798    0.007
 5358.00    0.89107   0.71606    0.007
 5359.00    1.04572   0.71159    0.007
 5360.00    1.08333   0.70925    0.007
 5361.00    0.92897   0.71074    0.007
 5362.00    0.84398   0.71106    0.007
 5363.00    0.85875   0.70269    0.007
 5364.00    0.90663   0.68082    0.007
 5365.00    0.99641   0.65810    0.007
 5366.00    0.97329   0.65970    0.007
 5367.00    0.82432   0.68815    0.007
 5368.00    0.77624   0.71766   -2.000
 5369.00    0.82735   0.73252   -2.000
 5370.00    0.90181   0.73357   -2.000
 5371.00    0.99653   0.72852   -2.000
 5372.00    1.06853   0.72830   -2.000
 5373.00    1.12318   0.73098   -2.000
 5374.00    1.13206   0.72768   -2.000
 5375.00    1.11020   0.72075   -2.000
 5376.00    1.00997   0.71567   -2.000
 5377.00    0.86364   0.71110   -2.000
 5378.00    0.68920   0.71085   -2.000
 5379.00    0.50035   0.71752   -2.000
 5380.00    0.45354   0.72280   -2.000
 5381.00    0.46984   0.72311   -2.000
 5382.00    0.61255   0.72004   -2.000
 5383.00    0.80352   0.71226    0.007
 5384.00    0.88233   0.70206    0.007
 5385.00    0.92477   0.69602    0.008
 5386.00    0.87433   0.69477    0.008
 5387.00    0.79868   0.69416    0.008
 5388.00    0.72857   0.69300    0.007
 5389.00    0.65969   0.69118    0.007
 5390.00    0.72438   0.67934    0.007
 5391.00    0.81280   0.66103    0.007
 5392.00    0.86806   0.66411    0.007
 5393.00    0.91882   0.68662    0.008
 5394.00    0.87004   0.69922    0.008
 5395.00    0.81164   0.70026    0.008
 5396.00    0.79520   0.70330    0.008
 5397.00    0.78128   0.69959    0.008
 5398.00    0.90651   0.67855    0.008
 5399.00    1.03404   0.65205    0.008
 5400.00    0.93942   0.64181    0.008
 5401.00    0.84942   0.65534    0.007
 5402.00    0.87814   0.67207    0.007
 5403.00    0.90701   0.66863    0.008
 5404.00    0.93793   0.65298    0.007
 5405.00    0.94896   0.65276    0.007
 5406.00    0.78104   0.67149    0.007
 5407.00    0.63706   0.69093    0.007
 5408.00    0.65123   0.69941    0.007
 5409.00    0.64978   0.70165    0.007
 5410.00    0.56791   0.70921    0.007
 5411.00    0.52903   0.71937    0.007
 5412.00    0.66854   0.72158    0.007
 5413.00    0.77741   0.71557    0.007
 5414.00    0.78104   0.70717    0.007
 5415.00    0.76750   0.70486    0.007
 5416.00    0.70425   0.71079    0.007
 5417.00    0.66556   0.70952    0.007
 5418.00    0.68752   0.69666    0.007
 5419.00    0.68953   0.69367    0.007
 5420.00    0.64908   0.70782    0.007
 5421.00    0.66114   0.72276    0.007
 5422.00    0.77035   0.71671    0.007
 5423.00    0.85093   0.68489    0.007
 5424.00    0.88524   0.66417    0.007
 5425.00    0.87107   0.67566    0.007
 5426.00    0.78821   0.68658    0.007
 5427.00    0.73406   0.67963    0.007
 5428.00    0.71571   0.66805    0.007
 5429.00    0.78514   0.66362    0.007
 5430.00    0.95103   0.67009    0.007
 5431.00    1.01752   0.68471    0.007
 5432.00    0.98765   0.70322    0.007
 5433.00    0.90484   0.71875    0.007
 5434.00    0.77677   0.72690    0.007
 5435.00    0.77423   0.72898    0.007
 5436.00    0.86620   0.72919    0.007
 5437.00    0.85168   0.72939    0.007
 5438.00    0.76670   0.72264    0.007
 5439.00    0.77689   0.70212    0.007
 5440.00    0.84221   0.67062    0.007
 5441.00    0.82741   0.65088    0.007
 5442.00    0.77218   0.66244    0.007
 5443.00    0.79571   0.68716    0.007
 5444.00    0.85366   0.70172    0.007
 5445.00    0.77799   0.70432    0.007
 5446.00    0.65221   0.70163    0.007
 5447.00    0.66224   0.69499    0.007
 5448.00    0.71547   0.67980    0.007
 5449.00    0.79355   0.65706    0.007
 5450.00    0.87824   0.64994    0.007
 5451.00    0.95212   0.66986    0.007
 5452.00    1.02366   0.69528    0.007
 5453.00    0.99694   0.70610    0.007
 5454.00    0.95324   0.70236    0.007
 5455.00    0.86744   0.69389    0.007
 5456.00    0.77612   0.68341    0.007
 5457.00    0.72967   0.67304    0.007
 5458.00    0.68737   0.67580    0.007
 5459.00    0.73612   0.68764    0.007
 5460.00    0.78999   0.69177    0.007
 5461.00    0.78422   0.69265    0.007
 5462.00    0.77669   0.69751    0.007
 5463.00    0.72575   0.69810    0.007
 5464.00    0.68179   0.69073    0.007
 5465.00    0.80175   0.68648    0.007
 5466.00    0.90731   0.68588    0.007
 5467.00    0.82787   0.67926    0.007
 5468.00    0.74690   0.67385    0.007
 5469.00    0.65274   0.67161    0.007
 5470.00    0.59611   0.65627    0.007
 5471.00    0.78006   0.64279    0.007
 5472.00    0.90138   0.65726    0.007
 5473.00    0.70875   0.68148    0.007
 5474.00    0.56596   0.68493    0.007
 5475.00    0.62551   0.66986    0.007
 5476.00    0.69370   0.66270    0.007
 5477.00    0.79097   0.67156    0.007
 5478.00    0.83598   0.68686   -2.000
 5479.00    0.73255   0.69945   -2.000
 5480.00    0.69267   0.69916   -2.000
 5481.00    0.80706   0.68603   -2.000
 5482.00    0.83066   0.67766   -2.000
 5483.00    0.66406   0.68143   -2.000
 5484.00    0.68387   0.68485   -2.000
 5485.00    1.04313   0.68824   -2.000
 5486.00    1.41972   0.69292   -2.000
 5487.00    1.82386   0.69002   -2.000
 5488.00    2.29846   0.68622   -2.000
 5489.00    2.87147   0.68974   -2.000
 5490.00    2.72719   0.68899   -2.000
 5491.00    1.70108   0.67829   -2.000
 5492.00    0.95356   0.67749   -2.000
 5493.00    0.50794   0.69137   -2.000
 5494.00    0.39707   0.69525   -2.000
 5495.00    0.60620   0.68209   -2.000
 5496.00    0.73282   0.67191   -2.000
 5497.00    0.78989   0.67445   -2.000
 5498.00    0.78219   0.68064   -2.000
 5499.00    0.72640   0.67845   -2.000
 5500.00    0.76563   0.66570   -2.000
 5501.00    0.86681   0.66115   -2.000
 5502.00    0.89659   0.67351    0.007
 5503.00    0.88562   0.68279    0.007
 5504.00    0.85032   0.68233    0.007
 5505.00    0.80292   0.67522    0.007
 5506.00    0.81949   0.66196    0.007
 5507.00    0.86356   0.65371    0.007
 5508.00    0.80486   0.65515    0.007
 5509.00    0.70830   0.66235    0.007
 5510.00    0.68794   0.67098    0.007
 5511.00    0.69136   0.67970    0.007
 5512.00    0.73614   0.69165    0.007
 5513.00    0.79167   0.70055    0.007
 5514.00    0.83869   0.70041    0.007
 5515.00    0.88390   0.69672    0.007
 5516.00    0.77357   0.69489    0.007
 5517.00    0.63712   0.69521    0.007
 5518.00    0.57888   0.69478    0.007
 5519.00    0.53054   0.68959    0.007
 5520.00    0.63295   0.67985    0.007
 5521.00    0.74865   0.66573    0.007
 5522.00    0.86842   0.65273    0.007
 5523.00    0.98841   0.65725    0.007
 5524.00    0.86900   0.67621    0.007
 5525.00    0.74734   0.68846    0.007
 5526.00    0.79312   0.68812    0.007
 5527.00    0.83821   0.68389    0.007
 5528.00    0.86859   0.67848    0.007
 5529.00    0.89834   0.67316    0.007
 5530.00    0.92037   0.67581    0.007
 5531.00    0.93699   0.68182    0.007
 5532.00    0.90846   0.68305    0.007
 5533.00    0.88406   0.68667    0.007
 5534.00    0.88537   0.69497    0.007
 5535.00    0.90328   0.70030    0.007
 5536.00    1.00226   0.69595    0.007
 5537.00    1.05440   0.68573    0.007
 5538.00    0.92056   0.68106    0.007
 5539.00    0.82088   0.68169    0.007
 5540.00    0.83391   0.68100    0.007
 5541.00    0.85543   0.68461    0.007
 5542.00    0.90060   0.69416    0.007
 5543.00    0.93085   0.70043    0.007
 5544.00    0.92548   0.70148    0.007
 5545.00    0.92163   0.70080    0.007
 5546.00    0.92089   0.69737    0.007
 5547.00    0.91615   0.68966    0.007
 5548.00    0.90422   0.68214    0.007
 5549.00    0.89670   0.68137    0.007
 5550.00    0.89609   0.68487    0.007
 5551.00    0.86449   0.68450    0.007
 5552.00    0.79021   0.68312    0.007
 5553.00    0.76564   0.68504    0.007
 5554.00    0.80134   0.68614    0.007
 5555.00    0.78276   0.68426    0.007
 5556.00    0.70619   0.67864    0.007
 5557.00    0.70285   0.67277    0.007
 5558.00    0.76853   0.67230    0.007
 5559.00    0.86061   0.67083    0.007
 5560.00    0.97464   0.66639    0.007
 5561.00    0.89381   0.66667    0.007
 5562.00    0.67044   0.66895    0.006
 5563.00    0.52264   0.66616    0.006
 5564.00    0.42339   0.66720    0.006
 5565.00    0.50460   0.67510    0.006
 5566.00    0.68722   0.67055    0.006
 5567.00    0.83525   0.66214    0.007
 5568.00    0.96635   0.67030    0.007
 5569.00    0.93700   0.67836    0.007
 5570.00    0.83984   0.67638    0.007
 5571.00    0.76177   0.67828    0.007
 5572.00    0.69061   0.68017    0.007
 5573.00    0.66758   0.67988    0.007
 5574.00    0.65929   0.68325    0.007
 5575.00    0.68644   0.68184    0.007
 5576.00    0.72261   0.67600    0.007
 5577.00    0.69971   0.67598    0.007
 5578.00    0.66458   0.67611    0.007
 5579.00    0.72786   0.66872    0.007
 5580.00    0.80718   0.65286    0.007
 5581.00    0.83405   0.63453    0.007
 5582.00    0.85452   0.62512    0.007
 5583.00    0.85880   0.62680    0.007
 5584.00    0.86171   0.63738    0.007
 5585.00    0.87611   0.64619    0.007
 5586.00    0.89106   0.64761    0.007
 5587.00    0.78651   0.64648    0.007
 5588.00    0.68299   0.64854    0.007
 5589.00    0.74651   0.65892    0.007
 5590.00    0.80506   0.67547    0.007
 5591.00    0.76460   0.67532    0.007
 5592.00    0.72763   0.65792    0.007
 5593.00    0.73114   0.64878    0.007
 5594.00    0.74222   0.64900    0.007
 5595.00    0.81415   0.64466    0.007
 5596.00    0.87908   0.63800    0.007
 5597.00    0.90178   0.63926    0.007
 5598.00    0.91279   0.65542    0.007
 5599.00    0.86810   0.67392    0.007
 5600.00    0.83206   0.68491    0.007
 5601.00    0.82960   0.68895    0.007
 5602.00    0.81922   0.68894    0.007
 5603.00    0.78322   0.68656    0.007
 5604.00    0.75958   0.68465    0.007
 5605.00    0.76983   0.68654    0.007
 5606.00    0.80203   0.69068    0.007
 5607.00    0.88573   0.68901    0.007
 5608.00    0.92877   0.66904    0.007
 5609.00    0.88930   0.63719    0.007
 5610.00    0.79580   0.62896    0.007
 5611.00    0.60690   0.64760    0.007
 5612.00    0.49434   0.66103    0.007
 5613.00    0.49975   0.66073    0.007
 5614.00    0.52156   0.66011    0.007
 5615.00    0.56565   0.66689    0.007
 5616.00    0.62951   0.67394    0.007
 5617.00    0.71699   0.66724    0.007
 5618.00    0.79260   0.64724    0.007
 5619.00    0.85572   0.63759    0.007
 5620.00    0.83170   0.64837    0.007
 5621.00    0.72670   0.66021    0.007
 5622.00    0.65231   0.66557    0.007
 5623.00    0.60298   0.67185    0.007
 5624.00    0.57048   0.67742    0.007
 5625.00    0.55013   0.67944    0.007
 5626.00    0.55382   0.67871    0.007
 5627.00    0.57272   0.67589    0.006
 5628.00    0.59499   0.67222    0.006
 5629.00    0.61912   0.66756    0.007
 5630.00    0.65891   0.66091    0.007
 5631.00    0.70624   0.65457    0.007
 5632.00    0.67125   0.65433    0.007
 5633.00    0.60207   0.65785    0.007
 5634.00    0.62758   0.65602    0.006
 5635.00    0.68672   0.64940    0.006
 5636.00    0.76030   0.65141    0.006
 5637.00    0.83820   0.65760    0.006
 5638.00    0.81962   0.65978    0.006
 5639.00    0.77700   0.66136    0.006
 5640.00    0.79252   0.66306    0.006
 5641.00    0.81978   0.66513    0.006
 5642.00    0.79605   0.66578    0.006
 5643.00    0.76424   0.66348    0.006
 5644.00    0.76155   0.66318    0.006
 5645.00    0.76229   0.66816    0.006
 5646.00    0.81324   0.67485    0.006
 5647.00    0.86819   0.67580    0.006
 5648.00    0.85637   0.66737    0.006
 5649.00    0.84158   0.66024    0.006
 5650.00    0.75760   0.66195    0.006
 5651.00    0.67336   0.65168    0.006
 5652.00    0.61444   0.62533    0.006
 5653.00    0.56269   0.62081    0.006
 5654.00    0.64289   0.64236    0.006
 5655.00    0.71554   0.65106    0.006
 5656.00    0.70452   0.64147    0.006
 5657.00    0.68398   0.63966    0.006
 5658.00    0.58954   0.65217    0.007
 5659.00    0.50458   0.66256    0.007
 5660.00    0.47525   0.66174    0.007
 5661.00    0.46405   0.65322    0.006
 5662.00    0.53721   0.64809    0.006
 5663.00    0.60949   0.65108    0.006
 5664.00    0.67841   0.65492    0.006
 5665.00    0.73073   0.65785    0.006
 5666.00    0.73039   0.66526    0.006
 5667.00    0.72797   0.67498    0.006
 5668.00    0.71999   0.67661    0.006
 5669.00    0.70933   0.67099    0.006
 5670.00    0.69249   0.67128    0.007
 5671.00    0.69751   0.67594    0.007
 5672.00    0.74615   0.67318    0.007
 5673.00    0.78986   0.66617    0.006
 5674.00    0.82500   0.66506    0.007
 5675.00    0.83614   0.66380    0.007
 5676.00    0.81075   0.65364    0.006
 5677.00    0.76721   0.64668    0.006
 5678.00    0.69938   0.65222    0.006
 5679.00    0.64302   0.65888    0.006
 5680.00    0.60016   0.65569    0.006
 5681.00    0.57708   0.64618    0.006
 5682.00    0.57455   0.64228    0.006
 5683.00    0.66005   0.64810    0.006
 5684.00    0.82621   0.65874    0.006
 5685.00    0.87667   0.66640    0.006
 5686.00    0.83370   0.67273    0.006
 5687.00    0.81448   0.67494    0.006
 5688.00    0.81213   0.67113    0.006
 5689.00    0.82970   0.66709    0.006
 5690.00    0.85969   0.66680    0.006
 5691.00    0.84668   0.66419    0.006
 5692.00    0.81025   0.65528    0.006
 5693.00    0.78331   0.65126    0.006
 5694.00    0.76087   0.64933    0.006
 5695.00    0.67102   0.64128    0.006
 5696.00    0.55364   0.63725    0.006
 5697.00    0.57036   0.64392    0.007
 5698.00    0.63386   0.65329    0.007
 5699.00    0.63236   0.65302    0.007
 5700.00    0.61175   0.64283    0.007
 5701.00    0.64895   0.63390    0.007
 5702.00    0.70024   0.62483    0.007
 5703.00    0.66908   0.61702    0.007
 5704.00    0.62167   0.62095    0.007
 5705.00    0.64459   0.62423    0.007
 5706.00    0.67832   0.62652    0.007
 5707.00    0.72948   0.64304    0.007
 5708.00    0.78261   0.65718    0.006
 5709.00    0.84494   0.66085    0.006
 5710.00    0.90796   0.66316    0.006
 5711.00    0.92008   0.66250    0.006
 5712.00    0.93012   0.66110    0.006
 5713.00    0.91518   0.66510    0.006
 5714.00    0.89994   0.66905    0.006
 5715.00    0.88020   0.67162    0.006
 5716.00    0.86077   0.67545    0.006
 5717.00    0.84689   0.67693    0.006
 5718.00    0.83376   0.67535    0.006
 5719.00    0.82868   0.67260    0.006
 5720.00    0.82360   0.66298    0.006
 5721.00    0.81861   0.65103    0.006
 5722.00    0.80324   0.65350    0.006
 5723.00    0.72857   0.66514    0.006
 5724.00    0.64915   0.66594    0.006
 5725.00    0.54809   0.65543    0.006
 5726.00    0.47295   0.65350    0.006
 5727.00    0.49430   0.66315    0.006
 5728.00    0.53419   0.67011    0.006
 5729.00    0.63177   0.67153    0.006
 5730.00    0.70398   0.66880    0.006
 5731.00    0.70914   0.66540    0.006
 5732.00    0.69694   0.66371    0.006
 5733.00    0.64535   0.66162    0.006
 5734.00    0.62382   0.66079    0.006
 5735.00    0.66137   0.66168    0.006
 5736.00    0.73408   0.66115    0.006
 5737.00    0.86703   0.65867    0.007
 5738.00    0.90610   0.66320    0.007
 5739.00    0.80430   0.67182    0.007
 5740.00    0.69712   0.67400    0.000
 5741.00    0.58282   0.66344    0.000
 5742.00    0.52252   0.65161    0.000
 5743.00    0.52491   0.65590    0.000
 5744.00    0.54713   0.66780    0.000
 5745.00    0.58966   0.66937    0.000
 5746.00    0.66493   0.65723    0.000
 5747.00    0.76976   0.64117    0.000
 5748.00    0.86301   0.63532    0.000
 5749.00    0.94702   0.64665    0.000
 5750.00    0.94752   0.66352    0.000
 5751.00    0.88953   0.67273    0.000
 5752.00    0.87832   0.67393    0.000
 5753.00    0.89584   0.66792    0.000
 5754.00    0.84308   0.65683    0.000
 5755.00    0.75263   0.64491    0.000
 5756.00    0.72541   0.63559    0.000
 5757.00    0.72764   0.63709    0.000
 5758.00    0.74526   0.65335    0.000
 5759.00    0.76905   0.66688    0.000
 5760.00    0.78622   0.66983    0.000
 5761.00    0.80113   0.66960    0.000
 5762.00    0.83865   0.66889    0.000
 5763.00    0.88268   0.66657    0.000
 5764.00    0.85672   0.66509    0.000
 5765.00    0.81410   0.66282    0.000
 5766.00    0.76997   0.65940    0.000
 5767.00    0.72555   0.65855    0.000
 5768.00    0.71275   0.65676    0.000
 5769.00    0.70467   0.65509    0.000
 5770.00    0.69326   0.65826    0.000
 5771.00    0.68148   0.66111    0.000
 5772.00    0.67349   0.66062    0.000
 5773.00    0.66578   0.65395    0.000
 5774.00    0.65974   0.63747    0.000
 5775.00    0.65377   0.61983    0.000
 5776.00    0.74767   0.61742    0.000
 5777.00    0.83991   0.62477    0.000
 5778.00    0.85797   0.62496    0.000
 5779.00    0.87057   0.61985    0.000
 5780.00    0.79541   0.62655    0.000
 5781.00    0.72236   0.64126    0.000
 5782.00    0.67068   0.64965    0.000
 5783.00    0.63392   0.65299    0.000
 5784.00    0.70529   0.64766    0.000
 5785.00    0.76341   0.64078    0.000
 5786.00    0.74795   0.64592    0.000
 5787.00    0.75013   0.65508    0.000
 5788.00    0.83056   0.66197    0.000
 5789.00    0.89551   0.66646    0.000
 5790.00    0.90407   0.66196    0.000
 5791.00    0.89228   0.64840   -2.000
 5792.00    0.81835   0.64274   -2.000
 5793.00    0.77646   0.65396   -2.000
 5794.00    0.81774   0.66406   -2.000
 5795.00    0.84096   0.66698   -2.000
 5796.00    0.82390   0.66870   -2.000
 5797.00    0.79451   0.66631   -2.000
 5798.00    0.74126   0.65640   -2.000
 5799.00    0.73098   0.65044   -2.000
 5800.00    0.79321   0.65241   -2.000
 5801.00    0.86715   0.65637   -2.000
 5802.00    0.95840   0.65857   -2.000
 5803.00    0.96496   0.65938   -2.000
 5804.00    0.86147   0.66048   -2.000
 5805.00    0.78522   0.65913   -2.000
 5806.00    0.74016   0.65745   -2.000
 5807.00    0.70009   0.65722   -2.000
 5808.00    0.66507   0.65582   -2.000
 5809.00    0.65464   0.64812   -2.000
 5810.00    0.66612   0.64275   -2.000
 5811.00    0.68989   0.64790    0.000
 5812.00    0.72329   0.65887    0.000
 5813.00    0.73675   0.66497    0.000
 5814.00    0.73645   0.66644    0.000
 5815.00    0.69086   0.66650    0.000
 5816.00    0.61785   0.66374    0.000
 5817.00    0.58397   0.66029    0.000
 5818.00    0.57075   0.66016    0.000
 5819.00    0.59959   0.66377    0.000
 5820.00    0.64771   0.66513    0.000
 5821.00    0.67738   0.66449    0.000
 5822.00    0.69976   0.66428    0.000
 5823.00    0.68866   0.66571    0.000
 5824.00    0.66631   0.66596    0.000
 5825.00    0.74383   0.66384    0.000
 5826.00    0.84954   0.66309    0.000
 5827.00    0.81872   0.66184    0.000
 5828.00    0.75613   0.65684    0.000
 5829.00    0.71517   0.65448    0.000
 5830.00    0.67826   0.65888    0.000
 5831.00    0.74758   0.65990    0.000
 5832.00    0.83222   0.65499    0.000
 5833.00    0.89686   0.65435    0.000
 5834.00    0.95940   0.66050    0.000
 5835.00    0.89077   0.66579    0.000
 5836.00    0.81327   0.66717    0.000
 5837.00    0.76327   0.66621    0.000
 5838.00    0.71418   0.66323    0.000
 5839.00    0.67933   0.65889    0.000
 5840.00    0.64758   0.65300    0.000
 5841.00    0.71348   0.64715    0.000
 5842.00    0.77917   0.64624    0.000
 5843.00    0.84154   0.64882    0.000
 5844.00    0.89315   0.64970    0.000
 5845.00    0.84038   0.64554    0.000
 5846.00    0.78452   0.63525    0.000
 5847.00    0.70697   0.62586    0.000
 5848.00    0.64072   0.62828    0.000
 5849.00    0.63556   0.63542    0.000
 5850.00    0.63062   0.63062    0.000
 5851.00    0.62667   0.61658    0.000
 5852.00    0.63453   0.61295    0.000
 5853.00    0.68458   0.62346    0.000
 5854.00    0.72297   0.63483    0.000
 5855.00    0.72640   0.63933    0.000
 5856.00    0.73947   0.63630    0.000
 5857.00    0.77717   0.63496    0.000
 5858.00    0.81836   0.63931    0.000
 5859.00    0.86723   0.63984    0.000
 5860.00    0.90932   0.63272    0.000
 5861.00    0.93852   0.62971    0.000
 5862.00    0.93483   0.63707    0.000
 5863.00    0.87648   0.64573    0.000
 5864.00    0.84618   0.64985    0.000
 5865.00    0.85674   0.64927    0.000
 5866.00    0.86750   0.64440    0.000
 5867.00    0.87853   0.63850    0.000
 5868.00    0.86437   0.62658    0.000
 5869.00    0.82176   0.61316    0.000
 5870.00    0.79745   0.60946    0.000
 5871.00    0.79134   0.61839    0.000
 5872.00    0.80276   0.63049    0.000
 5873.00    0.82956   0.62755    0.000
 5874.00    0.81339   0.62246    0.000
 5875.00    0.76398   0.62499    0.000
 5876.00    0.71933   0.63031    0.000
 5877.00    0.67793   0.62835    0.000
 5878.00    0.67299   0.62423    0.000
 5879.00    0.68978   0.62524    0.000
 5880.00    0.71768   0.62499    0.000
 5881.00    0.75136   0.61221    0.000
 5882.00    0.70801   0.57315    0.000
 5883.00    0.62993   0.51363    0.000
 5884.00    0.67432   0.48299    0.000
 5885.00    0.76618   0.51286    0.000
 5886.00    0.76799   0.55736    0.000
 5887.00    0.74008   0.57612    0.000
 5888.00    0.69356   0.56749    0.000
 5889.00    0.64188   0.53141    0.000
 5890.00    0.65953   0.51078    0.000
 5891.00    0.69295   0.54003    0.000
 5892.00    0.74232   0.57864    0.000
 5893.00    0.79461   0.59529    0.000
 5894.00    0.78765   0.60584    0.000
 5895.00    0.77241   0.61655    0.000
 5896.00    0.70803   0.62140    0.000
 5897.00    0.63872   0.62369    0.000
 5898.00    0.69691   0.62468    0.000
 5899.00    0.76321   0.62233    0.000
 5900.00    0.74286   0.62090    0.000
 5901.00    0.71997   0.62465    0.006
 5902.00    0.69583   0.62883    0.006
 5903.00    0.67356   0.62902    0.006
 5904.00    0.70387   0.62917    0.006
 5905.00    0.73591   0.63204    0.006
 5906.00    0.79259   0.63056    0.006
 5907.00    0.83823   0.62065    0.006
 5908.00    0.78098   0.61025    0.006
 5909.00    0.73152   0.60888    0.006
 5910.00    0.73495   0.61276    0.006
 5911.00    0.73705   0.61920    0.006
 5912.00    0.73220   0.62365    0.006
 5913.00    0.72917   0.62596    0.006
 5914.00    0.73384   0.62860    0.006
 5915.00    0.74323   0.62691    0.006
 5916.00    0.76912   0.62312    0.006
 5917.00    0.78910   0.62418    0.006
 5918.00    0.79167   0.62752    0.006
 5919.00    0.78105   0.62976    0.006
 5920.00    0.73734   0.63121    0.006
 5921.00    0.69979   0.62939    0.006
 5922.00    0.67552   0.62382    0.006
 5923.00    0.67394   0.61728    0.006
 5924.00    0.71489   0.61536    0.006
 5925.00    0.74632   0.62281    0.006
 5926.00    0.76218   0.63056    0.006
 5927.00    0.75648   0.62788    0.006
 5928.00    0.71983   0.61905    0.006
 5929.00    0.68186   0.61679    0.006
 5930.00    0.64224   0.62378    0.006
 5931.00    0.60514   0.62934    0.006
 5932.00    0.57082   0.63183    0.006
 5933.00    0.55520   0.63201    0.006
 5934.00    0.55793   0.62484    0.006
 5935.00    0.60836   0.61605    0.006
 5936.00    0.70009   0.61625    0.006
 5937.00    0.73145   0.62198    0.006
 5938.00    0.71679   0.62725    0.006
 5939.00    0.73433   0.63205    0.006
 5940.00    0.77346   0.63399    0.006
 5941.00    0.82688   0.62867    0.006
 5942.00    0.88868   0.61837    0.006
 5943.00    0.86733   0.61413    0.006
 5944.00    0.80343   0.61982    0.006
 5945.00    0.73775   0.62346    0.006
 5946.00    0.67129   0.61736    0.006
 5947.00    0.68067   0.61347    0.006
 5948.00    0.71893   0.61895    0.006
 5949.00    0.70429   0.62125    0.006
 5950.00    0.67253   0.61472    0.006
 5951.00    0.65976   0.61044    0.006
 5952.00    0.65214   0.61458    0.006
 5953.00    0.63311   0.62251    0.006
 5954.00    0.61155   0.62957    0.006
 5955.00    0.61990   0.63332    0.006
 5956.00    0.63354   0.63387    0.006
 5957.00    0.64898   0.63235    0.006
 5958.00    0.66465   0.62960    0.006
 5959.00    0.68396   0.62482    0.006
 5960.00    0.70363   0.62303    0.006
 5961.00    0.70670   0.62739    0.006
 5962.00    0.70878   0.63149    0.006
 5963.00    0.69278   0.63367    0.006
 5964.00    0.67628   0.63565    0.006
 5965.00    0.65328   0.63649    0.006
 5966.00    0.63238   0.63560    0.006
 5967.00    0.66512   0.63403    0.006
 5968.00    0.69667   0.62980    0.006
 5969.00    0.71230   0.62166    0.006
 5970.00    0.71864   0.61419    0.006
 5971.00    0.64189   0.61094    0.006
 5972.00    0.57104   0.61180    0.006
 5973.00    0.53902   0.61744    0.006
 5974.00    0.51823   0.62450    0.006
 5975.00    0.55502   0.62698    0.006
 5976.00    0.59679   0.62197    0.006
 5977.00    0.65922   0.61049    0.006
 5978.00    0.70720   0.60186    0.006
 5979.00    0.70567   0.60639    0.006
 5980.00    0.69847   0.61611    0.006
 5981.00    0.67491   0.61982    0.006
 5982.00    0.65299   0.62104    0.006
 5983.00    0.63511   0.62337    0.006
 5984.00    0.61777   0.62308    0.006
 5985.00    0.60162   0.61990    0.006
 5986.00    0.59713   0.62180    0.006
 5987.00    0.61421   0.62966    0.006
 5988.00    0.64513   0.63427    0.006
 5989.00    0.69839   0.63168    0.006
 5990.00    0.75207   0.62475    0.006
 5991.00    0.80634   0.61808    0.006
 5992.00    0.82235   0.61612    0.006
 5993.00    0.79073   0.61882    0.006
 5994.00    0.75025   0.62222    0.006
 5995.00    0.70007   0.62149    0.006
 5996.00    0.69431   0.61533    0.006
 5997.00    0.73153   0.61283    0.006
 5998.00    0.75393   0.61763    0.006
 5999.00    0.76369   0.61927    0.006
 6000.00    0.74873   0.61311    0.006
 6001.00    0.71519   0.60331    0.006
 6002.00    0.68841   0.59916    0.006
 6003.00    0.66609   0.60886    0.006
 6004.00    0.66501   0.62165    0.006
 6005.00    0.67620   0.62292    0.006
 6006.00    0.71629   0.61469    0.006
 6007.00    0.77095   0.60892    0.006
 6008.00    0.79113   0.61192    0.006
 6009.00    0.79627   0.61469    0.006
 6010.00    0.72183   0.61093    0.006
 6011.00    0.61762   0.60925    0.006
 6012.00    0.57373   0.61165    0.006
 6013.00    0.54899   0.60963    0.006
 6014.00    0.58943   0.60510    0.006
 6015.00    0.64717   0.60539    0.006
 6016.00    0.67317   0.60895    0.006
 6017.00    0.69229   0.61091    0.006
 6018.00    0.70299   0.61300    0.006
 6019.00    0.71224   0.61801    0.006
 6020.00    0.71367   0.62021    0.006
 6021.00    0.71409   0.62000    0.006
 6022.00    0.71473   0.62411    0.006
 6023.00    0.71539   0.62810    0.006
 6024.00    0.69725   0.62718    0.006
 6025.00    0.67806   0.62551    0.006
 6026.00    0.71699   0.62772    0.006
 6027.00    0.75705   0.63054    0.006
 6028.00    0.78240   0.63101    0.006
 6029.00    0.80458   0.63043    0.006
 6030.00    0.75339   0.63017    0.006
 6031.00    0.70410   0.62989    0.006
 6032.00    0.67910   0.62857    0.006
 6033.00    0.65559   0.62543    0.006
 6034.00    0.64487   0.62347    0.006
 6035.00    0.64028   0.62355    0.006
 6036.00    0.67491   0.62498    0.006
 6037.00    0.70128   0.62901    0.006
 6038.00    0.68635   0.63269    0.006
 6039.00    0.68097   0.63397    0.006
 6040.00    0.71427   0.63451    0.006
 6041.00    0.74283   0.63428    0.006
 6042.00    0.75546   0.63263    0.006
 6043.00    0.76486   0.63197    0.006
 6044.00    0.76506   0.63348    0.006
 6045.00    0.75733   0.63326    0.006
 6046.00    0.73039   0.62970    0.006
 6047.00    0.70129   0.62577    0.006
 6048.00    0.66769   0.62330    0.006
 6049.00    0.65075   0.62027    0.006
 6050.00    0.66411   0.61712    0.006
 6051.00    0.70989   0.61726    0.006
 6052.00    0.80717   0.62091    0.006
 6053.00    0.84571   0.62621    0.006
 6054.00    0.80233   0.62930    0.006
 6055.00    0.72900   0.62806    0.006
 6056.00    0.61892   0.62307    0.006
 6057.00    0.56841   0.61561    0.006
 6058.00    0.58232   0.60555    0.006
 6059.00    0.63407   0.59948    0.006
 6060.00    0.72192   0.60861    0.006
 6061.00    0.76105   0.62453    0.006
 6062.00    0.75920   0.63290    0.006
 6063.00    0.73728   0.63455    0.006
 6064.00    0.70051   0.63469    0.006
 6065.00    0.67516   0.63532    0.006
 6066.00    0.65724   0.63591    0.006
 6067.00    0.63285   0.63567    0.006
 6068.00    0.60478   0.63482    0.006
 6069.00    0.62080   0.63301    0.006
 6070.00    0.65868   0.62913    0.006
 6071.00    0.70614   0.62222    0.006
 6072.00    0.75771   0.61504    0.006
 6073.00    0.74428   0.61405    0.006
 6074.00    0.70695   0.61547    0.006
 6075.00    0.68012   0.61111    0.006
 6076.00    0.65654   0.60717    0.006
 6077.00    0.70608   0.61001    0.006
 6078.00    0.77460   0.61268    0.006
 6079.00    0.76926   0.61155    0.006
 6080.00    0.74829   0.61317    0.006
 6081.00    0.73335   0.61797    0.006
 6082.00    0.71941   0.61867    0.006
 6083.00    0.71859   0.61143    0.005
 6084.00    0.71944   0.60439    0.005
 6085.00    0.68650   0.60491    0.005
 6086.00    0.65061   0.60786    0.006
 6087.00    0.62668   0.61099    0.005
 6088.00    0.60337   0.61795    0.005
 6089.00    0.55717   0.62323    0.005
 6090.00    0.51169   0.62107    0.006
 6091.00    0.54932   0.61764    0.006
 6092.00    0.58768   0.61977    0.006
 6093.00    0.64161   0.62393    0.006
 6094.00    0.69023   0.62119    0.006
 6095.00    0.67428   0.60341    0.006
 6096.00    0.66701   0.58021    0.006
 6097.00    0.73166   0.57882    0.006
 6098.00    0.79727   0.59890    0.006
 6099.00    0.86880   0.61410    0.006
 6100.00    0.91287   0.61590    0.006
 6101.00    0.82312   0.61207    0.006
 6102.00    0.74591   0.61221    0.006
 6103.00    0.71839   0.61744    0.006
 6104.00    0.70177   0.61760    0.006
 6105.00    0.72103   0.61291    0.006
 6106.00    0.73076   0.61415    0.006
 6107.00    0.71394   0.62071    0.006
 6108.00    0.69909   0.62382    0.006
 6109.00    0.68888   0.61985    0.006
 6110.00    0.68647   0.61481    0.006
 6111.00    0.70012   0.61593    0.006
 6112.00    0.72311   0.61658    0.006
 6113.00    0.76284   0.60858    0.006
 6114.00    0.79178   0.59503    0.006
 6115.00    0.80384   0.58089    0.006
 6116.00    0.77287   0.57741    0.006
 6117.00    0.68273   0.59254    0.005
 6118.00    0.59912   0.60790    0.005
 6119.00    0.52339   0.60944    0.006
 6120.00    0.51878   0.60514    0.006
 6121.00    0.59001   0.60173    0.006
 6122.00    0.67053   0.60141    0.006
 6123.00    0.75979   0.60707    0.006
 6124.00    0.82979   0.61566    0.006
 6125.00    0.88381   0.62014    0.006
 6126.00    0.89249   0.62018    0.006
 6127.00    0.86805   0.61641    0.006
 6128.00    0.78571   0.60450    0.006
 6129.00    0.66626   0.58223    0.006
 6130.00    0.60841   0.55728    0.006
 6131.00    0.58511   0.55149    0.006
 6132.00    0.61293   0.57489    0.006
 6133.00    0.66569   0.60115    0.006
 6134.00    0.69730   0.60399    0.006
 6135.00    0.71998   0.59314    0.006
 6136.00    0.72829   0.59355    0.006
 6137.00    0.73140   0.60732    0.006
 6138.00    0.72983   0.61783    0.006
 6139.00    0.72683   0.61893    0.006
 6140.00    0.69536   0.61564    0.006
 6141.00    0.65665   0.60988    0.006
 6142.00    0.62753   0.60188    0.006
 6143.00    0.60038   0.59536    0.005
 6144.00    0.63262   0.59476    0.005
 6145.00    0.67452   0.60065    0.006
 6146.00    0.68852   0.60783    0.006
 6147.00    0.69914   0.60845    0.006
 6148.00    0.70596   0.60220    0.006
 6149.00    0.71247   0.59872    0.005
 6150.00    0.73399   0.59945    0.006
 6151.00    0.75623   0.59846    0.006
 6152.00    0.68832   0.59555    0.006
 6153.00    0.62060   0.58756    0.006
 6154.00    0.63991   0.56639    0.006
 6155.00    0.66209   0.53932    0.006
 6156.00    0.74074   0.52827    0.006
 6157.00    0.80916   0.53922    0.006
 6158.00    0.75947   0.55719    0.006
 6159.00    0.70814   0.56911    0.006
 6160.00    0.64364   0.57561    0.006
 6161.00    0.58453   0.57738    0.006
 6162.00    0.55781   0.56618    0.006
 6163.00    0.53851   0.55106    0.006
 6164.00    0.55443   0.55466    0.006
 6165.00    0.58140   0.57233    0.006
 6166.00    0.65115   0.58156    0.006
 6167.00    0.70680   0.58108    0.006
 6168.00    0.71690   0.58173    0.006
 6169.00    0.70282   0.58277    0.005
 6170.00    0.62267   0.58209    0.005
 6171.00    0.57486   0.58468    0.005
 6172.00    0.60273   0.58976    0.005
 6173.00    0.63535   0.59040    0.005
 6174.00    0.67755   0.58982    0.005
 6175.00    0.69756   0.59332    0.005
 6176.00    0.67845   0.59607    0.005
 6177.00    0.65887   0.59553    0.006
 6178.00    0.63859   0.59381    0.006
 6179.00    0.63537   0.58863    0.006
 6180.00    0.65527   0.58037    0.006
 6181.00    0.68840   0.57498    0.006
 6182.00    0.73732   0.57358    0.006
 6183.00    0.75357   0.56959    0.006
 6184.00    0.73548   0.55671    0.006
 6185.00    0.70257   0.54698    0.006
 6186.00    0.65589   0.55675    0.006
 6187.00    0.67096   0.57458    0.006
 6188.00    0.73651   0.58400    0.006
 6189.00    0.75412   0.58772    0.006
 6190.00    0.73723   0.59076    0.006
 6191.00    0.65041   0.58988    0.006
 6192.00    0.51941   0.58076    0.005
 6193.00    0.49022   0.56974    0.005
 6194.00    0.51726   0.56927    0.005
 6195.00    0.67799   0.57905    0.006
 6196.00    0.90293   0.58785   -2.000
 6197.00    1.26131   0.59027   -2.000
 6198.00    1.67500   0.58953   -2.000
 6199.00    1.81903   0.59017   -2.000
 6200.00    1.86749   0.59218   -2.000
 6201.00    1.44592   0.59322   -2.000
 6202.00    0.88370   0.59274   -2.000
 6203.00    0.52625   0.58989   -2.000
 6204.00    0.21967   0.58531   -2.000
 6205.00    0.21621   0.58035   -2.000
 6206.00    0.27378   0.57082   -2.000
 6207.00    0.45207   0.55786   -2.000
 6208.00    0.64939   0.55030    0.006
 6209.00    0.68382   0.55070    0.006
 6210.00    0.69916   0.55780    0.006
 6211.00    0.63863   0.56556    0.006
 6212.00    0.57209   0.56401    0.006
 6213.00    0.54424   0.55706    0.006
 6214.00    0.51809   0.55578    0.005
 6215.00    0.53330   0.56096    0.005
 6216.00    0.54914   0.56608    0.005
 6217.00    0.57408   0.56648    0.005
 6218.00    0.59771   0.56594    0.005
 6219.00    0.59750   0.56837    0.005
 6220.00    0.60149   0.57046    0.005
 6221.00    0.65168   0.56991    0.005
 6222.00    0.70081   0.56369    0.005
 6223.00    0.74185   0.54853    0.005
 6224.00    0.76744   0.53500    0.005
 6225.00    0.70268   0.53617    0.005
 6226.00    0.63603   0.54702    0.005
 6227.00    0.56064   0.56049    0.005
 6228.00    0.51366   0.57365    0.005
 6229.00    0.57441   0.57939    0.005
 6230.00    0.63796   0.57602    0.006
 6231.00    0.71039   0.56817    0.006
 6232.00    0.76166   0.55887    0.006
 6233.00    0.75615   0.55114    0.006
 6234.00    0.74785   0.55109    0.005
 6235.00    0.73315   0.55410    0.006
 6236.00    0.71414   0.54902    0.006
 6237.00    0.68656   0.54354    0.006
 6238.00    0.66555   0.54511    0.005
 6239.00    0.65595   0.54687    0.006
 6240.00    0.64731   0.55097    0.006
 6241.00    0.64011   0.56157    0.006
 6242.00    0.64015   0.57090    0.005
 6243.00    0.64989   0.57341    0.005
 6244.00    0.64666   0.56857    0.005
 6245.00    0.62821   0.55599    0.005
 6246.00    0.61545   0.54451    0.005
 6247.00    0.60858   0.54262    0.005
 6248.00    0.63124   0.54609    0.005
 6249.00    0.68090   0.54582    0.005
 6250.00    0.69848   0.53890    0.005
 6251.00    0.69019   0.53027    0.005
 6252.00    0.66680   0.52968    0.005
 6253.00    0.63272   0.54085    0.005
 6254.00    0.62030   0.55203    0.005
 6255.00    0.62135   0.55939    0.005
 6256.00    0.66572   0.56879    0.006
 6257.00    0.73364   0.57298    0.006
 6258.00    0.81409   0.56616    0.006
 6259.00    0.90045   0.56089    0.006
 6260.00    0.95492   0.56493    0.006
 6261.00    0.99640   0.56838    0.007
 6262.00    0.92204   0.56568    0.007
 6263.00    0.80737   0.56302    0.007
 6264.00    0.64135   0.56467    0.007
 6265.00    0.46028   0.56919    0.007
 6266.00    0.33556   0.57287    0.007
 6267.00    0.22453   0.57273    0.006
 6268.00    0.28970   0.57130    0.006
 6269.00    0.38944   0.57132    0.006
 6270.00    0.52454   0.57154    0.005
 6271.00    0.66505   0.57101    0.005
 6272.00    0.76636   0.56769    0.005
 6273.00    0.86325   0.55986    0.005
 6274.00    0.82112   0.55446    0.005
 6275.00    0.76853   0.55712    0.005
 6276.00    0.71362   0.56369    0.005
 6277.00    0.65862   0.56916    0.005
 6278.00    0.64800   0.57022    0.005
 6279.00    0.63768   0.57098    0.005
 6280.00    0.62672   0.57631    0.000
 6281.00    0.61682   0.58287    0.000
 6282.00    0.62494   0.58637    0.000
 6283.00    0.63413   0.58391    0.000
 6284.00    0.65467   0.57738    0.000
 6285.00    0.67537   0.57223    0.000
 6286.00    0.69739   0.57038    0.000
 6287.00    0.70703   0.57224    0.000
 6288.00    0.64624   0.57322    0.000
 6289.00    0.58944   0.56644    0.000
 6290.00    0.55070   0.55702    0.000
 6291.00    0.53757   0.55563    0.000
 6292.00    0.61947   0.56197    0.000
 6293.00    0.68445   0.56536    0.000
 6294.00    0.69690   0.56009    0.000
 6295.00    0.68435   0.55388    0.000
 6296.00    0.60589   0.55643    0.000
 6297.00    0.54308   0.56433    0.000
 6298.00    0.51570   0.56807    0.000
 6299.00    0.49752   0.56896    0.000
 6300.00    0.49742   0.57478    0.000
 6301.00    0.50704   0.58209    0.000
 6302.00    0.53331   0.58332    0.000
 6303.00    0.56461   0.57862    0.000
 6304.00    0.60346   0.57239    0.000
 6305.00    0.64994   0.56919    0.000
 6306.00    0.70648   0.57058    0.000
 6307.00    0.72814   0.56917    0.000
 6308.00    0.70937   0.56202    0.000
 6309.00    0.66574   0.55981    0.000
 6310.00    0.59670   0.56125    0.000
 6311.00    0.54844   0.55582    0.000
 6312.00    0.51894   0.55248    0.000
 6313.00    0.51580   0.55977    0.000
 6314.00    0.53363   0.56804    0.000
 6315.00    0.54142   0.57003    0.000
 6316.00    0.54220   0.57139    0.000
 6317.00    0.53850   0.57650    0.000
 6318.00    0.53206   0.58035    0.000
 6319.00    0.56206   0.58072    0.000
 6320.00    0.61158   0.57912    0.000
 6321.00    0.63643   0.57941    0.005
 6322.00    0.64982   0.58159    0.005
 6323.00    0.62014   0.57970    0.005
 6324.00    0.57320   0.57788    0.005
 6325.00    0.52627   0.58214    0.005
 6326.00    0.47935   0.58750    0.005
 6327.00    0.48336   0.58434    0.005
 6328.00    0.50201   0.56935    0.005
 6329.00    0.52661   0.55503    0.005
 6330.00    0.55261   0.55546    0.005
 6331.00    0.52970   0.56490    0.005
 6332.00    0.49744   0.57125    0.005
 6333.00    0.51648   0.57641    0.005
 6334.00    0.54314   0.58218    0.005
 6335.00    0.59550   0.58213    0.005
 6336.00    0.65066   0.57401    0.005
 6337.00    0.67110   0.56388    0.005
 6338.00    0.68906   0.56145    0.005
 6339.00    0.68351   0.56513    0.005
 6340.00    0.67711   0.56907    0.005
 6341.00    0.69594   0.57361    0.005
 6342.00    0.71308   0.57940    0.005
 6343.00    0.66762   0.58296    0.005
 6344.00    0.62363   0.58370    0.005
 6345.00    0.60310   0.58330    0.005
 6346.00    0.58593   0.58003    0.005
 6347.00    0.60259   0.57200    0.005
 6348.00    0.61864   0.56450    0.005
 6349.00    0.63033   0.56497    0.005
 6350.00    0.64351   0.56705    0.005
 6351.00    0.66498   0.56003    0.005
 6352.00    0.67423   0.55085    0.005
 6353.00    0.62949   0.54952    0.005
 6354.00    0.59252   0.55047    0.005
 6355.00    0.58381   0.54754    0.005
 6356.00    0.58883   0.54614    0.005
 6357.00    0.63570   0.55029    0.005
 6358.00    0.66222   0.55675    0.005
 6359.00    0.63600   0.56252    0.005
 6360.00    0.59745   0.56847    0.005
 6361.00    0.53144   0.57505    0.005
 6362.00    0.48791   0.57748    0.005
 6363.00    0.48780   0.57420    0.005
 6364.00    0.51999   0.57237    0.005
 6365.00    0.60654   0.57687    0.006
 6366.00    0.65657   0.58350    0.006
 6367.00    0.65271   0.58590    0.006
 6368.00    0.63142   0.58447    0.005
 6369.00    0.58756   0.58380    0.005
 6370.00    0.55845   0.58291    0.005
 6371.00    0.54620   0.57739    0.005
 6372.00    0.54086   0.57067    0.005
 6373.00    0.54248   0.56797    0.005
 6374.00    0.54975   0.56837    0.005
 6375.00    0.56203   0.57187    0.005
 6376.00    0.56742   0.57543    0.005
 6377.00    0.56741   0.57467    0.005
 6378.00    0.57273   0.57287    0.005
 6379.00    0.58170   0.57489    0.005
 6380.00    0.60342   0.57795    0.005
 6381.00    0.63284   0.57814    0.005
 6382.00    0.63518   0.57713    0.005
 6383.00    0.62327   0.57710    0.005
 6384.00    0.60013   0.57608    0.005
 6385.00    0.57187   0.56822    0.005
 6386.00    0.55023   0.55363    0.005
 6387.00    0.53119   0.54815    0.005
 6388.00    0.49677   0.55933    0.005
 6389.00    0.45720   0.57395    0.005
 6390.00    0.50333   0.58189    0.005
 6391.00    0.57359   0.58091    0.005
 6392.00    0.63248   0.56652    0.005
 6393.00    0.68872   0.54742    0.005
 6394.00    0.70805   0.54856    0.005
 6395.00    0.72052   0.56712    0.005
 6396.00    0.71369   0.58070    0.005
 6397.00    0.70409   0.58522    0.005
 6398.00    0.69611   0.58474    0.005
 6399.00    0.68829   0.58017    0.005
 6400.00    0.68433   0.57142    0.005
 6401.00    0.68064   0.56412    0.005
 6402.00    0.64959   0.56833    0.005
 6403.00    0.61765   0.57478    0.005
 6404.00    0.59777   0.56904    0.005
 6405.00    0.57886   0.56178    0.005
 6406.00    0.58983   0.56366    0.005
 6407.00    0.60124   0.56809    0.005
 6408.00    0.61914   0.57141    0.005
 6409.00    0.63869   0.57480    0.005
 6410.00    0.67415   0.57609    0.005
 6411.00    0.70465   0.57431    0.005
 6412.00    0.70058   0.56840    0.005
 6413.00    0.69217   0.55765    0.005
 6414.00    0.66045   0.55038    0.005
 6415.00    0.63110   0.55723    0.005
 6416.00    0.61200   0.57314    0.005
 6417.00    0.59299   0.58148    0.005
 6418.00    0.57433   0.58095    0.005
 6419.00    0.56506   0.58124    0.005
 6420.00    0.58384   0.58430    0.005
 6421.00    0.61194   0.58533    0.005
 6422.00    0.66377   0.57903    0.005
 6423.00    0.69761   0.56363    0.005
 6424.00    0.69207   0.55060    0.005
 6425.00    0.67086   0.55373    0.005
 6426.00    0.61986   0.56557    0.005
 6427.00    0.57715   0.57455    0.005
 6428.00    0.54819   0.57887    0.005
 6429.00    0.53007   0.58108    0.005
 6430.00    0.52771   0.57839    0.005
 6431.00    0.53776   0.56543    0.005
 6432.00    0.56367   0.55218    0.005
 6433.00    0.59012   0.55755    0.005
 6434.00    0.61717   0.57423    0.005
 6435.00    0.65287   0.58436    0.005
 6436.00    0.69715   0.58725    0.005
 6437.00    0.70745   0.58749    0.005
 6438.00    0.68796   0.58781    0.005
 6439.00    0.65825   0.58913    0.005
 6440.00    0.62063   0.58851    0.005
 6441.00    0.63251   0.57857    0.005
 6442.00    0.67799   0.55480    0.005
 6443.00    0.72245   0.53428    0.005
 6444.00    0.76630   0.53936    0.005
 6445.00    0.78337   0.55879    0.005
 6446.00    0.78654   0.57367    0.005
 6447.00    0.77018   0.57742    0.005
 6448.00    0.74503   0.56888    0.005
 6449.00    0.73372   0.56056    0.005
 6450.00    0.72776   0.56567    0.005
 6451.00    0.67800   0.57797    0.005
 6452.00    0.61382   0.58678    0.005
 6453.00    0.58765   0.58854    0.005
 6454.00    0.57197   0.57885    0.005
 6455.00    0.55618   0.55599    0.005
 6456.00    0.54038   0.54185    0.005
 6457.00    0.50237   0.55197    0.005
 6458.00    0.46034   0.56782    0.005
 6459.00    0.44001   0.57674    0.005
 6460.00    0.42271   0.58098    0.005
 6461.00    0.47868   0.58184    0.005
 6462.00    0.54197   0.57836    0.005
 6463.00    0.62080   0.57351    0.005
 6464.00    0.70062   0.56797    0.005
 6465.00    0.65073   0.56634    0.005
 6466.00    0.59711   0.57108    0.005
 6467.00    0.54589   0.57155    0.005
 6468.00    0.49715   0.56594    0.005
 6469.00    0.51725   0.56558    0.005
 6470.00    0.53716   0.57216    0.005
 6471.00    0.55429   0.57592    0.005
 6472.00    0.56808   0.57609    0.005
 6473.00    0.55096   0.57359    0.006
 6474.00    0.53156   0.56341    0.007
 6475.00    0.49668   0.54969    0.007
 6476.00    0.45658   0.54617    0.007
 6477.00    0.38911   0.55434    0.007
 6478.00    0.33318   0.56377    0.007
 6479.00    0.32592   0.56860    0.008
 6480.00    0.33505   0.57071    0.007
 6481.00    0.40135   0.57163    0.006
 6482.00    0.46178   0.56923    0.005
 6483.00    0.50501   0.56303    0.005
 6484.00    0.54281   0.55717    0.005
 6485.00    0.56704   0.55297    0.005
 6486.00    0.58540   0.53995    0.005
 6487.00    0.59112   0.51535    0.005
 6488.00    0.58861   0.49827    0.005
 6489.00    0.57071   0.49748    0.005
 6490.00    0.56031   0.50649    0.005
 6491.00    0.56214   0.51892    0.005
 6492.00    0.58183   0.52643    0.005
 6493.00    0.62711   0.53500    0.005
 6494.00    0.64506   0.54649    0.005
 6495.00    0.62855   0.55465    0.005
 6496.00    0.60673   0.55948    0.005
 6497.00    0.57903   0.56215    0.005
 6498.00    0.57788   0.56486    0.005
 6499.00    0.60275   0.56734    0.005
 6500.00    0.59762   0.56603    0.005
 6501.00    0.56658   0.56113    0.005
 6502.00    0.52299   0.55910    0.005
 6503.00    0.46986   0.56277    0.005
 6504.00    0.48504   0.56684    0.005
 6505.00    0.54593   0.56752    0.005
 6506.00    0.58849   0.56674    0.005
 6507.00    0.62032   0.56429    0.005
 6508.00    0.62788   0.55874    0.005
 6509.00    0.62303   0.55344    0.005
 6510.00    0.62594   0.55139    0.005
 6511.00    0.63228   0.54889    0.005
 6512.00    0.62967   0.54966    0.005
 6513.00    0.62366   0.55728    0.005
 6514.00    0.64714   0.56442    0.005
 6515.00    0.68014   0.56646    0.005
 6516.00    0.70273   0.56570    0.005
 6517.00    0.72251   0.56616    0.005
 6518.00    0.69600   0.56627    0.005
 6519.00    0.65925   0.56069    0.005
 6520.00    0.61181   0.55426    0.005
 6521.00    0.56249   0.55567    0.005
 6522.00    0.56217   0.56193    0.005
 6523.00    0.56844   0.56523    0.005
 6524.00    0.57340   0.56238    0.005
 6525.00    0.57822   0.55668    0.005
 6526.00    0.58554   0.55374    0.005
 6527.00    0.59299   0.55708    0.005
 6528.00    0.61959   0.56359    0.000
 6529.00    0.64650   0.56668    0.000
 6530.00    0.64857   0.56433    0.000
 6531.00    0.65095   0.56275    0.000
 6532.00    0.66104   0.56627    0.000
 6533.00    0.66679   0.57007    0.000
 6534.00    0.61457   0.56854    0.000
 6535.00    0.56726   0.56310    0.000
 6536.00    0.56377   0.55742    0.000
 6537.00    0.56442   0.55343    0.000
 6538.00    0.59220   0.54653    0.000
 6539.00    0.62022   0.53641    0.000
 6540.00    0.64945   0.53590    0.000
 6541.00    0.67338   0.54442    0.000
 6542.00    0.67542   0.54982    0.000
 6543.00    0.68032   0.54834    0.000
 6544.00    0.69497   0.54353    0.000
 6545.00    0.71223   0.54028    0.000
 6546.00    0.73697   0.53738    0.000
 6547.00    0.75550   0.52998    0.000
 6548.00    0.75875   0.52077    0.000
 6549.00    0.74513   0.51658    0.000
 6550.00    0.69578   0.51778    0.000
 6551.00    0.66262   0.51711    0.000
 6552.00    0.65931   0.51041    0.000
 6553.00    0.65511   0.49738    0.000
 6554.00    0.64947   0.46235    0.000
 6555.00    0.68918   0.39553    0.000
 6556.00    0.79294   0.35416    0.000
 6557.00    0.94166   0.39243    0.000
 6558.00    1.14625   0.46009    0.000
 6559.00    1.29376   0.50079    0.000
 6560.00    1.37875   0.51922    0.000
 6561.00    1.35764   0.52545    0.000
 6562.00    1.23403   0.52307    0.000
 6563.00    1.07837   0.52484    0.000
 6564.00    0.89540   0.53020    0.000
 6565.00    0.76851   0.52839    0.000
 6566.00    0.68370   0.52147    0.000
 6567.00    0.63594   0.51776    0.000
 6568.00    0.61259   0.52137    0.000
 6569.00    0.62259   0.53266    0.000
 6570.00    0.65183   0.54384    0.000
 6571.00    0.68988   0.54881    0.000
 6572.00    0.73237   0.54826    0.000
 6573.00    0.74513   0.54403    0.000
 6574.00    0.74495   0.53925    0.000
 6575.00    0.71805   0.54091    0.000
 6576.00    0.68118   0.54734    0.000
 6577.00    0.69409   0.55034    0.000
 6578.00    0.72277   0.54985    0.000
 6579.00    0.78351   0.54684    0.000
 6580.00    0.85273   0.54910    0.000
 6581.00    0.89021   0.55544    0.000
 6582.00    0.92083   0.55843    0.000
 6583.00    0.90115   0.55828    0.000
 6584.00    0.87285   0.55199    0.000
 6585.00    0.80363   0.53440    0.000
 6586.00    0.72910   0.51653    0.000
 6587.00    0.65669   0.51856    0.000
 6588.00    0.58447   0.53528    0.000
 6589.00    0.57410   0.54670    0.000
 6590.00    0.56715   0.54692    0.000
 6591.00    0.57409   0.54200    0.000
 6592.00    0.58128   0.54101    0.000
 6593.00    0.58372   0.54838    0.000
 6594.00    0.58662   0.55632    0.000
 6595.00    0.59986   0.55820    0.000
 6596.00    0.61696   0.55515    0.000
 6597.00    0.68293   0.54902    0.000
 6598.00    0.73901   0.54376    0.000
 6599.00    0.71024   0.54200    0.000
 6600.00    0.67608   0.54054    0.000
 6601.00    0.60755   0.53507    0.000
 6602.00    0.54344   0.52965    0.000
 6603.00    0.50137   0.53580    0.000
 6604.00    0.46838   0.54936    0.000
 6605.00    0.47208   0.55427    0.000
 6606.00    0.47909   0.54906    0.000
 6607.00    0.49722   0.54588    0.000
 6608.00    0.52467   0.55152    0.000
 6609.00    0.57847   0.55614    0.005
 6610.00    0.62780   0.55532    0.005
 6611.00    0.66629   0.55370    0.005
 6612.00    0.68175   0.55455    0.005
 6613.00    0.64916   0.55677    0.005
 6614.00    0.62656   0.55770    0.005
 6615.00    0.62209   0.55570    0.005
 6616.00    0.63186   0.54941    0.005
 6617.00    0.66420   0.53989    0.005
 6618.00    0.69000   0.53517    0.005
 6619.00    0.70672   0.54019    0.005
 6620.00    0.71328   0.54570    0.005
 6621.00    0.70741   0.54689    0.005
 6622.00    0.70271   0.54610    0.005
 6623.00    0.69928   0.54435    0.005
 6624.00    0.67309   0.54277    0.005
 6625.00    0.62521   0.53878    0.005
 6626.00    0.58771   0.53112    0.005
 6627.00    0.55891   0.52724    0.005
 6628.00    0.50275   0.53342    0.005
 6629.00    0.42635   0.54216    0.005
 6630.00    0.38089   0.54726    0.005
 6631.00    0.35552   0.54771    0.005
 6632.00    0.35863   0.54467    0.005
 6633.00    0.37793   0.54332    0.005
 6634.00    0.42267   0.54704    0.005
 6635.00    0.48000   0.54596    0.005
 6636.00    0.51493   0.53477    0.005
 6637.00    0.54027   0.52945    0.005
 6638.00    0.53118   0.53700    0.005
 6639.00    0.50946   0.54335    0.005
 6640.00    0.50801   0.54290    0.005
 6641.00    0.51287   0.54243    0.005
 6642.00    0.51274   0.54478    0.005
 6643.00    0.51132   0.54470    0.005
 6644.00    0.49891   0.54155    0.005
 6645.00    0.48418   0.53907    0.005
 6646.00    0.49088   0.53920    0.005
 6647.00    0.50115   0.54024    0.005
 6648.00    0.52568   0.54138    0.005
 6649.00    0.55199   0.54067    0.005
 6650.00    0.57068   0.53994    0.005
 6651.00    0.58871   0.54096    0.005
 6652.00    0.58382   0.54096    0.005
 6653.00    0.57775   0.53861    0.005
 6654.00    0.58582   0.53589    0.005
 6655.00    0.59349   0.53051    0.005
 6656.00    0.55512   0.52147    0.005
 6657.00    0.51810   0.52127    0.005
 6658.00    0.50984   0.52879    0.005
 6659.00    0.50167   0.53114    0.005
 6660.00    0.49459   0.52986    0.005
 6661.00    0.48447   0.53162    0.005
 6662.00    0.44926   0.53734    0.005
 6663.00    0.41841   0.54252    0.005
 6664.00    0.41453   0.54455    0.005
 6665.00    0.41311   0.54372    0.005
 6666.00    0.42362   0.54294    0.005
 6667.00    0.43872   0.54269    0.005
 6668.00    0.47195   0.54263    0.005
 6669.00    0.50142   0.53600    0.005
 6670.00    0.51857   0.51571    0.005
 6671.00    0.52431   0.49926    0.005
 6672.00    0.49837   0.50599    0.005
 6673.00    0.49908   0.52269    0.005
 6674.00    0.56312   0.52861    0.005
 6675.00    0.60516   0.52898    0.005
 6676.00    0.60206   0.53188    0.005
 6677.00    0.59350   0.53505    0.005
 6678.00    0.57520   0.53612    0.005
 6679.00    0.56736   0.53568    0.005
 6680.00    0.57587   0.53398    0.005
 6681.00    0.57341   0.53264    0.005
 6682.00    0.55591   0.53440    0.005
 6683.00    0.55594   0.53632    0.005
 6684.00    0.57715   0.53676    0.005
 6685.00    0.58036   0.53619    0.005
 6686.00    0.56440   0.53622    0.005
 6687.00    0.55246   0.53542    0.005
 6688.00    0.54430   0.53062    0.005
 6689.00    0.53031   0.52391    0.005
 6690.00    0.51150   0.52286    0.005
 6691.00    0.51211   0.52621    0.005
 6692.00    0.52687   0.53051    0.005
 6693.00    0.55337   0.53577    0.005
 6694.00    0.58739   0.53803    0.005
 6695.00    0.58987   0.53560    0.005
 6696.00    0.57469   0.53032    0.000
 6697.00    0.55992   0.52601    0.000
 6698.00    0.54534   0.52736    0.000
 6699.00    0.55095   0.53167    0.000
 6700.00    0.56504   0.53420    0.000
 6701.00    0.59738   0.53438    0.000
 6702.00    0.63629   0.53321    0.000
 6703.00    0.64199   0.52988    0.000
 6704.00    0.63758   0.52949    0.000
 6705.00    0.60505   0.53038    0.000
 6706.00    0.56540   0.52746    0.000
 6707.00    0.54034   0.52322    0.000
 6708.00    0.51828   0.51808    0.000
 6709.00    0.52424   0.51093    0.000
 6710.00    0.53474   0.50298    0.000
 6711.00    0.62692   0.50377    0.000
 6712.00    0.72900   0.51524    0.000
 6713.00    0.80170   0.52308    0.000
 6714.00    0.87196   0.52312    0.000
 6715.00    0.87869   0.52250    0.000
 6716.00    0.88240   0.52557    0.000
 6717.00    0.85200   0.52767    0.000
 6718.00    0.81991   0.52513    0.000
 6719.00    0.71957   0.52128    0.000
 6720.00    0.61971   0.52208    0.000
 6721.00    0.52914   0.52564    0.000
 6722.00    0.44738   0.52804    0.000
 6723.00    0.46676   0.52954    0.000
 6724.00    0.49359   0.52918    0.000
 6725.00    0.57975   0.52722    0.000
 6726.00    0.65704   0.52523    0.000
 6727.00    0.68107   0.52545    0.000
 6728.00    0.69386   0.52735    0.000
 6729.00    0.65334   0.52901    0.000
 6730.00    0.62357   0.52695    0.000
 6731.00    0.63528   0.52135    0.000
 6732.00    0.65236   0.51750    0.000
 6733.00    0.68676   0.51910    0.000
 6734.00    0.69874   0.52279    0.000
 6735.00    0.64960   0.52041    0.000
 6736.00    0.59558   0.51594    0.000
 6737.00    0.53017   0.51800    0.000
 6738.00    0.48553   0.52159    0.000
 6739.00    0.48287   0.52108    0.000
 6740.00    0.49313   0.51928    0.000
 6741.00    0.52615   0.51716    0.000
 6742.00    0.54973   0.51384    0.000
 6743.00    0.55879   0.51177    0.000
 6744.00    0.53928   0.51440    0.000
 6745.00    0.48116   0.51501    0.000
 6746.00    0.45162   0.51267    0.000
 6747.00    0.45610   0.51645    0.000
 6748.00    0.48620   0.52130    0.000
 6749.00    0.54318   0.52409    0.000
 6750.00    0.59513   0.52752    0.000
 6751.00    0.64243   0.53014    0.000
 6752.00    0.66689   0.53115    0.000
 6753.00    0.67272   0.53133    0.006
 6754.00    0.65338   0.53015    0.006
 6755.00    0.61596   0.52804    0.006
 6756.00    0.58141   0.52819    0.006
 6757.00    0.54865   0.52894    0.006
 6758.00    0.48563   0.52685    0.006
 6759.00    0.40592   0.52047    0.006
 6760.00    0.43020   0.51372    0.006
 6761.00    0.50430   0.51416    0.006
 6762.00    0.54115   0.51937    0.006
 6763.00    0.56258   0.51980    0.006
 6764.00    0.55656   0.51686    0.006
 6765.00    0.54084   0.51870    0.006
 6766.00    0.57091   0.52410    0.006
 6767.00    0.61464   0.52867    0.006
 6768.00    0.62584   0.53183    0.006
 6769.00    0.62897   0.53325    0.006
 6770.00    0.60543   0.53263    0.006
 6771.00    0.57654   0.53261    0.006
 6772.00    0.54160   0.53394    0.005
 6773.00    0.50572   0.53318    0.005
 6774.00    0.52600   0.52901    0.005
 6775.00    0.55283   0.52117    0.005
 6776.00    0.52713   0.51246    0.005
 6777.00    0.49729   0.50764    0.005
 6778.00    0.56243   0.50830    0.006
 6779.00    0.63170   0.51150    0.006
 6780.00    0.67152   0.51629    0.006
 6781.00    0.70876   0.52075    0.006
 6782.00    0.64035   0.52079    0.006
 6783.00    0.57423   0.51940    0.006
 6784.00    0.54938   0.52051    0.005
 6785.00    0.52660   0.52036    0.005
 6786.00    0.52629   0.51671    0.005
 6787.00    0.52287   0.51453    0.005
 6788.00    0.49547   0.51587    0.005
 6789.00    0.47991   0.51774    0.005
 6790.00    0.53335   0.52011    0.005
 6791.00    0.57681   0.52118    0.006
 6792.00    0.57406   0.52189    0.006
 6793.00    0.56025   0.52363    0.006
 6794.00    0.50458   0.52509    0.006
 6795.00    0.46893   0.52541    0.006
 6796.00    0.49644   0.52379    0.006
 6797.00    0.53026   0.52176    0.006
 6798.00    0.58096   0.52221    0.006
 6799.00    0.61645   0.52124    0.006
 6800.00    0.61699   0.51962    0.006
 6801.00    0.62952   0.52135    0.006
 6802.00    0.66593   0.52157    0.006
 6803.00    0.67100   0.51956    0.005
 6804.00    0.62178   0.52054    0.005
 6805.00    0.58347   0.52219    0.005
 6806.00    0.56173   0.52162    0.005
 6807.00    0.55556   0.51788    0.005
 6808.00    0.57013   0.51484    0.005
 6809.00    0.58149   0.51826    0.005
 6810.00    0.58908   0.52356    0.005
 6811.00    0.60787   0.52403    0.005
 6812.00    0.63827   0.52042    0.006
 6813.00    0.65118   0.51760    0.006
 6814.00    0.64811   0.51964    0.006
 6815.00    0.60932   0.52408    0.006
 6816.00    0.54180   0.52663    0.006
 6817.00    0.49494   0.52718    0.006
 6818.00    0.46272   0.52730    0.005
 6819.00    0.44987   0.52579    0.005
 6820.00    0.44907   0.52037    0.005
 6821.00    0.44126   0.51460    0.005
 6822.00    0.42967   0.51519    0.005
 6823.00    0.44506   0.52055    0.005
 6824.00    0.47318   0.52379    0.005
 6825.00    0.52415   0.52219    0.005
 6826.00    0.58442   0.52065    0.005
 6827.00    0.61839   0.52341    0.005
 6828.00    0.64322   0.52615    0.005
 6829.00    0.62300   0.52518    0.005
 6830.00    0.58961   0.52235    0.005
 6831.00    0.57836   0.51838    0.005
 6832.00    0.57248   0.51296    0.005
 6833.00    0.60037   0.50726    0.005
 6834.00    0.63488   0.50230    0.005
 6835.00    0.60712   0.50181    0.005
 6836.00    0.56986   0.50733    0.005
 6837.00    0.58027   0.51496    0.006
 6838.00    0.59602   0.52026    0.006
 6839.00    0.59231   0.52096    0.006
 6840.00    0.58715   0.52059    0.006
 6841.00    0.51083   0.52108    0.006
 6842.00    0.43167   0.52028    0.006
 6843.00    0.39456   0.51862    0.005
 6844.00    0.36295   0.51845    0.005
 6845.00    0.53819   0.51949    0.005
 6846.00    0.69532   0.51840    0.005
 6847.00    0.54643   0.51176    0.005
 6848.00    0.41407   0.50486    0.005
 6849.00    0.45465   0.50554    0.005
 6850.00    0.49221   0.50933    0.005
 6851.00    0.50739   0.51142    0.005
 6852.00    0.52242   0.51263    0.005
 6853.00    0.53662   0.50944    0.005
 6854.00    0.54794   0.50350    0.005
 6855.00    0.54625   0.50461    0.005
 6856.00    0.53408   0.51415    0.005
 6857.00    0.48312   0.52200    0.005
 6858.00    0.42821   0.52181    0.005
 6859.00    0.36108   0.51659    0.005
 6860.00    0.35288   0.51025    0.005
 6861.00    0.49976   0.50665    0.005
 6862.00    0.59952   0.50936    0.005
 6863.00    0.59284   0.51372    0.005
 6864.00    0.58025   0.51209    0.005
 6865.00    0.55609   0.50822    0.005
 6866.00    0.54743   0.50939    0.005
 6867.00    0.56521   0.51273    0.005
 6868.00    0.57051   0.51381    0.005
 6869.00    0.55718   0.51570    0.005
 6870.00    0.53061   0.51972    0.005
 6871.00    0.48667   0.52286    0.005
 6872.00    0.46274   0.52289    0.005
 6873.00    0.46198   0.51982    0.005
 6874.00    0.46105   0.51344    0.005
 6875.00    0.45994   0.50765    0.005
 6876.00    0.49438   0.50734    0.005
 6877.00    0.56084   0.51198    0.005
 6878.00    0.58727   0.51459    0.005
 6879.00    0.58196   0.51425    0.005
 6880.00    0.59098   0.51704    0.005
 6881.00    0.60999   0.52087    0.005
 6882.00    0.60329   0.52194    0.005
 6883.00    0.58085   0.52252    0.005
 6884.00    0.57020   0.52365    0.005
 6885.00    0.56585   0.52294    0.005
 6886.00    0.57745   0.52158    0.005
 6887.00    0.59646   0.52113    0.005
 6888.00    0.62073   0.51969    0.005
 6889.00    0.64709   0.51831    0.005
 6890.00    0.63820   0.51965    0.005
 6891.00    0.61729   0.52161    0.005
 6892.00    0.63984   0.52012    0.005
 6893.00    0.67485   0.51677    0.005
 6894.00    0.67480   0.51812    0.005
 6895.00    0.66646   0.52295    0.005
 6896.00    0.61320   0.52471    0.005
 6897.00    0.55138   0.52302    0.005
 6898.00    0.59528   0.52194    0.005
 6899.00    0.65481   0.52441    0.005
 6900.00    0.67053   0.52781    0.005
 6901.00    0.68153   0.52883    0.005
 6902.00    0.70503   0.52810    0.005
 6903.00    0.72942   0.52612    0.005
 6904.00    0.65623   0.52304    0.005
 6905.00    0.57955   0.52002    0.005
 6906.00    0.51627   0.51560    0.005
 6907.00    0.45387   0.51165    0.005
 6908.00    0.41993   0.51313    0.005
 6909.00    0.38799   0.51577    0.005
 6910.00    0.38769   0.51631    0.005
 6911.00    0.38792   0.51829    0.005
 6912.00    0.39336   0.52048    0.005
 6913.00    0.40091   0.52297    0.005
 6914.00    0.42364   0.52536    0.005
 6915.00    0.44611   0.52493    0.005
 6916.00    0.46710   0.51957    0.005
 6917.00    0.48146   0.51143    0.005
 6918.00    0.46657   0.50763    0.005
 6919.00    0.45380   0.51075    0.005
 6920.00    0.44870   0.51737    0.005
 6921.00    0.43643   0.52185    0.005
 6922.00    0.40236   0.52305    0.005
 6923.00    0.38497   0.52262    0.005
 6924.00    0.41072   0.52076    0.005
 6925.00    0.41233   0.51709    0.005
 6926.00    0.36031   0.51402    0.005
 6927.00    0.37354   0.51646    0.005
 6928.00    0.51248   0.52075    0.005
 6929.00    0.58438   0.52139    0.005
 6930.00    0.54360   0.52027    0.005
 6931.00    0.51722   0.52031    0.005
 6932.00    0.51208   0.52223    0.005
 6933.00    0.51471   0.52472    0.005
 6934.00    0.52740   0.52557    0.005
 6935.00    0.55830   0.52317    0.005
 6936.00    0.60998   0.51771    0.005
 6937.00    0.58977   0.51057    0.005
 6938.00    0.49725   0.50729    0.005
 6939.00    0.46907   0.51261    0.005
 6940.00    0.49799   0.52020    0.005
 6941.00    0.51758   0.52364    0.005
 6942.00    0.52987   0.52412    0.005
 6943.00    0.57209   0.52109    0.005
 6944.00    0.63490   0.51610    0.005
 6945.00    0.61642   0.51365    0.005
 6946.00    0.54893   0.51280    0.005
 6947.00    0.53576   0.51275    0.005
 6948.00    0.55117   0.51613    0.005
 6949.00    0.53339   0.52099    0.005
 6950.00    0.50046   0.52327    0.005
 6951.00    0.54562   0.52302    0.005
 6952.00    0.62145   0.52285    0.005
 6953.00    0.61818   0.52328    0.005
 6954.00    0.58846   0.52437    0.005
 6955.00    0.53185   0.52538    0.005
 6956.00    0.46769   0.52620    0.005
 6957.00    0.43289   0.52581    0.005
 6958.00    0.40488   0.52310    0.005
 6959.00    0.44964   0.52195    0.005
 6960.00    0.50791   0.52530    0.005
 6961.00    0.50300   0.52899    0.005
 6962.00    0.48905   0.52840    0.005
 6963.00    0.51334   0.52451    0.005
 6964.00    0.54159   0.52179    0.005
 6965.00    0.52045   0.52365    0.005
 6966.00    0.49603   0.52611    0.005
 6967.00    0.51393   0.52358    0.005
 6968.00    0.53320   0.51818    0.005
 6969.00    0.55840   0.51156    0.005
 6970.00    0.58208   0.50084    0.005
 6971.00    0.55956   0.48940    0.005
 6972.00    0.53562   0.49010    0.005
 6973.00    0.49065   0.50370    0.005
 6974.00    0.44490   0.51645    0.006
 6975.00    0.39169   0.52329    0.005
 6976.00    0.35457   0.52638    0.005
 6977.00    0.42944   0.52705    0.005
 6978.00    0.49106   0.52691    0.006
 6979.00    0.48158   0.52648    0.006
 6980.00    0.49350   0.52413    0.006
 6981.00    0.59767   0.51946    0.006
 6982.00    0.66428   0.51586    0.005
 6983.00    0.59757   0.51690    0.005
 6984.00    0.55095   0.52116    0.005
 6985.00    0.56425   0.52447    0.005
 6986.00    0.56881   0.52386    0.005
 6987.00    0.55116   0.52150    0.005
 6988.00    0.54184   0.52132    0.005
 6989.00    0.55073   0.52268    0.005
 6990.00    0.55075   0.52218    0.005
 6991.00    0.53395   0.51770    0.005
 6992.00    0.52381   0.51115    0.005
 6993.00    0.52467   0.50959    0.005
 6994.00    0.52684   0.51492    0.005
 6995.00    0.53091   0.51993    0.006
 6996.00    0.57146   0.51816    0.006
 6997.00    0.65857   0.51273    0.006
 6998.00    0.65055   0.51078    0.006
 6999.00    0.53551   0.51286    0.005
 7000.00    0.49814   0.51595    0.005
 7001.00    0.53782   0.51909    0.005
 7002.00    0.54388   0.52120    0.005
 7003.00    0.52050   0.52018    0.005
 7004.00    0.50117   0.51828    0.005
 7005.00    0.48494   0.51974    0.005
 7006.00    0.48818   0.52162    0.005
 7007.00    0.50461   0.51616    0.005
 7008.00    0.52641   0.50256    0.005
 7009.00    0.55141   0.49311    0.005
 7010.00    0.52992   0.50020    0.005
 7011.00    0.48435   0.51547    0.005
 7012.00    0.47983   0.52431    0.005
 7013.00    0.49372   0.52635    0.005
 7014.00    0.50765   0.52471    0.005
 7015.00    0.52160   0.51801    0.006
 7016.00    0.53070   0.50907    0.006
 7017.00    0.53822   0.50580    0.006
 7018.00    0.47778   0.51019    0.006
 7019.00    0.39864   0.51580    0.006
 7020.00    0.38684   0.51778    0.006
 7021.00    0.39025   0.51864    0.006
 7022.00    0.45089   0.52057    0.006
 7023.00    0.52187   0.52260    0.006
 7024.00    0.57024   0.52287    0.005
 7025.00    0.61549   0.52119    0.005
 7026.00    0.62288   0.51967    0.005
 7027.00    0.62651   0.51992    0.005
 7028.00    0.59569   0.52228    0.005
 7029.00    0.56272   0.52208    0.006
 7030.00    0.49736   0.51402    0.006
 7031.00    0.43132   0.50613    0.006
 7032.00    0.42938   0.51160    0.006
 7033.00    0.42712   0.52607    0.006
 7034.00    0.41613   0.53616    0.006
 7035.00    0.40840   0.53902    0.006
 7036.00    0.44650   0.53672    0.006
 7037.00    0.48085   0.53125    0.006
 7038.00    0.48064   0.52807    0.006
 7039.00    0.48802   0.53085    0.006
 7040.00    0.54646   0.53611    0.006
 7041.00    0.59420   0.53924    0.006
 7042.00    0.58597   0.53852    0.006
 7043.00    0.58627   0.53421    0.006
 7044.00    0.62243   0.52597    0.006
 7045.00    0.64738   0.51405    0.006
 7046.00    0.63329   0.50328    0.006
 7047.00    0.59555   0.49789    0.006
 7048.00    0.48859   0.49889    0.006
 7049.00    0.40812   0.50491    0.006
 7050.00    0.39379   0.50966   -2.000
 7051.00    0.38941   0.50774   -2.000
 7052.00    0.40643   0.50065   -2.000
 7053.00    0.45174   0.49547   -2.000
 7054.00    0.54988   0.49599   -2.000
 7055.00    0.60682   0.49887   -2.000
 7056.00    0.59657   0.50170   -2.000
 7057.00    0.58856   0.50347   -2.000
 7058.00    0.58378   0.50075   -2.000
 7059.00    0.58724   0.49475   -2.000
 7060.00    0.60109   0.48976   -2.000
 7061.00    0.52489   0.48821   -2.000
 7062.00    0.34881   0.49358   -2.000
 7063.00    0.33284   0.50286   -2.000
 7064.00    0.47345   0.50866   -2.000
 7065.00    0.56363   0.51029   -2.000
 7066.00    0.61031   0.51108   -2.000
 7067.00    0.60964   0.51099   -2.000
 7068.00    0.57298   0.50988   -2.000
 7069.00    0.54505   0.50927   -2.000
 7070.00    0.52294   0.50990   -2.000
 7071.00    0.50526   0.51115   -2.000
 7072.00    0.49016   0.51242   -2.000
 7073.00    0.52033   0.51384   -2.000
 7074.00    0.57358   0.51277   -2.000
 7075.00    0.49264   0.50621   -2.000
 7076.00    0.35246   0.49492   -2.000
 7077.00    0.43580   0.48508   -2.000
 7078.00    0.60390   0.48350   -2.000
 7079.00    0.66625   0.48552   -2.000
 7080.00    0.69454   0.48243   -2.000
 7081.00    0.67462   0.47734   -2.000
 7082.00    0.64172   0.47504   -2.000
 7083.00    0.58850   0.47539   -2.000
 7084.00    0.53080   0.47804   -2.000
 7085.00    0.56391   0.47982   -2.000
 7086.00    0.61298   0.47940   -2.000
 7087.00    0.58952   0.47893   -2.000
 7088.00    0.55633   0.47839   -2.000
 7089.00    0.56251   0.47866   -2.000
 7090.00    0.57243   0.48060   -2.000
 7091.00    0.58900   0.48529   -2.000
 7092.00    0.60595   0.49023   -2.000
 7093.00    0.66806   0.49077   -2.000
 7094.00    0.72926   0.48765   -2.000
 7095.00    0.51482   0.48382   -2.000
 7096.00    0.31074   0.48397   -2.000
 7097.00    0.36383   0.48859   -2.000
 7098.00    0.40917   0.49191   -2.000
 7099.00    0.35140   0.49061   -2.000
 7100.00    0.31167   0.48900   -2.000
 7101.00    0.43187   0.48980   -2.000
 7102.00    0.52183   0.48873   -2.000
 7103.00    0.41422   0.48335   -2.000
 7104.00    0.34297   0.47924   -2.000
 7105.00    0.45683   0.48166   -2.000
 7106.00    0.54356   0.48713   -2.000
 7107.00    0.51859   0.49024   -2.000
 7108.00    0.50541   0.49178   -2.000
 7109.00    0.53243   0.49357   -2.000
 7110.00    0.57924   0.49429   -2.000
 7111.00    0.68294   0.49394   -2.000
 7112.00    0.68719   0.49322   -2.000
 7113.00    0.44741   0.49168   -2.000
 7114.00    0.31079   0.48884   -2.000
 7115.00    0.39249   0.48788   -2.000
 7116.00    0.50482   0.49059   -2.000
 7117.00    0.67350   0.48910   -2.000
 7118.00    0.73009   0.48060   -2.000
 7119.00    0.60658   0.47420   -2.000
 7120.00    0.53705   0.47480   -2.000
 7121.00    0.54361   0.47634   -2.000
 7122.00    0.61468   0.47231   -2.000
 7123.00    0.76579   0.46565   -2.000
 7124.00    0.90494   0.46487   -2.000
 7125.00    1.03103   0.47071   -2.000
 7126.00    0.92256   0.47744   -2.000
 7127.00    0.58789   0.48187   -2.000
 7128.00    0.41904   0.48343   -2.000
 7129.00    0.39120   0.48424   -2.000
 7130.00    0.44162   0.48389   -2.000
 7131.00    0.55066   0.48056   -2.000
 7132.00    0.63605   0.47873   -2.000
 7133.00    0.70589   0.48197   -2.000
 7134.00    0.71659   0.48571   -2.000
 7135.00    0.69323   0.48635   -2.000
 7136.00    0.58457   0.48591   -2.000
 7137.00    0.43312   0.48549   -2.000
 7138.00    0.55047   0.48495   -2.000
 7139.00    0.78454   0.48160   -2.000
 7140.00    0.72987   0.47323   -2.000
 7141.00    0.56764   0.46860   -2.000
 7142.00    0.52565   0.47361   -2.000
 7143.00    0.52166   0.48041   -2.000
 7144.00    0.54538   0.48536   -2.000
 7145.00    0.57641   0.49086   -2.000
 7146.00    0.58196   0.49361   -2.000
 7147.00    0.58202   0.49128   -2.000
 7148.00    0.58709   0.49012   -2.000
 7149.00    0.59300   0.49457   -2.000
 7150.00    0.52175   0.49785   -2.000
 7151.00    0.44050   0.49431   -2.000
 7152.00    0.46459   0.48887   -2.000
 7153.00    0.49825   0.48800   -2.000
 7154.00    0.52045   0.49134   -2.000
 7155.00    0.54203   0.48987   -2.000
 7156.00    0.49299   0.47935   -2.000
 7157.00    0.44394   0.46871   -2.000
 7158.00    0.52837   0.46878   -2.000
 7159.00    0.60950   0.47835   -2.000
 7160.00    0.61586   0.48683   -2.000
 7161.00    0.61689   0.48891   -2.000
 7162.00    0.55071   0.48768   -2.000
 7163.00    0.50148   0.48839   -2.000
 7164.00    0.59684   0.49198   -2.000
 7165.00    0.66826   0.49506   -2.000
 7166.00    0.58789   0.49497   -2.000
 7167.00    0.53448   0.49163   -2.000
 7168.00    0.61489   0.48686   -2.000
 7169.00    0.67657   0.48524   -2.000
 7170.00    0.66282   0.48860   -2.000
 7171.00    0.63362   0.49021   -2.000
 7172.00    0.55281   0.48406   -2.000
 7173.00    0.50107   0.47488   -2.000
 7174.00    0.53138   0.47328   -2.000
 7175.00    0.53895   0.48238   -2.000
 7176.00    0.49168   0.49280   -2.000
 7177.00    0.46388   0.49558   -2.000
 7178.00    0.47663   0.49044   -2.000
 7179.00    0.48518   0.47945   -2.000
 7180.00    0.48611   0.46918   -2.000
 7181.00    0.46680   0.46703   -2.000
 7182.00    0.41548   0.47199   -2.000
 7183.00    0.40690   0.47980   -2.000
 7184.00    0.45770   0.48417   -2.000
 7185.00    0.52587   0.48320   -2.000
 7186.00    0.61526   0.48305   -2.000
 7187.00    0.66107   0.48650   -2.000
 7188.00    0.65989   0.48813   -2.000
 7189.00    0.60252   0.48392   -2.000
 7190.00    0.49174   0.48064   -2.000
 7191.00    0.46568   0.48360   -2.000
 7192.00    0.51066   0.48737   -2.000
 7193.00    0.48483   0.48566   -2.000
 7194.00    0.40672   0.48028   -2.000
 7195.00    0.37003   0.48047   -2.000
 7196.00    0.36017   0.48778   -2.000
 7197.00    0.45867   0.49279   -2.000
 7198.00    0.61863   0.48775   -2.000
 7199.00    0.62536   0.47407   -2.000
 7200.00    0.55641   0.46461   -2.000
 7201.00    0.67199   0.46692   -2.000
 7202.00    0.86636   0.47576   -2.000
 7203.00    0.79059   0.48603   -2.000
 7204.00    0.61598   0.49154   -2.000
 7205.00    0.49458   0.48904   -2.000
 7206.00    0.38966   0.48405   -2.000
 7207.00    0.36681   0.48163   -2.000
 7208.00    0.36514   0.48213   -2.000
 7209.00    0.36899   0.48550   -2.000
 7210.00    0.37402   0.49105   -2.000
 7211.00    0.43130   0.49409   -2.000
 7212.00    0.49727   0.49263   -2.000
 7213.00    0.48424   0.49008   -2.000
 7214.00    0.46134   0.48837   -2.000
 7215.00    0.53045   0.48611   -2.000
 7216.00    0.60752   0.48538   -2.000
 7217.00    0.47014   0.49013   -2.000
 7218.00    0.32187   0.49689   -2.000
