###################################################################
## OUTPUT of StarlightChains_v04.for    [Cid@UFSC - 01/Apr/2007] ##
###################################################################

## Some input info
KUG0210-078._54_32.txt                   [arq_obs]
Base.CB07.vall.4m                        [arq_base]
Masks.EmLines.NEW.gm                     [arq_masks]
StCv04.C11.config                        [arq_config]
   66                                    [N_base]
    0                                    [N_YAV_components = # of components with extra extinction!]
    0                                    [i_FitPowerLaw (1/0 = Yes/No)]
-9.99                                    [alpha_PowerLaw]
CCM                                      [red_law_option]
 1.458241                                [q_norm = A(l_norm)/A(V)]

## (Re)Sampling Parameters
 3741.00                                 [l_ini (A)]
 7218.00                                 [l_fin (A)]
    1.00                                 [dl    (A)]     (OBS: dl_cushion =    50.00 A)

## Normalization info
 4020.00                                 [l_norm (A) - for base]
 4010.00                                 [llow_norm (A) - window for f_obs]
 4060.00                                 [lupp_norm (A) - window for f_obs]
6.046760E-18                             [fobs_norm (in input units)]

## S/N
 3691.00                                 [llow_SN (A) - window for S/N]
 7268.00                                 [lupp_SN (A) - window for S/N]
   2.703                                 [S/N in S/N window]
   3.917                                 [S/N in norm. window]
   0.005                                 [S/N_err in S/N window]
   0.007                                 [S/N_err in norm. window]
  1.0000                                 [fscale_chi2]

## etc...
    -2008008                             [idum_orig]
  2398                                   [NOl_eff]
  2356                                   [Nl_eff]
    42    NSIGMA                         [Ntot_cliped & clip_method]
  1864030                                [Nglobal_steps]
   7                                     [N_chains]
  34                                     [NEX0s_base = N_base in EX0s-fits]
 0   1   1       43   2.0   1.687E+03    [Clip-Bug, RC-Crash & Burn-In warning-flags, n_censored_weights, wei_nsig_threshold & wei_limit]
    44     43.569     42.658      0.911  [idt_all, wdt_TotTime, wdt_UsrTime & wdt_SysTime (sec)]

## Synthesis Results - Best model ##

 2.54184E-04                             [chi2/Nl_eff]
    41.06796                             [adev (%)]

   114.90343                             [sum-of-x (%)]
 1.84179E-18                             [Flux_tot (units of input spectrum!)]
 2.80597E-14                             [Mini_tot (???)]
 1.50282E-14                             [Mcor_tot (???)]

 301.93                                  [v0_min  (km/s)]
  28.59                                  [vd_min  (km/s)]
-0.9885                                  [AV_min  (mag)]
 0.0000                                  [YAV_min (mag)]

# j     x_j(%)      Mini_j(%)     Mcor_j(%)     age_j(yr)     Z_j      (L/M)_j    YAV?  Mstars   component_j        a/Fe...       SSP_chi2r SSP_adev(%)   SSP_AV   SSP_x(%)
  1     22.9703     1.1994E-01    2.2395E-01    1.000000E+06  0.00400  1.094E-02    0   1.0000   age020_m42            0.0000     7.9968E-06    37.7157   2.1034    86.1828
  2      0.0000     0.0000E+00    0.0000E+00    3.160000E+06  0.00400  4.007E-02    0   0.9999   age045_m42            0.0000     8.1172E-06    36.9224   1.3460    93.0424
  3      0.0000     0.0000E+00    0.0000E+00    5.010000E+06  0.00400  2.539E-02    0   0.9488   age055_m42            0.0000     8.0590E-06    37.0409   1.6836    90.1632
  4      0.0000     0.0000E+00    0.0000E+00    6.610000E+06  0.00400  2.620E-02    0   0.9220   age061_m42            0.0000     8.1741E-06    36.6314   1.2675    93.1072
  5      0.5740     2.4801E-03    4.1037E-03    1.000000E+07  0.00400  1.322E-02    0   0.8862   age070_m42            0.0000     8.1415E-06    37.0131   0.9440    94.0341
  6      0.0000     0.0000E+00    0.0000E+00    1.445000E+07  0.00400  7.883E-03    0   0.8571   age078_m42            0.0000     8.0995E-06    37.3100   1.2771    91.5528
  7      1.0480     1.1401E-02    1.7401E-02    2.512000E+07  0.00400  5.251E-03    0   0.8174   age090_m42            0.0000     8.1714E-06    37.0134   0.8090    94.3581
  8      0.0000     0.0000E+00    0.0000E+00    4.000000E+07  0.00400  3.649E-03    0   0.7851   age104_m42            0.0000     8.2143E-06    36.7681   0.5846    95.5121
  9      0.0000     0.0000E+00    0.0000E+00    5.500000E+07  0.00400  3.098E-03    0   0.7629   age110_m42            0.0000     8.3152E-06    36.4301   0.7481    96.0745
 10      0.0000     0.0000E+00    0.0000E+00    1.015200E+08  0.00400  2.228E-03    0   0.7207   age116_m42            0.0000     8.4255E-06    36.0661   0.7732    96.5913
 11      0.0000     0.0000E+00    0.0000E+00    2.861200E+08  0.00400  1.093E-03    0   0.6648   age125_m42            0.0000     8.5554E-06    36.4692   0.1315    99.6946
 12      0.7722     6.6864E-02    7.9463E-02    5.088000E+08  0.00400  6.597E-04    0   0.6365   age130_m42            0.0000     8.7437E-06    35.8667   0.1386   101.1446
 13      0.0000     0.0000E+00    0.0000E+00    1.434000E+09  0.00400  2.132E-04    0   0.5798   age139_m42            0.0000     8.8198E-06    35.3816  -0.7988   103.5079
 14      1.2486     1.2100E+00    1.2148E+00    4.250000E+09  0.00400  5.895E-05    0   0.5377   age158_m42            0.0000     9.1364E-06    32.8011  -1.0000    88.4767
 15      4.9635     8.0780E+00    7.8611E+00    7.500000E+09  0.00400  3.510E-05    0   0.5212   age171_m42            0.0000     1.0095E-05    31.1120  -1.0000    78.1991
 16      0.2949     8.4018E-01    7.8970E-01    1.300000E+10  0.00400  2.005E-05    0   0.5034   age193_m42            0.0000     1.1297E-05    30.4047  -1.0000    69.8793
 17      1.0927     4.0929E+00    3.7958E+00    1.800000E+10  0.00400  1.525E-05    0   0.4967   age213_m42            0.0000     1.1423E-05    30.4603  -1.0000    68.4424
 18      0.0000     0.0000E+00    0.0000E+00    1.000000E+06  0.00800  1.238E-02    0   1.0000   age020_m52            0.0000     7.9962E-06    37.7442   2.0998    86.4003
 19      0.0000     0.0000E+00    0.0000E+00    3.160000E+06  0.00800  3.074E-02    0   0.9966   age045_m52            0.0000     7.9865E-06    37.5321   2.0303    87.1771
 20      0.0000     0.0000E+00    0.0000E+00    5.010000E+06  0.00800  2.668E-02    0   0.9443   age055_m52            0.0000     8.0455E-06    37.1742   1.7663    89.2397
 21      0.0000     0.0000E+00    0.0000E+00    6.610000E+06  0.00800  2.136E-02    0   0.9177   age061_m52            0.0000     8.0531E-06    36.7499   0.4733    95.1018
 22      0.0000     0.0000E+00    0.0000E+00    1.000000E+07  0.00800  1.215E-02    0   0.8827   age070_m52            0.0000     8.1345E-06    37.6597   1.0956    93.4543
 23      0.0000     0.0000E+00    0.0000E+00    1.445000E+07  0.00800  8.717E-03    0   0.8552   age078_m52            0.0000     8.1187E-06    37.2646   1.2387    92.8546
 24      0.0000     0.0000E+00    0.0000E+00    2.512000E+07  0.00800  5.592E-03    0   0.8162   age090_m52            0.0000     8.2179E-06    37.3737   0.8449    95.6134
 25      0.0000     0.0000E+00    0.0000E+00    4.000000E+07  0.00800  3.896E-03    0   0.7841   age104_m52            0.0000     8.3002E-06    37.1727   0.7531    96.8218
 26      0.0000     0.0000E+00    0.0000E+00    1.015200E+08  0.00800  2.148E-03    0   0.7226   age116_m52            0.0000     8.4009E-06    36.4574   0.7111    97.2080
 27      0.0000     0.0000E+00    0.0000E+00    2.861200E+08  0.00800  9.925E-04    0   0.6683   age125_m52            0.0000     8.7948E-06    35.9991   0.1892   102.0596
 28      5.2935     9.6272E-01    1.1033E+00    9.047900E+08  0.00800  3.141E-04    0   0.6138   age135_m52            0.0000     9.1794E-06    36.1409  -0.6111   107.5914
 29      0.0000     0.0000E+00    0.0000E+00    1.434000E+09  0.00800  1.719E-04    0   0.5853   age139_m52            0.0000     9.3242E-06    33.9304  -1.0000    92.8278
 30      0.0000     0.0000E+00    0.0000E+00    2.500000E+09  0.00800  7.872E-05    0   0.5600   age150_m52            0.0000     1.0301E-05    31.3430  -1.0000    80.4028
 31      9.3694     1.2344E+01    1.2506E+01    4.250000E+09  0.00800  4.336E-05    0   0.5426   age158_m52            0.0000     1.0316E-05    31.2112  -1.0000    79.4105
 32     26.0316     4.7073E+01    4.6750E+01    6.250000E+09  0.00800  3.159E-05    0   0.5319   age166_m52            0.0000     1.1805E-05    30.2324  -1.0000    70.2719
 33      2.4015     1.0080E+01    9.5474E+00    1.300000E+10  0.00800  1.361E-05    0   0.5073   age193_m52            0.0000     1.5648E-05    30.8763  -1.0000    52.4912
 34      0.3999     2.3105E+00    2.1527E+00    1.800000E+10  0.00800  9.886E-06    0   0.4990   age213_m52            0.0000     1.6658E-05    31.1128  -1.0000    49.2395
 35      0.0000     0.0000E+00    0.0000E+00    1.000000E+06  0.02000  1.544E-02    0   1.0000   age020_m62            0.0000     7.9812E-06    37.7643   2.0961    86.6455
 36      0.9723     1.4764E-03    2.7176E-03    3.160000E+06  0.02000  3.762E-02    0   0.9858   age045_m62            0.0000     7.9791E-06    37.5841   2.0399    87.2671
 37      0.0000     0.0000E+00    0.0000E+00    5.010000E+06  0.02000  3.296E-02    0   0.9342   age055_m62            0.0000     8.1145E-06    36.7908   1.6430    91.5038
 38      1.3699     6.7811E-03    1.1219E-02    8.710000E+06  0.02000  1.154E-02    0   0.8861   age067_m62            0.0000     8.3194E-06    40.4707   0.4525    93.6234
 39      1.5741     1.1734E-02    1.8562E-02    1.445000E+07  0.02000  7.663E-03    0   0.8472   age078_m62            0.0000     8.1900E-06    38.8973   0.6772    95.1755
 40      0.0000     0.0000E+00    0.0000E+00    2.512000E+07  0.02000  4.532E-03    0   0.8099   age090_m62            0.0000     8.2596E-06    39.0596   0.6521    94.8662
 41      0.0884     1.8475E-03    2.6199E-03    5.500000E+07  0.02000  2.733E-03    0   0.7595   age110_m62            0.0000     8.2623E-06    36.9561   0.7450    95.9016
 42      0.0000     0.0000E+00    0.0000E+00    1.609000E+08  0.02000  1.369E-03    0   0.6985   age120_m62            0.0000     8.5902E-06    35.9242   0.5905    99.5905
 43      1.7327     1.0982E-01    1.3767E-01    2.861200E+08  0.02000  9.013E-04    0   0.6714   age125_m62            0.0000     8.9332E-06    35.3285   0.3495   102.8721
 44      0.0000     0.0000E+00    0.0000E+00    5.088000E+08  0.02000  5.028E-04    0   0.6449   age130_m62            0.0000     9.2327E-06    35.2459  -0.0113   106.7255
 45      4.0369     9.4977E-01    1.0958E+00    9.047900E+08  0.02000  2.428E-04    0   0.6179   age135_m62            0.0000     9.1666E-06    35.7526  -0.5967   106.5958
 46      4.4234     2.0007E+00    2.2070E+00    1.434000E+09  0.02000  1.263E-04    0   0.5908   age139_m62            0.0000     9.1707E-06    35.4224  -1.0000   103.5287
 47      2.3217     2.2160E+00    2.3473E+00    2.500000E+09  0.02000  5.985E-05    0   0.5673   age150_m62            0.0000     1.0377E-05    31.0196  -1.0000    83.1453
 48      0.2493     4.3541E-01    4.4454E-01    4.250000E+09  0.02000  3.271E-05    0   0.5468   age158_m62            0.0000     1.2515E-05    29.2888  -1.0000    69.1100
 49      0.0000     0.0000E+00    0.0000E+00    1.000000E+10  0.02000  1.360E-05    0   0.5167   age181_m62            0.0000     1.5563E-05    29.4915  -1.0000    55.7721
 50      0.0000     0.0000E+00    0.0000E+00    1.800000E+10  0.02000  7.124E-06    0   0.5013   age213_m62            0.0000     1.7535E-05    30.5152  -1.0000    48.6615
 51      1.4910     3.2859E-03    6.1340E-03    1.000000E+06  0.05000  2.592E-02    0   0.9998   age020_m72            0.0000     7.9546E-06    37.7918   2.0924    86.4330
 52      0.1753     2.0667E-04    3.6956E-04    3.160000E+06  0.05000  4.845E-02    0   0.9577   age045_m72            0.0000     8.0255E-06    37.2530   1.9194    88.7434
 53      2.3680     4.4033E-03    7.5202E-03    5.010000E+06  0.05000  3.072E-02    0   0.9147   age055_m72            0.0000     8.1461E-06    39.5665   1.2373    92.3410
 54      1.4682     5.7642E-03    9.5540E-03    6.610000E+06  0.05000  1.455E-02    0   0.8877   age061_m72            0.0000     8.8684E-06    46.3259   0.2665    93.7114
 55      1.8989     1.1955E-02    1.9026E-02    1.000000E+07  0.05000  9.074E-03    0   0.8524   age070_m72            0.0000     8.3676E-06    42.8546   1.2528    92.6760
 56      0.0000     0.0000E+00    0.0000E+00    2.512000E+07  0.05000  4.250E-03    0   0.7902   age090_m72            0.0000     8.3412E-06    40.1710   1.0532    94.3070
 57      0.0000     0.0000E+00    0.0000E+00    4.000000E+07  0.05000  3.087E-03    0   0.7618   age104_m72            0.0000     8.4046E-06    39.9074   0.8226    95.9073
 58      1.6563     5.5656E-02    7.3740E-02    1.015200E+08  0.05000  1.700E-03    0   0.7096   age116_m72            0.0000     8.5619E-06    36.7320   0.6851    98.9977
 59      0.0000     0.0000E+00    0.0000E+00    2.861200E+08  0.05000  7.384E-04    0   0.6633   age125_m72            0.0000     9.1531E-06    35.2410   0.2319   104.7578
 60      0.6147     9.1948E-02    1.0939E-01    5.088000E+08  0.05000  3.819E-04    0   0.6372   age130_m72            0.0000     9.2439E-06    35.2695  -0.2167   107.1005
 61      8.5546     2.9158E+00    3.3264E+00    9.047900E+08  0.05000  1.676E-04    0   0.6110   age135_m72            0.0000     9.4007E-06    35.5419  -0.8452   105.4887
 62      2.6864     1.7366E+00    1.9046E+00    1.434000E+09  0.05000  8.837E-05    0   0.5874   age139_m72            0.0000     1.0586E-05    31.0940  -1.0000    83.8528
 63      0.2970     4.0084E-01    4.1897E-01    2.500000E+09  0.05000  4.233E-05    0   0.5598   age150_m72            0.0000     1.2540E-05    29.2094  -1.0000    70.3263
 64      0.4644     1.8486E+00    1.8117E+00    6.250000E+09  0.05000  1.435E-05    0   0.5249   age166_m72            0.0000     1.6387E-05    30.0220  -1.0000    52.2827
 65      0.0000     0.0000E+00    0.0000E+00    1.300000E+10  0.05000  6.513E-06    0   0.5036   age193_m72            0.0000     1.8997E-05    31.8054  -1.0000    44.3075
 66      0.0000     0.0000E+00    0.0000E+00    1.800000E+10  0.05000  4.527E-06    0   0.4945   age213_m72            0.0000     2.0491E-05    33.3288  -1.0000    39.8362


## Synthesis Results - Average & Chains ##

# j      x_j: min, <> & last-chain-values for 1 ...  7 chains
  1     22.9703     26.6052     30.4535     32.7036     30.7559     35.1137     27.6383     34.9244     33.4069
  2      0.0000      0.1902      0.1481      0.0000      0.4100      0.1654      0.0000      0.0000      0.0741
  3      0.0000      0.2726      0.3313      0.0000      0.0000      0.3821      0.1127      0.0000      0.1991
  4      0.0000      0.2939      0.0000      0.0732      0.0000      0.0000      0.0000      0.0000      0.0000
  5      0.5740      0.1403      0.1734      0.4838      0.6404      0.0517      0.0000      0.0000      0.0000
  6      0.0000      0.2547      0.2920      0.0000      0.0000      0.3395      0.0000      0.0000      0.5112
  7      1.0480      0.2170      0.0000      0.8039      0.0000      0.0000      0.3139      0.0000      0.1380
  8      0.0000      0.3281      0.2240      0.3056      0.1390      0.0000      0.0000      0.0000      0.0000
  9      0.0000      0.2918      0.0000      0.1112      0.3511      0.0000      0.4695      0.7331      0.1800
 10      0.0000      0.3883      0.4887      0.0000      0.1462      0.0418      0.4952      0.1912      0.0000
 11      0.0000      0.5545      0.0000      0.0000      0.0000      0.0000      0.0000      0.9915      1.1456
 12      0.7722      0.4744      0.0000      0.6813      0.8073      0.0000      0.0000      0.2752      0.0000
 13      0.0000      2.8173      0.9293      0.0000      0.2330      0.0000      6.6131      0.1319      0.0000
 14      1.2486      1.5326      2.4841      1.6419      2.5914      0.1162      0.0000      0.5296      1.1671
 15      4.9635      4.8776      4.7816      4.5252      6.6554      6.2781      4.4112      3.8592      5.7013
 16      0.2949      0.3336      0.2508      0.6674      0.0967      0.0000      0.4483      0.2151      0.4734
 17      1.0927      0.4629      0.6234      1.2256      0.6347      0.0000      0.7780      0.4250      0.0000
 18      0.0000      0.1816      0.0000      0.0000      0.3712      0.0000      0.0000      0.0000      0.0000
 19      0.0000      0.2285      0.1518      0.0000      0.0342      0.0000      0.0225      0.0000      0.4401
 20      0.0000      0.1440      0.0000      0.0000      0.0000      0.0000      0.0000      0.0000      0.0000
 21      0.0000      0.4658      0.8878      0.1334      0.0000      0.0000      0.6055      0.0554      0.0000
 22      0.0000      0.2867      0.0000      0.0494      0.0845      0.0120      0.4009      0.0000      0.0000
 23      0.0000      0.2958      0.3012      0.0000      0.0000      0.0217      0.0000      0.0000      0.0000
 24      0.0000      0.2881      0.0000      0.0000      0.0000      0.0000      0.0022      0.1709      0.7779
 25      0.0000      0.1893      0.0000      0.0000      0.0000      0.3952      0.5243      0.1100      0.5176
 26      0.0000      0.2122      0.5851      0.0000      0.3775      0.1274      1.0334      0.6284      0.0000
 27      0.0000      0.3983      0.5610      0.2113      0.2883      0.6500      0.0000      0.2629      0.2721
 28      5.2935      1.3617      1.5689      0.3981      0.0846      0.0000      0.6234      0.0000      0.0000
 29      0.0000      1.2396      0.0000      0.3091      0.2728      0.1206      1.8104      1.3463      1.3393
 30      0.0000      1.0294      0.5777      0.3427      0.0000      0.0000      0.8454      0.0424      0.5000
 31      9.3694     12.9622     11.9015     12.7608     13.5409     14.5262     11.8804     12.9275     13.7344
 32     26.0316     27.6788     32.3383     35.3645     31.4634     36.7135     29.4205     35.8306     33.7037
 33      2.4015      1.3718      0.9990      1.1780      1.1717      0.8619      1.0393      1.5620      2.0590
 34      0.3999      0.6388      0.7930      0.5428      0.6969      1.0654      0.5161      1.0020      0.6050
 35      0.0000      0.3769      0.4330      0.0000      0.0000      0.2093      0.0000      0.2478      0.4822
 36      0.9723      1.5513      2.4987      1.6509      2.2132      2.9357      2.6403      1.9901      2.6120
 37      0.0000      0.1919      0.4181      0.2189      0.2649      0.1716      0.1201      0.6557      0.0000
 38      1.3699      0.5279      0.8185      0.5085      0.0000      0.0000      0.0000      0.6066      0.0000
 39      1.5741      0.6632      0.8022      0.3753      0.6842      0.9372      0.9413      0.1214      1.1436
 40      0.0000      0.3288      0.0000      0.1331      0.0092      0.0765      1.7819      0.0000      0.7681
 41      0.0884      0.3306      0.0000      0.5659      0.0000      0.0000      0.2441      0.0000      0.0000
 42      0.0000      0.2483      0.0000      0.1925      0.2019      0.0000      0.0514      0.3888      0.0000
 43      1.7327      0.3199      0.0000      0.4760      0.0000      0.0464      0.0000      0.0000      0.6633
 44      0.0000      0.8926      0.3934      0.0000      0.4625      0.0000      0.6952      0.3722      0.0000
 45      4.0369      1.7869      0.0000      0.4221      1.9648      0.2663      0.6849      0.0000      0.0000
 46      4.4234      2.2935      2.0110      1.8289      2.9076      0.0000      3.4642      1.7198      0.0000
 47      2.3217      1.4387      0.7233      0.5082      0.2613      0.1125      1.9692      0.3602      0.2187
 48      0.2493      0.4562      0.2877      1.5298      0.3417      0.0251      1.1782      0.0000      0.0349
 49      0.0000      0.1938      0.0000      0.0000      0.1429      0.1250      0.0000      0.0365      0.1480
 50      0.0000      0.0747      0.2770      0.2023      0.0000      0.2596      0.0000      0.0000      0.0000
 51      1.4910      0.1991      0.0581      0.3219      0.0000      0.0000      0.0000      0.0000      0.2499
 52      0.1753      0.4423      0.8005      1.2414      0.1315      0.6774      0.2771      0.9428      0.0917
 53      2.3680      0.9574      1.7856      1.7051      2.0466      2.4513      1.4669      1.5473      1.1590
 54      1.4682      0.4595      0.0000      0.5003      0.0872      0.1040      0.0000      0.0000      0.9019
 55      1.8989      1.9446      2.7249      2.6316      2.4230      3.3884      3.6371      3.0776      1.9854
 56      0.0000      0.3009      0.3121      0.1847      0.6575      0.0687      0.0000      0.3189      0.7584
 57      0.0000      0.2608      0.1425      0.0000      0.3977      0.0000      0.6863      0.0000      0.5346
 58      1.6563      0.4889      0.8101      1.5295      0.9513      0.0000      0.0000      0.1995      0.0000
 59      0.0000      0.6457      0.6132      0.0000      1.0633      0.0000      0.8070      0.0000      0.2771
 60      0.6147      1.0594      0.0000      1.0037      0.0000      0.0000      0.0000      0.0000      0.7295
 61      8.5546      2.5470      0.5013      0.5198      2.1226      0.0000      0.2662      0.1235      0.7474
 62      2.6864      4.2329      4.7854      0.7516      2.7189      4.2563      2.7528      4.6946      3.9957
 63      0.2970      0.3789      1.9317      0.5426      0.0000      0.5544      1.0335      0.0000      1.4482
 64      0.4644      0.0881      0.0000      0.7580      0.0000      0.0000      0.4380      0.0000      0.0000
 65      0.0000      0.1063      0.0000      0.0000      0.0000      0.5972      0.0949      0.4566      0.0000
 66      0.0000      0.0742      0.1941      0.0000      0.4742      0.1286      0.0000      0.4167      0.0000

# j      m_j: min, <> & last-chain-values for 1 ...  7 chains
  1  2.2395E-01  2.5244E-01  2.7095E-01  2.7856E-01  2.6978E-01  2.9018E-01  2.6288E-01  2.9237E-01  2.9767E-01
  2  0.0000E+00  4.9270E-04  3.5966E-04  0.0000E+00  9.8179E-04  3.7305E-04  0.0000E+00  0.0000E+00  1.8019E-04
  3  0.0000E+00  1.0576E-03  1.2049E-03  0.0000E+00  0.0000E+00  1.2910E-03  4.3814E-04  0.0000E+00  7.2519E-04
  4  0.0000E+00  1.0735E-03  0.0000E+00  2.3994E-04  0.0000E+00  0.0000E+00  0.0000E+00  0.0000E+00  0.0000E+00
  5  4.1037E-03  9.7639E-04  1.1316E-03  3.0221E-03  4.1198E-03  3.1306E-04  0.0000E+00  0.0000E+00  0.0000E+00
  6  0.0000E+00  2.8745E-03  3.0902E-03  0.0000E+00  0.0000E+00  3.3370E-03  0.0000E+00  0.0000E+00  5.4182E-03
  7  1.7401E-02  3.5064E-03  0.0000E+00  1.1661E-02  0.0000E+00  0.0000E+00  5.0842E-03  0.0000E+00  2.0946E-03
  8  0.0000E+00  7.3279E-03  4.6902E-03  6.1274E-03  2.8693E-03  0.0000E+00  0.0000E+00  0.0000E+00  0.0000E+00
  9  0.0000E+00  7.4577E-03  0.0000E+00  2.5525E-03  8.2981E-03  0.0000E+00  1.2031E-02  1.6534E-02  4.3214E-03
 10  0.0000E+00  1.3037E-02  1.5386E-02  0.0000E+00  4.5394E-03  1.2212E-03  1.6668E-02  5.6659E-03  0.0000E+00
 11  0.0000E+00  3.5009E-02  0.0000E+00  0.0000E+00  0.0000E+00  0.0000E+00  0.0000E+00  5.5233E-02  6.7925E-02
 12  7.9463E-02  4.7514E-02  0.0000E+00  6.1258E-02  7.4748E-02  0.0000E+00  0.0000E+00  2.4317E-02  0.0000E+00
 13  0.0000E+00  7.9529E-01  2.4598E-01  0.0000E+00  6.0795E-02  0.0000E+00  1.8713E+00  3.2846E-02  0.0000E+00
 14  1.2148E+00  1.4511E+00  2.2055E+00  1.3955E+00  2.2682E+00  9.5837E-02  0.0000E+00  4.4240E-01  1.0377E+00
 15  7.8611E+00  7.5182E+00  6.9110E+00  6.2615E+00  9.4837E+00  8.4283E+00  6.8157E+00  5.2484E+00  8.2525E+00
 16  7.8970E-01  8.6940E-01  6.1294E-01  1.5613E+00  2.3296E-01  0.0000E+00  1.1711E+00  4.9459E-01  1.1587E+00
 17  3.7958E+00  1.5651E+00  1.9762E+00  3.7197E+00  1.9838E+00  0.0000E+00  2.6368E+00  1.2677E+00  0.0000E+00
 18  0.0000E+00  1.5230E-03  0.0000E+00  0.0000E+00  2.8774E-03  0.0000E+00  0.0000E+00  0.0000E+00  0.0000E+00
 19  0.0000E+00  7.6892E-04  4.7889E-04  0.0000E+00  1.0633E-04  0.0000E+00  7.5802E-05  0.0000E+00  1.3909E-03
 20  0.0000E+00  5.2887E-04  0.0000E+00  0.0000E+00  0.0000E+00  0.0000E+00  0.0000E+00  0.0000E+00  0.0000E+00
 21  0.0000E+00  2.0774E-03  3.7129E-03  5.3407E-04  0.0000E+00  0.0000E+00  2.7067E-03  2.1807E-04  0.0000E+00
 22  0.0000E+00  2.1619E-03  0.0000E+00  3.3411E-04  5.8925E-04  7.8841E-05  3.0308E-03  0.0000E+00  0.0000E+00
 23  0.0000E+00  3.0127E-03  2.8758E-03  0.0000E+00  0.0000E+00  1.9288E-04  0.0000E+00  0.0000E+00  0.0000E+00
 24  0.0000E+00  4.3655E-03  0.0000E+00  0.0000E+00  0.0000E+00  0.0000E+00  3.3585E-05  2.2849E-03  1.1068E-02
 25  0.0000E+00  3.9543E-03  0.0000E+00  0.0000E+00  0.0000E+00  7.1911E-03  1.0979E-02  2.0281E-03  1.0155E-02
 26  0.0000E+00  7.4091E-03  1.9159E-02  0.0000E+00  1.2187E-02  3.8733E-03  3.6173E-02  1.9362E-02  0.0000E+00
 27  0.0000E+00  2.7838E-02  3.6769E-02  1.3258E-02  1.8628E-02  3.9569E-02  0.0000E+00  1.6211E-02  1.7860E-02
 28  1.1033E+00  2.7621E-01  2.9842E-01  7.2488E-02  1.5870E-02  0.0000E+00  1.2677E-01  0.0000E+00  0.0000E+00
 29  0.0000E+00  4.3812E-01  0.0000E+00  9.8060E-02  8.9151E-02  3.7114E-02  6.4142E-01  4.1984E-01  4.4452E-01
 30  0.0000E+00  7.6017E-01  4.0002E-01  2.2715E-01  0.0000E+00  0.0000E+00  6.2580E-01  2.7597E-02  3.4674E-01
 31  1.2506E+01  1.6838E+01  1.4497E+01  1.4880E+01  1.6261E+01  1.6434E+01  1.5470E+01  1.4816E+01  1.6754E+01
 32  4.6750E+01  4.8377E+01  5.2999E+01  5.5487E+01  5.0838E+01  5.5888E+01  5.1545E+01  5.5254E+01  5.5319E+01
 33  9.5474E+00  5.3076E+00  3.6243E+00  4.0918E+00  4.1913E+00  2.9047E+00  4.0309E+00  5.3321E+00  7.4815E+00
 34  2.1527E+00  3.3471E+00  3.8960E+00  2.5532E+00  3.3756E+00  4.8618E+00  2.7104E+00  4.6321E+00  2.9767E+00
 35  0.0000E+00  2.5338E-03  2.7295E-03  0.0000E+00  0.0000E+00  1.2256E-03  0.0000E+00  1.4700E-03  3.0445E-03
 36  2.7176E-03  4.2196E-03  6.3732E-03  4.0311E-03  5.5654E-03  6.9550E-03  7.1992E-03  4.7760E-03  6.6721E-03
 37  0.0000E+00  5.6450E-04  1.1535E-03  5.7821E-04  7.2048E-04  4.3982E-04  3.5423E-04  1.7020E-03  0.0000E+00
 38  1.1219E-02  4.2075E-03  6.1173E-03  3.6381E-03  0.0000E+00  0.0000E+00  0.0000E+00  4.2658E-03  0.0000E+00
 39  1.8562E-02  7.6113E-03  8.6326E-03  3.8669E-03  7.2592E-03  9.3672E-03  1.0828E-02  1.2290E-03  1.2325E-02
 40  0.0000E+00  6.1002E-03  0.0000E+00  2.2172E-03  1.5862E-04  1.2363E-03  3.3134E-02  0.0000E+00  1.3381E-02
 41  2.6199E-03  9.5378E-03  0.0000E+00  1.4656E-02  0.0000E+00  0.0000E+00  7.0576E-03  0.0000E+00  0.0000E+00
 42  0.0000E+00  1.3149E-02  0.0000E+00  9.1548E-03  9.8845E-03  0.0000E+00  2.7266E-03  1.8167E-02  0.0000E+00
 43  1.3767E-01  2.4736E-02  0.0000E+00  3.3042E-02  0.0000E+00  3.1237E-03  0.0000E+00  0.0000E+00  4.8169E-02
 44  0.0000E+00  1.1884E-01  4.9113E-02  0.0000E+00  5.6922E-02  0.0000E+00  9.2784E-02  4.3727E-02  0.0000E+00
 45  1.0958E+00  4.7204E-01  0.0000E+00  1.0010E-01  4.7985E-01  6.1262E-02  1.8137E-01  0.0000E+00  0.0000E+00
 46  2.2070E+00  1.1136E+00  9.1564E-01  7.9723E-01  1.3052E+00  0.0000E+00  1.6862E+00  7.3680E-01  0.0000E+00
 47  2.3473E+00  1.4156E+00  6.6729E-01  4.4889E-01  2.3770E-01  9.6431E-02  1.9422E+00  3.1274E-01  2.0205E-01
 48  4.4454E-01  7.9156E-01  4.6809E-01  2.3830E+00  5.4822E-01  3.7870E-02  2.0495E+00  0.0000E+00  5.6839E-02
 49  0.0000E+00  7.6439E-01  0.0000E+00  0.0000E+00  5.2115E-01  4.2927E-01  0.0000E+00  1.2702E-01  5.4809E-01
 50  0.0000E+00  5.4587E-01  1.8970E+00  1.3264E+00  0.0000E+00  1.6514E+00  0.0000E+00  0.0000E+00  0.0000E+00
 51  6.1340E-03  7.9716E-04  2.1801E-04  1.1571E-03  0.0000E+00  0.0000E+00  0.0000E+00  0.0000E+00  9.3957E-04
 52  3.6956E-04  9.0744E-04  1.5401E-03  2.2866E-03  2.4935E-04  1.2106E-03  5.6992E-04  1.7068E-03  1.7674E-04
 53  7.5202E-03  2.9591E-03  5.1751E-03  4.7311E-03  5.8478E-03  6.5987E-03  4.5448E-03  4.2194E-03  3.3641E-03
 54  9.5540E-03  2.9102E-03  0.0000E+00  2.8443E-03  5.1047E-04  5.7339E-04  0.0000E+00  0.0000E+00  5.3636E-03
 55  1.9026E-02  1.8962E-02  2.4916E-02  2.3037E-02  2.1843E-02  2.8777E-02  3.5552E-02  2.6478E-02  1.8180E-02
 56  0.0000E+00  5.8071E-03  5.6475E-03  3.1996E-03  1.1732E-02  1.1547E-03  0.0000E+00  5.4304E-03  1.3745E-02
 57  0.0000E+00  6.6802E-03  3.4218E-03  0.0000E+00  9.4173E-03  0.0000E+00  1.7622E-02  0.0000E+00  1.2860E-02
 58  7.3740E-02  2.1184E-02  3.2914E-02  5.9493E-02  3.8105E-02  0.0000E+00  0.0000E+00  7.6262E-03  0.0000E+00
 59  0.0000E+00  6.0209E-02  5.3615E-02  0.0000E+00  9.1656E-02  0.0000E+00  7.5427E-02  0.0000E+00  2.4267E-02
 60  1.0939E-01  1.8348E-01  0.0000E+00  1.5606E-01  0.0000E+00  0.0000E+00  0.0000E+00  0.0000E+00  1.1864E-01
 61  3.3264E+00  9.6383E-01  1.7789E-01  1.7660E-01  7.4257E-01  0.0000E+00  1.0097E-01  4.1238E-02  2.6562E-01
 62  1.9046E+00  2.9207E+00  3.0962E+00  4.6554E-01  1.7343E+00  2.5578E+00  1.9040E+00  2.8579E+00  2.5891E+00
 63  4.1897E-01  5.2009E-01  2.4865E+00  6.6869E-01  0.0000E+00  6.6285E-01  1.4222E+00  0.0000E+00  1.8669E+00
 64  1.8117E+00  3.3451E-01  0.0000E+00  2.5836E+00  0.0000E+00  0.0000E+00  1.6670E+00  0.0000E+00  0.0000E+00
 65  0.0000E+00  8.5286E-01  0.0000E+00  0.0000E+00  0.0000E+00  4.1749E+00  7.6338E-01  3.2334E+00  0.0000E+00
 66  0.0000E+00  8.4086E-01  2.0638E+00  0.0000E+00  4.9710E+00  1.2699E+00  0.0000E+00  4.1686E+00  0.0000E+00

# AV, chi2 & Mass for <> & i_chain = 1 ...  7 solutions
AV      -0.9885     -0.9929     -0.9983     -1.0000     -0.9885     -0.9993     -0.9939     -0.9938     -1.0000
chi2 2.5418E-04  9.0162E-06  9.9914E-06  8.9436E-06  8.9679E-06  8.9398E-06  8.9552E-06  9.5376E-06  9.0648E-06
Mass 1.5028E-14  1.5352E-14  1.6253E-14  1.6939E-14  1.6703E-14  1.7476E-14  1.5295E-14  1.7379E-14  1.6192E-14
 301.93                                  [v0_min (km/s) before EX0s...]
  28.59                                  [vd_min (km/s) before EX0s...]


## Synthetic spectrum (Best Model) ##l_obs f_obs f_syn wei
 3478    [Nl_obs]
 3741.00   -0.60132   0.76118    0.000
 3742.00   -1.09612   0.83803    0.000
 3743.00   -1.47541   0.90989    0.000
 3744.00   -0.72748   0.95395    0.000
 3745.00    0.67721   0.95969    0.020
 3746.00    1.82807   0.93007    0.020
 3747.00    2.85004   0.88985    0.021
 3748.00    1.95161   0.85700    0.021
 3749.00    0.20874   0.82194    0.023
 3750.00   -0.36631   0.78654    0.000
 3751.00   -0.50045   0.74824    0.000
 3752.00   -0.80695   0.68575    0.000
 3753.00   -1.16867   0.63694    0.000
 3754.00   -1.17438   0.66092    0.000
 3755.00   -1.08468   0.74495    0.000
 3756.00    0.01320   0.83067    0.017
 3757.00    1.33237   0.89663    0.017
 3758.00    1.13558   0.95582    0.017
 3759.00    0.67416   0.99411    0.017
 3760.00   -0.12105   0.97678    0.000
 3761.00   -0.96059   0.90849    0.000
 3762.00   -0.43189   0.85284    0.000
 3763.00    0.22539   0.85542    0.016
 3764.00    0.43790   0.89081    0.016
 3765.00    0.62475   0.91926    0.015
 3766.00    0.67975   0.92962    0.016
 3767.00    0.73980   0.92465    0.016
 3768.00    1.79213   0.92174    0.018
 3769.00    2.78802   0.91639    0.020
 3770.00    2.41281   0.87993    0.018
 3771.00    1.99726   0.83490    0.017
 3772.00    1.05311   0.81035    0.016
 3773.00    0.21485   0.78122    0.016
 3774.00    0.30609   0.74907    0.016
 3775.00    0.41403   0.76728    0.016
 3776.00    0.63013   0.83505    0.016
 3777.00    0.75009   0.89351    0.016
 3778.00    0.38349   0.91996    0.016
 3779.00    0.14329   0.93663    0.016
 3780.00    0.42043   0.96076    0.016
 3781.00    0.62061   0.98554    0.016
 3782.00    0.55974   1.00633    0.016
 3783.00    0.59544   1.03538    0.017
 3784.00    0.90731   1.06558    0.017
 3785.00    0.98938   1.07475    0.016
 3786.00    0.50995   1.07260    0.016
 3787.00    0.06923   1.08018    0.016
 3788.00   -0.28992   1.08304    0.000
 3789.00   -0.54685   1.04509    0.000
 3790.00   -0.61655   0.98297    0.000
 3791.00   -0.69232   0.94756    0.000
 3792.00   -0.77782   0.93514    0.000
 3793.00   -0.70001   0.92355    0.000
 3794.00   -0.39283   0.92189    0.000
 3795.00   -0.06964   0.92977    0.000
 3796.00    0.27332   0.91767    0.015
 3797.00    0.46074   0.87438    0.015
 3798.00    0.47869   0.82192    0.015
 3799.00    0.39243   0.77695    0.015
 3800.00    0.20603   0.72786    0.015
 3801.00    0.03188   0.66828    0.015
 3802.00   -0.13190   0.64327    0.000
 3803.00   -0.14003   0.69259    0.000
 3804.00   -0.03203   0.78425    0.000
 3805.00   -0.14545   0.86470    0.000
 3806.00   -0.40401   0.92593    0.000
 3807.00   -0.49042   0.97728    0.000
 3808.00   -0.47803   1.00283    0.000
 3809.00   -0.10182   0.99554    0.000
 3810.00    0.45623   0.97215    0.015
 3811.00    0.32103   0.96707    0.015
 3812.00   -0.11397   0.99994    0.000
 3813.00   -0.03199   1.04531    0.000
 3814.00    0.24173   1.07160    0.015
 3815.00    0.16333   1.06733    0.015
 3816.00   -0.02576   1.03005    0.000
 3817.00    0.27879   0.97551    0.017
 3818.00    0.71282   0.93475    0.020
 3819.00    0.93092   0.91787    0.017
 3820.00    1.10275   0.93011    0.015
 3821.00    1.06177   0.96213    0.015
 3822.00    0.98468   0.96037    0.015
 3823.00    1.26719   0.90373    0.015
 3824.00    1.59585   0.85571    0.015
 3825.00    2.02706   0.87796    0.015
 3826.00    2.46748   0.93203    0.015
 3827.00    1.51779   0.93815    0.015
 3828.00    0.49339   0.88974    0.015
 3829.00   -0.04288   0.84451    0.000
 3830.00   -0.55621   0.82966    0.000
 3831.00    0.04063   0.82716    0.014
 3832.00    0.61756   0.82164    0.014
 3833.00    0.75219   0.81528    0.014
 3834.00    0.81741   0.80484    0.015
 3835.00    0.01953   0.76697    0.014
 3836.00   -0.65580   0.69993    0.000
 3837.00   -0.29533   0.63739    0.000
 3838.00    0.05922   0.59590    0.014
 3839.00    0.37654   0.58478    0.014
 3840.00    0.61050   0.61282    0.014
 3841.00    0.43316   0.65213    0.014
 3842.00    0.41349   0.68075    0.014
 3843.00    1.02503   0.71246    0.015
 3844.00    1.34143   0.75390    0.015
 3845.00    0.67662   0.81014    0.015
 3846.00    0.21166   0.87634    0.015
 3847.00    0.30787   0.92317    0.000
 3848.00    0.33069   0.94458    0.000
 3849.00    0.17721   0.95205    0.000
 3850.00   -0.06883   0.96186    0.000
 3851.00   -0.50686   0.98352    0.000
 3852.00   -0.50328   0.99161    0.000
 3853.00    0.29682   0.97030    0.000
 3854.00    0.94670   0.95705    0.000
 3855.00    1.35969   0.98128    0.000
 3856.00    1.47374   1.01004    0.000
 3857.00    1.17396   1.01030    0.000
 3858.00    1.10947   0.99298    0.000
 3859.00    1.33170   0.97028    0.000
 3860.00    1.19970   0.95553    0.000
 3861.00    0.68721   0.95538    0.000
 3862.00    0.37901   0.93803    0.000
 3863.00    0.26440   0.90434    0.000
 3864.00    0.39370   0.90554    0.000
 3865.00    0.72676   0.95226    0.000
 3866.00    0.81958   1.00260    0.000
 3867.00    0.73571   1.02409    0.000
 3868.00    0.75061   1.01955    0.000
 3869.00    0.82931   1.00510    0.000
 3870.00    0.80895   0.99466    0.000
 3871.00    0.73260   0.99337    0.000
 3872.00    0.62669   0.99862    0.000
 3873.00    0.50623   0.99557    0.000
 3874.00    0.48299   0.96867    0.000
 3875.00    0.50108   0.92465    0.000
 3876.00    0.33874   0.89107    0.000
 3877.00    0.11068   0.90228    0.000
 3878.00   -0.08805   0.95065    0.000
 3879.00   -0.27773   0.98651    0.000
 3880.00   -0.10846   0.97796    0.000
 3881.00    0.15296   0.93155    0.013
 3882.00    0.59427   0.88616    0.013
 3883.00    1.07320   0.89046    0.014
 3884.00    1.08015   0.91680    0.014
 3885.00    1.00927   0.90361    0.014
 3886.00    0.59826   0.86853    0.014
 3887.00    0.14513   0.85875    0.014
 3888.00    0.56188   0.85451    0.014
 3889.00    1.05307   0.80538    0.014
 3890.00    0.90230   0.72886    0.014
 3891.00    0.71953   0.66900    0.014
 3892.00    0.95364   0.62573    0.014
 3893.00    1.19070   0.61346    0.013
 3894.00    1.17714   0.66643    0.013
 3895.00    1.15128   0.75675    0.014
 3896.00    0.87355   0.83059    0.013
 3897.00    0.61766   0.86794    0.013
 3898.00    0.62009   0.88032    0.013
 3899.00    0.63043   0.88835    0.012
 3900.00    0.70522   0.91229    0.012
 3901.00    0.80668   0.94170    0.012
 3902.00    1.07101   0.94619    0.011
 3903.00    1.24086   0.93898    0.011
 3904.00    0.95604   0.95353    0.011
 3905.00    0.69810   0.98550    0.011
 3906.00    0.54543   0.99363    0.011
 3907.00    0.43707   0.97741    0.011
 3908.00    0.47311   0.96498    0.011
 3909.00    0.54129   0.94612    0.011
 3910.00    0.69810   0.93723    0.012
 3911.00    0.83406   0.96943    0.012
 3912.00    0.92076   1.01730    0.012
 3913.00    0.84444   1.04674    0.012
 3914.00    0.43540   1.05751    0.012
 3915.00    0.21449   1.06620    0.012
 3916.00    0.32772   1.06903    0.013
 3917.00    0.67173   1.05416    0.013
 3918.00    1.37433   1.03859    0.013
 3919.00    1.65935   1.03340    0.013
 3920.00    1.37461   1.02283    0.013
 3921.00    1.20632   1.00932    0.013
 3922.00    1.17789   0.99398    0.013
 3923.00    1.03752   0.96844    0.013
 3924.00    0.77858   0.94147    0.013
 3925.00    0.45644   0.93096    0.013
 3926.00    0.07526   0.94021    0.014
 3927.00    0.35567   0.95398    0.014
 3928.00    1.18094   0.95886    0.014
 3929.00    1.39571   0.93905    0.014
 3930.00    1.16791   0.90020    0.013
 3931.00    0.99828   0.85728    0.013
 3932.00    0.86567   0.80896    0.013
 3933.00    0.88975   0.75899    0.013
 3934.00    1.00103   0.70905    0.013
 3935.00    0.87022   0.65602    0.013
 3936.00    0.62222   0.60274    0.013
 3937.00    0.77528   0.56125    0.013
 3938.00    1.09604   0.55363    0.013
 3939.00    1.05465   0.58777    0.013
 3940.00    0.88373   0.64776    0.013
 3941.00    0.97638   0.71317    0.013
 3942.00    1.14869   0.77556    0.013
 3943.00    1.05691   0.83369    0.013
 3944.00    0.89880   0.87584    0.013
 3945.00    0.87069   0.89326    0.013
 3946.00    0.86910   0.89540    0.013
 3947.00    0.76237   0.88779    0.013
 3948.00    0.63880   0.88686    0.013
 3949.00    0.48849   0.92154    0.013
 3950.00    0.33499   0.96974    0.013
 3951.00    0.85194   0.97965    0.013
 3952.00    1.42349   0.96365    0.013
 3953.00    1.22302   0.96844    0.013
 3954.00    0.98708   0.99444    0.013
 3955.00    0.77594   1.00453    0.013
 3956.00    0.57419   0.98730    0.013
 3957.00    0.84683   0.98248    0.013
 3958.00    1.09788   1.00475    0.013
 3959.00    0.93971   1.00446    0.013
 3960.00    0.81839   0.96813    0.000
 3961.00    1.11246   0.94650    0.000
 3962.00    1.34622   0.95961    0.000
 3963.00    1.10600   0.97029    0.000
 3964.00    0.85819   0.93632    0.000
 3965.00    0.56539   0.86086    0.000
 3966.00    0.32657   0.79586    0.000
 3967.00    0.34124   0.76155    0.000
 3968.00    0.31127   0.72605    0.000
 3969.00    0.11031   0.66887    0.000
 3970.00    0.08001   0.59262    0.000
 3971.00    0.59523   0.50830    0.000
 3972.00    0.92446   0.43597    0.000
 3973.00    0.74995   0.39929    0.000
 3974.00    0.52944   0.41605    0.000
 3975.00    0.20211   0.48352    0.000
 3976.00    0.08439   0.57054    0.000
 3977.00    0.38768   0.64865    0.000
 3978.00    0.67902   0.71868    0.000
 3979.00    0.94945   0.78482    0.000
 3980.00    1.01248   0.83596    0.000
 3981.00    0.75798   0.87651    0.013
 3982.00    0.71536   0.92134    0.013
 3983.00    0.95769   0.96753    0.013
 3984.00    0.98289   0.99899    0.017
 3985.00    0.75098   0.99990    0.049
 3986.00    0.70065   0.98357   -1.000
 3987.00    0.83994   0.98058   -1.000
 3988.00    0.94720   0.99665   -1.000
 3989.00    1.02495   1.01721   -1.000
 3990.00    1.14464   1.02817   -1.000
 3991.00    1.29838   1.03924   -1.000
 3992.00    1.26422   1.05946   -1.000
 3993.00    1.09580   1.06366   -1.000
 3994.00    0.87844   1.05559   -1.000
 3995.00    0.63040   1.06520   -1.000
 3996.00    0.69323   1.08714    0.037
 3997.00    0.92643   1.09821    0.014
 3998.00    1.04841   1.08742    0.012
 3999.00    1.11741   1.06542    0.012
 4000.00    1.20409   1.04244    0.012
 4001.00    1.29804   1.02194    0.012
 4002.00    1.00559   1.02521    0.012
 4003.00    0.57743   1.06466    0.012
 4004.00    0.49334   1.10365    0.012
 4005.00    0.51119   1.11386    0.012
 4006.00    0.78386   1.11779    0.012
 4007.00    1.11914   1.11989    0.012
 4008.00    0.58358   1.08502    0.012
 4009.00   -0.12512   1.02078    0.000
 4010.00    0.21530   0.99749    0.012
 4011.00    0.71875   1.03455    0.012
 4012.00    0.94239   1.07748    0.012
 4013.00    1.13387   1.09394    0.012
 4014.00    1.07038   1.09954    0.012
 4015.00    0.98717   1.10609    0.012
 4016.00    0.90357   1.10845    0.013
 4017.00    0.81995   1.10964    0.013
 4018.00    0.89791   1.11368    0.013
 4019.00    0.97860   1.12362    0.013
 4020.00    1.11408   1.12694    0.013
 4021.00    1.23979   1.11194    0.012
 4022.00    1.19318   1.10923    0.012
 4023.00    1.17380   1.13244    0.012
 4024.00    1.44734   1.14415    0.013
 4025.00    1.71675   1.13015    0.013
 4026.00    1.95480   1.11277    0.013
 4027.00    2.03721   1.09592    0.012
 4028.00    1.22187   1.06723    0.012
 4029.00    0.62733   1.04699    0.012
 4030.00    1.04467   1.06388    0.012
 4031.00    1.21067   1.10414    0.012
 4032.00    0.43386   1.13196    0.012
 4033.00   -0.07385   1.11922    0.000
 4034.00    0.26207   1.06373    0.012
 4035.00    0.57012   1.01161    0.012
 4036.00    0.80403   0.99569    0.012
 4037.00    1.00000   1.00030    0.012
 4038.00    1.10936   1.01854    0.012
 4039.00    1.16128   1.05201    0.012
 4040.00    1.09966   1.09979    0.012
 4041.00    1.10725   1.14858    0.012
 4042.00    1.23406   1.17275    0.012
 4043.00    1.19707   1.16357    0.012
 4044.00    0.91300   1.13336    0.012
 4045.00    0.83935   1.11427    0.012
 4046.00    1.04465   1.12276    0.012
 4047.00    1.27841   1.11634    0.012
 4048.00    1.54539   1.05384    0.012
 4049.00    1.41199   0.96960    0.012
 4050.00    0.86637   0.94853    0.012
 4051.00    0.59063   1.01643    0.012
 4052.00    0.55997   1.09135    0.012
 4053.00    0.54382   1.12136    0.012
 4054.00    0.53929   1.13252    0.012
 4055.00    0.74084   1.13477    0.012
 4056.00    1.08750   1.11696    0.012
 4057.00    1.05315   1.08988    0.012
 4058.00    0.78346   1.06637    0.012
 4059.00    0.67923   1.05445    0.012
 4060.00    0.66428   1.05442    0.012
 4061.00    0.89446   1.04547    0.012
 4062.00    1.23953   1.03390    0.012
 4063.00    1.05291   1.05198    0.012
 4064.00    0.65149   1.09044    0.012
 4065.00    1.01552   1.10285    0.012
 4066.00    1.64348   1.05941    0.012
 4067.00    1.32449   0.98962    0.012
 4068.00    0.73053   0.96848    0.012
 4069.00    0.46362   1.01037    0.012
 4070.00    0.27528   1.04153    0.012
 4071.00    0.51631   1.04068    0.012
 4072.00    0.84053   1.05780    0.012
 4073.00    1.16261   1.09251    0.012
 4074.00    1.48436   1.08736    0.012
 4075.00    1.46335   1.03443    0.012
 4076.00    1.40442   1.00533    0.012
 4077.00    1.25810   1.03859    0.012
 4078.00    1.10538   1.07309    0.012
 4079.00    0.78478   1.05431    0.012
 4080.00    0.45775   0.99443    0.012
 4081.00    0.77415   0.93906    0.012
 4082.00    1.08411   0.93368    0.012
 4083.00    1.01708   0.98074    0.012
 4084.00    0.95609   1.04503    0.012
 4085.00    0.99476   1.09247    0.011
 4086.00    1.04180   1.09838    0.011
 4087.00    1.17495   1.06843    0.011
 4088.00    1.23140   1.03640    0.011
 4089.00    0.72500   1.02483    0.011
 4090.00    0.31562   1.03814    0.011
 4091.00    0.45058   1.07078    0.011
 4092.00    0.61281   1.10149    0.000
 4093.00    0.89705   1.10898    0.000
 4094.00    1.17053   1.09629    0.000
 4095.00    1.40450   1.07576    0.000
 4096.00    1.56764   1.05400    0.000
 4097.00    1.51293   1.04488    0.000
 4098.00    1.49777   1.03833    0.000
 4099.00    1.58598   1.00162    0.000
 4100.00    1.57505   0.94812    0.000
 4101.00    1.34145   0.91091    0.000
 4102.00    1.18231   0.88632    0.000
 4103.00    1.16805   0.84790    0.000
 4104.00    1.26515   0.77302    0.000
 4105.00    1.55118   0.68048    0.000
 4106.00    1.58941   0.64585    0.000
 4107.00    1.25927   0.70265    0.000
 4108.00    1.01533   0.79421    0.000
 4109.00    0.88400   0.87240    0.000
 4110.00    0.91193   0.92925    0.000
 4111.00    1.12317   0.96162    0.000
 4112.00    1.21513   0.97382    0.000
 4113.00    1.18601   0.97317   -1.000
 4114.00    1.27682   0.96894   -1.000
 4115.00    1.47500   0.97418   -1.000
 4116.00    1.46953   0.99208   -1.000
 4117.00    1.30336   1.01876   -1.000
 4118.00    1.36447   1.04360   -1.000
 4119.00    1.58328   1.05956   -1.000
 4120.00    1.52179   1.07068   -1.000
 4121.00    1.28973   1.06718   -1.000
 4122.00    0.97244   1.03559   -1.000
 4123.00    0.60988   1.00352   -1.000
 4124.00    0.61190   1.00377   -1.000
 4125.00    0.78203   1.01703   -1.000
 4126.00    0.95011   1.02031   -1.000
 4127.00    1.11739   1.02420   -1.000
 4128.00    0.98401   1.04272   -1.000
 4129.00    0.74889   1.06301   -1.000
 4130.00    0.90178   1.06036    0.029
 4131.00    1.16506   1.03654    0.013
 4132.00    1.09885   1.01343    0.011
 4133.00    0.95527   1.00906    0.011
 4134.00    1.25406   1.01228    0.011
 4135.00    1.63633   0.99944    0.012
 4136.00    1.32287   0.97051    0.012
 4137.00    0.90781   0.95722    0.011
 4138.00    0.99869   0.97339    0.011
 4139.00    1.14333   1.01217    0.012
 4140.00    1.16069   1.05359    0.012
 4141.00    1.16924   1.07032    0.012
 4142.00    0.66943   1.07818    0.011
 4143.00    0.15208   1.09256    0.011
 4144.00    0.44022   1.09742    0.011
 4145.00    0.72366   1.07712    0.011
 4146.00    0.79933   1.01837    0.011
 4147.00    0.85998   0.94220    0.011
 4148.00    0.68825   0.91710    0.011
 4149.00    0.59041   0.96503    0.011
 4150.00    1.22096   1.02423    0.011
 4151.00    1.68212   1.05087    0.011
 4152.00    0.94071   1.05083    0.011
 4153.00    0.35247   1.03432    0.011
 4154.00    0.60039   1.01909    0.011
 4155.00    0.87744   1.02006    0.011
 4156.00    1.28178   1.02303    0.011
 4157.00    1.52603   1.01454    0.011
 4158.00    1.19444   0.99807    0.011
 4159.00    0.86969   0.98941    0.011
 4160.00    0.56554   0.99045    0.011
 4161.00    0.40636   0.99848    0.010
 4162.00    0.61943   1.02020    0.011
 4163.00    0.77976   1.04424    0.011
 4164.00    0.82357   1.05365    0.011
 4165.00    0.81432   1.05169    0.011
 4166.00    0.70345   1.05988    0.010
 4167.00    0.75430   1.07406    0.010
 4168.00    1.07545   1.07290    0.010
 4169.00    1.22450   1.06372    0.010
 4170.00    1.12146   1.05084    0.011
 4171.00    0.91456   1.02863    0.011
 4172.00    0.57390   1.01847    0.010
 4173.00    0.44206   1.03386    0.010
 4174.00    0.54720   1.04252    0.010
 4175.00    0.65161   1.01210    0.010
 4176.00    0.75531   0.95387    0.011
 4177.00    0.77913   0.91599    0.011
 4178.00    0.73244   0.92579    0.011
 4179.00    0.84614   0.95951    0.010
 4180.00    1.08458   0.98057    0.011
 4181.00    1.11569   0.97558    0.011
 4182.00    1.00502   0.96498    0.010
 4183.00    0.76908   0.97770    0.010
 4184.00    0.45807   1.00525    0.010
 4185.00    0.47671   1.01165    0.010
 4186.00    0.66776   0.99532    0.010
 4187.00    1.63060   0.98925    0.011
 4188.00    2.94351   1.00396    0.011
 4189.00    2.91373   1.02502    0.011
 4190.00    2.36000   1.02213    0.011
 4191.00    1.43911   0.98676    0.011
 4192.00    0.39626   0.96870    0.011
 4193.00    0.36894   0.99287    0.011
 4194.00    0.62468   1.01703    0.011
 4195.00    0.84784   1.01617    0.011
 4196.00    1.06352   1.02253    0.011
 4197.00    1.00379   1.05198    0.011
 4198.00    0.89345   1.06244    0.011
 4199.00    0.81867   1.02932    0.011
 4200.00    0.74891   0.98583    0.011
 4201.00    0.87163   0.95750    0.011
 4202.00    1.01397   0.93214    0.011
 4203.00    1.07769   0.91992    0.011
 4204.00    1.13630   0.93476    0.010
 4205.00    0.74026   0.94500    0.010
 4206.00    0.33099   0.94038    0.010
 4207.00    0.39426   0.95005    0.011
 4208.00    0.45085   0.97017    0.011
 4209.00    0.31089   0.98384    0.011
 4210.00    0.20375   1.00088    0.010
 4211.00    0.57449   1.02332    0.011
 4212.00    0.88349   1.03933    0.011
 4213.00    0.60877   1.03745    0.011
 4214.00    0.39203   1.02517    0.011
 4215.00    0.57390   1.02668    0.011
 4216.00    0.72437   1.04240    0.011
 4217.00    0.70798   1.04730    0.010
 4218.00    0.73065   1.02348    0.010
 4219.00    0.92017   0.97509    0.010
 4220.00    0.98681   0.94688    0.010
 4221.00    0.62046   0.97609    0.010
 4222.00    0.42046   1.02581    0.010
 4223.00    0.71309   1.05150    0.010
 4224.00    0.83955   1.06054    0.010
 4225.00    0.54669   1.06566    0.010
 4226.00    0.48025   1.05114    0.010
 4227.00    0.90580   1.01313    0.010
 4228.00    1.23250   0.96285    0.010
 4229.00    1.37280   0.89763    0.010
 4230.00    1.43502   0.82213    0.010
 4231.00    1.36869   0.78903    0.010
 4232.00    1.19009   0.84910    0.010
 4233.00    0.84942   0.95201    0.010
 4234.00    0.77926   1.01941    0.010
 4235.00    1.05254   1.04322    0.010
 4236.00    1.17831   1.03045    0.010
 4237.00    1.13904   0.99334    0.010
 4238.00    1.05911   0.97352    0.009
 4239.00    0.93906   0.97094    0.009
 4240.00    0.81203   0.95823    0.009
 4241.00    0.67893   0.95331    0.009
 4242.00    0.67012   0.96330    0.009
 4243.00    0.75661   0.96858    0.010
 4244.00    0.89154   0.97739    0.010
 4245.00    1.05911   1.00165    0.010
 4246.00    0.90458   1.01895    0.010
 4247.00    0.55986   1.02299    0.010
 4248.00    0.64651   1.03884    0.010
 4249.00    0.95526   1.05246    0.010
 4250.00    0.90562   1.03221    0.010
 4251.00    0.69608   0.99200    0.010
 4252.00    0.63339   0.96725    0.010
 4253.00    0.62701   0.95808    0.010
 4254.00    0.77021   0.94307    0.010
 4255.00    0.96217   0.94179    0.010
 4256.00    0.73123   0.97174    0.010
 4257.00    0.38486   0.98938    0.010
 4258.00    0.49966   0.96851    0.010
 4259.00    0.71782   0.95095    0.010
 4260.00    0.63124   0.97410    0.010
 4261.00    0.49017   1.01123    0.010
 4262.00    0.48572   1.00998    0.010
 4263.00    0.49996   0.96768    0.010
 4264.00    0.43553   0.92085    0.010
 4265.00    0.36340   0.90771    0.010
 4266.00    0.64638   0.94627    0.010
 4267.00    0.95108   1.00519    0.010
 4268.00    0.73351   1.04175    0.010
 4269.00    0.50225   1.05466    0.010
 4270.00    0.34956   1.05431    0.010
 4271.00    0.21631   1.03347    0.010
 4272.00    0.59699   1.00290    0.010
 4273.00    0.92630   0.98039    0.010
 4274.00    0.54940   0.94916    0.010
 4275.00    0.23285   0.89394    0.010
 4276.00    0.46440   0.85563    0.010
 4277.00    0.69571   0.86722    0.010
 4278.00    0.92542   0.88792    0.010
 4279.00    1.12554   0.89778    0.010
 4280.00    1.17246   0.93021    0.010
 4281.00    1.22643   0.98244    0.010
 4282.00    1.30986   1.01798   -2.000
 4283.00    1.23686   1.01615   -2.000
 4284.00    0.62387   0.98493   -2.000
 4285.00    0.15740   0.96044   -2.000
 4286.00    0.11682   0.95774   -2.000
 4287.00    0.23987   0.96453   -2.000
 4288.00    0.76879   0.97049   -2.000
 4289.00    1.12458   0.96052   -2.000
 4290.00    1.11024   0.94197   -2.000
 4291.00    1.02200   0.93485   -2.000
 4292.00    0.79655   0.92348   -2.000
 4293.00    0.66499   0.88277   -2.000
 4294.00    0.68570   0.84030   -2.000
 4295.00    0.80086   0.84830   -2.000
 4296.00    1.05041   0.90267   -2.000
 4297.00    1.16559   0.94853   -2.000
 4298.00    1.11261   0.94933    0.010
 4299.00    1.15014   0.93150    0.010
 4300.00    1.28752   0.92318    0.010
 4301.00    1.10896   0.90991    0.010
 4302.00    0.62300   0.87543    0.010
 4303.00    0.26192   0.81931    0.010
 4304.00    0.00797   0.77428    0.010
 4305.00    0.04009   0.77259    0.010
 4306.00    0.28839   0.78816    0.010
 4307.00    0.27641   0.79682    0.010
 4308.00    0.09157   0.81204    0.010
 4309.00    0.18617   0.82576    0.010
 4310.00    0.44327   0.82164    0.010
 4311.00    0.60121   0.79915    0.010
 4312.00    0.70889   0.76659    0.010
 4313.00    0.72412   0.75462    0.010
 4314.00    0.69878   0.77988    0.009
 4315.00    0.60630   0.82098    0.009
 4316.00    0.48852   0.85247    0.010
 4317.00    0.41107   0.86879    0.010
 4318.00    0.34651   0.87865    0.010
 4319.00    0.60335   0.90829    0.010
 4320.00    0.94609   0.97481    0.010
 4321.00    1.00810   1.03776    0.010
 4322.00    1.00869   1.05689    0.010
 4323.00    0.66136   1.04548    0.010
 4324.00    0.25352   1.02492    0.010
 4325.00    0.38820   1.00203    0.010
 4326.00    0.59465   0.98488    0.010
 4327.00    0.75038   0.95531    0.010
 4328.00    0.90136   0.89379    0.010
 4329.00    0.77125   0.82288    0.010
 4330.00    0.62506   0.79374    0.000
 4331.00    0.73344   0.84120    0.000
 4332.00    0.84666   0.92840    0.000
 4333.00    0.83537   0.98330    0.000
 4334.00    0.81907   0.98174    0.000
 4335.00    0.68254   0.96028    0.000
 4336.00    0.55732   0.95566    0.000
 4337.00    0.57941   0.95979    0.000
 4338.00    0.64072   0.95929    0.000
 4339.00    1.04468   0.95645    0.000
 4340.00    1.32203   0.93057    0.000
 4341.00    0.78149   0.85499    0.000
 4342.00    0.36849   0.75716    0.000
 4343.00    0.59882   0.67515    0.000
 4344.00    0.76699   0.61043    0.000
 4345.00    0.68143   0.59637    0.000
 4346.00    0.61242   0.66457    0.000
 4347.00    0.59937   0.75564    0.000
 4348.00    0.55229   0.81180    0.000
 4349.00    0.40808   0.85344    0.000
 4350.00    0.47520   0.89325    0.000
 4351.00    1.05754   0.91591    0.010
 4352.00    1.39637   0.93598    0.010
 4353.00    1.22302   0.96541    0.010
 4354.00    0.99177   0.96653    0.010
 4355.00    0.65466   0.90997    0.010
 4356.00    0.55166   0.84776    0.012
 4357.00    0.82271   0.85063    0.033
 4358.00    0.92116   0.90041   -1.000
 4359.00    0.77760   0.93942   -1.000
 4360.00    0.76687   0.96452   -1.000
 4361.00    0.92000   0.98680   -1.000
 4362.00    0.92498   0.98519   -1.000
 4363.00    0.76885   0.95881   -1.000
 4364.00    0.62135   0.95022    0.038
 4365.00    0.48212   0.97788    0.013
 4366.00    0.51669   1.00845    0.010
 4367.00    0.69827   1.01797    0.010
 4368.00    0.74988   1.02513    0.010
 4369.00    0.70468   1.04140    0.010
 4370.00    0.67346   1.03915    0.010
 4371.00    0.65139   1.00265    0.010
 4372.00    0.66200   0.96460    0.010
 4373.00    0.69133   0.95688    0.010
 4374.00    0.76140   0.96629    0.010
 4375.00    0.85179   0.97441    0.010
 4376.00    0.70244   0.97991    0.010
 4377.00    0.44965   0.96890    0.010
 4378.00    0.52617   0.92872    0.010
 4379.00    0.72455   0.88889    0.010
 4380.00    0.80049   0.89510    0.010
 4381.00    0.83803   0.94586    0.010
 4382.00    0.58416   0.99411    0.010
 4383.00    0.25405   1.00723    0.010
 4384.00    0.34524   0.99616    0.010
 4385.00    0.52641   0.98065    0.010
 4386.00    0.53898   0.94163    0.010
 4387.00    0.52305   0.85554    0.009
 4388.00    0.55711   0.77276    0.010
 4389.00    0.59755   0.76989    0.010
 4390.00    0.45967   0.83849    0.010
 4391.00    0.30588   0.90095    0.010
 4392.00    0.73310   0.91939    0.010
 4393.00    1.19126   0.91816    0.010
 4394.00    0.61837   0.91579    0.010
 4395.00    0.03436   0.91802    0.010
 4396.00    0.18724   0.93632    0.010
 4397.00    0.34282   0.95633    0.010
 4398.00    0.55762   0.94796    0.010
 4399.00    0.76251   0.92402    0.010
 4400.00    0.84490   0.93245    0.010
 4401.00    0.94875   0.97677    0.010
 4402.00    1.23305   1.00451    0.010
 4403.00    1.45983   0.98646    0.010
 4404.00    1.32603   0.94257    0.010
 4405.00    1.18646   0.91796    0.010
 4406.00    1.01843   0.94013    0.010
 4407.00    0.86537   0.96231    0.010
 4408.00    0.77209   0.92608    0.010
 4409.00    0.69034   0.87353    0.010
 4410.00    0.64685   0.87703    0.010
 4411.00    0.64294   0.90983    0.010
 4412.00    0.74988   0.91496    0.010
 4413.00    0.81240   0.91480    0.010
 4414.00    0.76845   0.94623    0.010
 4415.00    0.72798   0.98828    0.010
 4416.00    0.69473   1.01479    0.010
 4417.00    0.71898   1.02085    0.010
 4418.00    0.84672   0.98836    0.010
 4419.00    0.88941   0.92463    0.010
 4420.00    0.79824   0.88881    0.010
 4421.00    0.87550   0.90348    0.010
 4422.00    1.18553   0.93884    0.010
 4423.00    1.23329   0.97993    0.010
 4424.00    0.96206   1.01236    0.010
 4425.00    0.79053   1.01039    0.010
 4426.00    0.72589   0.97718    0.010
 4427.00    0.58373   0.95019    0.010
 4428.00    0.36825   0.95434    0.010
 4429.00    0.41998   0.96915    0.010
 4430.00    0.69455   0.96999    0.010
 4431.00    0.71063   0.96405    0.010
 4432.00    0.53694   0.96806    0.010
 4433.00    0.50268   0.97503    0.010
 4434.00    0.55833   0.96291    0.010
 4435.00    0.75919   0.94867    0.010
 4436.00    1.04195   0.95847    0.010
 4437.00    0.91881   0.96469    0.010
 4438.00    0.59641   0.93774    0.010
 4439.00    0.68099   0.89807    0.010
 4440.00    0.93826   0.88993    0.010
 4441.00    0.78133   0.92925    0.010
 4442.00    0.47386   0.98496    0.010
 4443.00    0.37266   1.02130    0.010
 4444.00    0.33488   1.02293    0.010
 4445.00    0.50060   0.98947    0.010
 4446.00    0.71842   0.93878    0.010
 4447.00    0.74296   0.90040    0.010
 4448.00    0.72722   0.90101    0.009
 4449.00    0.65013   0.94371    0.009
 4450.00    0.56297   0.99018    0.010
 4451.00    0.59780   1.00157    0.009
 4452.00    0.64767   0.99497    0.009
 4453.00    0.54997   0.99485    0.009
 4454.00    0.43971   0.98674    0.009
 4455.00    0.49041   0.97385    0.009
 4456.00    0.54905   0.97606    0.009
 4457.00    0.87722   0.97542    0.009
 4458.00    1.20036   0.94431    0.009
 4459.00    0.93854   0.89658    0.009
 4460.00    0.69566   0.87555    0.009
 4461.00    0.83656   0.89092    0.000
 4462.00    0.97426   0.90637    0.000
 4463.00    1.07443   0.90401    0.000
 4464.00    1.16307   0.89819    0.000
 4465.00    1.15813   0.88967    0.000
 4466.00    1.13561   0.88047    0.000
 4467.00    1.00610   0.89864    0.000
 4468.00    0.85888   0.93643    0.000
 4469.00    0.62671   0.95377    0.000
 4470.00    0.45081   0.95053    0.000
 4471.00    0.49465   0.94562    0.000
 4472.00    0.55827   0.93644    0.000
 4473.00    0.68619   0.91719    0.000
 4474.00    0.83245   0.90201    0.000
 4475.00    1.02915   0.90554    0.000
 4476.00    1.16666   0.92694    0.000
 4477.00    1.16469   0.96190    0.000
 4478.00    1.10832   0.99547    0.000
 4479.00    0.94114   1.00769    0.000
 4480.00    0.74287   1.00607    0.000
 4481.00    0.48948   1.01567    0.000
 4482.00    0.36835   1.03009    0.009
 4483.00    0.45236   1.01654    0.009
 4484.00    0.56547   0.96688    0.009
 4485.00    0.71822   0.91009    0.009
 4486.00    0.70405   0.88479    0.009
 4487.00    0.48973   0.90880    0.009
 4488.00    0.47584   0.96036    0.009
 4489.00    0.67385   1.00270    0.009
 4490.00    0.78104   1.02340    0.009
 4491.00    0.80353   1.02266    0.009
 4492.00    0.60885   0.99585    0.009
 4493.00    0.23562   0.95245    0.009
 4494.00    0.19219   0.92398    0.009
 4495.00    0.38740   0.93250    0.009
 4496.00    0.60829   0.96436    0.009
 4497.00    0.84550   0.98349    0.009
 4498.00    0.80997   0.96753    0.009
 4499.00    0.62295   0.93703    0.009
 4500.00    0.59442   0.92617    0.009
 4501.00    0.64245   0.94083    0.009
 4502.00    0.63562   0.97022    0.009
 4503.00    0.60591   0.99670    0.009
 4504.00    0.65040   1.00102    0.009
 4505.00    0.72138   0.98173    0.009
 4506.00    0.89476   0.96992    0.009
 4507.00    1.09901   0.99655    0.009
 4508.00    1.23693   1.03858    0.009
 4509.00    1.35824   1.05647    0.009
 4510.00    1.17521   1.04835    0.009
 4511.00    0.93031   1.02935    0.009
 4512.00    0.74116   1.01187    0.009
 4513.00    0.56091   1.00751    0.009
 4514.00    0.57254   1.01839    0.009
 4515.00    0.60697   1.02897    0.009
 4516.00    0.93169   1.02198    0.009
 4517.00    1.27989   1.00126    0.009
 4518.00    1.13306   0.98089    0.009
 4519.00    0.96372   0.96922    0.009
 4520.00    0.79807   0.97102    0.009
 4521.00    0.63487   0.97561    0.009
 4522.00    0.59468   0.96938    0.009
 4523.00    0.56059   0.96670    0.009
 4524.00    0.64104   0.98052    0.009
 4525.00    0.71402   0.99666    0.009
 4526.00    0.70334   0.99241    0.009
 4527.00    0.71037   0.96724    0.009
 4528.00    0.85607   0.95060    0.009
 4529.00    0.96784   0.94578    0.009
 4530.00    0.87905   0.92970    0.009
 4531.00    0.80384   0.90351    0.009
 4532.00    0.79222   0.87936    0.009
 4533.00    0.78932   0.86528    0.009
 4534.00    0.81970   0.86901    0.009
 4535.00    0.77004   0.88716    0.009
 4536.00    0.46519   0.90854    0.009
 4537.00    0.25566   0.91467    0.009
 4538.00    0.30374   0.89184    0.009
 4539.00    0.41027   0.86512    0.009
 4540.00    0.65224   0.87355    0.009
 4541.00    0.79248   0.92497    0.009
 4542.00    0.72878   0.97941    0.009
 4543.00    0.65895   0.99167    0.009
 4544.00    0.57842   0.96664    0.009
 4545.00    0.56741   0.93719    0.009
 4546.00    0.66262   0.93062    0.009
 4547.00    0.73739   0.94795    0.009
 4548.00    0.78474   0.95683    0.009
 4549.00    0.66107   0.94297    0.009
 4550.00    0.33523   0.93330    0.000
 4551.00    0.31106   0.93984    0.000
 4552.00    0.60134   0.93899    0.000
 4553.00    0.73659   0.91469    0.000
 4554.00    0.72931   0.89261    0.000
 4555.00    0.69392   0.90610    0.000
 4556.00    0.63575   0.93069    0.000
 4557.00    0.57649   0.92851    0.000
 4558.00    0.51646   0.90817    0.000
 4559.00    0.69509   0.89176    0.000
 4560.00    1.02308   0.89701    0.000
 4561.00    0.81448   0.92905    0.000
 4562.00    0.31240   0.96451    0.000
 4563.00    0.37156   0.98033    0.000
 4564.00    0.69752   0.98294    0.000
 4565.00    0.69828   0.98596    0.000
 4566.00    0.56567   0.98806    0.000
 4567.00    0.51480   0.97408    0.000
 4568.00    0.49257   0.94149    0.000
 4569.00    0.85425   0.91568    0.000
 4570.00    1.32938   0.91853    0.000
 4571.00    1.36488   0.94758    0.000
 4572.00    1.29267   0.97951    0.000
 4573.00    0.99681   0.99265    0.000
 4574.00    0.65661   0.98531    0.000
 4575.00    0.61510   0.95751    0.000
 4576.00    0.61981   0.92705    0.000
 4577.00    0.82558   0.93471    0.000
 4578.00    1.05435   0.96917    0.000
 4579.00    0.81084   0.98254    0.000
 4580.00    0.53105   0.97633    0.000
 4581.00    0.57901   0.97376    0.000
 4582.00    0.64062   0.97065    0.000
 4583.00    0.71366   0.95333    0.000
 4584.00    0.78573   0.92389    0.000
 4585.00    0.81173   0.90208    0.000
 4586.00    0.84123   0.90173    0.000
 4587.00    0.93189   0.91033    0.000
 4588.00    1.00549   0.91128    0.000
 4589.00    0.89643   0.90983    0.000
 4590.00    0.80310   0.91243    0.000
 4591.00    0.82866   0.92146    0.000
 4592.00    0.86707   0.94125    0.000
 4593.00    0.97935   0.96094    0.000
 4594.00    1.03121   0.96579    0.000
 4595.00    0.80700   0.95188    0.000
 4596.00    0.68407   0.92888    0.000
 4597.00    0.94008   0.91569    0.000
 4598.00    1.11383   0.91793    0.000
 4599.00    1.03029   0.92112    0.000
 4600.00    0.92366   0.91949    0.000
 4601.00    0.75575   0.92150    0.000
 4602.00    0.62376   0.92820    0.000
 4603.00    0.57364   0.93506    0.000
 4604.00    0.60657   0.93250    0.000
 4605.00    0.80336   0.91913    0.000
 4606.00    0.82613   0.91585    0.000
 4607.00    0.54970   0.92573    0.000
 4608.00    0.41630   0.93232    0.000
 4609.00    0.49829   0.93091    0.000
 4610.00    0.61180   0.92803    0.000
 4611.00    0.76701   0.93603    0.000
 4612.00    0.83636   0.95823    0.000
 4613.00    0.80563   0.98411    0.000
 4614.00    0.84156   0.99476    0.000
 4615.00    0.94600   0.98312    0.000
 4616.00    0.79389   0.96479    0.000
 4617.00    0.40921   0.95258    0.000
 4618.00    0.47482   0.94938    0.000
 4619.00    0.90018   0.95729    0.000
 4620.00    1.04538   0.96304    0.000
 4621.00    0.99366   0.96031    0.000
 4622.00    1.03595   0.95870    0.000
 4623.00    1.13619   0.95004    0.000
 4624.00    1.08411   0.93958    0.000
 4625.00    0.95000   0.94935    0.000
 4626.00    0.79804   0.96678    0.000
 4627.00    0.63772   0.97121    0.000
 4628.00    0.58029   0.97004    0.000
 4629.00    0.56435   0.96604    0.000
 4630.00    0.72585   0.95644    0.000
 4631.00    0.94840   0.95301    0.000
 4632.00    0.83950   0.95562    0.000
 4633.00    0.63461   0.94780    0.000
 4634.00    0.84303   0.93684    0.000
 4635.00    1.15044   0.94601    0.000
 4636.00    1.07304   0.96227    0.000
 4637.00    0.92131   0.95530    0.000
 4638.00    0.69907   0.93457    0.000
 4639.00    0.46626   0.92627    0.000
 4640.00    0.50971   0.92856    0.000
 4641.00    0.58357   0.92560    0.000
 4642.00    0.93886   0.91408    0.000
 4643.00    1.31463   0.90457    0.000
 4644.00    0.98138   0.90329    0.000
 4645.00    0.62133   0.91264    0.000
 4646.00    0.59909   0.93143    0.000
 4647.00    0.57752   0.94166    0.000
 4648.00    0.51713   0.93513    0.000
 4649.00    0.47362   0.92036    0.000
 4650.00    0.70607   0.89585    0.000
 4651.00    0.88917   0.86597    0.000
 4652.00    0.56725   0.85362    0.000
 4653.00    0.29609   0.86628    0.000
 4654.00    0.39580   0.89123    0.000
 4655.00    0.50030   0.91317    0.000
 4656.00    0.63158   0.92524    0.000
 4657.00    0.75324   0.93115    0.000
 4658.00    0.83198   0.92560    0.000
 4659.00    0.88337   0.90400    0.000
 4660.00    0.83461   0.88601    0.000
 4661.00    0.73385   0.88728    0.000
 4662.00    0.47352   0.91049    0.000
 4663.00    0.34053   0.94833    0.000
 4664.00    0.53962   0.97606    0.000
 4665.00    0.66541   0.97635    0.000
 4666.00    0.62692   0.95441    0.000
 4667.00    0.65155   0.92706    0.000
 4668.00    0.79874   0.91042    0.000
 4669.00    0.79425   0.90656    0.000
 4670.00    0.53285   0.89237    0.000
 4671.00    0.39925   0.85097    0.000
 4672.00    0.45529   0.81212    0.000
 4673.00    0.50893   0.81420    0.000
 4674.00    0.55946   0.84897    0.000
 4675.00    0.59324   0.88652    0.000
 4676.00    0.60777   0.91007    0.000
 4677.00    0.63107   0.91309    0.000
 4678.00    0.66324   0.90577    0.000
 4679.00    0.66069   0.90647    0.000
 4680.00    0.62709   0.92070    0.000
 4681.00    0.57019   0.93562    0.000
 4682.00    0.49492   0.93125    0.000
 4683.00    0.55600   0.90897    0.000
 4684.00    0.71151   0.88835    0.000
 4685.00    0.73116   0.87764    0.000
 4686.00    0.66829   0.87490    0.000
 4687.00    0.81788   0.88387    0.000
 4688.00    1.08012   0.90004    0.000
 4689.00    0.90106   0.90540    0.000
 4690.00    0.51894   0.89911    0.000
 4691.00    0.57136   0.89535    0.000
 4692.00    0.79594   0.89625    0.000
 4693.00    0.61909   0.89948    0.000
 4694.00    0.30670   0.90221    0.000
 4695.00    0.40249   0.89778    0.000
 4696.00    0.61413   0.89227    0.000
 4697.00    0.62159   0.89774    0.000
 4698.00    0.58124   0.90933    0.000
 4699.00    0.45872   0.92097    0.000
 4700.00    0.32075   0.93280    0.000
 4701.00    0.55793   0.93485    0.000
 4702.00    0.84967   0.91486    0.000
 4703.00    0.68524   0.88365    0.000
 4704.00    0.47258   0.86980    0.000
 4705.00    0.50101   0.87497    0.000
 4706.00    0.54600   0.87322    0.000
 4707.00    0.47292   0.85868    0.000
 4708.00    0.39582   0.85332    0.000
 4709.00    0.56064   0.87001    0.000
 4710.00    0.72361   0.88749    0.000
 4711.00    0.81434   0.88316    0.000
 4712.00    0.88906   0.86414    0.000
 4713.00    0.71830   0.85083    0.000
 4714.00    0.58505   0.85424    0.000
 4715.00    0.81959   0.87610    0.000
 4716.00    0.98878   0.90095    0.000
 4717.00    0.69589   0.90391    0.000
 4718.00    0.48433   0.88556    0.000
 4719.00    0.71525   0.86851    0.000
 4720.00    0.87835   0.87499    0.000
 4721.00    0.74587   0.90038    0.000
 4722.00    0.61648   0.92007    0.000
 4723.00    0.49820   0.92836    0.000
 4724.00    0.46268   0.93553    0.000
 4725.00    0.67629   0.93910    0.000
 4726.00    0.79402   0.93244    0.000
 4727.00    0.66605   0.92259    0.000
 4728.00    0.66373   0.92421    0.000
 4729.00    0.93839   0.93679    0.000
 4730.00    1.03323   0.94081    0.000
 4731.00    0.78425   0.91891    0.000
 4732.00    0.73580   0.87896    0.000
 4733.00    1.02188   0.85175    0.000
 4734.00    1.09970   0.84925    0.000
 4735.00    0.87301   0.85548    0.000
 4736.00    0.71707   0.86343    0.000
 4737.00    0.65210   0.87708    0.000
 4738.00    0.59991   0.89007    0.000
 4739.00    0.56219   0.89843    0.000
 4740.00    0.59711   0.89787    0.000
 4741.00    0.70459   0.88359    0.000
 4742.00    0.76766   0.87966    0.000
 4743.00    0.79162   0.89800    0.000
 4744.00    0.75080   0.90869    0.000
 4745.00    0.65969   0.89938    0.000
 4746.00    0.67235   0.89157    0.000
 4747.00    0.75584   0.89844    0.000
 4748.00    0.83225   0.90889    0.000
 4749.00    0.90441   0.90871    0.000
 4750.00    0.90357   0.90559    0.000
 4751.00    0.86463   0.91221    0.000
 4752.00    0.87724   0.91882    0.000
 4753.00    0.91318   0.91713    0.000
 4754.00    0.95312   0.91621    0.000
 4755.00    0.99462   0.91799    0.000
 4756.00    0.91706   0.91284    0.000
 4757.00    0.80005   0.90013    0.000
 4758.00    0.92299   0.88824    0.000
 4759.00    1.11264   0.88036    0.000
 4760.00    1.01988   0.87704    0.000
 4761.00    0.86253   0.87685    0.008
 4762.00    0.76405   0.88056    0.008
 4763.00    0.67634   0.88847    0.008
 4764.00    0.62338   0.89759    0.008
 4765.00    0.57532   0.89790    0.008
 4766.00    0.71507   0.87841    0.008
 4767.00    0.87388   0.85103    0.008
 4768.00    0.82444   0.83720    0.008
 4769.00    0.76153   0.83297    0.008
 4770.00    0.66231   0.82766    0.008
 4771.00    0.56241   0.82919    0.008
 4772.00    0.67028   0.84494    0.008
 4773.00    0.77355   0.86656    0.008
 4774.00    0.74323   0.88483    0.008
 4775.00    0.71495   0.88879    0.008
 4776.00    0.71596   0.87506    0.008
 4777.00    0.72530   0.86572    0.008
 4778.00    0.81305   0.87763    0.008
 4779.00    0.87668   0.89824    0.008
 4780.00    0.77518   0.90573    0.008
 4781.00    0.66864   0.90284    0.008
 4782.00    0.53545   0.90412    0.008
 4783.00    0.44127   0.90283    0.008
 4784.00    0.51322   0.89263    0.008
 4785.00    0.58620   0.88565    0.008
 4786.00    0.66276   0.88432    0.008
 4787.00    0.73286   0.87531    0.008
 4788.00    0.78392   0.86281    0.008
 4789.00    0.80871   0.86401    0.008
 4790.00    0.76740   0.86627    0.008
 4791.00    0.75208   0.85493    0.008
 4792.00    0.79312   0.85039    0.008
 4793.00    0.78257   0.85480    0.008
 4794.00    0.67494   0.85373    0.008
 4795.00    0.64477   0.85659    0.008
 4796.00    0.74192   0.86651    0.008
 4797.00    0.78465   0.87781    0.008
 4798.00    0.74897   0.89552    0.008
 4799.00    0.77001   0.91503    0.008
 4800.00    0.86293   0.92182    0.008
 4801.00    0.91629   0.91262    0.008
 4802.00    0.92546   0.89440    0.008
 4803.00    0.83616   0.87290    0.008
 4804.00    0.64988   0.85776    0.008
 4805.00    0.65572   0.85990    0.008
 4806.00    0.82844   0.87808    0.008
 4807.00    0.82056   0.89660    0.008
 4808.00    0.67445   0.89857    0.008
 4809.00    0.58780   0.88262    0.008
 4810.00    0.54115   0.86519    0.008
 4811.00    0.54268   0.86009    0.008
 4812.00    0.57260   0.85805    0.008
 4813.00    0.73931   0.85615    0.008
 4814.00    0.97632   0.86206    0.008
 4815.00    1.01172   0.86988    0.008
 4816.00    0.95737   0.87225    0.008
 4817.00    0.73478   0.87216    0.008
 4818.00    0.44782   0.87376    0.008
 4819.00    0.54073   0.87773    0.008
 4820.00    0.75715   0.88313    0.008
 4821.00    0.89388   0.88956    0.008
 4822.00    1.00891   0.89544    0.008
 4823.00    0.99650   0.89925    0.008
 4824.00    0.95561   0.90118    0.008
 4825.00    0.91895   0.89862    0.008
 4826.00    0.88304   0.89017    0.008
 4827.00    0.83197   0.86909    0.008
 4828.00    0.77885   0.83826    0.008
 4829.00    0.67779   0.82856    0.008
 4830.00    0.57208   0.84971    0.008
 4831.00    0.54455   0.87116    0.008
 4832.00    0.52176   0.87268    0.008
 4833.00    0.58659   0.86209    0.008
 4834.00    0.65309   0.85582    0.008
 4835.00    0.59976   0.85556    0.008
 4836.00    0.55070   0.84785    0.008
 4837.00    0.61290   0.83892    0.008
 4838.00    0.65592   0.84650    0.008
 4839.00    0.43706   0.86089    0.008
 4840.00    0.26133   0.86446    0.008
 4841.00    0.47550   0.86113    0.008
 4842.00    0.67161   0.85970    0.008
 4843.00    0.74792   0.85145    0.008
 4844.00    0.79649   0.83415    0.008
 4845.00    0.70194   0.82465    0.008
 4846.00    0.64696   0.82966    0.008
 4847.00    0.75664   0.83303    0.008
 4848.00    0.86743   0.82901    0.000
 4849.00    0.98204   0.83487    0.000
 4850.00    1.04913   0.85047    0.000
 4851.00    0.97839   0.85478    0.000
 4852.00    0.88692   0.83882    0.000
 4853.00    0.74416   0.81582    0.000
 4854.00    0.63578   0.80995    0.000
 4855.00    0.60075   0.82178    0.000
 4856.00    0.65254   0.82730    0.000
 4857.00    0.86523   0.82146    0.000
 4858.00    0.95969   0.80849    0.000
 4859.00    0.86279   0.77884    0.000
 4860.00    0.84680   0.74289    0.000
 4861.00    0.94571   0.73127    0.000
 4862.00    1.02779   0.73742    0.000
 4863.00    1.08884   0.72125    0.000
 4864.00    1.00908   0.66402    0.000
 4865.00    0.77426   0.58142    0.000
 4866.00    0.68855   0.52582    0.000
 4867.00    0.74765   0.54939    0.000
 4868.00    0.86434   0.62276    0.000
 4869.00    1.03034   0.68078    0.000
 4870.00    1.10879   0.71725    0.000
 4871.00    1.12121   0.74578    0.000
 4872.00    1.12482   0.76472    0.000
 4873.00    1.12259   0.77600    0.000
 4874.00    1.04799   0.77991    0.000
 4875.00    0.93137   0.76180    0.008
 4876.00    0.94840   0.73060    0.008
 4877.00    1.03302   0.72707    0.008
 4878.00    1.07953   0.75636    0.009
 4879.00    1.10936   0.78211    0.009
 4880.00    0.97648   0.79018    0.009
 4881.00    0.78243   0.79493    0.009
 4882.00    0.62232   0.80286    0.009
 4883.00    0.47303   0.81469    0.009
 4884.00    0.47296   0.83419    0.009
 4885.00    0.51266   0.84057    0.009
 4886.00    0.58251   0.82345    0.009
 4887.00    0.65894   0.81118    0.009
 4888.00    0.62479   0.81376    0.009
 4889.00    0.57147   0.80896    0.009
 4890.00    0.73719   0.79213    0.009
 4891.00    0.93176   0.78206    0.009
 4892.00    0.77832   0.78753    0.008
 4893.00    0.59255   0.79559    0.008
 4894.00    0.67570   0.79008    0.008
 4895.00    0.77409   0.76723    0.008
 4896.00    0.75208   0.75086    0.009
 4897.00    0.72963   0.77575    0.009
 4898.00    0.95846   0.82526    0.009
 4899.00    1.17001   0.86269    0.009
 4900.00    0.97161   0.88157    0.009
 4901.00    0.79779   0.88636    0.009
 4902.00    0.94173   0.88365    0.009
 4903.00    1.03241   0.87408    0.008
 4904.00    0.65997   0.85322    0.008
 4905.00    0.36376   0.83640    0.008
 4906.00    0.55802   0.83834    0.008
 4907.00    0.72984   0.83959    0.008
 4908.00    0.78881   0.82914    0.008
 4909.00    0.82974   0.82918    0.008
 4910.00    0.79721   0.84948    0.008
 4911.00    0.81224   0.86803    0.008
 4912.00    0.98775   0.86485    0.008
 4913.00    1.03745   0.84401    0.008
 4914.00    0.72899   0.81646    0.008
 4915.00    0.60812   0.79427    0.008
 4916.00    0.94360   0.79430    0.008
 4917.00    1.13346   0.81379    0.009
 4918.00    1.01765   0.83263    0.008
 4919.00    0.90180   0.84633    0.008
 4920.00    0.78586   0.85966    0.008
 4921.00    0.75201   0.86095    0.008
 4922.00    0.84905   0.83548    0.008
 4923.00    0.87370   0.78711    0.008
 4924.00    0.79701   0.73848    0.008
 4925.00    0.71369   0.71408    0.008
 4926.00    0.62220   0.72553    0.008
 4927.00    0.62418   0.75903    0.008
 4928.00    0.72764   0.77906    0.008
 4929.00    0.84901   0.77972    0.008
 4930.00    0.98755   0.79015    0.008
 4931.00    0.93136   0.81859    0.008
 4932.00    0.71075   0.84096    0.008
 4933.00    0.66626   0.85256    0.008
 4934.00    0.75272   0.86283    0.008
 4935.00    0.85608   0.86660    0.008
 4936.00    0.97047   0.86154    0.008
 4937.00    0.98756   0.84228    0.008
 4938.00    0.94903   0.80713    0.008
 4939.00    0.91663   0.78901    0.008
 4940.00    0.88727   0.80556    0.000
 4941.00    0.88527   0.81875    0.000
 4942.00    0.89504   0.80016    0.000
 4943.00    0.92019   0.76796    0.000
 4944.00    0.95103   0.75864    0.000
 4945.00    0.99786   0.78713    0.000
 4946.00    1.04969   0.82528    0.000
 4947.00    1.01087   0.84416    0.000
 4948.00    0.94839   0.85237    0.000
 4949.00    0.83942   0.85600    0.000
 4950.00    0.72054   0.84689    0.000
 4951.00    0.85947   0.83675    0.000
 4952.00    1.04184   0.84250    0.000
 4953.00    1.07926   0.85460    0.000
 4954.00    1.09824   0.85979    0.000
 4955.00    0.99640   0.86148    0.000
 4956.00    0.88384   0.86269    0.000
 4957.00    0.83024   0.85632    0.000
 4958.00    0.77976   0.84461    0.000
 4959.00    0.67445   0.83702    0.000
 4960.00    0.56819   0.82665    0.000
 4961.00    0.46974   0.79147    0.000
 4962.00    0.38878   0.73835    0.000
 4963.00    0.68832   0.72777    0.000
 4964.00    0.97237   0.77624    0.000
 4965.00    1.06610   0.82404    0.000
 4966.00    1.13005   0.83744    0.000
 4967.00    0.94460   0.83437    0.000
 4968.00    0.79828   0.83338    0.000
 4969.00    0.89629   0.82600    0.000
 4970.00    0.96295   0.80562    0.000
 4971.00    0.87588   0.78955    0.000
 4972.00    0.79795   0.78745    0.000
 4973.00    0.75638   0.78993    0.000
 4974.00    0.69492   0.79323    0.000
 4975.00    0.56769   0.79827    0.000
 4976.00    0.53396   0.80753    0.000
 4977.00    0.76157   0.81947    0.000
 4978.00    0.90634   0.82834    0.000
 4979.00    0.85296   0.83500    0.000
 4980.00    0.87066   0.83602    0.000
 4981.00    1.03519   0.82976    0.000
 4982.00    1.12485   0.81826    0.000
 4983.00    1.08001   0.80151    0.000
 4984.00    1.02454   0.78894    0.000
 4985.00    0.95236   0.78138    0.000
 4986.00    0.91531   0.76151    0.000
 4987.00    0.92670   0.72815    0.000
 4988.00    0.88208   0.70806    0.000
 4989.00    0.76946   0.71604    0.000
 4990.00    0.80208   0.73865    0.000
 4991.00    0.99015   0.76613    0.000
 4992.00    0.99831   0.79435    0.000
 4993.00    0.83660   0.80730    0.000
 4994.00    0.72302   0.80074    0.000
 4995.00    0.64950   0.78718    0.000
 4996.00    0.75030   0.78012    0.000
 4997.00    0.97884   0.78607    0.000
 4998.00    1.14894   0.78977    0.000
 4999.00    1.28142   0.78769    0.000
 5000.00    1.27804   0.79514    0.000
 5001.00    1.19818   0.80428    0.000
 5002.00    1.22234   0.80377    0.000
 5003.00    1.29746   0.79376    0.000
 5004.00    1.15096   0.77294    0.000
 5005.00    0.91063   0.75232    0.000
 5006.00    0.87216   0.74481    0.000
 5007.00    0.90689   0.74861    0.000
 5008.00    1.02263   0.75642    0.000
 5009.00    1.16323   0.75460    0.000
 5010.00    0.97252   0.73423    0.000
 5011.00    0.69722   0.71400    0.000
 5012.00    0.74600   0.72371    0.000
 5013.00    0.86211   0.75783    0.000
 5014.00    0.86693   0.78169    0.000
 5015.00    0.85352   0.78077    0.000
 5016.00    0.69750   0.76254    0.000
 5017.00    0.52396   0.73429    0.000
 5018.00    0.70293   0.70928    0.000
 5019.00    0.91170   0.69919    0.000
 5020.00    0.77369   0.70900    0.000
 5021.00    0.61873   0.72655    0.000
 5022.00    0.73740   0.72845    0.000
 5023.00    0.85579   0.72011    0.000
 5024.00    0.69975   0.72632    0.000
 5025.00    0.55188   0.74354    0.000
 5026.00    0.56763   0.74856    0.000
 5027.00    0.59163   0.74141    0.000
 5028.00    0.71198   0.74490    0.000
 5029.00    0.80708   0.76134    0.008
 5030.00    0.69845   0.77150    0.008
 5031.00    0.61884   0.76737    0.008
 5032.00    0.71523   0.75267    0.008
 5033.00    0.79736   0.74808    0.008
 5034.00    0.81132   0.76328    0.008
 5035.00    0.77724   0.77769    0.008
 5036.00    0.55610   0.78529    0.008
 5037.00    0.43085   0.79764    0.008
 5038.00    0.61667   0.81002    0.008
 5039.00    0.69538   0.80341    0.008
 5040.00    0.48008   0.77247    0.008
 5041.00    0.33985   0.74483    0.008
 5042.00    0.37612   0.74457    0.008
 5043.00    0.44283   0.74765    0.008
 5044.00    0.57141   0.72718    0.008
 5045.00    0.68056   0.68955    0.008
 5046.00    0.75534   0.66320    0.007
 5047.00    0.76571   0.68195    0.007
 5048.00    0.67640   0.73321    0.008
 5049.00    0.54100   0.77467    0.008
 5050.00    0.34294   0.79900    0.008
 5051.00    0.31019   0.81088    0.008
 5052.00    0.47532   0.80056    0.007
 5053.00    0.63074   0.76970    0.007
 5054.00    0.77591   0.74207    0.007
 5055.00    0.87705   0.73345    0.007
 5056.00    0.93719   0.73505    0.007
 5057.00    0.99275   0.74147    0.007
 5058.00    1.04454   0.75819    0.007
 5059.00    1.01546   0.77848    0.007
 5060.00    0.92797   0.78963    0.008
 5061.00    0.83509   0.79096    0.008
 5062.00    0.73880   0.79141    0.007
 5063.00    0.71084   0.79534    0.007
 5064.00    0.72076   0.79813    0.008
 5065.00    0.81114   0.80097    0.008
 5066.00    0.94031   0.80756    0.008
 5067.00    0.88221   0.80987    0.008
 5068.00    0.74614   0.79513    0.007
 5069.00    0.73274   0.76162    0.007
 5070.00    0.76301   0.73511    0.008
 5071.00    0.62336   0.73810    0.008
 5072.00    0.43260   0.74928    0.008
 5073.00    0.55662   0.74906    0.008
 5074.00    0.75927   0.75167    0.008
 5075.00    0.72511   0.76367    0.008
 5076.00    0.64298   0.76380    0.008
 5077.00    0.68343   0.74932    0.008
 5078.00    0.74336   0.74659    0.008
 5079.00    0.65752   0.75589    0.008
 5080.00    0.55444   0.75725    0.008
 5081.00    0.74670   0.75542    0.008
 5082.00    0.96271   0.75896    0.008
 5083.00    0.69254   0.74858    0.008
 5084.00    0.40049   0.71190    0.008
 5085.00    0.49839   0.68338    0.008
 5086.00    0.59647   0.69073    0.008
 5087.00    0.47327   0.71182    0.008
 5088.00    0.36462   0.72184    0.007
 5089.00    0.52653   0.73021    0.007
 5090.00    0.68840   0.74671    0.007
 5091.00    0.84998   0.75891    0.008
 5092.00    0.95543   0.75912    0.008
 5093.00    0.62360   0.75795    0.008
 5094.00    0.36652   0.76239    0.008
 5095.00    0.54983   0.76587    0.008
 5096.00    0.71120   0.76732    0.008
 5097.00    0.77023   0.77446    0.008
 5098.00    0.79822   0.78495    0.008
 5099.00    0.70792   0.78692    0.008
 5100.00    0.67462   0.77658    0.008
 5101.00    0.82261   0.75900    0.008
 5102.00    0.92879   0.73718    0.008
 5103.00    0.92222   0.71245    0.008
 5104.00    0.84784   0.69632    0.008
 5105.00    0.61665   0.70716    0.008
 5106.00    0.48495   0.73651    0.008
 5107.00    0.55226   0.75684    0.008
 5108.00    0.62211   0.75817    0.008
 5109.00    0.69639   0.75057    0.008
 5110.00    0.73724   0.74403    0.008
 5111.00    0.72711   0.73644    0.008
 5112.00    0.74154   0.72347    0.008
 5113.00    0.78888   0.71565    0.008
 5114.00    0.77214   0.71635    0.008
 5115.00    0.67977   0.71641    0.008
 5116.00    0.67410   0.72449    0.008
 5117.00    0.75863   0.74151    0.008
 5118.00    0.84338   0.75251    0.008
 5119.00    0.92831   0.75728    0.008
 5120.00    1.00286   0.76043    0.008
 5121.00    1.06902   0.76508    0.008
 5122.00    0.87441   0.77426    0.008
 5123.00    0.49417   0.78027    0.007
 5124.00    0.38347   0.77586    0.007
 5125.00    0.44114   0.76364    0.007
 5126.00    0.54755   0.74851    0.007
 5127.00    0.68057   0.73158    0.007
 5128.00    0.79778   0.71049    0.007
 5129.00    0.90747   0.69462    0.007
 5130.00    0.80205   0.69507    0.007
 5131.00    0.60859   0.70353    0.007
 5132.00    0.55576   0.70718    0.007
 5133.00    0.55210   0.70513    0.007
 5134.00    0.63209   0.70230    0.007
 5135.00    0.73674   0.70583    0.007
 5136.00    0.66882   0.71770    0.007
 5137.00    0.55875   0.72786    0.007
 5138.00    0.61841   0.73098    0.007
 5139.00    0.71160   0.73617    0.007
 5140.00    0.77364   0.74748    0.007
 5141.00    0.83088   0.74694    0.007
 5142.00    0.72765   0.72907    0.007
 5143.00    0.60614   0.70933    0.007
 5144.00    0.45523   0.69647    0.007
 5145.00    0.30208   0.70197    0.007
 5146.00    0.37922   0.71409    0.007
 5147.00    0.46582   0.70456    0.007
 5148.00    0.54312   0.69361    0.007
 5149.00    0.62126   0.70529    0.007
 5150.00    0.73807   0.71515    0.007
 5151.00    0.85159   0.70764    0.007
 5152.00    0.90829   0.69838    0.007
 5153.00    0.95056   0.70029    0.007
 5154.00    0.83923   0.71118    0.008
 5155.00    0.73775   0.71467    0.008
 5156.00    0.71033   0.70478    0.008
 5157.00    0.71251   0.69486    0.007
 5158.00    0.88418   0.69109    0.008
 5159.00    1.02375   0.69208    0.008
 5160.00    1.01710   0.70270    0.008
 5161.00    0.97255   0.72235    0.008
 5162.00    0.78656   0.74206    0.008
 5163.00    0.62830   0.75275    0.008
 5164.00    0.55655   0.75295    0.008
 5165.00    0.51881   0.75198    0.008
 5166.00    0.57110   0.74875    0.008
 5167.00    0.59284   0.73648    0.008
 5168.00    0.54509   0.72585    0.008
 5169.00    0.51683   0.71696    0.008
 5170.00    0.52695   0.68854    0.008
 5171.00    0.54642   0.63473    0.008
 5172.00    0.58194   0.57768    0.008
 5173.00    0.57821   0.55423    0.008
 5174.00    0.51551   0.57966    0.008
 5175.00    0.54487   0.62076    0.008
 5176.00    0.69581   0.62065    0.008
 5177.00    0.75573   0.57453    0.008
 5178.00    0.70976   0.55208    0.008
 5179.00    0.70035   0.59701    0.008
 5180.00    0.72844   0.66455    0.007
 5181.00    0.65228   0.70189    0.007
 5182.00    0.48177   0.71299    0.007
 5183.00    0.45343   0.71807    0.007
 5184.00    0.53848   0.71801    0.007
 5185.00    0.47264   0.70940    0.007
 5186.00    0.30094   0.68902    0.007
 5187.00    0.38647   0.64359    0.007
 5188.00    0.63029   0.57731    0.008
 5189.00    0.70976   0.54578    0.008
 5190.00    0.70091   0.58773    0.000
 5191.00    0.63714   0.65791    0.000
 5192.00    0.54775   0.69909    0.000
 5193.00    0.56278   0.70570    0.000
 5194.00    0.61980   0.70744    0.000
 5195.00    0.65899   0.71463    0.000
 5196.00    0.69207   0.69910    0.000
 5197.00    0.68859   0.66425    0.000
 5198.00    0.67454   0.65431    0.000
 5199.00    0.64739   0.67129    0.000
 5200.00    0.61711   0.68100    0.000
 5201.00    0.68110   0.68343    0.000
 5202.00    0.76323   0.69307    0.000
 5203.00    0.67779   0.70585    0.000
 5204.00    0.56729   0.71818    0.000
 5205.00    0.58041   0.72695    0.000
 5206.00    0.60706   0.72657    0.000
 5207.00    0.74096   0.71897    0.000
 5208.00    0.88261   0.70870    0.000
 5209.00    0.77046   0.68801    0.000
 5210.00    0.64884   0.65732    0.000
 5211.00    0.82682   0.63990    0.007
 5212.00    0.99788   0.64089    0.007
 5213.00    0.86618   0.63878    0.007
 5214.00    0.73614   0.63801    0.007
 5215.00    0.63306   0.65525    0.007
 5216.00    0.53895   0.68345    0.007
 5217.00    0.53611   0.71234    0.007
 5218.00    0.54021   0.73343    0.007
 5219.00    0.59470   0.73542    0.007
 5220.00    0.67162   0.71636    0.007
 5221.00    0.87353   0.69498    0.007
 5222.00    1.03995   0.69224    0.007
 5223.00    1.04848   0.70851    0.007
 5224.00    1.01788   0.72889    0.007
 5225.00    0.84434   0.74164    0.007
 5226.00    0.72024   0.74723    0.007
 5227.00    0.74747   0.74614    0.007
 5228.00    0.79873   0.73399    0.007
 5229.00    0.91253   0.70983    0.008
 5230.00    0.92639   0.67648    0.008
 5231.00    0.71677   0.63903    0.008
 5232.00    0.60612   0.61887    0.008
 5233.00    0.68732   0.64229    0.008
 5234.00    0.75788   0.68898    0.008
 5235.00    0.81046   0.71967    0.008
 5236.00    0.83494   0.72972    0.008
 5237.00    0.81780   0.72025    0.008
 5238.00    0.80449   0.69655    0.008
 5239.00    0.79617   0.68292    0.008
 5240.00    0.85036   0.68986    0.008
 5241.00    0.97623   0.71016    0.008
 5242.00    1.08023   0.73147    0.008
 5243.00    1.16209   0.74240    0.008
 5244.00    1.16447   0.74246    0.008
 5245.00    1.09597   0.74012    0.008
 5246.00    0.97835   0.74078    0.008
 5247.00    0.82211   0.73959    0.008
 5248.00    0.67016   0.73680    0.008
 5249.00    0.52116   0.74218    0.008
 5250.00    0.42876   0.74878    0.008
 5251.00    0.37068   0.73506    0.008
 5252.00    0.48063   0.70711    0.008
 5253.00    0.67950   0.69525    0.008
 5254.00    0.85676   0.69826    0.008
 5255.00    1.02410   0.69287    0.008
 5256.00    0.99804   0.68729    0.007
 5257.00    0.89552   0.69725    0.007
 5258.00    0.89445   0.71008    0.007
 5259.00    0.92755   0.70854    0.008
 5260.00    0.71849   0.69886    0.008
 5261.00    0.44087   0.70553    0.008
 5262.00    0.57071   0.73113    0.008
 5263.00    0.79566   0.75278    0.008
 5264.00    0.99618   0.75762    0.008
 5265.00    1.19213   0.74650    0.008
 5266.00    1.07512   0.72164    0.008
 5267.00    0.91277   0.68755    0.007
 5268.00    0.85677   0.65450    0.008
 5269.00    0.81196   0.62967    0.008
 5270.00    0.83145   0.61304    0.008
 5271.00    0.85532   0.61043    0.008
 5272.00    0.95921   0.63062    0.008
 5273.00    1.06579   0.64606    0.007
 5274.00    1.08453   0.62021    0.007
 5275.00    1.09731   0.58847    0.007
 5276.00    0.92189   0.60850    0.008
 5277.00    0.76434   0.65793    0.008
 5278.00    0.87903   0.68422    0.007
 5279.00    0.98628   0.68399    0.007
 5280.00    1.02101   0.67501    0.007
 5281.00    1.03611   0.67598    0.007
 5282.00    0.91295   0.70197    0.007
 5283.00    0.82268   0.73417    0.007
 5284.00    0.91083   0.74428    0.007
 5285.00    0.96373   0.73168    0.007
 5286.00    0.86343   0.71212    0.007
 5287.00    0.79954   0.69525    0.007
 5288.00    0.86595   0.68172    0.007
 5289.00    0.93055   0.67843    0.007
 5290.00    0.98969   0.69970    0.007
 5291.00    0.94609   0.73531    0.007
 5292.00    0.63983   0.75626    0.007
 5293.00    0.44942   0.75551    0.007
 5294.00    0.51389   0.75033    0.007
 5295.00    0.55415   0.75313    0.007
 5296.00    0.54823   0.75805    0.007
 5297.00    0.58730   0.75520    0.008
 5298.00    0.70128   0.74655    0.008
 5299.00    0.77139   0.74113    0.008
 5300.00    0.77750   0.73591    0.008
 5301.00    0.78913   0.71673    0.008
 5302.00    0.80786   0.68296    0.008
 5303.00    0.86501   0.65903    0.008
 5304.00    0.96561   0.66765    0.008
 5305.00    0.89470   0.69299    0.008
 5306.00    0.65274   0.70415    0.008
 5307.00    0.53582   0.70376    0.007
 5308.00    0.52889   0.71308    0.007
 5309.00    0.64812   0.73400    0.007
 5310.00    0.86513   0.74986    0.008
 5311.00    0.91656   0.74927    0.008
 5312.00    0.85517   0.73823    0.008
 5313.00    0.86840   0.73314    0.008
 5314.00    0.92619   0.74080    0.008
 5315.00    0.97513   0.75042    0.008
 5316.00    1.01947   0.75210    0.008
 5317.00    0.85316   0.74743    0.007
 5318.00    0.59169   0.74081    0.007
 5319.00    0.50144   0.73598    0.007
 5320.00    0.47769   0.73092    0.007
 5321.00    0.66506   0.71930    0.007
 5322.00    0.92222   0.70927    0.007
 5323.00    0.82825   0.71319    0.007
 5324.00    0.63691   0.72272    0.007
 5325.00    0.62750   0.72616    0.007
 5326.00    0.65958   0.72524    0.007
 5327.00    0.65909   0.72164    0.007
 5328.00    0.65267   0.71014    0.007
 5329.00    0.54206   0.69219    0.007
 5330.00    0.41685   0.68440    0.007
 5331.00    0.49148   0.68545    0.007
 5332.00    0.58628   0.66351    0.007
 5333.00    0.71038   0.61600    0.007
 5334.00    0.83635   0.59745    0.007
 5335.00    0.77231   0.63457    0.007
 5336.00    0.70275   0.68384    0.007
 5337.00    0.68630   0.70489    0.007
 5338.00    0.67844   0.70560    0.007
 5339.00    0.91617   0.71101    0.007
 5340.00    1.12159   0.72260    0.007
 5341.00    0.86358   0.72520    0.007
 5342.00    0.62779   0.71863    0.007
 5343.00    0.59999   0.71316    0.007
 5344.00    0.60407   0.70310    0.007
 5345.00    0.82560   0.68049    0.007
 5346.00    0.98878   0.66574    0.007
 5347.00    0.84386   0.67918    0.007
 5348.00    0.72896   0.70399    0.007
 5349.00    0.74151   0.71641    0.007
 5350.00    0.72739   0.71270    0.007
 5351.00    0.61977   0.70360    0.007
 5352.00    0.55693   0.70113    0.007
 5353.00    0.62611   0.69849    0.007
 5354.00    0.67971   0.68926    0.007
 5355.00    0.69417   0.68937    0.007
 5356.00    0.70745   0.70685    0.007
 5357.00    0.71816   0.72450    0.007
 5358.00    0.74819   0.72987    0.007
 5359.00    0.81447   0.73338    0.007
 5360.00    0.79976   0.74356    0.007
 5361.00    0.65221   0.75212    0.007
 5362.00    0.68057   0.75409    0.007
 5363.00    0.96195   0.75383    0.008
 5364.00    1.05798   0.75324    0.008
 5365.00    0.91952   0.74928    0.008
 5366.00    0.76581   0.73806    0.008
 5367.00    0.59508   0.72222    0.007
 5368.00    0.56232   0.71123   -2.000
 5369.00    0.66523   0.70590   -2.000
 5370.00    0.75288   0.70006   -2.000
 5371.00    0.82728   0.69724   -2.000
 5372.00    0.81106   0.69929   -2.000
 5373.00    0.72560   0.69945   -2.000
 5374.00    0.87636   0.68959   -2.000
 5375.00    1.18573   0.66538   -2.000
 5376.00    1.11325   0.64081   -2.000
 5377.00    0.81618   0.64277   -2.000
 5378.00    0.74222   0.67529   -2.000
 5379.00    0.78269   0.71114   -2.000
 5380.00    0.72938   0.73041   -2.000
 5381.00    0.63442   0.73349   -2.000
 5382.00    0.76804   0.72834   -2.000
 5383.00    0.98892   0.72558    0.007
 5384.00    0.89877   0.72559    0.007
 5385.00    0.70774   0.72023    0.007
 5386.00    0.68699   0.71135    0.007
 5387.00    0.71248   0.70527    0.007
 5388.00    0.85395   0.70089    0.007
 5389.00    1.02126   0.70172    0.007
 5390.00    0.95671   0.71139    0.007
 5391.00    0.85098   0.72010    0.007
 5392.00    0.74658   0.72072    0.007
 5393.00    0.64236   0.71575    0.007
 5394.00    0.76165   0.70608    0.007
 5395.00    0.90253   0.69422    0.007
 5396.00    0.94053   0.68635    0.007
 5397.00    0.97235   0.68327    0.007
 5398.00    0.85257   0.68167    0.007
 5399.00    0.72991   0.68124    0.007
 5400.00    0.78474   0.68053    0.007
 5401.00    0.83648   0.66940    0.007
 5402.00    0.80833   0.64935    0.007
 5403.00    0.77358   0.64729    0.007
 5404.00    0.64911   0.66899    0.007
 5405.00    0.54474   0.68640    0.007
 5406.00    0.62114   0.69061    0.007
 5407.00    0.67763   0.69358    0.007
 5408.00    0.60258   0.68868    0.007
 5409.00    0.57117   0.66402    0.007
 5410.00    0.76423   0.63278    0.007
 5411.00    0.86851   0.62005    0.007
 5412.00    0.60431   0.63442    0.007
 5413.00    0.47343   0.65604    0.007
 5414.00    0.80046   0.65870    0.007
 5415.00    0.97206   0.64673    0.007
 5416.00    0.69396   0.64805    0.007
 5417.00    0.57773   0.66964    0.007
 5418.00    0.86125   0.69041    0.007
 5419.00    1.02669   0.69535    0.007
 5420.00    0.94071   0.69227    0.007
 5421.00    0.85761   0.69701    0.007
 5422.00    0.77984   0.70917    0.007
 5423.00    0.70613   0.71460    0.007
 5424.00    0.63899   0.70878    0.007
 5425.00    0.55979   0.69902    0.007
 5426.00    0.46350   0.69456    0.007
 5427.00    0.48666   0.69835    0.007
 5428.00    0.65877   0.69748    0.007
 5429.00    0.74739   0.68382    0.007
 5430.00    0.74423   0.67701    0.007
 5431.00    0.76262   0.69180    0.007
 5432.00    0.80189   0.71185    0.007
 5433.00    0.75368   0.71026    0.007
 5434.00    0.63067   0.67969    0.007
 5435.00    0.62769   0.65203    0.007
 5436.00    0.71508   0.65790    0.007
 5437.00    0.69419   0.67461    0.007
 5438.00    0.60166   0.67176    0.006
 5439.00    0.59276   0.65687    0.006
 5440.00    0.63232   0.64847    0.006
 5441.00    0.59759   0.65404    0.006
 5442.00    0.52536   0.67106    0.006
 5443.00    0.55739   0.69317    0.006
 5444.00    0.63498   0.71252    0.006
 5445.00    0.72282   0.72329    0.006
 5446.00    0.81450   0.72627    0.006
 5447.00    0.78295   0.72605    0.006
 5448.00    0.71219   0.72473    0.006
 5449.00    0.64936   0.71643    0.006
 5450.00    0.58864   0.69380    0.006
 5451.00    0.55666   0.65985    0.006
 5452.00    0.53092   0.63535    0.007
 5453.00    0.58734   0.64295    0.007
 5454.00    0.65796   0.67243    0.007
 5455.00    0.82752   0.69468    0.007
 5456.00    1.01005   0.70088    0.007
 5457.00    0.95696   0.69845    0.007
 5458.00    0.88211   0.69128    0.007
 5459.00    0.77605   0.67488    0.007
 5460.00    0.66824   0.64852    0.007
 5461.00    0.61171   0.63323    0.007
 5462.00    0.55779   0.64946    0.007
 5463.00    0.65667   0.68095    0.007
 5464.00    0.75094   0.69945    0.007
 5465.00    0.73727   0.69915    0.007
 5466.00    0.72930   0.68895    0.007
 5467.00    0.79451   0.67416    0.007
 5468.00    0.84717   0.65883    0.007
 5469.00    0.79112   0.65642    0.007
 5470.00    0.74692   0.66950    0.007
 5471.00    0.77876   0.68015    0.007
 5472.00    0.78086   0.68257    0.007
 5473.00    0.63386   0.68606    0.007
 5474.00    0.53938   0.68862    0.007
 5475.00    0.65802   0.68389    0.007
 5476.00    0.73003   0.67795    0.007
 5477.00    0.64506   0.67571    0.007
 5478.00    0.55880   0.67046   -2.000
 5479.00    0.46891   0.66278   -2.000
 5480.00    0.42860   0.65653   -2.000
 5481.00    0.50865   0.64073   -2.000
 5482.00    0.59775   0.62156   -2.000
 5483.00    0.70583   0.62784   -2.000
 5484.00    0.82324   0.65564   -2.000
 5485.00    0.95766   0.66984   -2.000
 5486.00    1.36032   0.65954   -2.000
 5487.00    2.18996   0.64814   -2.000
 5488.00    2.74499   0.65370   -2.000
 5489.00    2.91641   0.67058   -2.000
 5490.00    2.89854   0.68676   -2.000
 5491.00    2.64795   0.69097   -2.000
 5492.00    1.94105   0.67902   -2.000
 5493.00    0.73964   0.66526   -2.000
 5494.00    0.24488   0.66458   -2.000
 5495.00    0.42561   0.67082   -2.000
 5496.00    0.54781   0.67587   -2.000
 5497.00    0.62069   0.68009   -2.000
 5498.00    0.63610   0.67904   -2.000
 5499.00    0.60886   0.67440   -2.000
 5500.00    0.60281   0.67558   -2.000
 5501.00    0.61058   0.67734   -2.000
 5502.00    0.60449   0.66937    0.006
 5503.00    0.59048   0.66335    0.006
 5504.00    0.62949   0.67298    0.006
 5505.00    0.69485   0.68251    0.006
 5506.00    0.67208   0.67397    0.006
 5507.00    0.61144   0.65887    0.007
 5508.00    0.50767   0.65549    0.007
 5509.00    0.38800   0.66218    0.007
 5510.00    0.42495   0.66485    0.007
 5511.00    0.51078   0.65580    0.006
 5512.00    0.56505   0.64735    0.006
 5513.00    0.61111   0.65454    0.006
 5514.00    0.61158   0.66697    0.006
 5515.00    0.60236   0.66941    0.007
 5516.00    0.70903   0.66267    0.007
 5517.00    0.83515   0.65019    0.007
 5518.00    0.73473   0.63897    0.007
 5519.00    0.60562   0.63821    0.007
 5520.00    0.55201   0.64656    0.007
 5521.00    0.50505   0.65700    0.006
 5522.00    0.55532   0.66642    0.006
 5523.00    0.61067   0.67702    0.006
 5524.00    0.63957   0.68725    0.006
 5525.00    0.66727   0.69043    0.006
 5526.00    0.64077   0.68726    0.006
 5527.00    0.61349   0.68396    0.006
 5528.00    0.56933   0.68299    0.006
 5529.00    0.53216   0.68229    0.006
 5530.00    0.58033   0.67764    0.006
 5531.00    0.62469   0.66694    0.006
 5532.00    0.63717   0.65100    0.006
 5533.00    0.63730   0.63451    0.006
 5534.00    0.56059   0.63143    0.006
 5535.00    0.52075   0.64847    0.006
 5536.00    0.66113   0.66869    0.006
 5537.00    0.77588   0.67568    0.006
 5538.00    0.78886   0.67229    0.006
 5539.00    0.76419   0.66530    0.006
 5540.00    0.61524   0.65748    0.006
 5541.00    0.50224   0.65609    0.006
 5542.00    0.48953   0.66312    0.006
 5543.00    0.53885   0.66890    0.006
 5544.00    0.73621   0.67216    0.006
 5545.00    0.85120   0.67890    0.006
 5546.00    0.79638   0.68598    0.006
 5547.00    0.77158   0.68538    0.006
 5548.00    0.80058   0.67588    0.006
 5549.00    0.78359   0.66686    0.006
 5550.00    0.69446   0.66530    0.006
 5551.00    0.64659   0.66651    0.006
 5552.00    0.65552   0.66889    0.006
 5553.00    0.68722   0.67683    0.006
 5554.00    0.74654   0.68616    0.006
 5555.00    0.75703   0.69022    0.006
 5556.00    0.71535   0.68999    0.006
 5557.00    0.64469   0.68679    0.006
 5558.00    0.54672   0.67934    0.006
 5559.00    0.51431   0.66962    0.006
 5560.00    0.53638   0.66451    0.006
 5561.00    0.58760   0.66711    0.006
 5562.00    0.66013   0.67077    0.006
 5563.00    0.60874   0.67075    0.006
 5564.00    0.47774   0.67073    0.006
 5565.00    0.56604   0.67173    0.006
 5566.00    0.77756   0.67050    0.006
 5567.00    0.74165   0.66544    0.006
 5568.00    0.58475   0.65799    0.006
 5569.00    0.49935   0.65390    0.006
 5570.00    0.44417   0.65342    0.006
 5571.00    0.53114   0.65079    0.006
 5572.00    0.66955   0.64861    0.006
 5573.00    0.76784   0.65001    0.006
 5574.00    0.85385   0.64959    0.006
 5575.00    0.80761   0.64840    0.006
 5576.00    0.72771   0.65312    0.006
 5577.00    0.72083   0.65434    0.006
 5578.00    0.72908   0.64590    0.006
 5579.00    0.74832   0.64560    0.006
 5580.00    0.76936   0.65626    0.006
 5581.00    0.84941   0.66065    0.006
 5582.00    0.93666   0.66023    0.006
 5583.00    0.94483   0.66304    0.006
 5584.00    0.94634   0.66547    0.006
 5585.00    0.78971   0.66732    0.006
 5586.00    0.62543   0.66747    0.006
 5587.00    0.58457   0.66269    0.006
 5588.00    0.54821   0.65935    0.006
 5589.00    0.66890   0.66021    0.006
 5590.00    0.79217   0.65656    0.006
 5591.00    0.96639   0.64195    0.006
 5592.00    1.11726   0.61982    0.006
 5593.00    0.99698   0.60225    0.006
 5594.00    0.88963   0.59811    0.006
 5595.00    0.88622   0.60676    0.006
 5596.00    0.88211   0.62196    0.006
 5597.00    0.87377   0.63357    0.006
 5598.00    0.84478   0.63560    0.006
 5599.00    0.71735   0.63143    0.007
 5600.00    0.63980   0.63234    0.007
 5601.00    0.75595   0.64621    0.007
 5602.00    0.82617   0.65762    0.006
 5603.00    0.74773   0.64879    0.006
 5604.00    0.68436   0.63252    0.006
 5605.00    0.66228   0.62677    0.006
 5606.00    0.65680   0.62462    0.006
 5607.00    0.69030   0.61727    0.006
 5608.00    0.71275   0.61315    0.006
 5609.00    0.71279   0.62414    0.006
 5610.00    0.73833   0.64704    0.006
 5611.00    0.80890   0.66625    0.006
 5612.00    0.82325   0.67476    0.006
 5613.00    0.75073   0.67585    0.006
 5614.00    0.67718   0.67403    0.006
 5615.00    0.60225   0.67222    0.006
 5616.00    0.55578   0.67237    0.006
 5617.00    0.54332   0.67502    0.006
 5618.00    0.55339   0.67532    0.006
 5619.00    0.58718   0.66214    0.006
 5620.00    0.70285   0.63165    0.006
 5621.00    0.89458   0.60665    0.006
 5622.00    0.94216   0.61164    0.006
 5623.00    0.87164   0.63240    0.006
 5624.00    0.79197   0.64281    0.006
 5625.00    0.70570   0.64330    0.006
 5626.00    0.68773   0.64636    0.006
 5627.00    0.71297   0.65347    0.006
 5628.00    0.76561   0.65356    0.006
 5629.00    0.83340   0.63840    0.006
 5630.00    0.87996   0.62015    0.006
 5631.00    0.91630   0.61906    0.006
 5632.00    0.96901   0.63234    0.006
 5633.00    1.02851   0.64383    0.006
 5634.00    0.93707   0.65139    0.006
 5635.00    0.79200   0.65900    0.006
 5636.00    0.85883   0.66426    0.006
 5637.00    0.98923   0.66505    0.006
 5638.00    0.95563   0.66196    0.006
 5639.00    0.88117   0.65645    0.006
 5640.00    0.87796   0.65059    0.006
 5641.00    0.88915   0.64456    0.006
 5642.00    0.83533   0.63726    0.006
 5643.00    0.77123   0.63227    0.006
 5644.00    0.74207   0.63410    0.006
 5645.00    0.71704   0.63755    0.006
 5646.00    0.78781   0.63445    0.006
 5647.00    0.86624   0.62991    0.006
 5648.00    0.79721   0.63250    0.006
 5649.00    0.72161   0.63787    0.006
 5650.00    0.68253   0.64111    0.006
 5651.00    0.64443   0.64410    0.006
 5652.00    0.63351   0.64763    0.006
 5653.00    0.62564   0.64990    0.006
 5654.00    0.67414   0.64841    0.006
 5655.00    0.71657   0.64490    0.006
 5656.00    0.69169   0.64540    0.006
 5657.00    0.66170   0.65123    0.006
 5658.00    0.59213   0.65564    0.006
 5659.00    0.53669   0.65148    0.006
 5660.00    0.56427   0.64144    0.006
 5661.00    0.58681   0.63624    0.006
 5662.00    0.58595   0.63235    0.006
 5663.00    0.59027   0.61451    0.006
 5664.00    0.61431   0.59520    0.006
 5665.00    0.64075   0.60097    0.006
 5666.00    0.67481   0.62015    0.006
 5667.00    0.68937   0.62432    0.006
 5668.00    0.65146   0.61811    0.006
 5669.00    0.61122   0.62190    0.006
 5670.00    0.56560   0.63514    0.006
 5671.00    0.54712   0.64292    0.006
 5672.00    0.58280   0.63912    0.006
 5673.00    0.59638   0.63080    0.006
 5674.00    0.57154   0.62760    0.006
 5675.00    0.55990   0.63052    0.006
 5676.00    0.56837   0.63547    0.006
 5677.00    0.62734   0.64225    0.006
 5678.00    0.75386   0.65167    0.006
 5679.00    0.79521   0.65833    0.006
 5680.00    0.73623   0.65704    0.006
 5681.00    0.67656   0.65340    0.006
 5682.00    0.61617   0.65490    0.006
 5683.00    0.60640   0.65682    0.006
 5684.00    0.64303   0.65314    0.006
 5685.00    0.63841   0.64872    0.006
 5686.00    0.60050   0.64624    0.006
 5687.00    0.61534   0.63917    0.006
 5688.00    0.66767   0.62796    0.006
 5689.00    0.66847   0.62403    0.006
 5690.00    0.63714   0.62935    0.006
 5691.00    0.60161   0.63317    0.006
 5692.00    0.56378   0.62844    0.006
 5693.00    0.55449   0.62065    0.006
 5694.00    0.55871   0.61982    0.006
 5695.00    0.60448   0.62819    0.006
 5696.00    0.66722   0.63904    0.006
 5697.00    0.68703   0.64724    0.006
 5698.00    0.69186   0.65233    0.006
 5699.00    0.67891   0.65250    0.006
 5700.00    0.66073   0.64939    0.006
 5701.00    0.57642   0.64811    0.006
 5702.00    0.47600   0.64785    0.006
 5703.00    0.54517   0.64280    0.006
 5704.00    0.64775   0.63443    0.006
 5705.00    0.65885   0.62925    0.006
 5706.00    0.65589   0.62401    0.006
 5707.00    0.63477   0.61737    0.006
 5708.00    0.61160   0.61761    0.006
 5709.00    0.70093   0.62569    0.006
 5710.00    0.79879   0.63110    0.006
 5711.00    0.89496   0.62604    0.006
 5712.00    0.99107   0.61501    0.006
 5713.00    0.94060   0.60486    0.006
 5714.00    0.88801   0.59533    0.006
 5715.00    0.79478   0.59018    0.006
 5716.00    0.71123   0.59257    0.006
 5717.00    0.79391   0.59702    0.006
 5718.00    0.86245   0.60649    0.006
 5719.00    0.78151   0.62296    0.006
 5720.00    0.71171   0.63493    0.006
 5721.00    0.72541   0.63952    0.006
 5722.00    0.73492   0.64168    0.006
 5723.00    0.72051   0.64149    0.006
 5724.00    0.71410   0.64184    0.006
 5725.00    0.74408   0.64567    0.006
 5726.00    0.75104   0.64995    0.006
 5727.00    0.67237   0.65373    0.006
 5728.00    0.60908   0.65724    0.006
 5729.00    0.59366   0.65831    0.006
 5730.00    0.57893   0.65634    0.006
 5731.00    0.56600   0.65093    0.006
 5732.00    0.57115   0.64137    0.006
 5733.00    0.61735   0.63457    0.006
 5734.00    0.65193   0.63826    0.006
 5735.00    0.66369   0.64498    0.006
 5736.00    0.68697   0.64255    0.006
 5737.00    0.72998   0.63470    0.006
 5738.00    0.75521   0.63492    0.006
 5739.00    0.75378   0.64346    0.006
 5740.00    0.67488   0.65022    0.000
 5741.00    0.49383   0.65116    0.000
 5742.00    0.41727   0.64814    0.000
 5743.00    0.46205   0.64498    0.000
 5744.00    0.51752   0.64368    0.000
 5745.00    0.58393   0.64331    0.000
 5746.00    0.62776   0.64308    0.000
 5747.00    0.65119   0.64209    0.000
 5748.00    0.71846   0.63985    0.000
 5749.00    0.82064   0.63969    0.000
 5750.00    0.88404   0.64494    0.000
 5751.00    0.92030   0.65104    0.000
 5752.00    0.89895   0.64920    0.000
 5753.00    0.84221   0.63839    0.000
 5754.00    0.80243   0.63096    0.000
 5755.00    0.77174   0.63618    0.000
 5756.00    0.80850   0.64469    0.000
 5757.00    0.87667   0.64227    0.000
 5758.00    0.87619   0.62786    0.000
 5759.00    0.84815   0.61314    0.000
 5760.00    0.74283   0.61118    0.000
 5761.00    0.61104   0.62405    0.000
 5762.00    0.64459   0.64016    0.000
 5763.00    0.72578   0.64903    0.000
 5764.00    0.67384   0.64915    0.000
 5765.00    0.59020   0.64191    0.000
 5766.00    0.69331   0.63058    0.000
 5767.00    0.83226   0.61851    0.000
 5768.00    0.86855   0.61035    0.000
 5769.00    0.88955   0.61434    0.000
 5770.00    0.79952   0.63002    0.000
 5771.00    0.69739   0.64340    0.000
 5772.00    0.72332   0.64799    0.000
 5773.00    0.75843   0.64819    0.000
 5774.00    0.81273   0.64688    0.000
 5775.00    0.86773   0.64466    0.000
 5776.00    0.86401   0.64203    0.000
 5777.00    0.85880   0.63836    0.000
 5778.00    0.80915   0.63483    0.000
 5779.00    0.76738   0.63310    0.000
 5780.00    0.85247   0.63159    0.000
 5781.00    0.92489   0.63180    0.000
 5782.00    0.86903   0.63562    0.000
 5783.00    0.80572   0.63880    0.000
 5784.00    0.68832   0.63692    0.000
 5785.00    0.59941   0.62730    0.000
 5786.00    0.66872   0.61030    0.000
 5787.00    0.71039   0.59569    0.000
 5788.00    0.62953   0.59343    0.000
 5789.00    0.55770   0.59770    0.000
 5790.00    0.51880   0.59707    0.000
 5791.00    0.52039   0.59522   -2.000
 5792.00    0.64563   0.60306   -2.000
 5793.00    0.73461   0.61659   -2.000
 5794.00    0.72948   0.62571   -2.000
 5795.00    0.73418   0.62773   -2.000
 5796.00    0.76084   0.62256   -2.000
 5797.00    0.77424   0.61795   -2.000
 5798.00    0.76202   0.62171   -2.000
 5799.00    0.73385   0.62954   -2.000
 5800.00    0.67879   0.63666   -2.000
 5801.00    0.62471   0.64015   -2.000
 5802.00    0.57208   0.63532   -2.000
 5803.00    0.56837   0.62503   -2.000
 5804.00    0.62823   0.62231   -2.000
 5805.00    0.65527   0.63230   -2.000
 5806.00    0.64473   0.64423   -2.000
 5807.00    0.63077   0.65007   -2.000
 5808.00    0.61335   0.64973   -2.000
 5809.00    0.61129   0.64222   -2.000
 5810.00    0.62291   0.63120   -2.000
 5811.00    0.64383   0.62537    0.000
 5812.00    0.67206   0.62648    0.000
 5813.00    0.67085   0.63026    0.000
 5814.00    0.64933   0.63294    0.000
 5815.00    0.66176   0.63459    0.000
 5816.00    0.69474   0.63690    0.000
 5817.00    0.78571   0.63878    0.000
 5818.00    0.90731   0.63869    0.000
 5819.00    0.93409   0.63641    0.000
 5820.00    0.91742   0.63084    0.000
 5821.00    0.87169   0.62262    0.000
 5822.00    0.81450   0.61818    0.000
 5823.00    0.78847   0.62360    0.000
 5824.00    0.77291   0.63426    0.000
 5825.00    0.73983   0.64117    0.000
 5826.00    0.70180   0.64311    0.000
 5827.00    0.57355   0.64238    0.000
 5828.00    0.42430   0.63996    0.000
 5829.00    0.46902   0.63781    0.000
 5830.00    0.54998   0.63809    0.000
 5831.00    0.56454   0.63982    0.000
 5832.00    0.56953   0.64017    0.000
 5833.00    0.53660   0.63949    0.000
 5834.00    0.49971   0.63993    0.000
 5835.00    0.60762   0.64155    0.000
 5836.00    0.72533   0.64186    0.000
 5837.00    0.74204   0.64047    0.000
 5838.00    0.75540   0.63915    0.000
 5839.00    0.85573   0.63684    0.000
 5840.00    0.95135   0.63296    0.000
 5841.00    0.89631   0.63175    0.000
 5842.00    0.84509   0.63439    0.000
 5843.00    0.85132   0.63486    0.000
 5844.00    0.85319   0.63195    0.000
 5845.00    0.81280   0.63214    0.000
 5846.00    0.77333   0.63689    0.000
 5847.00    0.74034   0.64153    0.000
 5848.00    0.71789   0.64347    0.000
 5849.00    0.75241   0.64280    0.000
 5850.00    0.78009   0.63976    0.000
 5851.00    0.77818   0.63474    0.000
 5852.00    0.76886   0.62815    0.000
 5853.00    0.73313   0.62227    0.000
 5854.00    0.70825   0.62068    0.000
 5855.00    0.71587   0.62274    0.000
 5856.00    0.72474   0.62382    0.000
 5857.00    0.73680   0.61963    0.000
 5858.00    0.74924   0.60982    0.000
 5859.00    0.76253   0.60113    0.000
 5860.00    0.74288   0.60149    0.000
 5861.00    0.66050   0.60550    0.000
 5862.00    0.61317   0.60027    0.000
 5863.00    0.62409   0.58795    0.000
 5864.00    0.61903   0.58437    0.000
 5865.00    0.59066   0.59368    0.000
 5866.00    0.56379   0.60516    0.000
 5867.00    0.53883   0.61022    0.000
 5868.00    0.58257   0.60878    0.000
 5869.00    0.70386   0.60881    0.000
 5870.00    0.78333   0.61290    0.000
 5871.00    0.82118   0.61379    0.000
 5872.00    0.88682   0.60898    0.000
 5873.00    0.97687   0.60678    0.000
 5874.00    0.98399   0.61233    0.000
 5875.00    0.92696   0.61997    0.000
 5876.00    0.83199   0.62404    0.000
 5877.00    0.71123   0.62365    0.000
 5878.00    0.69336   0.62015    0.000
 5879.00    0.73682   0.61660    0.000
 5880.00    0.76512   0.61458    0.000
 5881.00    0.78555   0.61251    0.000
 5882.00    0.79334   0.60995    0.000
 5883.00    0.79544   0.60887    0.000
 5884.00    0.76570   0.60812    0.000
 5885.00    0.72361   0.60416    0.000
 5886.00    0.70018   0.60005    0.000
 5887.00    0.68290   0.60108    0.000
 5888.00    0.68009   0.60400    0.000
 5889.00    0.68128   0.60233    0.000
 5890.00    0.68089   0.59916    0.000
 5891.00    0.68014   0.59993    0.000
 5892.00    0.60784   0.60019    0.000
 5893.00    0.52253   0.58814    0.000
 5894.00    0.49709   0.55113    0.000
 5895.00    0.48001   0.49517    0.000
 5896.00    0.50806   0.46275    0.000
 5897.00    0.54065   0.48340    0.000
 5898.00    0.57113   0.52570    0.000
 5899.00    0.60147   0.54939    0.000
 5900.00    0.63080   0.54247    0.000
 5901.00    0.66000   0.51031    0.006
 5902.00    0.65892   0.48934    0.006
 5903.00    0.65773   0.51051    0.006
 5904.00    0.65333   0.54810    0.006
 5905.00    0.64765   0.57066    0.006
 5906.00    0.62373   0.58243    0.006
 5907.00    0.60045   0.59164    0.006
 5908.00    0.58304   0.59684    0.006
 5909.00    0.56725   0.59890    0.006
 5910.00    0.56241   0.59886    0.005
 5911.00    0.56297   0.59625    0.005
 5912.00    0.59189   0.59466    0.005
 5913.00    0.61253   0.59746    0.005
 5914.00    0.59810   0.60134    0.005
 5915.00    0.58620   0.60230    0.005
 5916.00    0.58317   0.60261    0.005
 5917.00    0.58663   0.60467    0.005
 5918.00    0.60919   0.60340    0.005
 5919.00    0.62104   0.59404    0.005
 5920.00    0.60600   0.58287    0.005
 5921.00    0.60516   0.57938    0.005
 5922.00    0.63498   0.58330    0.005
 5923.00    0.65397   0.59009    0.005
 5924.00    0.65266   0.59550    0.005
 5925.00    0.65935   0.59882    0.005
 5926.00    0.67915   0.60115    0.005
 5927.00    0.70680   0.60013    0.005
 5928.00    0.74571   0.59707    0.005
 5929.00    0.73184   0.59708    0.005
 5930.00    0.65131   0.60011    0.005
 5931.00    0.57605   0.60311    0.005
 5932.00    0.50664   0.60442    0.005
 5933.00    0.49648   0.60210    0.005
 5934.00    0.54448   0.59602    0.005
 5935.00    0.59890   0.58851    0.005
 5936.00    0.65890   0.58531    0.005
 5937.00    0.66888   0.59139    0.006
 5938.00    0.64072   0.59982    0.006
 5939.00    0.63861   0.59989    0.006
 5940.00    0.65395   0.59280    0.006
 5941.00    0.70634   0.58975    0.006
 5942.00    0.78047   0.59502    0.006
 5943.00    0.77218   0.60118    0.006
 5944.00    0.72169   0.60427    0.005
 5945.00    0.68563   0.60447    0.005
 5946.00    0.65597   0.59930    0.005
 5947.00    0.63618   0.59150    0.005
 5948.00    0.62015   0.58913    0.005
 5949.00    0.61921   0.59299    0.005
 5950.00    0.62315   0.59851    0.005
 5951.00    0.70180   0.60328    0.005
 5952.00    0.80068   0.60484    0.005
 5953.00    0.76941   0.59982    0.005
 5954.00    0.70922   0.58970    0.005
 5955.00    0.62362   0.58395    0.005
 5956.00    0.53352   0.58818    0.005
 5957.00    0.49610   0.59316    0.005
 5958.00    0.46580   0.58965    0.005
 5959.00    0.54052   0.58518    0.005
 5960.00    0.62532   0.58877    0.005
 5961.00    0.67711   0.59294    0.005
 5962.00    0.72694   0.58952    0.005
 5963.00    0.75106   0.58450    0.005
 5964.00    0.77398   0.58564    0.005
 5965.00    0.71464   0.59189    0.005
 5966.00    0.66129   0.59892    0.005
 5967.00    0.76051   0.60367    0.005
 5968.00    0.85048   0.60532    0.005
 5969.00    0.81590   0.60456    0.005
 5970.00    0.77471   0.60198    0.005
 5971.00    0.67429   0.59748    0.005
 5972.00    0.57522   0.59470    0.005
 5973.00    0.48500   0.59722    0.005
 5974.00    0.42016   0.60157    0.005
 5975.00    0.48545   0.60452    0.005
 5976.00    0.54761   0.60663    0.005
 5977.00    0.59678   0.60781    0.005
 5978.00    0.64165   0.60726    0.005
 5979.00    0.67181   0.60551    0.005
 5980.00    0.70584   0.60145    0.005
 5981.00    0.75100   0.59375    0.005
 5982.00    0.78529   0.58549    0.005
 5983.00    0.79276   0.58126    0.005
 5984.00    0.79834   0.58240    0.005
 5985.00    0.79989   0.58799    0.005
 5986.00    0.77986   0.59516    0.005
 5987.00    0.72002   0.59868    0.005
 5988.00    0.65952   0.59482    0.005
 5989.00    0.59796   0.58373    0.005
 5990.00    0.56534   0.57292    0.005
 5991.00    0.57367   0.57263    0.005
 5992.00    0.59644   0.58046    0.005
 5993.00    0.63717   0.58632    0.005
 5994.00    0.65934   0.58947    0.005
 5995.00    0.66114   0.59278    0.005
 5996.00    0.68668   0.59341    0.005
 5997.00    0.73520   0.59013    0.005
 5998.00    0.76246   0.58965    0.005
 5999.00    0.77157   0.59577    0.005
 6000.00    0.74640   0.60190    0.005
 6001.00    0.69548   0.60175    0.005
 6002.00    0.63912   0.59564    0.005
 6003.00    0.57916   0.58775    0.005
 6004.00    0.53476   0.58382    0.005
 6005.00    0.49934   0.58577    0.005
 6006.00    0.45485   0.58996    0.005
 6007.00    0.40578   0.59109    0.005
 6008.00    0.44783   0.58650    0.005
 6009.00    0.52961   0.58211    0.005
 6010.00    0.58066   0.58419    0.005
 6011.00    0.62022   0.58714    0.005
 6012.00    0.63491   0.58358    0.005
 6013.00    0.64170   0.57410    0.005
 6014.00    0.66979   0.56673    0.005
 6015.00    0.70351   0.57166    0.005
 6016.00    0.65460   0.58486    0.005
 6017.00    0.58776   0.59138    0.005
 6018.00    0.57386   0.58622    0.005
 6019.00    0.56907   0.57837    0.005
 6020.00    0.59769   0.57754    0.005
 6021.00    0.63067   0.58076    0.005
 6022.00    0.63759   0.57982    0.005
 6023.00    0.64211   0.57789    0.005
 6024.00    0.64704   0.57929    0.005
 6025.00    0.65199   0.57790    0.005
 6026.00    0.69404   0.57210    0.005
 6027.00    0.73645   0.56950    0.005
 6028.00    0.73377   0.57225    0.005
 6029.00    0.73044   0.57547    0.005
 6030.00    0.71206   0.57771    0.005
 6031.00    0.69169   0.58209    0.005
 6032.00    0.64593   0.58577    0.005
 6033.00    0.60473   0.58628    0.005
 6034.00    0.60272   0.58868    0.005
 6035.00    0.60988   0.59298    0.005
 6036.00    0.67561   0.59453    0.005
 6037.00    0.73136   0.59409    0.005
 6038.00    0.73732   0.59544    0.005
 6039.00    0.75009   0.59786    0.005
 6040.00    0.79049   0.59855    0.005
 6041.00    0.81801   0.59776    0.005
 6042.00    0.80232   0.59724    0.005
 6043.00    0.78573   0.59736    0.005
 6044.00    0.76661   0.59687    0.005
 6045.00    0.75250   0.59455    0.005
 6046.00    0.75050   0.59175    0.005
 6047.00    0.73612   0.59010    0.005
 6048.00    0.69582   0.59011    0.005
 6049.00    0.67176   0.59326    0.005
 6050.00    0.67720   0.59755    0.005
 6051.00    0.68254   0.59951    0.005
 6052.00    0.68774   0.59995    0.005
 6053.00    0.69066   0.60037    0.005
 6054.00    0.69043   0.60005    0.005
 6055.00    0.68079   0.59940    0.005
 6056.00    0.65963   0.60004    0.005
 6057.00    0.66240   0.60024    0.005
 6058.00    0.69106   0.59738    0.005
 6059.00    0.72115   0.59268    0.005
 6060.00    0.75261   0.58894    0.005
 6061.00    0.74763   0.58586    0.005
 6062.00    0.71200   0.58280    0.005
 6063.00    0.67444   0.58264    0.005
 6064.00    0.63546   0.58624    0.005
 6065.00    0.63460   0.59140    0.005
 6066.00    0.65853   0.59512    0.005
 6067.00    0.64576   0.59524    0.005
 6068.00    0.61208   0.59140    0.005
 6069.00    0.62681   0.58483    0.005
 6070.00    0.66556   0.57566    0.005
 6071.00    0.70019   0.56667    0.005
 6072.00    0.73306   0.56846    0.005
 6073.00    0.69386   0.58222    0.005
 6074.00    0.62817   0.59485    0.005
 6075.00    0.61850   0.59977    0.005
 6076.00    0.62627   0.60050    0.005
 6077.00    0.61823   0.60064    0.005
 6078.00    0.60608   0.60091    0.005
 6079.00    0.60627   0.60101    0.005
 6080.00    0.60908   0.60071    0.005
 6081.00    0.57245   0.59952    0.005
 6082.00    0.52922   0.59635    0.005
 6083.00    0.48471   0.59000    0.005
 6084.00    0.44004   0.58122    0.005
 6085.00    0.46828   0.57629    0.005
 6086.00    0.50293   0.57777    0.005
 6087.00    0.56526   0.57798    0.005
 6088.00    0.62903   0.57443    0.005
 6089.00    0.63548   0.57350    0.005
 6090.00    0.64044   0.57543    0.005
 6091.00    0.61297   0.57551    0.005
 6092.00    0.58810   0.57572    0.005
 6093.00    0.61838   0.57908    0.005
 6094.00    0.64446   0.58217    0.005
 6095.00    0.61964   0.57948    0.005
 6096.00    0.59336   0.57280    0.005
 6097.00    0.55487   0.56981    0.005
 6098.00    0.53136   0.57127    0.005
 6099.00    0.60063   0.57363    0.005
 6100.00    0.66789   0.57835    0.005
 6101.00    0.72542   0.58481    0.005
 6102.00    0.76584   0.58670    0.005
 6103.00    0.73854   0.58401    0.005
 6104.00    0.70983   0.58352    0.005
 6105.00    0.67649   0.58673    0.005
 6106.00    0.64631   0.58754    0.005
 6107.00    0.62492   0.57667    0.005
 6108.00    0.61913   0.55361    0.005
 6109.00    0.65048   0.53935    0.005
 6110.00    0.65608   0.55035    0.005
 6111.00    0.60874   0.57083    0.005
 6112.00    0.57049   0.58089    0.005
 6113.00    0.54852   0.57981    0.005
 6114.00    0.55000   0.57703    0.005
 6115.00    0.58818   0.57943    0.005
 6116.00    0.60777   0.58247    0.005
 6117.00    0.60183   0.58016    0.005
 6118.00    0.60346   0.57800    0.005
 6119.00    0.61424   0.58152    0.005
 6120.00    0.60576   0.58638    0.005
 6121.00    0.57673   0.58603    0.005
 6122.00    0.57540   0.58087    0.005
 6123.00    0.60013   0.57863    0.005
 6124.00    0.66150   0.58052    0.005
 6125.00    0.75326   0.57820    0.005
 6126.00    0.77066   0.56867    0.005
 6127.00    0.73378   0.55480    0.005
 6128.00    0.68455   0.54354    0.005
 6129.00    0.62739   0.54775    0.005
 6130.00    0.59132   0.56421    0.005
 6131.00    0.56708   0.57416    0.005
 6132.00    0.58999   0.57327    0.005
 6133.00    0.63591   0.56915    0.005
 6134.00    0.69352   0.56627    0.005
 6135.00    0.75606   0.56749    0.005
 6136.00    0.73465   0.57335    0.005
 6137.00    0.68295   0.57907    0.005
 6138.00    0.65293   0.58120    0.005
 6139.00    0.62952   0.58069    0.005
 6140.00    0.63824   0.57541    0.005
 6141.00    0.65511   0.56018    0.005
 6142.00    0.64436   0.53487    0.005
 6143.00    0.62792   0.51413    0.005
 6144.00    0.62202   0.51966    0.005
 6145.00    0.61783   0.54679    0.005
 6146.00    0.62366   0.56562    0.005
 6147.00    0.63071   0.56222    0.005
 6148.00    0.70786   0.55419    0.005
 6149.00    0.79086   0.56010    0.005
 6150.00    0.76402   0.57352    0.005
 6151.00    0.73192   0.58070    0.005
 6152.00    0.71177   0.58027    0.005
 6153.00    0.69217   0.57558    0.005
 6154.00    0.69428   0.56788    0.005
 6155.00    0.69433   0.56047    0.005
 6156.00    0.65404   0.55755    0.005
 6157.00    0.61191   0.56060    0.005
 6158.00    0.54861   0.56695    0.005
 6159.00    0.49617   0.57098    0.005
 6160.00    0.53071   0.56791    0.005
 6161.00    0.56291   0.56200    0.005
 6162.00    0.58106   0.56068    0.005
 6163.00    0.59532   0.56168    0.005
 6164.00    0.59106   0.56072    0.005
 6165.00    0.59357   0.55703    0.005
 6166.00    0.62225   0.54482    0.005
 6167.00    0.64433   0.52031    0.005
 6168.00    0.64506   0.49746    0.005
 6169.00    0.63715   0.49441    0.005
 6170.00    0.60560   0.50963    0.005
 6171.00    0.58845   0.52708    0.005
 6172.00    0.60503   0.53727    0.005
 6173.00    0.60098   0.54213    0.005
 6174.00    0.55518   0.53891    0.005
 6175.00    0.49545   0.52441    0.005
 6176.00    0.41119   0.51445    0.005
 6177.00    0.38717   0.52387    0.005
 6178.00    0.45605   0.54019    0.005
 6179.00    0.51208   0.54656    0.005
 6180.00    0.55071   0.54622    0.005
 6181.00    0.59063   0.54619    0.005
 6182.00    0.63210   0.54558    0.005
 6183.00    0.65712   0.54556    0.005
 6184.00    0.66485   0.54954    0.005
 6185.00    0.67811   0.55339    0.005
 6186.00    0.69650   0.55321    0.005
 6187.00    0.70353   0.55418    0.005
 6188.00    0.70126   0.55812    0.005
 6189.00    0.66360   0.56017    0.005
 6190.00    0.60049   0.55928    0.005
 6191.00    0.59680   0.55641    0.005
 6192.00    0.63064   0.55021    0.005
 6193.00    0.69226   0.54309    0.005
 6194.00    0.76921   0.53930    0.005
 6195.00    1.08250   0.53787    0.005
 6196.00    1.50929   0.53156   -2.000
 6197.00    2.00661   0.51825   -2.000
 6198.00    2.53317   0.51345   -2.000
 6199.00    2.56838   0.52636   -2.000
 6200.00    2.42944   0.54224   -2.000
 6201.00    1.65124   0.54978   -2.000
 6202.00    0.68174   0.55306   -2.000
 6203.00    0.19291   0.55533   -2.000
 6204.00   -0.17652   0.55277   -2.000
 6205.00   -0.06074   0.54331   -2.000
 6206.00    0.15275   0.53493   -2.000
 6207.00    0.36350   0.53718   -2.000
 6208.00    0.57382   0.54703    0.005
 6209.00    0.61067   0.55442    0.005
 6210.00    0.62720   0.55585    0.005
 6211.00    0.59781   0.55519    0.005
 6212.00    0.56477   0.55594    0.005
 6213.00    0.61442   0.55719    0.005
 6214.00    0.66772   0.55734    0.005
 6215.00    0.63285   0.55622    0.005
 6216.00    0.59800   0.55341    0.005
 6217.00    0.60936   0.54952    0.005
 6218.00    0.62219   0.54380    0.005
 6219.00    0.66186   0.53310    0.005
 6220.00    0.69900   0.52111    0.005
 6221.00    0.70825   0.51532    0.005
 6222.00    0.71929   0.51780    0.005
 6223.00    0.74409   0.52599    0.005
 6224.00    0.76571   0.53157    0.005
 6225.00    0.76867   0.52794    0.005
 6226.00    0.77343   0.52185    0.005
 6227.00    0.78655   0.52259    0.005
 6228.00    0.78863   0.52890    0.005
 6229.00    0.74890   0.53363    0.005
 6230.00    0.69690   0.53379    0.005
 6231.00    0.60607   0.53359    0.005
 6232.00    0.53616   0.53556    0.005
 6233.00    0.52242   0.53706    0.005
 6234.00    0.51115   0.53561    0.005
 6235.00    0.50554   0.52740    0.005
 6236.00    0.50009   0.51202    0.005
 6237.00    0.49498   0.50092    0.005
 6238.00    0.50242   0.50367    0.005
 6239.00    0.53163   0.51531    0.005
 6240.00    0.53987   0.52934    0.005
 6241.00    0.51622   0.54104    0.005
 6242.00    0.49640   0.54449    0.005
 6243.00    0.48170   0.53935    0.005
 6244.00    0.49904   0.53075    0.005
 6245.00    0.55403   0.52269    0.005
 6246.00    0.57859   0.51773    0.005
 6247.00    0.57158   0.51848    0.005
 6248.00    0.56120   0.51981    0.005
 6249.00    0.54773   0.51498    0.005
 6250.00    0.54653   0.50999    0.005
 6251.00    0.55523   0.50958    0.005
 6252.00    0.54407   0.51026    0.005
 6253.00    0.51882   0.51454    0.005
 6254.00    0.50227   0.52462    0.005
 6255.00    0.49115   0.53382    0.005
 6256.00    0.49869   0.53648    0.005
 6257.00    0.51636   0.53082    0.005
 6258.00    0.65379   0.51802    0.005
 6259.00    0.84779   0.50681    0.005
 6260.00    1.03297   0.50440    0.006
 6261.00    1.21455   0.50711    0.006
 6262.00    1.20967   0.50701    0.006
 6263.00    1.13991   0.50193    0.007
 6264.00    0.89899   0.49661    0.006
 6265.00    0.60786   0.49842    0.006
 6266.00    0.50975   0.50859    0.006
 6267.00    0.45853   0.51885    0.006
 6268.00    0.52189   0.52672    0.005
 6269.00    0.60773   0.53427    0.005
 6270.00    0.64813   0.53568    0.005
 6271.00    0.68158   0.52926    0.005
 6272.00    0.62411   0.52574    0.005
 6273.00    0.55639   0.52976    0.005
 6274.00    0.50784   0.53296    0.005
 6275.00    0.46075   0.53079    0.005
 6276.00    0.50870   0.52794    0.005
 6277.00    0.56047   0.52861    0.005
 6278.00    0.60199   0.53240    0.005
 6279.00    0.64170   0.53590    0.005
 6280.00    0.61102   0.53637    0.000
 6281.00    0.58267   0.53559    0.000
 6282.00    0.59410   0.53573    0.000
 6283.00    0.60853   0.53559    0.000
 6284.00    0.65463   0.53375    0.000
 6285.00    0.69461   0.52911    0.000
 6286.00    0.68898   0.52211    0.000
 6287.00    0.67747   0.51863    0.000
 6288.00    0.63259   0.52219    0.000
 6289.00    0.59345   0.52887    0.000
 6290.00    0.58036   0.53420    0.000
 6291.00    0.58402   0.53598    0.000
 6292.00    0.64984   0.53684    0.000
 6293.00    0.70307   0.54042    0.000
 6294.00    0.71719   0.54506    0.000
 6295.00    0.72467   0.54692    0.000
 6296.00    0.71464   0.54371    0.000
 6297.00    0.70255   0.53756    0.000
 6298.00    0.68578   0.53312    0.000
 6299.00    0.66321   0.53212    0.000
 6300.00    0.62922   0.53382    0.000
 6301.00    0.60428   0.53429    0.000
 6302.00    0.59480   0.52890    0.000
 6303.00    0.59618   0.52097    0.000
 6304.00    0.61381   0.51845    0.000
 6305.00    0.60246   0.52203    0.000
 6306.00    0.55299   0.52367    0.000
 6307.00    0.52584   0.51836    0.000
 6308.00    0.52455   0.51249    0.000
 6309.00    0.53813   0.51491    0.000
 6310.00    0.56689   0.52335    0.000
 6311.00    0.59271   0.52923    0.000
 6312.00    0.61585   0.53205    0.000
 6313.00    0.60382   0.53697    0.000
 6314.00    0.56383   0.54238    0.000
 6315.00    0.51221   0.54291    0.000
 6316.00    0.45247   0.53818    0.000
 6317.00    0.43852   0.53237    0.000
 6318.00    0.45264   0.52993    0.000
 6319.00    0.48743   0.53053    0.000
 6320.00    0.53328   0.52770    0.000
 6321.00    0.55176   0.52045    0.005
 6322.00    0.55751   0.51715    0.005
 6323.00    0.56224   0.51716    0.005
 6324.00    0.56658   0.51302    0.005
 6325.00    0.55614   0.51066    0.005
 6326.00    0.54066   0.51719    0.005
 6327.00    0.53527   0.52529    0.005
 6328.00    0.53278   0.52784    0.005
 6329.00    0.53311   0.52898    0.005
 6330.00    0.53411   0.53358    0.004
 6331.00    0.53932   0.53843    0.004
 6332.00    0.54532   0.53975    0.005
 6333.00    0.54837   0.53838    0.005
 6334.00    0.55097   0.53768    0.004
 6335.00    0.54822   0.53833    0.005
 6336.00    0.54489   0.53708    0.005
 6337.00    0.58072   0.53574    0.005
 6338.00    0.61935   0.53856    0.005
 6339.00    0.65247   0.54240    0.005
 6340.00    0.68539   0.53909    0.005
 6341.00    0.71365   0.52598    0.005
 6342.00    0.74125   0.51297    0.005
 6343.00    0.74672   0.51154    0.005
 6344.00    0.74931   0.51910    0.005
 6345.00    0.70606   0.52626    0.005
 6346.00    0.66296   0.53206    0.005
 6347.00    0.62143   0.53741    0.005
 6348.00    0.58689   0.53760    0.005
 6349.00    0.60275   0.53070    0.005
 6350.00    0.62207   0.52226    0.005
 6351.00    0.66056   0.51983    0.005
 6352.00    0.68865   0.52300    0.005
 6353.00    0.67069   0.52645    0.005
 6354.00    0.65129   0.53019    0.005
 6355.00    0.62665   0.53518    0.004
 6356.00    0.62101   0.53859    0.004
 6357.00    0.67322   0.53939    0.005
 6358.00    0.72368   0.53871    0.005
 6359.00    0.76956   0.53568    0.005
 6360.00    0.77977   0.52893    0.005
 6361.00    0.71057   0.52209    0.005
 6362.00    0.65362   0.52095    0.005
 6363.00    0.62035   0.52212    0.005
 6364.00    0.60532   0.51745    0.005
 6365.00    0.62102   0.50973    0.005
 6366.00    0.62577   0.50680    0.005
 6367.00    0.61437   0.50670    0.005
 6368.00    0.59089   0.50454    0.005
 6369.00    0.55175   0.50315    0.005
 6370.00    0.51367   0.50649    0.005
 6371.00    0.47682   0.51281    0.005
 6372.00    0.46269   0.51883    0.005
 6373.00    0.47147   0.52429    0.005
 6374.00    0.48279   0.52946    0.005
 6375.00    0.49635   0.53163    0.005
 6376.00    0.49116   0.52959    0.005
 6377.00    0.47128   0.52776    0.005
 6378.00    0.46914   0.53063    0.005
 6379.00    0.47923   0.53633    0.004
 6380.00    0.51808   0.53958    0.004
 6381.00    0.57429   0.53940    0.004
 6382.00    0.58654   0.53858    0.005
 6383.00    0.57560   0.53723    0.005
 6384.00    0.55396   0.53317    0.005
 6385.00    0.52743   0.52786    0.005
 6386.00    0.54336   0.52481    0.005
 6387.00    0.57602   0.52466    0.005
 6388.00    0.60671   0.52716    0.005
 6389.00    0.63673   0.53019    0.005
 6390.00    0.66012   0.53008    0.005
 6391.00    0.68163   0.52836    0.005
 6392.00    0.67818   0.52930    0.005
 6393.00    0.66894   0.53218    0.005
 6394.00    0.66463   0.53370    0.005
 6395.00    0.66124   0.53366    0.005
 6396.00    0.69595   0.53342    0.005
 6397.00    0.73614   0.53166    0.005
 6398.00    0.73470   0.52436    0.005
 6399.00    0.72893   0.51171    0.005
 6400.00    0.68766   0.50467    0.005
 6401.00    0.64401   0.51195    0.005
 6402.00    0.62600   0.52580    0.005
 6403.00    0.60883   0.53465    0.005
 6404.00    0.55387   0.53413    0.005
 6405.00    0.49984   0.52227    0.005
 6406.00    0.47466   0.50567    0.004
 6407.00    0.45186   0.50283    0.004
 6408.00    0.46467   0.51762    0.004
 6409.00    0.47663   0.53294    0.004
 6410.00    0.48035   0.53920    0.005
 6411.00    0.49110   0.53914    0.005
 6412.00    0.55092   0.53482    0.005
 6413.00    0.60610   0.52652    0.005
 6414.00    0.63633   0.51890    0.005
 6415.00    0.64939   0.51964    0.005
 6416.00    0.58833   0.52502    0.005
 6417.00    0.53728   0.52323    0.005
 6418.00    0.52188   0.51709    0.005
 6419.00    0.51169   0.51715    0.005
 6420.00    0.51707   0.52143    0.005
 6421.00    0.51679   0.52424    0.005
 6422.00    0.50211   0.52622    0.005
 6423.00    0.49442   0.52761    0.005
 6424.00    0.50206   0.52676    0.005
 6425.00    0.50634   0.52212    0.005
 6426.00    0.50424   0.51306    0.005
 6427.00    0.52170   0.50540    0.005
 6428.00    0.57161   0.50864    0.005
 6429.00    0.60615   0.52183    0.005
 6430.00    0.61835   0.53256    0.005
 6431.00    0.61807   0.53488    0.005
 6432.00    0.60183   0.53467    0.005
 6433.00    0.60074   0.53638    0.005
 6434.00    0.61671   0.53744    0.005
 6435.00    0.66988   0.53305    0.005
 6436.00    0.76003   0.52121    0.005
 6437.00    0.79808   0.50866    0.005
 6438.00    0.79046   0.50655    0.005
 6439.00    0.74111   0.51488    0.005
 6440.00    0.65955   0.52470    0.005
 6441.00    0.59541   0.53117    0.005
 6442.00    0.54310   0.53396    0.005
 6443.00    0.50494   0.53169    0.005
 6444.00    0.47521   0.52142    0.005
 6445.00    0.46576   0.50867    0.005
 6446.00    0.46685   0.50817    0.005
 6447.00    0.50452   0.52164    0.005
 6448.00    0.55866   0.53468    0.005
 6449.00    0.60341   0.53969    0.005
 6450.00    0.64452   0.54018    0.005
 6451.00    0.63648   0.54020    0.005
 6452.00    0.61227   0.54082    0.005
 6453.00    0.56473   0.53981    0.005
 6454.00    0.51076   0.53190    0.004
 6455.00    0.51750   0.51354    0.004
 6456.00    0.53800   0.49426    0.004
 6457.00    0.55379   0.49213    0.004
 6458.00    0.56872   0.50729    0.004
 6459.00    0.59549   0.52303    0.004
 6460.00    0.62391   0.52867    0.005
 6461.00    0.61515   0.52309    0.005
 6462.00    0.60267   0.51370    0.005
 6463.00    0.57048   0.51266    0.005
 6464.00    0.53704   0.52211    0.005
 6465.00    0.56071   0.53278    0.005
 6466.00    0.58583   0.53698    0.005
 6467.00    0.54988   0.53073    0.005
 6468.00    0.51600   0.51329    0.005
 6469.00    0.53976   0.49741    0.005
 6470.00    0.56135   0.49955    0.005
 6471.00    0.55239   0.51429    0.005
 6472.00    0.54020   0.52616    0.005
 6473.00    0.49798   0.53151    0.005
 6474.00    0.46415   0.53247    0.005
 6475.00    0.48701   0.52967    0.005
 6476.00    0.51472   0.52478    0.005
 6477.00    0.56781   0.51969    0.005
 6478.00    0.60412   0.51683    0.005
 6479.00    0.56960   0.51908    0.005
 6480.00    0.54432   0.52190    0.004
 6481.00    0.55133   0.51973    0.004
 6482.00    0.57498   0.51744    0.004
 6483.00    0.64748   0.52042    0.004
 6484.00    0.69793   0.52474    0.004
 6485.00    0.69322   0.52589    0.004
 6486.00    0.68011   0.52377    0.004
 6487.00    0.64888   0.51678    0.005
 6488.00    0.62455   0.50568    0.005
 6489.00    0.61313   0.49891    0.005
 6490.00    0.60217   0.50213    0.005
 6491.00    0.59198   0.51028    0.005
 6492.00    0.57694   0.51641    0.005
 6493.00    0.55498   0.51937    0.005
 6494.00    0.53378   0.52053    0.005
 6495.00    0.51352   0.51949    0.005
 6496.00    0.49952   0.51534    0.005
 6497.00    0.49247   0.50950    0.005
 6498.00    0.51721   0.50332    0.005
 6499.00    0.57309   0.49246    0.005
 6500.00    0.59540   0.47304    0.005
 6501.00    0.58869   0.45397    0.005
 6502.00    0.56234   0.44752    0.005
 6503.00    0.52104   0.45371    0.004
 6504.00    0.50306   0.46549    0.004
 6505.00    0.50068   0.47580    0.004
 6506.00    0.49220   0.48375    0.004
 6507.00    0.48014   0.49319    0.004
 6508.00    0.45943   0.50240    0.004
 6509.00    0.43428   0.50832    0.004
 6510.00    0.47502   0.51158    0.004
 6511.00    0.54490   0.51389    0.004
 6512.00    0.59102   0.51599    0.004
 6513.00    0.62811   0.51634    0.004
 6514.00    0.62824   0.51368    0.005
 6515.00    0.61644   0.51076    0.005
 6516.00    0.59945   0.51133    0.005
 6517.00    0.58107   0.51428    0.005
 6518.00    0.55279   0.51594    0.005
 6519.00    0.52232   0.51556    0.005
 6520.00    0.57524   0.51364    0.005
 6521.00    0.64286   0.50913    0.005
 6522.00    0.64836   0.50301    0.005
 6523.00    0.64549   0.49863    0.005
 6524.00    0.60039   0.49659    0.005
 6525.00    0.55124   0.49694    0.005
 6526.00    0.55479   0.50185    0.005
 6527.00    0.56146   0.50916    0.005
 6528.00    0.55645   0.51344    0.000
 6529.00    0.55100   0.51399    0.000
 6530.00    0.52581   0.51389    0.000
 6531.00    0.50200   0.51386    0.000
 6532.00    0.51321   0.51105    0.000
 6533.00    0.52743   0.50569    0.000
 6534.00    0.58202   0.50360    0.000
 6535.00    0.63330   0.50700    0.000
 6536.00    0.65516   0.51105    0.000
 6537.00    0.66934   0.51108    0.000
 6538.00    0.63317   0.50715    0.000
 6539.00    0.60028   0.50295    0.000
 6540.00    0.58423   0.50252    0.000
 6541.00    0.57065   0.50653    0.000
 6542.00    0.56726   0.51100    0.000
 6543.00    0.55942   0.51180    0.000
 6544.00    0.53632   0.51038    0.000
 6545.00    0.52677   0.51111    0.000
 6546.00    0.55622   0.51386    0.000
 6547.00    0.57914   0.51463    0.000
 6548.00    0.58603   0.51157    0.000
 6549.00    0.58507   0.50658    0.000
 6550.00    0.56748   0.50184    0.000
 6551.00    0.54619   0.49614    0.000
 6552.00    0.51808   0.48808    0.000
 6553.00    0.51324   0.48321    0.000
 6554.00    0.54587   0.48674    0.000
 6555.00    0.56983   0.49322    0.000
 6556.00    0.58154   0.49539    0.000
 6557.00    0.63052   0.49272    0.000
 6558.00    0.72583   0.48867    0.000
 6559.00    0.87823   0.48503    0.000
 6560.00    1.09314   0.47976    0.000
 6561.00    1.23908   0.47216    0.000
 6562.00    1.31838   0.46617    0.000
 6563.00    1.23858   0.46501    0.000
 6564.00    1.02324   0.46585    0.000
 6565.00    0.84762   0.46299    0.000
 6566.00    0.70181   0.45225    0.000
 6567.00    0.65255   0.42592    0.000
 6568.00    0.66695   0.37654    0.000
 6569.00    0.64563   0.32748    0.000
 6570.00    0.60369   0.32624    0.000
 6571.00    0.54371   0.37489    0.000
 6572.00    0.47466   0.42690    0.000
 6573.00    0.45289   0.45598    0.000
 6574.00    0.45170   0.46721    0.000
 6575.00    0.44867   0.46895    0.000
 6576.00    0.44495   0.46872    0.000
 6577.00    0.47605   0.47140    0.000
 6578.00    0.51818   0.47323    0.000
 6579.00    0.60383   0.47038    0.000
 6580.00    0.70099   0.46622    0.000
 6581.00    0.75802   0.46607    0.000
 6582.00    0.80638   0.47268    0.000
 6583.00    0.79694   0.48350    0.000
 6584.00    0.77758   0.49191    0.000
 6585.00    0.70421   0.49452    0.000
 6586.00    0.62381   0.49217    0.000
 6587.00    0.59374   0.48793    0.000
 6588.00    0.56827   0.48663    0.000
 6589.00    0.57096   0.49000    0.000
 6590.00    0.57521   0.49383    0.000
 6591.00    0.57891   0.49443    0.000
 6592.00    0.58248   0.49243    0.000
 6593.00    0.57456   0.49158    0.000
 6594.00    0.56730   0.49469    0.000
 6595.00    0.57517   0.49915    0.000
 6596.00    0.58377   0.50114    0.000
 6597.00    0.60159   0.49831    0.000
 6598.00    0.61678   0.48753    0.000
 6599.00    0.60958   0.47148    0.000
 6600.00    0.60102   0.46310    0.000
 6601.00    0.58377   0.47023    0.000
 6602.00    0.56995   0.48331    0.000
 6603.00    0.57319   0.48991    0.000
 6604.00    0.57149   0.48893    0.000
 6605.00    0.54985   0.48686    0.000
 6606.00    0.53103   0.48954    0.000
 6607.00    0.52166   0.49594    0.000
 6608.00    0.51382   0.50050    0.000
 6609.00    0.51033   0.50037    0.005
 6610.00    0.50563   0.49656    0.005
 6611.00    0.49803   0.49157    0.005
 6612.00    0.48676   0.48822    0.005
 6613.00    0.46784   0.48649    0.005
 6614.00    0.44898   0.48337    0.005
 6615.00    0.43023   0.47880    0.005
 6616.00    0.42698   0.47862    0.005
 6617.00    0.44827   0.48625    0.005
 6618.00    0.47255   0.49468    0.005
 6619.00    0.50098   0.49635    0.004
 6620.00    0.52744   0.49385    0.004
 6621.00    0.55151   0.49418    0.004
 6622.00    0.57213   0.49767    0.004
 6623.00    0.58901   0.49933    0.004
 6624.00    0.58379   0.49834    0.004
 6625.00    0.55754   0.49784    0.004
 6626.00    0.54060   0.49897    0.004
 6627.00    0.53150   0.50027    0.004
 6628.00    0.54433   0.50003    0.004
 6629.00    0.57339   0.49698    0.004
 6630.00    0.57986   0.49088    0.004
 6631.00    0.57165   0.48474    0.005
 6632.00    0.57380   0.48350    0.005
 6633.00    0.58184   0.48693    0.005
 6634.00    0.61723   0.49000    0.005
 6635.00    0.66616   0.49072    0.005
 6636.00    0.68485   0.49001    0.005
 6637.00    0.69058   0.48845    0.005
 6638.00    0.65561   0.48546    0.005
 6639.00    0.60570   0.47980    0.005
 6640.00    0.57962   0.47374    0.005
 6641.00    0.56095   0.47315    0.004
 6642.00    0.54685   0.47933    0.004
 6643.00    0.53394   0.48661    0.004
 6644.00    0.54822   0.49028    0.004
 6645.00    0.56824   0.48999    0.004
 6646.00    0.61495   0.48836    0.004
 6647.00    0.66611   0.48879    0.004
 6648.00    0.63544   0.48964    0.004
 6649.00    0.59450   0.48527    0.004
 6650.00    0.50969   0.47812    0.004
 6651.00    0.42106   0.47734    0.004
 6652.00    0.38866   0.48274    0.004
 6653.00    0.35915   0.48650    0.004
 6654.00    0.42758   0.48684    0.004
 6655.00    0.49715   0.48723    0.004
 6656.00    0.52479   0.48809    0.004
 6657.00    0.54862   0.48722    0.004
 6658.00    0.49216   0.48499    0.005
 6659.00    0.43915   0.48361    0.005
 6660.00    0.42767   0.48373    0.005
 6661.00    0.42164   0.48455    0.005
 6662.00    0.46058   0.48495    0.005
 6663.00    0.49881   0.48455    0.005
 6664.00    0.53272   0.48447    0.005
 6665.00    0.55888   0.48477    0.004
 6666.00    0.54741   0.48399    0.004
 6667.00    0.53513   0.48176    0.004
 6668.00    0.51971   0.47780    0.004
 6669.00    0.51942   0.47135    0.004
 6670.00    0.56886   0.46623    0.004
 6671.00    0.61235   0.46791    0.004
 6672.00    0.63937   0.47304    0.004
 6673.00    0.65102   0.47540    0.004
 6674.00    0.62614   0.47578    0.004
 6675.00    0.59150   0.47778    0.004
 6676.00    0.53682   0.48180    0.004
 6677.00    0.49796   0.48527    0.004
 6678.00    0.48735   0.48645    0.004
 6679.00    0.48601   0.48611    0.004
 6680.00    0.49915   0.48583    0.004
 6681.00    0.52155   0.48576    0.004
 6682.00    0.55664   0.48369    0.005
 6683.00    0.57367   0.47538    0.005
 6684.00    0.56888   0.46213    0.005
 6685.00    0.55699   0.45539    0.005
 6686.00    0.53756   0.46111    0.005
 6687.00    0.51166   0.46993    0.005
 6688.00    0.47970   0.47399    0.004
 6689.00    0.47028   0.47570    0.004
 6690.00    0.47952   0.47774    0.004
 6691.00    0.47557   0.47941    0.004
 6692.00    0.46200   0.47987    0.004
 6693.00    0.45863   0.47925    0.004
 6694.00    0.46178   0.47814    0.004
 6695.00    0.49064   0.47771    0.004
 6696.00    0.53388   0.47857    0.000
 6697.00    0.54961   0.47951    0.000
 6698.00    0.55193   0.47962    0.000
 6699.00    0.52176   0.47930    0.000
 6700.00    0.47792   0.47878    0.000
 6701.00    0.47643   0.47660    0.000
 6702.00    0.49020   0.47176    0.000
 6703.00    0.48164   0.46745    0.000
 6704.00    0.46628   0.46735    0.000
 6705.00    0.44063   0.47043    0.000
 6706.00    0.41237   0.47453    0.000
 6707.00    0.34047   0.47818    0.000
 6708.00    0.25960   0.47908    0.000
 6709.00    0.27294   0.47640    0.000
 6710.00    0.30153   0.47192    0.000
 6711.00    0.43545   0.46920    0.000
 6712.00    0.58211   0.47036    0.000
 6713.00    0.71420   0.47342    0.000
 6714.00    0.84508   0.47527    0.000
 6715.00    0.82511   0.47532    0.000
 6716.00    0.79799   0.47415    0.000
 6717.00    0.72818   0.47267    0.000
 6718.00    0.65785   0.47206    0.000
 6719.00    0.59183   0.47099    0.000
 6720.00    0.52835   0.46803    0.000
 6721.00    0.51454   0.46406    0.000
 6722.00    0.50407   0.45916    0.000
 6723.00    0.53197   0.45276    0.000
 6724.00    0.55980   0.44806    0.000
 6725.00    0.58705   0.45078    0.000
 6726.00    0.61346   0.45922    0.000
 6727.00    0.63481   0.46520    0.000
 6728.00    0.66440   0.46631    0.000
 6729.00    0.73299   0.46675    0.000
 6730.00    0.77483   0.46867    0.000
 6731.00    0.71331   0.46936    0.000
 6732.00    0.64309   0.46714    0.000
 6733.00    0.54487   0.46494    0.000
 6734.00    0.46236   0.46575    0.000
 6735.00    0.42267   0.46843    0.000
 6736.00    0.39901   0.47066    0.000
 6737.00    0.41283   0.47181    0.000
 6738.00    0.42358   0.47150    0.000
 6739.00    0.42813   0.46987    0.000
 6740.00    0.43215   0.46853    0.000
 6741.00    0.43523   0.46884    0.000
 6742.00    0.44517   0.47008    0.000
 6743.00    0.46566   0.47015    0.000
 6744.00    0.49337   0.46747    0.000
 6745.00    0.53083   0.46347    0.000
 6746.00    0.55427   0.46166    0.000
 6747.00    0.56101   0.46311    0.000
 6748.00    0.57243   0.46429    0.000
 6749.00    0.58874   0.46256    0.000
 6750.00    0.57234   0.46098    0.000
 6751.00    0.52565   0.46242    0.000
 6752.00    0.54717   0.46417    0.000
 6753.00    0.62437   0.46361    0.005
 6754.00    0.64413   0.46149    0.005
 6755.00    0.62263   0.45856    0.005
 6756.00    0.55041   0.45560    0.005
 6757.00    0.44622   0.45479    0.005
 6758.00    0.37487   0.45644    0.005
 6759.00    0.32164   0.45744    0.005
 6760.00    0.36075   0.45801    0.005
 6761.00    0.44411   0.46050    0.005
 6762.00    0.47068   0.46334    0.005
 6763.00    0.47375   0.46548    0.005
 6764.00    0.52203   0.46763    0.005
 6765.00    0.58629   0.46965    0.005
 6766.00    0.56305   0.47100    0.006
 6767.00    0.51368   0.47129    0.006
 6768.00    0.46577   0.47056    0.006
 6769.00    0.41822   0.46979    0.006
 6770.00    0.48536   0.46988    0.006
 6771.00    0.57551   0.46955    0.005
 6772.00    0.59635   0.46693    0.005
 6773.00    0.60629   0.46176    0.005
 6774.00    0.61806   0.45711    0.005
 6775.00    0.63004   0.45704    0.005
 6776.00    0.63195   0.45987    0.005
 6777.00    0.63306   0.46042    0.005
 6778.00    0.60493   0.45915    0.005
 6779.00    0.57552   0.46045    0.005
 6780.00    0.56894   0.46478    0.005
 6781.00    0.56244   0.46933    0.005
 6782.00    0.54867   0.47206    0.005
 6783.00    0.53256   0.47268    0.005
 6784.00    0.47443   0.47218    0.005
 6785.00    0.42497   0.47237    0.005
 6786.00    0.47040   0.47313    0.005
 6787.00    0.51258   0.47209    0.005
 6788.00    0.52983   0.46798    0.005
 6789.00    0.54583   0.46151    0.005
 6790.00    0.55452   0.45501    0.005
 6791.00    0.55646   0.45139    0.005
 6792.00    0.52717   0.45144    0.005
 6793.00    0.50397   0.45382    0.005
 6794.00    0.50375   0.45756    0.005
 6795.00    0.50971   0.46097    0.005
 6796.00    0.53517   0.46205    0.005
 6797.00    0.55313   0.46192    0.005
 6798.00    0.55097   0.46214    0.005
 6799.00    0.56204   0.46132    0.005
 6800.00    0.60347   0.45889    0.005
 6801.00    0.60362   0.45737    0.005
 6802.00    0.52168   0.45790    0.005
 6803.00    0.47551   0.45928    0.005
 6804.00    0.49130   0.46067    0.005
 6805.00    0.51944   0.46149    0.005
 6806.00    0.56632   0.46220    0.005
 6807.00    0.57169   0.46352    0.005
 6808.00    0.52177   0.46474    0.005
 6809.00    0.49219   0.46468    0.005
 6810.00    0.48651   0.46307    0.005
 6811.00    0.47463   0.46152    0.005
 6812.00    0.45634   0.46106    0.005
 6813.00    0.48907   0.46048    0.005
 6814.00    0.56839   0.46018    0.005
 6815.00    0.61194   0.46080    0.005
 6816.00    0.62673   0.46046    0.005
 6817.00    0.57055   0.45951    0.005
 6818.00    0.46414   0.46018    0.005
 6819.00    0.42858   0.46139    0.005
 6820.00    0.43703   0.46052    0.005
 6821.00    0.47480   0.45750    0.005
 6822.00    0.52847   0.45587    0.005
 6823.00    0.58848   0.45838    0.005
 6824.00    0.65148   0.46208    0.005
 6825.00    0.61755   0.46258    0.005
 6826.00    0.54420   0.45997    0.005
 6827.00    0.49516   0.45787    0.005
 6828.00    0.45457   0.45919    0.005
 6829.00    0.49219   0.46260    0.005
 6830.00    0.55270   0.46507    0.005
 6831.00    0.55987   0.46596    0.005
 6832.00    0.55413   0.46584    0.005
 6833.00    0.52145   0.46410    0.005
 6834.00    0.48349   0.45983    0.005
 6835.00    0.50768   0.45568    0.005
 6836.00    0.54133   0.45583    0.005
 6837.00    0.63629   0.45958    0.005
 6838.00    0.73812   0.46235    0.005
 6839.00    0.65582   0.46224    0.005
 6840.00    0.55977   0.46172    0.005
 6841.00    0.51289   0.46283    0.005
 6842.00    0.46796   0.46399    0.005
 6843.00    0.43666   0.46308    0.005
 6844.00    0.40913   0.46025    0.005
 6845.00    0.52803   0.45620    0.005
 6846.00    0.63577   0.45120    0.005
 6847.00    0.55497   0.44592    0.005
 6848.00    0.48159   0.44170    0.005
 6849.00    0.48567   0.44108    0.005
 6850.00    0.48957   0.44523    0.005
 6851.00    0.49208   0.45200    0.005
 6852.00    0.49948   0.45765    0.005
 6853.00    0.53455   0.46009    0.005
 6854.00    0.55550   0.46041    0.005
 6855.00    0.51268   0.46019    0.005
 6856.00    0.48694   0.45938    0.005
 6857.00    0.52442   0.45826    0.005
 6858.00    0.55380   0.45780    0.005
 6859.00    0.55809   0.45789    0.005
 6860.00    0.55682   0.45623    0.005
 6861.00    0.54096   0.45092    0.005
 6862.00    0.53788   0.44537    0.005
 6863.00    0.56368   0.44454    0.005
 6864.00    0.57097   0.44701    0.005
 6865.00    0.54205   0.44933    0.005
 6866.00    0.48921   0.45041    0.005
 6867.00    0.39553   0.44859    0.005
 6868.00    0.32713   0.44507    0.005
 6869.00    0.29651   0.44554    0.005
 6870.00    0.29896   0.45163    0.005
 6871.00    0.34483   0.45769    0.005
 6872.00    0.38822   0.45870    0.005
 6873.00    0.42875   0.45515    0.005
 6874.00    0.47565   0.44985    0.005
 6875.00    0.52907   0.44650    0.004
 6876.00    0.54845   0.44768    0.004
 6877.00    0.53719   0.45046    0.005
 6878.00    0.49770   0.45037    0.005
 6879.00    0.43582   0.44851    0.005
 6880.00    0.41666   0.44874    0.005
 6881.00    0.42731   0.45056    0.005
 6882.00    0.40585   0.45173    0.005
 6883.00    0.36474   0.45315    0.005
 6884.00    0.37172   0.45592    0.005
 6885.00    0.40440   0.45842    0.005
 6886.00    0.44747   0.45863    0.005
 6887.00    0.49537   0.45614    0.005
 6888.00    0.49450   0.45144    0.005
 6889.00    0.47415   0.44694    0.005
 6890.00    0.46588   0.44613    0.005
 6891.00    0.46174   0.44900    0.005
 6892.00    0.48552   0.45136    0.005
 6893.00    0.51731   0.45196    0.005
 6894.00    0.54500   0.45392    0.005
 6895.00    0.57172   0.45690    0.005
 6896.00    0.52171   0.45862    0.005
 6897.00    0.45708   0.45962    0.005
 6898.00    0.50980   0.46037    0.005
 6899.00    0.57987   0.45985    0.005
 6900.00    0.56271   0.45856    0.005
 6901.00    0.53613   0.45760    0.005
 6902.00    0.57303   0.45649    0.005
 6903.00    0.61442   0.45565    0.005
 6904.00    0.58159   0.45627    0.005
 6905.00    0.54609   0.45744    0.005
 6906.00    0.52027   0.45694    0.005
 6907.00    0.49518   0.45534    0.005
 6908.00    0.49374   0.45580    0.005
 6909.00    0.48950   0.45848    0.005
 6910.00    0.44089   0.46022    0.005
 6911.00    0.39804   0.45964    0.005
 6912.00    0.41276   0.45887    0.005
 6913.00    0.42950   0.46003    0.005
 6914.00    0.46072   0.46230    0.005
 6915.00    0.49094   0.46350    0.005
 6916.00    0.51563   0.46309    0.005
 6917.00    0.53048   0.46143    0.005
 6918.00    0.50199   0.45894    0.005
 6919.00    0.47941   0.45620    0.005
 6920.00    0.47822   0.45244    0.005
 6921.00    0.48438   0.44859    0.005
 6922.00    0.51282   0.44781    0.005
 6923.00    0.53655   0.44931    0.005
 6924.00    0.54807   0.45066    0.005
 6925.00    0.53846   0.45218    0.005
 6926.00    0.48188   0.45428    0.005
 6927.00    0.45491   0.45680    0.005
 6928.00    0.48498   0.45897    0.005
 6929.00    0.46941   0.45891    0.005
 6930.00    0.37712   0.45506    0.005
 6931.00    0.35637   0.44882    0.005
 6932.00    0.44098   0.44477    0.005
 6933.00    0.50358   0.44608    0.005
 6934.00    0.53768   0.45109    0.005
 6935.00    0.56400   0.45546    0.005
 6936.00    0.58143   0.45708    0.005
 6937.00    0.58276   0.45690    0.005
 6938.00    0.56789   0.45556    0.005
 6939.00    0.55133   0.45278    0.005
 6940.00    0.53328   0.45011    0.005
 6941.00    0.51471   0.45074    0.005
 6942.00    0.49575   0.45381    0.005
 6943.00    0.51231   0.45554    0.005
 6944.00    0.55330   0.45536    0.005
 6945.00    0.54872   0.45518    0.005
 6946.00    0.51669   0.45621    0.005
 6947.00    0.51049   0.45797    0.005
 6948.00    0.51787   0.45877    0.005
 6949.00    0.51744   0.45708    0.005
 6950.00    0.51344   0.45275    0.005
 6951.00    0.45466   0.44680    0.005
 6952.00    0.37436   0.44294    0.005
 6953.00    0.39832   0.44519    0.005
 6954.00    0.45717   0.45109    0.005
 6955.00    0.49213   0.45541    0.005
 6956.00    0.52038   0.45664    0.005
 6957.00    0.52505   0.45474    0.005
 6958.00    0.52428   0.45071    0.005
 6959.00    0.51782   0.44783    0.005
 6960.00    0.51031   0.44706    0.005
 6961.00    0.52765   0.44754    0.005
 6962.00    0.54855   0.44963    0.005
 6963.00    0.50103   0.45286    0.005
 6964.00    0.44644   0.45520    0.005
 6965.00    0.48237   0.45581    0.005
 6966.00    0.52434   0.45561    0.005
 6967.00    0.51965   0.45567    0.005
 6968.00    0.51345   0.45643    0.005
 6969.00    0.48156   0.45751    0.005
 6970.00    0.44981   0.45836    0.005
 6971.00    0.42278   0.45810    0.005
 6972.00    0.40105   0.45609    0.005
 6973.00    0.45832   0.45459    0.005
 6974.00    0.50750   0.45627    0.005
 6975.00    0.47905   0.45940    0.005
 6976.00    0.45686   0.46009    0.005
 6977.00    0.47822   0.45782    0.005
 6978.00    0.49720   0.45542    0.005
 6979.00    0.50333   0.45568    0.005
 6980.00    0.50327   0.45727    0.005
 6981.00    0.47651   0.45632    0.005
 6982.00    0.47554   0.45201    0.005
 6983.00    0.56607   0.44576    0.005
 6984.00    0.64060   0.43729    0.005
 6985.00    0.66739   0.42818    0.005
 6986.00    0.68283   0.42580    0.005
 6987.00    0.66943   0.43386    0.005
 6988.00    0.62632   0.44543    0.005
 6989.00    0.51828   0.45353    0.005
 6990.00    0.45075   0.45752    0.005
 6991.00    0.46009   0.45877    0.005
 6992.00    0.47704   0.45868    0.005
 6993.00    0.50661   0.45804    0.005
 6994.00    0.49871   0.45642    0.005
 6995.00    0.43640   0.45324    0.005
 6996.00    0.42349   0.45020    0.005
 6997.00    0.47364   0.45011    0.005
 6998.00    0.50181   0.45292    0.005
 6999.00    0.50525   0.45581    0.005
 7000.00    0.49168   0.45635    0.005
 7001.00    0.46126   0.45497    0.005
 7002.00    0.47434   0.45419    0.005
 7003.00    0.52548   0.45487    0.005
 7004.00    0.51052   0.45502    0.005
 7005.00    0.44462   0.45221    0.005
 7006.00    0.41579   0.44681    0.005
 7007.00    0.41207   0.44352    0.005
 7008.00    0.45836   0.44571    0.005
 7009.00    0.53434   0.44988    0.005
 7010.00    0.53325   0.45007    0.005
 7011.00    0.49225   0.44604    0.005
 7012.00    0.48912   0.44258    0.005
 7013.00    0.50299   0.44259    0.005
 7014.00    0.51714   0.44522    0.008
 7015.00    0.53141   0.44866    0.040
 7016.00    0.50203   0.45139   -1.000
 7017.00    0.45832   0.45175   -1.000
 7018.00    0.46246   0.45027   -1.000
 7019.00    0.47975   0.45000   -1.000
 7020.00    0.45072   0.45117 1686.743
 7021.00    0.41122   0.44920   -1.000
 7022.00    0.41908   0.44053   -1.000
 7023.00    0.43549   0.43041   -1.000
 7024.00    0.36759   0.42976   -1.000
 7025.00    0.28800   0.43974   -1.000
 7026.00    0.38748   0.45047    0.011
 7027.00    0.50473   0.45569    0.005
 7028.00    0.52900   0.45569    0.005
 7029.00    0.54745   0.45101    0.005
 7030.00    0.47107   0.44339    0.005
 7031.00    0.39217   0.43820    0.005
 7032.00    0.35880   0.43920    0.005
 7033.00    0.32735   0.44387    0.005
 7034.00    0.34865   0.44740    0.005
 7035.00    0.37572   0.44896    0.005
 7036.00    0.48388   0.45026    0.005
 7037.00    0.58019   0.45174    0.005
 7038.00    0.56738   0.45237    0.005
 7039.00    0.54184   0.45152    0.005
 7040.00    0.43054   0.44997    0.005
 7041.00    0.34785   0.44905    0.005
 7042.00    0.41478   0.44976    0.005
 7043.00    0.47748   0.45064    0.005
 7044.00    0.52240   0.44725    0.005
 7045.00    0.54751   0.44061    0.005
 7046.00    0.50370   0.44003    0.005
 7047.00    0.47731   0.44885    0.005
 7048.00    0.50190   0.45932    0.005
 7049.00    0.51911   0.46489    0.005
 7050.00    0.51792   0.46501   -2.000
 7051.00    0.49937   0.46138   -2.000
 7052.00    0.44347   0.45756   -2.000
 7053.00    0.44046   0.45737   -2.000
 7054.00    0.53624   0.46066   -2.000
 7055.00    0.59313   0.46424   -2.000
 7056.00    0.58657   0.46550   -2.000
 7057.00    0.57181   0.46361   -2.000
 7058.00    0.54529   0.45827   -2.000
 7059.00    0.52062   0.44924   -2.000
 7060.00    0.49826   0.43892   -2.000
 7061.00    0.46752   0.43144   -2.000
 7062.00    0.42749   0.42913   -2.000
 7063.00    0.40412   0.43180   -2.000
 7064.00    0.39704   0.43607   -2.000
 7065.00    0.49136   0.43713   -2.000
 7066.00    0.67315   0.43314   -2.000
 7067.00    0.72888   0.42776   -2.000
 7068.00    0.68885   0.42590   -2.000
 7069.00    0.61422   0.42789   -2.000
 7070.00    0.51648   0.43116   -2.000
 7071.00    0.56947   0.43422   -2.000
 7072.00    0.71060   0.43489   -2.000
 7073.00    0.70289   0.43130   -2.000
 7074.00    0.61931   0.42532   -2.000
 7075.00    0.64542   0.42076   -2.000
 7076.00    0.71997   0.42142   -2.000
 7077.00    0.65516   0.42741   -2.000
 7078.00    0.53751   0.43368   -2.000
 7079.00    0.53029   0.43669   -2.000
 7080.00    0.55863   0.43760   -2.000
 7081.00    0.62200   0.43783   -2.000
 7082.00    0.69479   0.43739   -2.000
 7083.00    0.64302   0.43668   -2.000
 7084.00    0.56374   0.43658   -2.000
 7085.00    0.56412   0.43730   -2.000
 7086.00    0.57851   0.43835   -2.000
 7087.00    0.52356   0.43953   -2.000
 7088.00    0.45932   0.43981   -2.000
 7089.00    0.52101   0.43669   -2.000
 7090.00    0.59467   0.42900   -2.000
 7091.00    0.55802   0.41958   -2.000
 7092.00    0.51491   0.41419   -2.000
 7093.00    0.54076   0.41425   -2.000
 7094.00    0.56799   0.41427   -2.000
 7095.00    0.55232   0.41136   -2.000
 7096.00    0.53846   0.40809   -2.000
 7097.00    0.56986   0.40634   -2.000
 7098.00    0.59833   0.40680   -2.000
 7099.00    0.58800   0.40852   -2.000
 7100.00    0.57236   0.40922   -2.000
 7101.00    0.50966   0.40897   -2.000
 7102.00    0.45513   0.40866   -2.000
 7103.00    0.45405   0.40860   -2.000
 7104.00    0.45300   0.40945   -2.000
 7105.00    0.45204   0.41211   -2.000
 7106.00    0.46840   0.41646   -2.000
 7107.00    0.55605   0.41929   -2.000
 7108.00    0.60371   0.41892   -2.000
 7109.00    0.51504   0.41673   -2.000
 7110.00    0.46082   0.41559   -2.000
 7111.00    0.50556   0.41727   -2.000
 7112.00    0.52522   0.41999   -2.000
 7113.00    0.48333   0.42056   -2.000
 7114.00    0.44558   0.41908   -2.000
 7115.00    0.41659   0.41833   -2.000
 7116.00    0.40025   0.41817   -2.000
 7117.00    0.40714   0.41573   -2.000
 7118.00    0.44749   0.41171   -2.000
 7119.00    0.54160   0.41040   -2.000
 7120.00    0.66896   0.41311   -2.000
 7121.00    0.84318   0.41666   -2.000
 7122.00    0.88160   0.41878   -2.000
 7123.00    0.75158   0.42020   -2.000
 7124.00    0.66403   0.42121   -2.000
 7125.00    0.62291   0.42142   -2.000
 7126.00    0.62010   0.42103   -2.000
 7127.00    0.65423   0.42009   -2.000
 7128.00    0.61298   0.41811   -2.000
 7129.00    0.50763   0.41591   -2.000
 7130.00    0.57744   0.41628   -2.000
 7131.00    0.77842   0.41780   -2.000
 7132.00    0.79344   0.41544   -2.000
 7133.00    0.68610   0.41009   -2.000
 7134.00    0.63345   0.40726   -2.000
 7135.00    0.61230   0.40779   -2.000
 7136.00    0.63913   0.40711   -2.000
 7137.00    0.69003   0.40263   -2.000
 7138.00    0.64630   0.39841   -2.000
 7139.00    0.56147   0.39943   -2.000
 7140.00    0.51834   0.40451   -2.000
 7141.00    0.49073   0.40973   -2.000
 7142.00    0.47059   0.41289   -2.000
 7143.00    0.45281   0.41423   -2.000
 7144.00    0.41964   0.41489   -2.000
 7145.00    0.38241   0.41401   -2.000
 7146.00    0.39271   0.41173   -2.000
 7147.00    0.41325   0.41118   -2.000
 7148.00    0.42917   0.41316   -2.000
 7149.00    0.44431   0.41476   -2.000
 7150.00    0.55220   0.41476   -2.000
 7151.00    0.67209   0.41430   -2.000
 7152.00    0.57363   0.41374   -2.000
 7153.00    0.45534   0.41221   -2.000
 7154.00    0.37149   0.40758   -2.000
 7155.00    0.28953   0.40113   -2.000
 7156.00    0.31333   0.39973   -2.000
 7157.00    0.34079   0.40463   -2.000
 7158.00    0.50080   0.41033   -2.000
 7159.00    0.65013   0.41493   -2.000
 7160.00    0.55696   0.41862   -2.000
 7161.00    0.51612   0.41936   -2.000
 7162.00    1.13429   0.41760   -2.000
 7163.00    1.61114   0.41779   -2.000
 7164.00    0.88231   0.42076   -2.000
 7165.00    0.29027   0.42163   -2.000
 7166.00    0.56524   0.41862   -2.000
 7167.00    0.85078   0.41542   -2.000
 7168.00    1.18881   0.41519   -2.000
 7169.00    1.38647   0.41625   -2.000
 7170.00    1.01907   0.41326   -2.000
 7171.00    0.74259   0.40476   -2.000
 7172.00    0.76985   0.39787   -2.000
 7173.00    0.72574   0.39995   -2.000
 7174.00    0.48029   0.40838   -2.000
 7175.00    0.32223   0.41535   -2.000
 7176.00    0.37496   0.41754   -2.000
 7177.00    0.40786   0.41738   -2.000
 7178.00    0.39945   0.41836   -2.000
 7179.00    0.45755   0.42076   -2.000
 7180.00    0.63605   0.42232   -2.000
 7181.00    0.70817   0.42145   -2.000
 7182.00    0.61188   0.41815   -2.000
 7183.00    0.57032   0.41438   -2.000
 7184.00    0.60480   0.41370   -2.000
 7185.00    0.54950   0.41594   -2.000
 7186.00    0.38441   0.41556   -2.000
 7187.00    0.32575   0.40971   -2.000
 7188.00    0.38180   0.40329   -2.000
 7189.00    0.40786   0.40349   -2.000
 7190.00    0.40539   0.41075   -2.000
 7191.00    0.49955   0.41775   -2.000
 7192.00    0.67474   0.41880   -2.000
 7193.00    0.78325   0.41364   -2.000
 7194.00    0.84254   0.40498   -2.000
 7195.00    0.69424   0.39875   -2.000
 7196.00    0.41136   0.39877   -2.000
 7197.00    0.43851   0.40333   -2.000
 7198.00    0.64154   0.40852   -2.000
 7199.00    0.60158   0.41049   -2.000
 7200.00    0.44161   0.40965   -2.000
 7201.00    0.44349   0.40997   -2.000
 7202.00    0.51450   0.41230   -2.000
 7203.00    0.59040   0.41273   -2.000
 7204.00    0.66810   0.41018   -2.000
 7205.00    0.68611   0.40926   -2.000
 7206.00    0.68562   0.41192   -2.000
 7207.00    0.54410   0.41409   -2.000
 7208.00    0.36617   0.41235   -2.000
 7209.00    0.34756   0.40910   -2.000
 7210.00    0.36247   0.40977   -2.000
 7211.00    0.37256   0.41443   -2.000
 7212.00    0.38186   0.41673   -2.000
 7213.00    0.42404   0.41125   -2.000
 7214.00    0.47032   0.40078   -2.000
 7215.00    0.44964   0.39496   -2.000
 7216.00    0.42316   0.39794   -2.000
 7217.00    0.50136   0.40592   -2.000
 7218.00    0.58487   0.41389   -2.000
