###################################################################
## OUTPUT of StarlightChains_v04.for    [Cid@UFSC - 01/Apr/2007] ##
###################################################################

## Some input info
KUG0210-078._44_50.txt                   [arq_obs]
Base.CB07.vall.4m                        [arq_base]
Masks.EmLines.NEW.gm                     [arq_masks]
StCv04.C11.config                        [arq_config]
   66                                    [N_base]
    0                                    [N_YAV_components = # of components with extra extinction!]
    0                                    [i_FitPowerLaw (1/0 = Yes/No)]
-9.99                                    [alpha_PowerLaw]
CCM                                      [red_law_option]
 1.458241                                [q_norm = A(l_norm)/A(V)]

## (Re)Sampling Parameters
 3741.00                                 [l_ini (A)]
 7218.00                                 [l_fin (A)]
    1.00                                 [dl    (A)]     (OBS: dl_cushion =    50.00 A)

## Normalization info
 4020.00                                 [l_norm (A) - for base]
 4010.00                                 [llow_norm (A) - window for f_obs]
 4060.00                                 [lupp_norm (A) - window for f_obs]
7.823178E-18                             [fobs_norm (in input units)]

## S/N
 3691.00                                 [llow_SN (A) - window for S/N]
 7268.00                                 [lupp_SN (A) - window for S/N]
   2.545                                 [S/N in S/N window]
   2.874                                 [S/N in norm. window]
   0.009                                 [S/N_err in S/N window]
   0.010                                 [S/N_err in norm. window]
  1.0000                                 [fscale_chi2]

## etc...
    -2007851                             [idum_orig]
  2367                                   [NOl_eff]
  2344                                   [Nl_eff]
    23    NSIGMA                         [Ntot_cliped & clip_method]
 14966770                                [Nglobal_steps]
   7                                     [N_chains]
   7                                     [NEX0s_base = N_base in EX0s-fits]
 0   0   0       23   2.0   1.586E+03    [Clip-Bug, RC-Crash & Burn-In warning-flags, n_censored_weights, wei_nsig_threshold & wei_limit]
   210    206.791    205.022      1.769  [idt_all, wdt_TotTime, wdt_UsrTime & wdt_SysTime (sec)]

## Synthesis Results - Best model ##

 3.15801E-04                             [chi2/Nl_eff]
   268.32077                             [adev (%)]

   129.99553                             [sum-of-x (%)]
 8.55441E-16                             [Flux_tot (units of input spectrum!)]
 4.77296E-13                             [Mini_tot (???)]
 3.32845E-13                             [Mcor_tot (???)]

   0.00                                  [v0_min  (km/s)]
 150.00                                  [vd_min  (km/s)]
 3.3000                                  [AV_min  (mag)]
 0.0000                                  [YAV_min (mag)]

# j     x_j(%)      Mini_j(%)     Mcor_j(%)     age_j(yr)     Z_j      (L/M)_j    YAV?  Mstars   component_j        a/Fe...       SSP_chi2r SSP_adev(%)   SSP_AV   SSP_x(%)
  1      0.0000     0.0000E+00    0.0000E+00    1.000000E+06  0.00400  1.094E-02    0   1.0000   age020_m42            0.0000     1.8999E-05    36.3151   2.5173   101.6541
  2      0.0000     0.0000E+00    0.0000E+00    3.160000E+06  0.00400  4.007E-02    0   0.9999   age045_m42            0.0000     1.7893E-05    35.1010   1.7658   109.4504
  3      0.0000     0.0000E+00    0.0000E+00    5.010000E+06  0.00400  2.539E-02    0   0.9488   age055_m42            0.0000     1.8449E-05    35.7404   2.1020   106.2484
  4      0.0000     0.0000E+00    0.0000E+00    6.610000E+06  0.00400  2.620E-02    0   0.9220   age061_m42            0.0000     1.7981E-05    35.2491   1.7037   109.3281
  5      0.0000     0.0000E+00    0.0000E+00    1.000000E+07  0.00400  1.322E-02    0   0.8862   age070_m42            0.0000     1.8554E-05    36.8193   1.4826   109.8062
  6      0.0000     0.0000E+00    0.0000E+00    1.445000E+07  0.00400  7.883E-03    0   0.8571   age078_m42            0.0000     1.8761E-05    36.9599   1.8079   107.0737
  7      6.0947     1.6002E+00    1.8757E+00    2.512000E+07  0.00400  5.251E-03    0   0.8174   age090_m42            0.0000     1.8577E-05    37.0131   1.3629   110.1487
  8     47.0152     1.7764E+01    1.9999E+01    4.000000E+07  0.00400  3.649E-03    0   0.7851   age104_m42            0.0000     1.8291E-05    36.6273   1.1272   111.3924
  9     19.5697     8.7092E+00    9.5278E+00    5.500000E+07  0.00400  3.098E-03    0   0.7629   age110_m42            0.0000     1.7953E-05    35.6516   1.2483   112.3867
 10      0.5774     3.5732E-01    3.6928E-01    1.015200E+08  0.00400  2.228E-03    0   0.7207   age116_m42            0.0000     1.7765E-05    35.0025   1.2483   113.1900
 11     56.7378     7.1569E+01    6.8228E+01    2.861200E+08  0.00400  1.093E-03    0   0.6648   age125_m42            0.0000     1.7677E-05    35.3398   0.6933   116.0564
 12      0.0000     0.0000E+00    0.0000E+00    5.088000E+08  0.00400  6.597E-04    0   0.6365   age130_m42            0.0000     1.7258E-05    34.1284   0.6445   118.3331
 13      0.0000     0.0000E+00    0.0000E+00    1.434000E+09  0.00400  2.132E-04    0   0.5798   age139_m42            0.0000     1.6142E-05    33.0434  -0.3557   121.8638
 14      0.0000     0.0000E+00    0.0000E+00    4.250000E+09  0.00400  5.895E-05    0   0.5377   age158_m42            0.0000     1.5582E-05    32.4923  -0.8367   118.5073
 15      0.0000     0.0000E+00    0.0000E+00    7.500000E+09  0.00400  3.510E-05    0   0.5212   age171_m42            0.0000     1.5411E-05    32.4077  -1.0000   117.3514
 16      0.0000     0.0000E+00    0.0000E+00    1.300000E+10  0.00400  2.005E-05    0   0.5034   age193_m42            0.0000     1.5607E-05    33.9486  -1.0000   112.8403
 17      0.0000     0.0000E+00    0.0000E+00    1.800000E+10  0.00400  1.525E-05    0   0.4967   age213_m42            0.0000     1.5670E-05    34.3583  -1.0000   111.7582
 18      0.0000     0.0000E+00    0.0000E+00    1.000000E+06  0.00800  1.238E-02    0   1.0000   age020_m52            0.0000     1.8993E-05    36.2924   2.5100   101.9367
 19      0.0002     9.7076E-06    1.3873E-05    3.160000E+06  0.00800  3.074E-02    0   0.9966   age045_m52            0.0000     1.8899E-05    36.1681   2.4309   102.9253
 20      0.0000     0.0000E+00    0.0000E+00    5.010000E+06  0.00800  2.668E-02    0   0.9443   age055_m52            0.0000     1.8587E-05    35.9969   2.1929   105.0844
 21      0.0000     0.0000E+00    0.0000E+00    6.610000E+06  0.00800  2.136E-02    0   0.9177   age061_m52            0.0000     1.8166E-05    36.5805   0.9756   111.4144
 22      0.0000     0.0000E+00    0.0000E+00    1.000000E+07  0.00800  1.215E-02    0   0.8827   age070_m52            0.0000     1.8825E-05    37.5330   1.6800   109.0194
 23      0.0000     0.0000E+00    0.0000E+00    1.445000E+07  0.00800  8.717E-03    0   0.8552   age078_m52            0.0000     1.8653E-05    36.9351   1.7754   108.5365
 24      0.0000     0.0000E+00    0.0000E+00    2.512000E+07  0.00800  5.592E-03    0   0.8162   age090_m52            0.0000     1.8490E-05    37.1017   1.4296   111.4059
 25      0.0000     0.0000E+00    0.0000E+00    4.000000E+07  0.00800  3.896E-03    0   0.7841   age104_m52            0.0000     1.8138E-05    36.4727   1.3228   112.8576
 26      0.0000     0.0000E+00    0.0000E+00    1.015200E+08  0.00800  2.148E-03    0   0.7226   age116_m52            0.0000     1.7758E-05    35.4377   1.2305   113.6001
 27      0.0000     0.0000E+00    0.0000E+00    2.861200E+08  0.00800  9.925E-04    0   0.6683   age125_m52            0.0000     1.7228E-05    34.1552   0.7162   119.2265
 28      0.0000     0.0000E+00    0.0000E+00    9.047900E+08  0.00800  3.141E-04    0   0.6138   age135_m52            0.0000     1.5757E-05    32.1739  -0.1564   126.9996
 29      0.0000     0.0000E+00    0.0000E+00    1.434000E+09  0.00800  1.719E-04    0   0.5853   age139_m52            0.0000     1.5527E-05    32.5694  -0.7333   124.2108
 30      0.0000     0.0000E+00    0.0000E+00    2.500000E+09  0.00800  7.872E-05    0   0.5600   age150_m52            0.0000     1.5162E-05    31.8627  -1.0000   121.3516
 31      0.0000     0.0000E+00    0.0000E+00    4.250000E+09  0.00800  4.336E-05    0   0.5426   age158_m52            0.0000     1.5154E-05    32.0001  -1.0000   119.8918
 32      0.0000     0.0000E+00    0.0000E+00    6.250000E+09  0.00800  3.159E-05    0   0.5319   age166_m52            0.0000     1.5418E-05    33.6773  -1.0000   115.0154
 33      0.0000     0.0000E+00    0.0000E+00    1.300000E+10  0.00800  1.361E-05    0   0.5073   age193_m52            0.0000     1.8210E-05    40.1690  -1.0000   101.3549
 34      0.0000     0.0000E+00    0.0000E+00    1.800000E+10  0.00800  9.886E-06    0   0.4990   age213_m52            0.0000     1.9376E-05    41.2957  -1.0000    97.6929
 35      0.0000     0.0000E+00    0.0000E+00    1.000000E+06  0.02000  1.544E-02    0   1.0000   age020_m62            0.0000     1.9036E-05    36.3749   2.5100   102.0890
 36      0.0000     0.0000E+00    0.0000E+00    3.160000E+06  0.02000  3.762E-02    0   0.9858   age045_m62            0.0000     1.9035E-05    36.2730   2.4442   103.1170
 37      0.0000     0.0000E+00    0.0000E+00    5.010000E+06  0.02000  3.296E-02    0   0.9342   age055_m62            0.0000     1.8246E-05    35.4178   2.0532   107.8473
 38      0.0000     0.0000E+00    0.0000E+00    8.710000E+06  0.02000  1.154E-02    0   0.8861   age067_m62            0.0000     2.0528E-05    41.2934   1.2382   108.8105
 39      0.0000     0.0000E+00    0.0000E+00    1.445000E+07  0.02000  7.663E-03    0   0.8472   age078_m62            0.0000     1.9102E-05    38.5824   1.3570   110.5901
 40      0.0000     0.0000E+00    0.0000E+00    2.512000E+07  0.02000  4.532E-03    0   0.8099   age090_m62            0.0000     1.9197E-05    38.7341   1.3533   110.0825
 41      0.0000     0.0000E+00    0.0000E+00    5.500000E+07  0.02000  2.733E-03    0   0.7595   age110_m62            0.0000     1.8285E-05    36.6363   1.3104   111.8358
 42      0.0000     0.0000E+00    0.0000E+00    1.609000E+08  0.02000  1.369E-03    0   0.6985   age120_m62            0.0000     1.7733E-05    34.9588   1.1058   116.3201
 43      0.0000     0.0000E+00    0.0000E+00    2.861200E+08  0.02000  9.013E-04    0   0.6714   age125_m62            0.0000     1.7346E-05    33.7549   0.8235   120.8184
 44      0.0000     0.0000E+00    0.0000E+00    5.088000E+08  0.02000  5.028E-04    0   0.6449   age130_m62            0.0000     1.6368E-05    32.0005   0.3791   126.5435
 45      0.0000     0.0000E+00    0.0000E+00    9.047900E+08  0.02000  2.428E-04    0   0.6179   age135_m62            0.0000     1.5332E-05    31.4896  -0.2423   127.1016
 46      0.0000     0.0000E+00    0.0000E+00    1.434000E+09  0.02000  1.263E-04    0   0.5908   age139_m62            0.0000     1.5067E-05    31.4385  -0.6950   125.5403
 47      0.0000     0.0000E+00    0.0000E+00    2.500000E+09  0.02000  5.985E-05    0   0.5673   age150_m62            0.0000     1.4920E-05    31.4538  -1.0000   122.6781
 48      0.0000     0.0000E+00    0.0000E+00    4.250000E+09  0.02000  3.271E-05    0   0.5468   age158_m62            0.0000     1.5732E-05    34.2664  -1.0000   113.8387
 49      0.0000     0.0000E+00    0.0000E+00    1.000000E+10  0.02000  1.360E-05    0   0.5167   age181_m62            0.0000     1.8293E-05    38.6887  -1.0000   103.3665
 50      0.0000     0.0000E+00    0.0000E+00    1.800000E+10  0.02000  7.124E-06    0   0.5013   age213_m62            0.0000     2.0716E-05    41.3516  -1.0000    96.1597
 51      0.0000     0.0000E+00    0.0000E+00    1.000000E+06  0.05000  2.592E-02    0   0.9998   age020_m72            0.0000     1.9139E-05    36.5311   2.5018   102.0864
 52      0.0000     0.0000E+00    0.0000E+00    3.160000E+06  0.05000  4.845E-02    0   0.9577   age045_m72            0.0000     1.8715E-05    35.8656   2.3177   104.7463
 53      0.0000     0.0000E+00    0.0000E+00    5.010000E+06  0.05000  3.072E-02    0   0.9147   age055_m72            0.0000     1.9091E-05    37.8968   1.9070   107.2877
 54      0.0000     0.0000E+00    0.0000E+00    6.610000E+06  0.05000  1.455E-02    0   0.8877   age061_m72            0.0000     2.1678E-05    43.3371   1.3118   108.4833
 55      0.0000     0.0000E+00    0.0000E+00    1.000000E+07  0.05000  9.074E-03    0   0.8524   age070_m72            0.0000     1.9269E-05    38.1783   2.0806   106.9992
 56      0.0004     1.3945E-04    1.5802E-04    2.512000E+07  0.05000  4.250E-03    0   0.7902   age090_m72            0.0000     1.8833E-05    37.6804   1.7850   109.0705
 57      0.0000     0.0000E+00    0.0000E+00    4.000000E+07  0.05000  3.087E-03    0   0.7618   age104_m72            0.0000     1.8780E-05    37.7556   1.5625   110.7280
 58      0.0000     0.0000E+00    0.0000E+00    1.015200E+08  0.05000  1.700E-03    0   0.7096   age116_m72            0.0000     1.8014E-05    35.7353   1.2675   115.1654
 59      0.0000     0.0000E+00    0.0000E+00    2.861200E+08  0.05000  7.384E-04    0   0.6633   age125_m72            0.0000     1.6752E-05    32.7670   0.6591   123.7111
 60      0.0000     0.0000E+00    0.0000E+00    5.088000E+08  0.05000  3.819E-04    0   0.6372   age130_m72            0.0000     1.5603E-05    31.4841   0.1064   128.0524
 61      0.0000     0.0000E+00    0.0000E+00    9.047900E+08  0.05000  1.676E-04    0   0.6110   age135_m72            0.0000     1.4751E-05    30.6350  -0.6556   128.0805
 62      0.0000     0.0000E+00    0.0000E+00    1.434000E+09  0.05000  8.837E-05    0   0.5874   age139_m72            0.0000     1.4692E-05    31.2970  -1.0000   124.6905
 63      0.0000     0.0000E+00    0.0000E+00    2.500000E+09  0.05000  4.233E-05    0   0.5598   age150_m72            0.0000     1.5724E-05    34.0033  -1.0000   114.9411
 64      0.0000     0.0000E+00    0.0000E+00    6.250000E+09  0.05000  1.435E-05    0   0.5249   age166_m72            0.0000     1.9240E-05    40.0479  -1.0000   100.0598
 65      0.0000     0.0000E+00    0.0000E+00    1.300000E+10  0.05000  6.513E-06    0   0.5036   age193_m72            0.0000     2.2930E-05    43.5866  -1.0000    92.1889
 66      0.0000     0.0000E+00    0.0000E+00    1.800000E+10  0.05000  4.527E-06    0   0.4945   age213_m72            0.0000     2.5398E-05    45.5211  -1.0000    86.8829


## Synthesis Results - Average & Chains ##

# j      x_j: min, <> & last-chain-values for 1 ...  7 chains
  1      0.0000      0.0000      0.0000      0.0000      0.0000      0.0000      0.0000      0.0000      0.0000
  2      0.0000      0.0001      0.0002      0.0000      0.0002      0.0001      0.0002      0.0001      0.0000
  3      0.0000      0.0001      0.0000      0.0001      0.0000      0.0001      0.0001      0.0003      0.0001
  4      0.0000      0.0002      0.0001      0.0000      0.0003      0.0006      0.0001      0.0001      0.0004
  5      0.0000      0.0000      0.0000      0.0000      0.0000      0.0000      0.0000      0.0000      0.0000
  6      0.0000      0.0002      0.0001      0.0001      0.0003      0.0003      0.0003      0.0001      0.0003
  7      6.0947      4.9804      8.6854      6.0948      0.0021      0.0005      9.6913      0.0002     10.3884
  8     47.0152     51.3250     54.8721     47.0161     57.3147     60.2543     41.0489     56.7470     42.0217
  9     19.5697      6.6502      0.0084     19.5701      9.4190      0.0037      8.6943      0.0044      8.8514
 10      0.5774      1.3661      0.0025      0.5774      0.0023      5.1300      3.8460      0.0002      0.0040
 11     56.7378     65.6754     66.4294     56.7387     63.2582     64.6083     66.7156     73.2462     68.7315
 12      0.0000      0.0001      0.0001      0.0001      0.0001      0.0000      0.0002      0.0000      0.0000
 13      0.0000      0.0000      0.0000      0.0000      0.0001      0.0000      0.0000      0.0000      0.0000
 14      0.0000      0.0001      0.0003      0.0001      0.0002      0.0001      0.0001      0.0001      0.0001
 15      0.0000      0.0000      0.0000      0.0001      0.0001      0.0000      0.0000      0.0000      0.0000
 16      0.0000      0.0000      0.0000      0.0000      0.0000      0.0000      0.0000      0.0000      0.0000
 17      0.0000      0.0000      0.0000      0.0000      0.0000      0.0000      0.0000      0.0000      0.0000
 18      0.0000      0.0000      0.0000      0.0001      0.0000      0.0000      0.0000      0.0000      0.0000
 19      0.0002      0.0001      0.0000      0.0002      0.0000      0.0000      0.0000      0.0001      0.0000
 20      0.0000      0.0000      0.0000      0.0000      0.0000      0.0002      0.0000      0.0000      0.0000
 21      0.0000      0.0000      0.0000      0.0000      0.0000      0.0000      0.0000      0.0000      0.0000
 22      0.0000      0.0001      0.0000      0.0002      0.0000      0.0000      0.0002      0.0000      0.0001
 23      0.0000      0.0000      0.0000      0.0000      0.0001      0.0000      0.0000      0.0000      0.0001
 24      0.0000      0.0001      0.0003      0.0000      0.0000      0.0001      0.0004      0.0001      0.0001
 25      0.0000      0.0002      0.0002      0.0000      0.0002      0.0001      0.0004      0.0001      0.0002
 26      0.0000      0.0002      0.0001      0.0001      0.0001      0.0005      0.0002      0.0003      0.0001
 27      0.0000      0.0000      0.0000      0.0000      0.0001      0.0001      0.0000      0.0000      0.0000
 28      0.0000      0.0000      0.0000      0.0001      0.0000      0.0001      0.0001      0.0000      0.0000
 29      0.0000      0.0000      0.0000      0.0000      0.0000      0.0000      0.0000      0.0000      0.0000
 30      0.0000      0.0000      0.0000      0.0000      0.0000      0.0000      0.0000      0.0000      0.0000
 31      0.0000      0.0000      0.0000      0.0001      0.0000      0.0000      0.0000      0.0000      0.0000
 32      0.0000      0.0000      0.0000      0.0000      0.0000      0.0000      0.0000      0.0000      0.0000
 33      0.0000      0.0000      0.0000      0.0000      0.0000      0.0000      0.0000      0.0000      0.0000
 34      0.0000      0.0000      0.0000      0.0000      0.0001      0.0000      0.0000      0.0000      0.0000
 35      0.0000      0.0000      0.0000      0.0000      0.0000      0.0001      0.0000      0.0000      0.0001
 36      0.0000      0.0000      0.0000      0.0000      0.0000      0.0001      0.0000      0.0001      0.0000
 37      0.0000      0.0001      0.0000      0.0000      0.0000      0.0001      0.0000      0.0000      0.0002
 38      0.0000      0.0000      0.0001      0.0001      0.0000      0.0000      0.0001      0.0000      0.0000
 39      0.0000      0.0000      0.0000      0.0000      0.0000      0.0000      0.0001      0.0000      0.0000
 40      0.0000      0.0001      0.0000      0.0000      0.0002      0.0000      0.0001      0.0000      0.0000
 41      0.0000      0.0001      0.0001      0.0000      0.0000      0.0001      0.0001      0.0001      0.0004
 42      0.0000      0.0000      0.0000      0.0000      0.0000      0.0000      0.0000      0.0000      0.0001
 43      0.0000      0.0000      0.0000      0.0000      0.0000      0.0000      0.0000      0.0000      0.0001
 44      0.0000      0.0000      0.0000      0.0000      0.0000      0.0000      0.0000      0.0000      0.0000
 45      0.0000      0.0000      0.0000      0.0000      0.0000      0.0000      0.0000      0.0000      0.0000
 46      0.0000      0.0000      0.0000      0.0001      0.0000      0.0000      0.0001      0.0000      0.0000
 47      0.0000      0.0000      0.0000      0.0000      0.0000      0.0000      0.0000      0.0000      0.0000
 48      0.0000      0.0000      0.0000      0.0000      0.0000      0.0000      0.0000      0.0000      0.0000
 49      0.0000      0.0000      0.0000      0.0000      0.0000      0.0000      0.0000      0.0000      0.0000
 50      0.0000      0.0000      0.0000      0.0000      0.0000      0.0000      0.0000      0.0000      0.0000
 51      0.0000      0.0000      0.0000      0.0000      0.0000      0.0000      0.0000      0.0000      0.0000
 52      0.0000      0.0000      0.0000      0.0001      0.0000      0.0000      0.0000      0.0001      0.0000
 53      0.0000      0.0000      0.0000      0.0001      0.0000      0.0000      0.0000      0.0000      0.0001
 54      0.0000      0.0000      0.0000      0.0000      0.0001      0.0000      0.0002      0.0000      0.0000
 55      0.0000      0.0001      0.0000      0.0000      0.0000      0.0000      0.0000      0.0000      0.0003
 56      0.0004      0.0002      0.0003      0.0004      0.0001      0.0001      0.0003      0.0000      0.0000
 57      0.0000      0.0002      0.0000      0.0002      0.0008      0.0002      0.0000      0.0000      0.0001
 58      0.0000      0.0000      0.0000      0.0000      0.0001      0.0000      0.0001      0.0000      0.0000
 59      0.0000      0.0000      0.0000      0.0000      0.0000      0.0000      0.0000      0.0000      0.0000
 60      0.0000      0.0000      0.0000      0.0000      0.0000      0.0000      0.0000      0.0000      0.0000
 61      0.0000      0.0000      0.0000      0.0000      0.0000      0.0000      0.0000      0.0000      0.0000
 62      0.0000      0.0000      0.0000      0.0000      0.0000      0.0000      0.0000      0.0000      0.0000
 63      0.0000      0.0000      0.0000      0.0000      0.0000      0.0000      0.0000      0.0000      0.0000
 64      0.0000      0.0000      0.0000      0.0000      0.0000      0.0000      0.0001      0.0000      0.0000
 65      0.0000      0.0000      0.0000      0.0000      0.0000      0.0000      0.0000      0.0000      0.0000
 66      0.0000      0.0000      0.0000      0.0000      0.0000      0.0000      0.0000      0.0000      0.0000

# j      m_j: min, <> & last-chain-values for 1 ...  7 chains
  1  0.0000E+00  2.7494E-06  1.0056E-06  4.1436E-06  5.0738E-06  1.2819E-06  2.8082E-06  4.1503E-07  4.7228E-06
  2  0.0000E+00  6.0707E-06  7.9780E-06  2.3004E-06  9.2221E-06  6.5325E-06  8.4682E-06  6.4663E-06  1.3781E-06
  3  0.0000E+00  7.2662E-06  1.6249E-06  6.2730E-06  3.3038E-06  3.5746E-06  9.7875E-06  2.0921E-05  4.5225E-06
  4  0.0000E+00  1.4475E-05  8.9385E-06  1.3238E-06  1.7401E-05  3.6132E-05  4.9818E-06  8.0316E-06  2.3986E-05
  5  0.0000E+00  2.0631E-06  7.7860E-07  3.2986E-06  4.0539E-06  3.1405E-06  0.0000E+00  0.0000E+00  3.3727E-06
  6  0.0000E+00  4.3457E-05  2.1109E-05  2.5249E-05  5.9460E-05  6.8361E-05  5.7381E-05  1.9396E-05  5.3235E-05
  7  1.8757E+00  1.4396E+00  2.5236E+00  1.8752E+00  6.0104E-04  1.4072E-04  2.7774E+00  6.5461E-05  2.9590E+00
  8  1.9999E+01  2.0505E+01  2.2037E+01  1.9993E+01  2.3206E+01  2.4037E+01  1.6260E+01  2.1508E+01  1.6543E+01
  9  9.5278E+00  3.0409E+00  3.8392E-03  9.5249E+00  4.3648E+00  1.7101E-03  3.9418E+00  1.8940E-03  3.9884E+00
 10  3.6928E-01  8.2053E-01  1.5276E-03  3.6917E-01  1.4057E-03  3.0769E+00  2.2905E+00  1.4031E-04  2.3461E-03
 11  6.8228E+01  7.4175E+01  7.5418E+01  6.8208E+01  7.2404E+01  7.2863E+01  7.4708E+01  7.8480E+01  7.6493E+01
 12  0.0000E+00  1.6583E-04  2.4124E-04  1.6144E-04  2.2576E-04  2.8236E-05  4.1096E-04  4.8076E-05  5.2204E-05
 13  0.0000E+00  1.5256E-04  6.1492E-06  3.0714E-05  6.3558E-04  2.6569E-05  1.4224E-04  1.3999E-04  8.6907E-05
 14  0.0000E+00  2.4475E-03  5.3747E-03  2.6778E-03  2.7265E-03  1.1023E-03  2.4733E-03  1.9783E-03  8.8228E-04
 15  0.0000E+00  9.5980E-04  9.8910E-04  2.2013E-03  2.1523E-03  1.5312E-04  1.5534E-04  4.5311E-04  7.4405E-04
 16  0.0000E+00  8.4953E-04  2.4789E-04  1.2321E-03  1.3978E-03  7.9429E-04  7.5482E-04  7.4766E-04  8.0650E-04
 17  0.0000E+00  4.1600E-04  3.0681E-04  1.4202E-03  3.5457E-04  1.2434E-04  1.0204E-04  3.3197E-04  3.4023E-04
 18  0.0000E+00  6.2278E-06  4.1066E-06  2.3727E-05  4.4814E-06  7.9042E-07  4.3897E-06  2.7505E-07  7.1801E-06
 19  1.3873E-05  3.2159E-06  3.5294E-07  1.3869E-05  9.8288E-08  2.9286E-07  2.4572E-06  3.5890E-06  2.4425E-06
 20  0.0000E+00  2.8526E-06  1.9612E-06  9.6997E-07  1.9747E-06  1.1196E-05  2.4278E-07  1.6606E-06  1.9218E-06
 21  0.0000E+00  1.0898E-06  4.7256E-07  3.5234E-06  1.8885E-07  2.2368E-07  4.6393E-07  2.4786E-06  3.5187E-07
 22  0.0000E+00  1.0630E-05  7.1309E-07  2.8234E-05  5.6779E-06  5.2473E-06  2.1086E-05  6.0874E-06  8.5064E-06
 23  0.0000E+00  6.4228E-06  7.2379E-06  5.3500E-06  1.8601E-05  9.7141E-07  3.1931E-06  5.9090E-07  9.4221E-06
 24  0.0000E+00  3.6510E-05  6.8835E-05  3.5904E-06  1.1572E-06  2.0921E-05  1.0716E-04  2.5994E-05  2.5767E-05
 25  0.0000E+00  6.6530E-05  8.0991E-05  1.6570E-05  8.1124E-05  2.8766E-05  1.6242E-04  3.1604E-05  6.2659E-05
 26  0.0000E+00  1.0797E-04  3.2823E-05  3.4950E-05  6.4086E-05  2.9093E-04  1.3573E-04  1.5137E-04  3.8699E-05
 27  0.0000E+00  5.0926E-05  4.8557E-06  2.0520E-05  1.4324E-04  9.5115E-05  3.1556E-05  1.7571E-05  4.4762E-05
 28  0.0000E+00  1.6846E-04  5.8095E-05  2.5277E-04  1.6441E-05  4.4411E-04  2.7102E-04  1.2146E-05  1.3485E-04
 29  0.0000E+00  5.7119E-05  2.7360E-05  2.7728E-04  0.0000E+00  3.1479E-05  2.9576E-05  2.1090E-05  2.8105E-05
 30  0.0000E+00  3.0717E-04  3.5702E-04  8.3068E-05  2.2024E-04  2.1595E-04  5.4534E-04  4.9511E-04  2.0842E-04
 31  0.0000E+00  5.4789E-04  3.2399E-04  1.5224E-03  6.9369E-04  2.8593E-04  6.0323E-04  1.0915E-04  3.8265E-04
 32  0.0000E+00  2.7723E-04  1.4256E-04  4.8537E-04  1.0482E-04  1.7861E-04  4.7953E-04  6.5625E-05  5.0023E-04
 33  0.0000E+00  6.7441E-04  3.9067E-04  1.2141E-03  1.1982E-03  1.5001E-03  2.6327E-04  8.2203E-06  2.2947E-04
 34  0.0000E+00  2.0625E-03  2.5771E-03  1.2875E-03  6.8866E-03  1.3411E-03  5.3339E-04  1.4379E-03  4.6503E-04
 35  0.0000E+00  4.3699E-06  1.9997E-06  3.6858E-06  2.0368E-06  1.5017E-05  1.8923E-06  1.2242E-07  5.9628E-06
 36  0.0000E+00  1.3556E-06  2.5282E-07  1.3875E-06  6.9184E-08  2.5486E-06  1.9436E-06  2.4214E-06  7.8903E-07
 37  0.0000E+00  2.9925E-06  1.9508E-06  2.3689E-07  3.0609E-07  6.9493E-06  1.3160E-06  2.2762E-07  9.8105E-06
 38  0.0000E+00  6.2968E-06  1.3928E-05  9.5309E-06  4.2541E-06  2.3260E-06  7.4681E-06  2.2517E-06  4.7650E-06
 39  0.0000E+00  5.7374E-06  5.8304E-06  9.9582E-06  3.2931E-06  1.1559E-06  1.7349E-05  2.2823E-06  6.8468E-07
 40  0.0000E+00  1.7923E-05  9.6064E-06  6.0145E-06  5.7352E-05  1.2042E-05  2.7647E-05  7.4483E-06  5.7788E-06
 41  0.0000E+00  5.5722E-05  4.4909E-05  9.0111E-06  1.4280E-05  3.9333E-05  6.3727E-05  2.5446E-05  1.8953E-04
 42  0.0000E+00  2.1816E-05  3.3820E-06  3.9778E-05  1.5566E-05  1.5665E-05  1.5050E-05  1.4937E-05  4.9278E-05
 43  0.0000E+00  2.7854E-05  2.3527E-05  2.3574E-05  8.2130E-06  2.1376E-05  2.2174E-05  6.9332E-06  8.8923E-05
 44  0.0000E+00  3.0609E-05  8.4320E-06  4.0682E-05  7.1125E-05  1.1588E-05  5.9987E-05  1.2371E-05  1.2145E-05
 45  0.0000E+00  5.0971E-05  2.3195E-05  2.8888E-05  6.3193E-05  2.7800E-05  7.5012E-05  2.3312E-05  1.1446E-04
 46  0.0000E+00  3.7361E-04  1.7971E-05  8.0594E-04  2.6106E-04  1.2524E-04  9.7383E-04  1.3098E-04  3.3204E-04
 47  0.0000E+00  2.7114E-04  9.8580E-05  2.9751E-04  3.7674E-05  2.8153E-04  7.1796E-04  1.9513E-04  2.6752E-04
 48  0.0000E+00  6.3680E-04  3.7176E-04  5.4801E-04  5.0214E-04  8.1199E-04  1.2170E-03  8.1889E-04  1.7113E-04
 49  0.0000E+00  4.6603E-04  3.3749E-04  1.7977E-03  0.0000E+00  1.1967E-04  3.4824E-04  3.3637E-04  4.0588E-04
 50  0.0000E+00  2.5546E-03  1.5093E-03  2.2699E-03  3.8812E-03  2.2879E-03  5.3043E-03  5.5971E-04  2.1556E-03
 51  0.0000E+00  5.0503E-07  0.0000E+00  1.2386E-06  4.1700E-07  9.6245E-07  2.1282E-07  3.4929E-07  4.0729E-07
 52  0.0000E+00  1.3707E-06  6.5799E-07  3.0726E-06  1.7187E-06  1.0586E-06  3.9670E-07  2.1811E-06  5.8949E-07
 53  0.0000E+00  2.0025E-06  9.2321E-07  4.4783E-06  1.5916E-06  2.0335E-06  2.9353E-07  2.3679E-07  4.6703E-06
 54  0.0000E+00  5.6395E-06  4.6563E-06  3.7842E-07  7.1916E-06  5.7602E-07  2.0611E-05  4.1940E-06  1.5835E-06
 55  0.0000E+00  1.0307E-05  2.9531E-06  2.9014E-06  4.7727E-06  2.9936E-06  9.6965E-07  8.7918E-07  5.6041E-05
 56  1.5802E-04  6.2431E-05  8.8541E-05  1.5797E-04  4.6703E-05  1.8098E-05  1.0730E-04  1.3207E-05  1.3968E-05
 57  0.0000E+00  8.8541E-05  7.8156E-06  8.9690E-05  3.8810E-04  7.8937E-05  8.6352E-07  1.8016E-05  4.5207E-05
 58  0.0000E+00  2.4887E-05  4.0489E-06  1.4657E-05  8.7287E-05  2.2668E-05  4.0785E-05  3.2545E-06  2.9683E-06
 59  0.0000E+00  1.1394E-05  8.4720E-06  1.9841E-05  2.7267E-05  8.9657E-06  0.0000E+00  7.4819E-06  8.7886E-06
 60  0.0000E+00  2.8806E-05  3.9628E-05  1.7844E-05  1.4012E-05  1.0864E-05  4.9041E-05  1.5395E-05  5.4255E-05
 61  0.0000E+00  8.9887E-05  3.8644E-05  2.0714E-04  3.7192E-05  1.0711E-04  9.2878E-05  3.5812E-05  1.1900E-04
 62  0.0000E+00  2.3899E-04  4.5021E-05  5.1046E-04  1.9970E-04  6.0526E-05  1.5680E-04  4.4724E-04  2.5747E-04
 63  0.0000E+00  1.9708E-04  1.3976E-04  1.0815E-04  0.0000E+00  3.9812E-04  6.2990E-04  1.7059E-05  8.5649E-05
 64  0.0000E+00  9.6859E-04  3.7673E-04  2.5912E-04  2.9764E-04  9.4366E-04  4.2678E-03  2.3122E-04  3.6956E-04
 65  0.0000E+00  1.1566E-03  7.3989E-04  6.1344E-03  0.0000E+00  5.3432E-04  7.8452E-07  5.8427E-04  4.3869E-04
 66  0.0000E+00  2.4861E-03  1.2052E-03  3.2752E-03  3.9199E-04  7.6637E-03  5.9998E-04  9.7288E-04  3.3846E-03

# AV, chi2 & Mass for <> & i_chain = 1 ...  7 solutions
AV       3.3000      3.9000      3.8000      3.8000      3.8000      3.8000      3.8000      3.8000      3.8000
chi2 3.1580E-04  6.9860E-04  6.2217E-04  5.9016E-04  6.1766E-04  6.2310E-04  6.1123E-04  6.4504E-04  6.1782E-04
Mass 3.3284E-13  7.9334E-13  6.9003E-13  6.5167E-13  6.8444E-13  6.9464E-13  6.9958E-13  7.3115E-13  7.0390E-13
   0.00                                  [v0_min (km/s) before EX0s...]
 150.00                                  [vd_min (km/s) before EX0s...]


## Synthetic spectrum (Best Model) ##l_obs f_obs f_syn wei
 3478    [Nl_obs]
 3741.00    1.99165   0.77749    0.000
 3742.00    1.52414   0.78313    0.000
 3743.00    0.33485   0.77398    0.000
 3744.00    0.05459   0.75335    0.000
 3745.00    0.30398   0.72169    0.028
 3746.00    0.21362   0.68116    0.028
 3747.00   -0.04927   0.63657    0.000
 3748.00   -1.14157   0.59342    0.000
 3749.00   -2.59860   0.56179    0.000
 3750.00   -2.03927   0.55269    0.000
 3751.00   -0.71870   0.56980    0.000
 3752.00   -0.18563   0.60753    0.000
 3753.00    0.09505   0.65653    0.028
 3754.00   -0.51970   0.70772    0.000
 3755.00   -1.37441   0.75276    0.000
 3756.00   -0.90814   0.78839    0.000
 3757.00   -0.15193   0.81423    0.000
 3758.00    0.26278   0.83221    0.027
 3759.00    0.61787   0.84632    0.027
 3760.00   -0.42615   0.85681    0.000
 3761.00   -1.65602   0.86219    0.000
 3762.00   -0.58743   0.86128    0.000
 3763.00    0.69716   0.84991    0.027
 3764.00    0.68318   0.82610    0.027
 3765.00    0.59429   0.79163    0.026
 3766.00    0.18681   0.74681    0.025
 3767.00   -0.22608   0.69522    0.000
 3768.00   -0.37702   0.64427    0.000
 3769.00   -0.51142   0.60119    0.000
 3770.00   -0.24421   0.57469    0.000
 3771.00    0.05664   0.57376    0.024
 3772.00    0.79818   0.59986    0.024
 3773.00    1.41215   0.64553    0.024
 3774.00    0.90619   0.70039    0.024
 3775.00    0.40787   0.75526    0.024
 3776.00   -0.04098   0.80558    0.000
 3777.00   -0.40446   0.85065    0.000
 3778.00   -0.33588   0.88940    0.000
 3779.00    0.04743   0.92194    0.023
 3780.00    1.71891   0.94816    0.024
 3781.00    2.75513   0.96765    0.025
 3782.00    1.63673   0.98087    0.025
 3783.00    0.22189   0.98768    0.025
 3784.00   -2.04084   0.98794    0.000
 3785.00   -3.10190   0.98139    0.000
 3786.00   -1.22703   0.96900    0.000
 3787.00   -0.11656   0.95278    0.000
 3788.00   -0.61723   0.93354    0.000
 3789.00   -0.71778   0.91156    0.000
 3790.00   -0.08541   0.88535    0.000
 3791.00    0.42937   0.85261    0.025
 3792.00    0.75593   0.81188    0.025
 3793.00    0.50951   0.76221    0.025
 3794.00   -0.54173   0.70531    0.000
 3795.00   -0.93919   0.64776    0.000
 3796.00   -0.52855   0.59762    0.000
 3797.00   -0.37529   0.56346    0.000
 3798.00   -0.50244   0.55409    0.000
 3799.00   -0.56217   0.57316    0.000
 3800.00   -0.55709   0.61667    0.000
 3801.00   -0.60939   0.67389    0.000
 3802.00   -0.71030   0.73432    0.000
 3803.00   -0.50369   0.79156    0.000
 3804.00   -0.06760   0.84080    0.000
 3805.00    0.01208   0.88134    0.023
 3806.00   -0.14190   0.91591    0.000
 3807.00   -0.40686   0.94690    0.000
 3808.00   -0.73551   0.97455    0.000
 3809.00   -0.32626   0.99811    0.000
 3810.00    0.45182   1.01624    0.022
 3811.00    0.62248   1.02735    0.022
 3812.00    0.53046   1.03216    0.021
 3813.00    0.79047   1.03317    0.021
 3814.00    1.18102   1.03215    0.022
 3815.00    1.38549   1.02882    0.022
 3816.00    1.53145   1.02188    0.022
 3817.00    1.07089   1.01075    0.022
 3818.00    0.45122   0.99638    0.022
 3819.00    0.27988   0.98251    0.022
 3820.00    0.20460   0.97576    0.022
 3821.00   -0.43645   0.97768    0.000
 3822.00   -1.17351   0.98221    0.000
 3823.00   -0.76659   0.98294    0.000
 3824.00   -0.21288   0.97529    0.000
 3825.00    0.05162   0.95859    0.022
 3826.00    0.29015   0.93458    0.023
 3827.00   -0.88644   0.90417    0.000
 3828.00   -2.13908   0.86840    0.000
 3829.00   -1.02312   0.82724    0.000
 3830.00    0.11912   0.77975    0.022
 3831.00   -0.52596   0.72531    0.000
 3832.00   -1.10017   0.66605    0.000
 3833.00   -0.10012   0.60955    0.000
 3834.00    0.82233   0.56495    0.023
 3835.00    0.77993   0.54143    0.023
 3836.00    0.78987   0.54583    0.023
 3837.00    1.24223   0.57634    0.023
 3838.00    1.54673   0.62553    0.023
 3839.00    0.92098   0.68437    0.022
 3840.00    0.39454   0.74483    0.022
 3841.00    0.35814   0.80287    0.022
 3842.00    0.34481   0.85652    0.022
 3843.00    0.42392   0.90471    0.021
 3844.00    0.36455   0.94638    0.021
 3845.00   -0.15520   0.98081    0.000
 3846.00   -0.42613   1.00898    0.000
 3847.00    0.00163   1.03207    0.000
 3848.00    0.46000   1.05120    0.000
 3849.00    0.99189   1.06673    0.000
 3850.00    1.29460   1.07972    0.000
 3851.00    1.12200   1.09064    0.000
 3852.00    1.04657   1.09898    0.000
 3853.00    1.14638   1.10526    0.000
 3854.00    1.06599   1.10881    0.000
 3855.00    0.70141   1.10997    0.000
 3856.00    0.28958   1.10982    0.000
 3857.00   -0.18768   1.10984    0.000
 3858.00   -0.28717   1.11059    0.000
 3859.00    0.07364   1.11176    0.000
 3860.00    0.23386   1.11416    0.000
 3861.00    0.17862   1.11907    0.000
 3862.00    0.34097   1.12452    0.000
 3863.00    0.70949   1.12807    0.000
 3864.00    0.75402   1.12884    0.000
 3865.00    0.52791   1.12618    0.000
 3866.00    0.15260   1.12111    0.000
 3867.00   -0.33246   1.11556    0.000
 3868.00   -0.13820   1.11063    0.000
 3869.00    0.49484   1.10541    0.000
 3870.00    0.52988   1.09803    0.000
 3871.00    0.22697   1.08865    0.000
 3872.00   -0.29594   1.07987    0.000
 3873.00   -0.92707   1.07303    0.000
 3874.00   -0.67859   1.06681    0.000
 3875.00   -0.05608   1.05920    0.000
 3876.00    0.02464   1.04740    0.000
 3877.00   -0.09198   1.02967    0.000
 3878.00    0.34386   1.00719    0.000
 3879.00    0.95002   0.98211    0.000
 3880.00    0.78651   0.95492    0.000
 3881.00    0.42542   0.92379    0.019
 3882.00    0.35177   0.88650    0.019
 3883.00    0.33822   0.84266    0.019
 3884.00    1.27162   0.79180    0.019
 3885.00    2.36116   0.73355    0.019
 3886.00    2.09117   0.67277    0.020
 3887.00    1.65282   0.61833    0.020
 3888.00    1.00502   0.58011    0.019
 3889.00    0.33930   0.56800    0.018
 3890.00    0.26791   0.58633    0.018
 3891.00    0.22614   0.62939    0.018
 3892.00    0.17673   0.68601    0.019
 3893.00    0.12601   0.74603    0.019
 3894.00   -0.00161   0.80321    0.000
 3895.00   -0.13303   0.85419    0.000
 3896.00   -0.34198   0.89885    0.000
 3897.00   -0.50479   0.93816    0.000
 3898.00   -0.12187   0.97144    0.000
 3899.00    0.19356   0.99941    0.018
 3900.00   -0.04081   1.02402    0.000
 3901.00   -0.19232   1.04574    0.000
 3902.00    0.16223   1.06438    0.017
 3903.00    0.42200   1.08057    0.017
 3904.00    0.22571   1.09437    0.017
 3905.00    0.07812   1.10553    0.017
 3906.00    0.12124   1.11619    0.016
 3907.00    0.15077   1.12825    0.016
 3908.00    0.13598   1.14137    0.017
 3909.00    0.16999   1.15387    0.017
 3910.00    0.33855   1.16427    0.017
 3911.00    0.49527   1.17181    0.018
 3912.00    0.62401   1.17623    0.018
 3913.00    0.63984   1.17814    0.018
 3914.00    0.42521   1.17915    0.019
 3915.00    0.14967   1.18001    0.019
 3916.00   -0.23404   1.17961    0.000
 3917.00   -0.20515   1.17798    0.000
 3918.00    0.46486   1.17509    0.019
 3919.00    0.93452   1.17160    0.019
 3920.00    1.13084   1.16895    0.019
 3921.00    1.19741   1.16837    0.019
 3922.00    1.10813   1.16918    0.019
 3923.00    0.97461   1.16836    0.019
 3924.00    0.79422   1.16481    0.018
 3925.00    0.49705   1.15834    0.018
 3926.00    0.09079   1.14917    0.018
 3927.00    0.10636   1.14026    0.017
 3928.00    0.46934   1.13182    0.017
 3929.00    0.54412   1.12045    0.017
 3930.00    0.40997   1.10536    0.017
 3931.00    0.18666   1.08672    0.017
 3932.00   -0.09339   1.06675    0.000
 3933.00   -0.07634   1.05227    0.000
 3934.00    0.10606   1.05092    0.017
 3935.00    0.47102   1.06419    0.017
 3936.00    0.92434   1.08751    0.018
 3937.00    1.05646   1.11346    0.018
 3938.00    1.05429   1.13619    0.018
 3939.00    0.89315   1.15268    0.018
 3940.00    0.67515   1.16352    0.018
 3941.00    0.76547   1.17015    0.018
 3942.00    0.94899   1.17365    0.018
 3943.00    0.71443   1.17553    0.018
 3944.00    0.37486   1.17758    0.018
 3945.00    0.44735   1.18008    0.018
 3946.00    0.60387   1.18187    0.018
 3947.00    0.63301   1.18222    0.018
 3948.00    0.64174   1.18131    0.018
 3949.00    0.70539   1.17880    0.018
 3950.00    0.77559   1.17469    0.018
 3951.00    0.76860   1.16900    0.018
 3952.00    0.75532   1.16172    0.018
 3953.00    1.14195   1.15286    0.018
 3954.00    1.54695   1.14278    0.018
 3955.00    1.25567   1.13031    0.018
 3956.00    0.95836   1.11451    0.018
 3957.00    0.80953   1.09604    0.018
 3958.00    0.67618   1.07525    0.018
 3959.00    0.83634   1.05097    0.018
 3960.00    0.95246   1.02110    0.000
 3961.00    0.57239   0.98444    0.000
 3962.00    0.28837   0.94217    0.000
 3963.00    0.75944   0.89402    0.000
 3964.00    1.19260   0.83893    0.000
 3965.00    1.40087   0.77752    0.000
 3966.00    1.51270   0.71168    0.000
 3967.00    1.17171   0.64613    0.000
 3968.00    0.84101   0.58993    0.000
 3969.00    0.54974   0.55344    0.000
 3970.00    0.39254   0.54509    0.000
 3971.00    0.66387   0.56770    0.000
 3972.00    0.83191   0.61558    0.000
 3973.00    0.72020   0.67883    0.000
 3974.00    0.64633   0.74790    0.000
 3975.00    0.66028   0.81539    0.000
 3976.00    0.75762   0.87676    0.000
 3977.00    1.02248   0.93054    0.000
 3978.00    1.07026   0.97691    0.000
 3979.00    0.73836   1.01631    0.000
 3980.00    0.65436   1.04963    0.000
 3981.00    0.94988   1.07731    0.017
 3982.00    1.19834   1.10014    0.017
 3983.00    1.38352   1.11982    0.017
 3984.00    1.21241   1.13770    0.017
 3985.00    0.61940   1.15391    0.017
 3986.00    0.44588   1.16862    0.017
 3987.00    0.71040   1.18246    0.017
 3988.00    0.76379   1.19540    0.017
 3989.00    0.62271   1.20666    0.017
 3990.00    0.54184   1.21650    0.017
 3991.00    0.50985   1.22590    0.017
 3992.00    0.60245   1.23432    0.017
 3993.00    0.78405   1.24059    0.017
 3994.00    0.78212   1.24414    0.017
 3995.00    0.66512   1.24574    0.017
 3996.00    0.59241   1.24613    0.016
 3997.00    0.54396   1.24661    0.016
 3998.00    0.67996   1.24896    0.016
 3999.00    0.90382   1.25372    0.016
 4000.00    0.92966   1.25927    0.016
 4001.00    0.87410   1.26342    0.016
 4002.00    0.77307   1.26478    0.016
 4003.00    0.65606   1.26289    0.016
 4004.00    0.81828   1.25786    0.016
 4005.00    1.06325   1.25135    0.016
 4006.00    1.13395   1.24584    0.016
 4007.00    1.16184   1.24271    0.016
 4008.00    0.65656   1.24185    0.016
 4009.00    0.04526   1.24379    0.016
 4010.00    0.12129   1.24981    0.016
 4011.00    0.30411   1.25940    0.016
 4012.00    0.68296   1.26926    0.016
 4013.00    1.08435   1.27733    0.016
 4014.00    1.00419   1.28344    0.016
 4015.00    0.88679   1.28781    0.016
 4016.00    1.11544   1.29014    0.016
 4017.00    1.35866   1.29094    0.016
 4018.00    1.35478   1.29122    0.017
 4019.00    1.34614   1.29084    0.017
 4020.00    1.22785   1.28790    0.017
 4021.00    1.11211   1.28077    0.016
 4022.00    1.04111   1.26924    0.016
 4023.00    1.01488   1.25368    0.016
 4024.00    1.47036   1.23582    0.017
 4025.00    1.82599   1.22060    0.017
 4026.00    1.42367   1.21440    0.017
 4027.00    1.05084   1.22064    0.016
 4028.00    0.84810   1.23532    0.016
 4029.00    0.76808   1.25138    0.016
 4030.00    1.25046   1.26462    0.016
 4031.00    1.50643   1.27454    0.017
 4032.00    0.91311   1.28224    0.016
 4033.00    0.51635   1.28912    0.016
 4034.00    0.73576   1.29618    0.016
 4035.00    0.94094   1.30380    0.016
 4036.00    1.10823   1.31146    0.016
 4037.00    1.08846   1.31826    0.016
 4038.00    0.64155   1.32281    0.016
 4039.00    0.39893   1.32452    0.016
 4040.00    0.56014   1.32429    0.016
 4041.00    0.71949   1.32221    0.016
 4042.00    0.87561   1.31791    0.016
 4043.00    1.00000   1.31158    0.016
 4044.00    1.07653   1.30397    0.016
 4045.00    1.04239   1.29774    0.016
 4046.00    0.86154   1.29598    0.016
 4047.00    0.85223   1.29959    0.016
 4048.00    1.04321   1.30640    0.016
 4049.00    0.95119   1.31300    0.016
 4050.00    0.56782   1.31769    0.016
 4051.00    0.56582   1.32004    0.016
 4052.00    0.91013   1.32005    0.016
 4053.00    1.00691   1.31847    0.016
 4054.00    0.90558   1.31609    0.016
 4055.00    0.77305   1.31402    0.016
 4056.00    0.61855   1.31312    0.016
 4057.00    0.77477   1.31349    0.016
 4058.00    1.12292   1.31476    0.016
 4059.00    1.33096   1.31627    0.016
 4060.00    1.46340   1.31676    0.016
 4061.00    1.31737   1.31450    0.016
 4062.00    1.04083   1.30924    0.016
 4063.00    0.88384   1.30274    0.015
 4064.00    0.77515   1.29815    0.015
 4065.00    0.96918   1.29769    0.015
 4066.00    1.26759   1.30000    0.015
 4067.00    1.26667   1.30317    0.015
 4068.00    1.17884   1.30666    0.015
 4069.00    0.99163   1.30876    0.015
 4070.00    0.78055   1.30735    0.016
 4071.00    0.53944   1.30355    0.016
 4072.00    0.29251   1.30006    0.015
 4073.00    0.62348   1.29747    0.015
 4074.00    1.04154   1.29406    0.015
 4075.00    0.99976   1.28881    0.016
 4076.00    0.90710   1.28295    0.016
 4077.00    0.54380   1.27848    0.015
 4078.00    0.16067   1.27674    0.015
 4079.00    0.21936   1.27749    0.015
 4080.00    0.29495   1.27895    0.015
 4081.00    0.50016   1.27875    0.015
 4082.00    0.70794   1.27514    0.015
 4083.00    0.98552   1.26863    0.016
 4084.00    1.23922   1.26083    0.016
 4085.00    1.09937   1.25315    0.016
 4086.00    0.98026   1.24603    0.016
 4087.00    1.07446   1.23832    0.016
 4088.00    1.17647   1.22755    0.016
 4089.00    1.33579   1.21197    0.016
 4090.00    1.37070   1.19159    0.016
 4091.00    0.70776   1.16694    0.016
 4092.00    0.30495   1.13823    0.000
 4093.00    1.06627   1.10578    0.000
 4094.00    1.65194   1.06893    0.000
 4095.00    1.59251   1.02587    0.000
 4096.00    1.50328   0.97581    0.000
 4097.00    1.32236   0.91930    0.000
 4098.00    1.22107   0.85802    0.000
 4099.00    1.32791   0.79619    0.000
 4100.00    1.39215   0.74137    0.000
 4101.00    1.36070   0.70372    0.000
 4102.00    1.43709   0.69368    0.000
 4103.00    1.72330   0.71476    0.000
 4104.00    1.71708   0.76016    0.000
 4105.00    1.21467   0.81890    0.000
 4106.00    1.09006   0.88125    0.000
 4107.00    1.52704   0.94062    0.000
 4108.00    1.55917   0.99403    0.000
 4109.00    1.06232   1.04102    0.000
 4110.00    0.80877   1.08220    0.000
 4111.00    0.83526   1.11861    0.000
 4112.00    0.91098   1.15101    0.000
 4113.00    1.03667   1.17899    0.015
 4114.00    1.06617   1.20238    0.015
 4115.00    1.00955   1.22174    0.015
 4116.00    1.02168   1.23702    0.015
 4117.00    1.08804   1.24790    0.015
 4118.00    1.04440   1.25512    0.015
 4119.00    0.92440   1.26017    0.014
 4120.00    0.95419   1.26529    0.021
 4121.00    1.07512   1.27337    0.082
 4122.00    1.21012   1.28499   -1.000
 4123.00    1.35260   1.29791   -1.000
 4124.00    1.34939   1.31004   -1.000
 4125.00    1.27902   1.31957   -1.000
 4126.00    1.33654   1.32491   -1.000
 4127.00    1.44484   1.32575   -1.000
 4128.00    1.36006   1.32392    0.037
 4129.00    1.20994   1.32155    0.016
 4130.00    1.12352   1.31931    0.014
 4131.00    1.05522   1.31861    0.014
 4132.00    0.99700   1.32096    0.014
 4133.00    0.94114   1.32640    0.014
 4134.00    1.10245   1.33416    0.014
 4135.00    1.30474   1.34307    0.015
 4136.00    1.38218   1.35132    0.015
 4137.00    1.44138   1.35694    0.015
 4138.00    1.10332   1.35918    0.015
 4139.00    0.72304   1.35722    0.015
 4140.00    0.96947   1.34991    0.015
 4141.00    1.25926   1.33763    0.015
 4142.00    1.39170   1.32278    0.015
 4143.00    1.51873   1.31103    0.015
 4144.00    1.52332   1.30929    0.016
 4145.00    1.52764   1.31898    0.016
 4146.00    1.53102   1.33462    0.016
 4147.00    1.51748   1.35012    0.016
 4148.00    1.24238   1.36229    0.015
 4149.00    1.03064   1.37021    0.015
 4150.00    1.44359   1.37439    0.015
 4151.00    1.79531   1.37635    0.016
 4152.00    1.71230   1.37672    0.016
 4153.00    1.63218   1.37617    0.016
 4154.00    1.56786   1.37588    0.016
 4155.00    1.42568   1.37655    0.016
 4156.00    0.94319   1.37863    0.015
 4157.00    0.56424   1.38230    0.015
 4158.00    0.55767   1.38722    0.015
 4159.00    0.59698   1.39241    0.015
 4160.00    0.77469   1.39643    0.015
 4161.00    0.99480   1.39849    0.015
 4162.00    1.32376   1.39849    0.015
 4163.00    1.58876   1.39705    0.015
 4164.00    1.71248   1.39495    0.016
 4165.00    1.66274   1.39265    0.016
 4166.00    1.28075   1.39075    0.016
 4167.00    1.07926   1.38946    0.015
 4168.00    1.17944   1.38837    0.015
 4169.00    1.27595   1.38750    0.015
 4170.00    1.36709   1.38600    0.015
 4171.00    1.37646   1.38264    0.015
 4172.00    1.28052   1.37851    0.016
 4173.00    1.22764   1.37631    0.016
 4174.00    1.22363   1.37721    0.016
 4175.00    1.18283   1.38053    0.016
 4176.00    1.10521   1.38488    0.016
 4177.00    1.16289   1.38853    0.016
 4178.00    1.34002   1.39156    0.016
 4179.00    1.45328   1.39540    0.016
 4180.00    1.51687   1.39966    0.015
 4181.00    1.46573   1.40288    0.015
 4182.00    1.33612   1.40508    0.015
 4183.00    1.08069   1.40687    0.015
 4184.00    0.74983   1.40784    0.015
 4185.00    0.55730   1.40792    0.015
 4186.00    0.43713   1.40713    0.015
 4187.00    0.69888   1.40613    0.015
 4188.00    1.13387   1.40652    0.015
 4189.00    1.47805   1.40872    0.015
 4190.00    1.78680   1.41217    0.015
 4191.00    1.75647   1.41580    0.015
 4192.00    1.61352   1.41885    0.015
 4193.00    1.27576   1.42083    0.015
 4194.00    0.88371   1.42078    0.015
 4195.00    0.89522   1.41835    0.015
 4196.00    0.99932   1.41417    0.015
 4197.00    1.03196   1.40923    0.015
 4198.00    1.05146   1.40452    0.015
 4199.00    1.26088   1.40162    0.015
 4200.00    1.49714   1.40102    0.015
 4201.00    1.71252   1.40201    0.015
 4202.00    1.92577   1.40448    0.015
 4203.00    1.12292   1.40828    0.014
 4204.00    0.25387   1.41273    0.014
 4205.00    0.65725   1.41755    0.014
 4206.00    1.09883   1.42269    0.014
 4207.00    0.96887   1.42774    0.014
 4208.00    0.83924   1.43228    0.014
 4209.00    0.71933   1.43590    0.014
 4210.00    0.63847   1.43853    0.015
 4211.00    1.12625   1.44021    0.015
 4212.00    1.54683   1.44001    0.015
 4213.00    1.33198   1.43760    0.015
 4214.00    1.15732   1.43388    0.015
 4215.00    1.25886   1.43050    0.015
 4216.00    1.38351   1.43025    0.015
 4217.00    1.63092   1.43437    0.015
 4218.00    1.77054   1.44122    0.015
 4219.00    1.44979   1.44828    0.015
 4220.00    1.19461   1.45245    0.014
 4221.00    1.17044   1.45203    0.014
 4222.00    1.08079   1.44623    0.014
 4223.00    0.79728   1.43547    0.014
 4224.00    0.65642   1.42144    0.014
 4225.00    0.87559   1.40778    0.014
 4226.00    1.01683   1.39891    0.014
 4227.00    0.98873   1.39857    0.014
 4228.00    0.93641   1.40684    0.014
 4229.00    0.83842   1.41922    0.014
 4230.00    0.85874   1.43047    0.014
 4231.00    1.07384   1.43767    0.014
 4232.00    1.16758   1.43999    0.014
 4233.00    1.08615   1.43906    0.014
 4234.00    1.13804   1.43810    0.014
 4235.00    1.35918   1.43841    0.014
 4236.00    1.43255   1.43954    0.014
 4237.00    1.34059   1.44219    0.014
 4238.00    1.27623   1.44632    0.014
 4239.00    1.23911   1.45098    0.014
 4240.00    1.18762   1.45579    0.014
 4241.00    1.12363   1.46007    0.014
 4242.00    0.96340   1.46317    0.014
 4243.00    0.72939   1.46533    0.014
 4244.00    0.87043   1.46621    0.014
 4245.00    1.26423   1.46433    0.014
 4246.00    1.52081   1.45913    0.015
 4247.00    1.69637   1.45244    0.015
 4248.00    1.48168   1.44672    0.015
 4249.00    1.06605   1.44319    0.015
 4250.00    0.81394   1.44258    0.015
 4251.00    0.63480   1.44522    0.015
 4252.00    0.82865   1.44975    0.015
 4253.00    1.16553   1.45399    0.015
 4254.00    1.21012   1.45701    0.015
 4255.00    1.15946   1.45948    0.015
 4256.00    1.05187   1.46191    0.015
 4257.00    0.92875   1.46325    0.015
 4258.00    1.19408   1.46206    0.015
 4259.00    1.54646   1.45934    0.015
 4260.00    1.44600   1.45750    0.015
 4261.00    1.26454   1.45852    0.015
 4262.00    1.06639   1.46322    0.015
 4263.00    0.86595   1.46979    0.015
 4264.00    1.22863   1.47497    0.015
 4265.00    1.64631   1.47671    0.016
 4266.00    1.54416   1.47439    0.016
 4267.00    1.41022   1.46873    0.016
 4268.00    0.97585   1.46193    0.015
 4269.00    0.53506   1.45515    0.014
 4270.00    0.42426   1.44848    0.014
 4271.00    0.32670   1.44302    0.014
 4272.00    0.57918   1.44114    0.015
 4273.00    0.84103   1.44391    0.015
 4274.00    1.23175   1.45015    0.015
 4275.00    1.55882   1.45892    0.015
 4276.00    1.30764   1.46879    0.015
 4277.00    1.10567   1.47697    0.016
 4278.00    1.23152   1.48130    0.015
 4279.00    1.33215   1.48158    0.015
 4280.00    1.30217   1.47946    0.015
 4281.00    1.28506   1.47683    0.015
 4282.00    1.32163   1.47462   -2.000
 4283.00    1.28294   1.47307   -2.000
 4284.00    0.98443   1.47131   -2.000
 4285.00    0.82744   1.46812   -2.000
 4286.00    1.08180   1.46356   -2.000
 4287.00    1.29113   1.45808   -2.000
 4288.00    1.38879   1.45203   -2.000
 4289.00    1.57030   1.44649   -2.000
 4290.00    1.93108   1.44357   -2.000
 4291.00    2.08805   1.44490   -2.000
 4292.00    1.86662   1.44930   -2.000
 4293.00    1.60570   1.45351   -2.000
 4294.00    1.28072   1.45497   -2.000
 4295.00    1.04676   1.45307   -2.000
 4296.00    0.94231   1.44794   -2.000
 4297.00    1.07244   1.43980   -2.000
 4298.00    1.49618   1.42952   -1.000
 4299.00    1.89560   1.41896   -1.000
 4300.00    2.26820   1.41125   -1.000
 4301.00    2.65687   1.40838   -1.000
 4302.00    3.06118   1.40930   -1.000
 4303.00    3.34678   1.41260   -1.000
 4304.00    3.53053   1.41637   -1.000
 4305.00    3.82526   1.41804   -1.000
 4306.00    4.20386   1.41673   -1.000
 4307.00    3.47576   1.41316   -1.000
 4308.00    2.01275   1.40965   -1.000
 4309.00    1.30342   1.40883    0.047
 4310.00    1.03238   1.41129    0.018
 4311.00    1.05812   1.41650    0.015
 4312.00    1.23427   1.42423    0.015
 4313.00    1.35619   1.43425    0.015
 4314.00    1.45433   1.44663    0.014
 4315.00    1.43967   1.46114    0.014
 4316.00    1.38253   1.47536    0.014
 4317.00    1.24642   1.48549    0.014
 4318.00    1.08507   1.48858    0.014
 4319.00    1.03927   1.48407    0.014
 4320.00    1.02436   1.47280    0.014
 4321.00    1.05001   1.45646    0.014
 4322.00    1.08455   1.43676    0.014
 4323.00    1.22820   1.41500    0.014
 4324.00    1.39084   1.39347    0.014
 4325.00    1.49462   1.37508    0.014
 4326.00    1.59061   1.36235    0.014
 4327.00    1.63157   1.35506    0.014
 4328.00    1.66738   1.34908    0.015
 4329.00    1.29126   1.33950    0.014
 4330.00    0.89157   1.32364    0.000
 4331.00    0.89527   1.30084    0.000
 4332.00    0.91043   1.27092    0.000
 4333.00    1.16335   1.23339    0.000
 4334.00    1.39899   1.18732    0.000
 4335.00    1.21977   1.13167    0.000
 4336.00    1.05282   1.06642    0.000
 4337.00    1.04543   0.99522    0.000
 4338.00    1.04656   0.92671    0.000
 4339.00    1.12206   0.87171    0.000
 4340.00    1.19389   0.84099    0.000
 4341.00    1.24191   0.84296    0.000
 4342.00    1.26789   0.87728    0.000
 4343.00    1.18263   0.93419    0.000
 4344.00    1.12414   1.00184    0.000
 4345.00    1.17494   1.07067    0.000
 4346.00    1.17377   1.13402    0.000
 4347.00    0.99680   1.18873    0.000
 4348.00    0.80193   1.23426    0.000
 4349.00    0.55595   1.27065    0.000
 4350.00    0.44048   1.29886    0.000
 4351.00    0.64317   1.32196    0.014
 4352.00    0.81986   1.34451    0.014
 4353.00    0.94185   1.36967    0.015
 4354.00    1.02785   1.39655    0.018
 4355.00    1.04806   1.42231    0.048
 4356.00    1.22573   1.44497   -1.000
 4357.00    1.65498   1.46342   -1.000
 4358.00    1.86605   1.47801   -1.000
 4359.00    1.77122   1.49056   -1.000
 4360.00    1.72748   1.50286   -1.000
 4361.00    1.74678   1.51490   -1.000
 4362.00    1.67056   1.52588    0.061
 4363.00    1.49043   1.53510    0.020
 4364.00    1.37949   1.54227    0.015
 4365.00    1.33493   1.54712    0.015
 4366.00    1.27317   1.54941    0.015
 4367.00    1.19684   1.54983    0.015
 4368.00    1.01995   1.54977    0.015
 4369.00    0.76814   1.55023    0.015
 4370.00    0.93165   1.55077    0.015
 4371.00    1.36692   1.55068    0.015
 4372.00    1.47910   1.54953    0.015
 4373.00    1.40624   1.54771    0.015
 4374.00    1.43745   1.54682    0.015
 4375.00    1.52057   1.54897    0.015
 4376.00    1.50948   1.55531    0.015
 4377.00    1.45772   1.56420    0.015
 4378.00    1.25880   1.57185    0.015
 4379.00    1.00542   1.57474    0.015
 4380.00    1.01251   1.57078    0.015
 4381.00    1.10129   1.55968    0.015
 4382.00    1.04002   1.54327    0.015
 4383.00    0.93948   1.52559    0.015
 4384.00    1.21131   1.51189    0.015
 4385.00    1.56268   1.50511    0.015
 4386.00    1.20367   1.50436    0.015
 4387.00    0.72454   1.50762    0.014
 4388.00    0.87315   1.51517    0.014
 4389.00    1.10196   1.52759    0.015
 4390.00    1.28454   1.54282    0.015
 4391.00    1.46300   1.55785    0.015
 4392.00    1.46883   1.57054    0.015
 4393.00    1.46546   1.57969    0.015
 4394.00    1.65880   1.58599    0.015
 4395.00    1.85202   1.59143    0.015
 4396.00    1.72161   1.59747    0.015
 4397.00    1.59194   1.60340    0.015
 4398.00    1.47846   1.60707    0.015
 4399.00    1.36186   1.60745    0.015
 4400.00    1.20674   1.60531    0.015
 4401.00    1.10687   1.60245    0.015
 4402.00    1.47178   1.59967    0.015
 4403.00    1.75280   1.59626    0.016
 4404.00    1.50804   1.59237    0.015
 4405.00    1.29092   1.59065    0.015
 4406.00    1.20978   1.59312    0.015
 4407.00    1.15940   1.59879    0.015
 4408.00    1.23181   1.60667    0.015
 4409.00    1.33476   1.61656    0.015
 4410.00    1.53896   1.62682    0.015
 4411.00    1.63188   1.63468    0.015
 4412.00    1.41302   1.63838    0.015
 4413.00    1.32002   1.63694    0.015
 4414.00    1.52870   1.63121    0.015
 4415.00    1.62968   1.62487    0.015
 4416.00    1.50772   1.62185    0.015
 4417.00    1.40835   1.62347    0.015
 4418.00    1.34967   1.62881    0.015
 4419.00    1.36638   1.63583    0.015
 4420.00    1.50178   1.64195    0.015
 4421.00    1.52030   1.64548    0.015
 4422.00    1.37730   1.64659    0.015
 4423.00    1.41791   1.64703    0.015
 4424.00    1.68182   1.64755    0.015
 4425.00    1.57683   1.64771    0.015
 4426.00    1.07628   1.64753    0.015
 4427.00    0.88565   1.64764    0.015
 4428.00    0.98815   1.64885    0.015
 4429.00    1.26129   1.65060    0.015
 4430.00    1.67674   1.65168    0.015
 4431.00    1.76452   1.65165    0.015
 4432.00    1.61173   1.65000    0.015
 4433.00    1.72667   1.64613    0.015
 4434.00    2.01424   1.64118    0.015
 4435.00    1.91576   1.63793    0.016
 4436.00    1.59954   1.63874    0.016
 4437.00    1.66160   1.64386    0.016
 4438.00    1.90938   1.65142    0.015
 4439.00    1.86986   1.65821    0.015
 4440.00    1.70843   1.66145    0.016
 4441.00    1.46867   1.66091    0.015
 4442.00    1.20044   1.65908    0.015
 4443.00    1.37547   1.65880    0.015
 4444.00    1.68680   1.66163    0.015
 4445.00    1.82375   1.66717    0.015
 4446.00    1.91606   1.67318    0.015
 4447.00    1.87845   1.67769    0.015
 4448.00    1.81377   1.68020    0.016
 4449.00    1.78272   1.68084    0.016
 4450.00    1.75720   1.67998    0.015
 4451.00    1.54252   1.67832    0.015
 4452.00    1.30451   1.67560    0.015
 4453.00    1.23450   1.67124    0.015
 4454.00    1.17879   1.66596    0.015
 4455.00    1.24122   1.66170    0.015
 4456.00    1.30948   1.66010    0.015
 4457.00    1.37749   1.66033    0.015
 4458.00    1.45149   1.66113    0.015
 4459.00    1.90143   1.66190    0.015
 4460.00    2.31786   1.66262    0.015
 4461.00    2.05561   1.66364    0.000
 4462.00    1.81442   1.66564    0.000
 4463.00    1.82076   1.66893    0.000
 4464.00    1.81201   1.67190    0.000
 4465.00    1.68081   1.67200    0.000
 4466.00    1.53707   1.66735    0.000
 4467.00    1.31702   1.65731    0.000
 4468.00    1.17512   1.64301    0.000
 4469.00    1.40811   1.62782    0.000
 4470.00    1.50879   1.61650    0.000
 4471.00    1.09271   1.61434    0.000
 4472.00    0.83890   1.62482    0.000
 4473.00    1.11272   1.64581    0.000
 4474.00    1.35493   1.67042    0.000
 4475.00    1.51022   1.69194    0.000
 4476.00    1.54721   1.70612    0.000
 4477.00    1.30546   1.71089    0.000
 4478.00    1.07636   1.70653    0.000
 4479.00    0.87302   1.69594    0.000
 4480.00    0.85855   1.68397    0.000
 4481.00    1.17891   1.67712    0.000
 4482.00    1.32423   1.68052    0.015
 4483.00    1.19807   1.69332    0.015
 4484.00    1.19472   1.71000    0.015
 4485.00    1.35861   1.72500    0.015
 4486.00    1.36141   1.73469    0.015
 4487.00    1.17105   1.73834    0.015
 4488.00    1.05992   1.73739    0.015
 4489.00    1.03253   1.73488    0.015
 4490.00    1.09902   1.73322    0.015
 4491.00    1.25305   1.73330    0.015
 4492.00    1.31242   1.73437    0.015
 4493.00    1.29397   1.73505    0.015
 4494.00    1.06593   1.73502    0.015
 4495.00    0.68621   1.73527    0.014
 4496.00    1.20914   1.73693    0.015
 4497.00    2.30544   1.74024    0.015
 4498.00    2.23484   1.74459    0.015
 4499.00    1.51608   1.74896    0.015
 4500.00    1.38122   1.75250    0.015
 4501.00    1.52846   1.75579    0.015
 4502.00    1.56833   1.76037    0.015
 4503.00    1.56341   1.76651    0.015
 4504.00    1.56430   1.77260    0.015
 4505.00    1.56727   1.77683    0.015
 4506.00    1.46017   1.77873    0.015
 4507.00    1.31990   1.77905    0.015
 4508.00    1.34373   1.77902    0.015
 4509.00    1.40868   1.77935    0.015
 4510.00    1.32482   1.78003    0.014
 4511.00    1.21072   1.78018    0.014
 4512.00    0.93033   1.77902    0.014
 4513.00    0.62340   1.77699    0.014
 4514.00    0.87970   1.77466    0.015
 4515.00    1.20293   1.77255    0.015
 4516.00    1.07268   1.77102    0.015
 4517.00    0.90574   1.76996    0.014
 4518.00    0.85433   1.76928    0.014
 4519.00    0.80817   1.76893    0.014
 4520.00    0.92804   1.76823    0.014
 4521.00    1.05379   1.76634    0.014
 4522.00    1.37548   1.76303    0.014
 4523.00    1.65913   1.75916    0.015
 4524.00    1.22903   1.75562    0.015
 4525.00    0.85159   1.75221    0.015
 4526.00    1.06424   1.74862    0.015
 4527.00    1.25581   1.74520    0.014
 4528.00    1.28233   1.74282    0.014
 4529.00    1.30906   1.74230    0.014
 4530.00    1.33698   1.74339    0.014
 4531.00    1.33843   1.74496    0.014
 4532.00    1.21592   1.74607    0.014
 4533.00    1.12756   1.74657    0.014
 4534.00    1.16975   1.74824    0.014
 4535.00    1.19512   1.75365    0.015
 4536.00    1.16687   1.76369    0.014
 4537.00    1.14808   1.77619    0.014
 4538.00    1.15484   1.78759    0.014
 4539.00    1.26482   1.79575    0.014
 4540.00    1.61397   1.80025    0.014
 4541.00    1.68037   1.80204    0.014
 4542.00    1.17998   1.80195    0.014
 4543.00    0.84693   1.80002    0.014
 4544.00    0.80599   1.79659    0.014
 4545.00    0.92989   1.79266    0.014
 4546.00    1.30569   1.78872    0.015
 4547.00    1.60245   1.78464    0.015
 4548.00    1.79312   1.78082    0.015
 4549.00    1.68453   1.77826    0.015
 4550.00    1.22220   1.77826    0.000
 4551.00    1.00376   1.78070    0.000
 4552.00    1.03956   1.78366    0.000
 4553.00    1.20117   1.78638    0.000
 4554.00    1.47846   1.78931    0.000
 4555.00    1.70410   1.79347    0.000
 4556.00    1.88788   1.80011    0.000
 4557.00    1.69964   1.80911    0.000
 4558.00    1.24608   1.81837    0.000
 4559.00    1.12947   1.82578    0.000
 4560.00    1.22373   1.83011    0.000
 4561.00    1.15043   1.83064    0.000
 4562.00    0.98549   1.82790    0.000
 4563.00    1.06112   1.82367    0.000
 4564.00    1.25112   1.82078    0.000
 4565.00    1.24045   1.82149    0.000
 4566.00    1.14748   1.82555    0.000
 4567.00    1.07315   1.83090    0.000
 4568.00    1.00535   1.83495    0.000
 4569.00    1.12283   1.83608    0.000
 4570.00    1.29506   1.83472    0.000
 4571.00    1.33819   1.83289    0.000
 4572.00    1.34971   1.83300    0.000
 4573.00    1.24711   1.83600    0.000
 4574.00    1.12190   1.84034    0.000
 4575.00    0.87704   1.84392    0.000
 4576.00    0.61366   1.84553    0.000
 4577.00    0.79033   1.84466    0.000
 4578.00    1.01735   1.84167    0.000
 4579.00    1.10853   1.83781    0.000
 4580.00    1.18928   1.83456    0.000
 4581.00    1.05072   1.83272    0.000
 4582.00    0.90305   1.83249    0.000
 4583.00    1.21679   1.83344    0.000
 4584.00    1.52412   1.83547    0.000
 4585.00    1.38428   1.83904    0.000
 4586.00    1.24624   1.84394    0.000
 4587.00    1.13975   1.84919    0.000
 4588.00    1.08041   1.85356    0.000
 4589.00    1.52552   1.85641    0.000
 4590.00    1.89389   1.85753    0.000
 4591.00    1.68216   1.85715    0.000
 4592.00    1.48083   1.85618    0.000
 4593.00    1.33936   1.85574    0.000
 4594.00    1.25962   1.85652    0.000
 4595.00    1.46194   1.85853    0.000
 4596.00    1.59515   1.86149    0.000
 4597.00    1.46981   1.86478    0.000
 4598.00    1.35843   1.86754    0.000
 4599.00    1.29067   1.86926    0.000
 4600.00    1.25687   1.86989    0.000
 4601.00    1.31322   1.87041    0.000
 4602.00    1.38166   1.87175    0.000
 4603.00    1.47766   1.87443    0.000
 4604.00    1.51779   1.87840    0.000
 4605.00    1.44767   1.88307    0.000
 4606.00    1.42147   1.88822    0.000
 4607.00    1.47076   1.89375    0.000
 4608.00    1.35815   1.89922    0.000
 4609.00    1.00177   1.90392    0.000
 4610.00    0.88414   1.90711    0.000
 4611.00    1.08242   1.90830    0.000
 4612.00    1.17638   1.90817    0.000
 4613.00    1.14877   1.90760    0.000
 4614.00    1.20399   1.90709    0.000
 4615.00    1.34432   1.90686    0.000
 4616.00    1.48721   1.90675    0.000
 4617.00    1.63242   1.90695    0.000
 4618.00    1.63054   1.90745    0.000
 4619.00    1.51116   1.90858    0.000
 4620.00    1.40067   1.91122    0.000
 4621.00    1.29643   1.91525    0.000
 4622.00    1.06191   1.91955    0.000
 4623.00    0.74707   1.92325    0.000
 4624.00    0.82620   1.92573    0.000
 4625.00    1.11751   1.92643    0.000
 4626.00    1.18687   1.92532    0.000
 4627.00    1.15242   1.92286    0.000
 4628.00    1.32497   1.91999    0.000
 4629.00    1.58096   1.91793    0.000
 4630.00    1.18887   1.91751    0.000
 4631.00    0.57385   1.91839    0.000
 4632.00    0.56295   1.91937    0.000
 4633.00    0.72704   1.91965    0.000
 4634.00    1.11017   1.91910    0.000
 4635.00    1.54576   1.91800    0.000
 4636.00    1.49449   1.91655    0.000
 4637.00    1.34919   1.91507    0.000
 4638.00    1.10538   1.91439    0.000
 4639.00    0.84680   1.91512    0.000
 4640.00    1.18175   1.91731    0.000
 4641.00    1.58202   1.92058    0.000
 4642.00    1.77182   1.92349    0.000
 4643.00    1.94631   1.92473    0.000
 4644.00    1.87373   1.92406    0.000
 4645.00    1.79180   1.92184    0.000
 4646.00    1.46131   1.91902    0.000
 4647.00    1.14659   1.91744    0.000
 4648.00    1.46317   1.91825    0.000
 4649.00    1.74424   1.92130    0.000
 4650.00    1.44487   1.92561    0.000
 4651.00    1.16985   1.92973    0.000
 4652.00    1.14407   1.93251    0.000
 4653.00    1.13935   1.93366    0.000
 4654.00    1.28849   1.93399    0.000
 4655.00    1.41786   1.93517    0.000
 4656.00    1.43674   1.93886    0.000
 4657.00    1.45178   1.94528    0.000
 4658.00    1.44969   1.95317    0.000
 4659.00    1.45102   1.96033    0.000
 4660.00    1.46485   1.96466    0.000
 4661.00    1.42110   1.96509    0.000
 4662.00    1.20067   1.96198    0.000
 4663.00    1.15112   1.95631    0.000
 4664.00    1.54720   1.94918    0.000
 4665.00    1.85302   1.94164    0.000
 4666.00    1.95655   1.93457    0.000
 4667.00    1.87716   1.92968    0.000
 4668.00    1.44249   1.92907    0.000
 4669.00    1.16619   1.93328    0.000
 4670.00    1.15809   1.94091    0.000
 4671.00    1.20919   1.94978    0.000
 4672.00    1.34811   1.95767    0.000
 4673.00    1.37194   1.96374    0.000
 4674.00    1.24567   1.96842    0.000
 4675.00    1.20887   1.97217    0.000
 4676.00    1.27489   1.97473    0.000
 4677.00    1.30138   1.97538    0.000
 4678.00    1.28781   1.97369    0.000
 4679.00    1.25792   1.97042    0.000
 4680.00    1.21345   1.96732    0.000
 4681.00    1.35675   1.96608    0.000
 4682.00    1.64795   1.96749    0.000
 4683.00    1.61734   1.97089    0.000
 4684.00    1.36382   1.97491    0.000
 4685.00    1.10131   1.97827    0.000
 4686.00    0.83335   1.98031    0.000
 4687.00    0.87882   1.98142    0.000
 4688.00    1.09049   1.98259    0.000
 4689.00    1.22119   1.98426    0.000
 4690.00    1.31462   1.98664    0.000
 4691.00    1.23811   1.99022    0.000
 4692.00    1.09427   1.99523    0.000
 4693.00    1.32603   2.00098    0.000
 4694.00    1.68461   2.00630    0.000
 4695.00    1.46696   2.00985    0.000
 4696.00    1.08579   2.01034    0.000
 4697.00    1.07505   2.00738    0.000
 4698.00    1.15102   2.00201    0.000
 4699.00    1.30897   1.99626    0.000
 4700.00    1.48234   1.99151    0.000
 4701.00    1.47469   1.98820    0.000
 4702.00    1.44072   1.98652    0.000
 4703.00    1.33795   1.98637    0.000
 4704.00    1.22791   1.98737    0.000
 4705.00    1.16738   1.98851    0.000
 4706.00    1.11025   1.98882    0.000
 4707.00    1.36408   1.98841    0.000
 4708.00    1.62848   1.98814    0.000
 4709.00    1.52738   1.98851    0.000
 4710.00    1.43000   1.98951    0.000
 4711.00    1.47194   1.99065    0.000
 4712.00    1.49695   1.99138    0.000
 4713.00    1.26206   1.99273    0.000
 4714.00    1.06255   1.99646    0.000
 4715.00    1.21008   2.00318    0.000
 4716.00    1.32075   2.01183    0.000
 4717.00    1.17074   2.02070    0.000
 4718.00    1.04381   2.02819    0.000
 4719.00    1.04247   2.03387    0.000
 4720.00    1.09993   2.03813    0.000
 4721.00    1.41367   2.04131    0.000
 4722.00    1.54067   2.04369    0.000
 4723.00    0.99776   2.04521    0.000
 4724.00    0.68598   2.04498    0.000
 4725.00    1.07004   2.04214    0.000
 4726.00    1.34349   2.03680    0.000
 4727.00    1.33353   2.03015    0.000
 4728.00    1.29066   2.02437    0.000
 4729.00    1.17526   2.02141    0.000
 4730.00    1.10125   2.02180    0.000
 4731.00    1.10636   2.02509    0.000
 4732.00    1.11076   2.03029    0.000
 4733.00    1.11396   2.03601    0.000
 4734.00    1.01317   2.04105    0.000
 4735.00    0.76032   2.04463    0.000
 4736.00    0.77380   2.04659    0.000
 4737.00    1.12970   2.04790    0.000
 4738.00    1.25888   2.04957    0.000
 4739.00    1.13125   2.05171    0.000
 4740.00    0.99438   2.05432    0.000
 4741.00    0.84830   2.05751    0.000
 4742.00    0.93722   2.06145    0.000
 4743.00    1.23321   2.06592    0.000
 4744.00    1.42036   2.07025    0.000
 4745.00    1.52302   2.07416    0.000
 4746.00    1.51086   2.07772    0.000
 4747.00    1.42032   2.08071    0.000
 4748.00    1.35652   2.08298    0.000
 4749.00    1.30872   2.08453    0.000
 4750.00    1.33988   2.08522    0.000
 4751.00    1.41227   2.08475    0.000
 4752.00    1.30259   2.08294    0.000
 4753.00    1.11049   2.07998    0.000
 4754.00    1.01747   2.07637    0.000
 4755.00    0.96302   2.07289    0.000
 4756.00    1.12888   2.07020    0.000
 4757.00    1.36773   2.06866    0.000
 4758.00    1.30231   2.06796    0.000
 4759.00    1.15230   2.06687    0.000
 4760.00    1.13919   2.06414    0.000
 4761.00    1.15740   2.05933    0.013
 4762.00    1.20783   2.05330    0.013
 4763.00    1.26416   2.04805    0.013
 4764.00    1.50592   2.04549    0.013
 4765.00    1.77379   2.04669    0.013
 4766.00    1.78075   2.05156    0.013
 4767.00    1.76125   2.05866    0.013
 4768.00    1.59079   2.06629    0.013
 4769.00    1.41056   2.07296    0.013
 4770.00    1.36807   2.07762    0.013
 4771.00    1.32958   2.08053    0.013
 4772.00    1.20530   2.08292    0.013
 4773.00    1.08590   2.08581    0.013
 4774.00    1.10776   2.08926    0.013
 4775.00    1.15343   2.09247    0.013
 4776.00    1.54329   2.09449    0.013
 4777.00    1.88634   2.09483    0.013
 4778.00    1.78889   2.09370    0.013
 4779.00    1.67998   2.09194    0.013
 4780.00    1.49251   2.09035    0.013
 4781.00    1.33572   2.08921    0.012
 4782.00    1.34139   2.08842    0.012
 4783.00    1.33094   2.08768    0.012
 4784.00    1.25180   2.08697    0.012
 4785.00    1.20110   2.08640    0.012
 4786.00    1.25030   2.08627    0.012
 4787.00    1.27550   2.08731    0.012
 4788.00    1.22979   2.08987    0.013
 4789.00    1.19196   2.09390    0.013
 4790.00    1.17392   2.09945    0.013
 4791.00    1.16117   2.10636    0.012
 4792.00    1.15991   2.11405    0.012
 4793.00    1.13492   2.12162    0.012
 4794.00    1.06526   2.12766    0.012
 4795.00    1.05586   2.13075    0.012
 4796.00    1.14547   2.13037    0.012
 4797.00    1.16741   2.12710    0.012
 4798.00    1.09184   2.12268    0.013
 4799.00    1.07175   2.11924    0.013
 4800.00    1.12198   2.11815    0.013
 4801.00    1.22085   2.11932    0.013
 4802.00    1.37406   2.12135    0.013
 4803.00    1.41064   2.12256    0.013
 4804.00    1.33234   2.12232    0.013
 4805.00    1.34494   2.12103    0.013
 4806.00    1.43651   2.11961    0.013
 4807.00    1.37496   2.11863    0.013
 4808.00    1.19623   2.11810    0.013
 4809.00    1.20831   2.11793    0.013
 4810.00    1.34874   2.11814    0.013
 4811.00    1.24470   2.11878    0.013
 4812.00    0.99659   2.12018    0.013
 4813.00    0.94551   2.12268    0.013
 4814.00    0.99568   2.12620    0.013
 4815.00    1.12250   2.13035    0.013
 4816.00    1.28345   2.13450    0.013
 4817.00    1.41464   2.13785    0.013
 4818.00    1.53445   2.13962    0.013
 4819.00    1.41923   2.13921    0.013
 4820.00    1.22760   2.13658    0.013
 4821.00    1.21170   2.13232    0.013
 4822.00    1.24366   2.12717    0.013
 4823.00    1.39484   2.12221    0.013
 4824.00    1.57266   2.11885    0.014
 4825.00    1.32019   2.11764    0.013
 4826.00    0.99104   2.11769    0.013
 4827.00    1.01288   2.11794    0.013
 4828.00    1.08254   2.11755    0.013
 4829.00    1.13238   2.11629    0.013
 4830.00    1.18030   2.11446    0.013
 4831.00    1.16589   2.11249    0.013
 4832.00    1.14770   2.11083    0.013
 4833.00    1.35548   2.10963    0.013
 4834.00    1.56620   2.10831    0.013
 4835.00    1.22921   2.10581    0.013
 4836.00    0.90227   2.10119    0.013
 4837.00    0.83726   2.09392    0.013
 4838.00    0.77977   2.08433    0.013
 4839.00    0.82502   2.07349    0.013
 4840.00    0.85539   2.06291    0.013
 4841.00    0.75135   2.05389    0.013
 4842.00    0.71601   2.04662    0.013
 4843.00    1.13654   2.04019    0.013
 4844.00    1.46061   2.03297    0.013
 4845.00    1.28695   2.02309    0.013
 4846.00    1.18158   2.00912    0.013
 4847.00    1.36049   1.99088    0.013
 4848.00    1.38905   1.96914    0.000
 4849.00    0.89987   1.94475    0.000
 4850.00    0.58070   1.91773    0.000
 4851.00    0.75453   1.88693    0.000
 4852.00    0.90389   1.85097    0.000
 4853.00    0.99267   1.80901    0.000
 4854.00    1.11572   1.76049    0.000
 4855.00    1.31189   1.70516    0.000
 4856.00    1.38238   1.64313    0.000
 4857.00    1.21994   1.57454    0.000
 4858.00    1.08935   1.50140    0.000
 4859.00    1.01029   1.43032    0.000
 4860.00    0.96296   1.37239    0.000
 4861.00    0.96070   1.34022    0.000
 4862.00    0.99662   1.34264    0.000
 4863.00    1.08024   1.37946    0.000
 4864.00    0.99029   1.44178    0.000
 4865.00    0.70920   1.51726    0.000
 4866.00    0.68916   1.59438    0.000
 4867.00    0.92267   1.66503    0.000
 4868.00    1.06662   1.72549    0.000
 4869.00    1.13387   1.77563    0.000
 4870.00    1.13790   1.81742    0.000
 4871.00    1.09424   1.85386    0.000
 4872.00    1.08193   1.88779    0.000
 4873.00    1.09039   1.92064    0.000
 4874.00    1.09780   1.95231    0.000
 4875.00    1.10460   1.98212    0.013
 4876.00    1.11725   2.00940    0.013
 4877.00    1.13285   2.03357    0.014
 4878.00    0.96900   2.05408    0.013
 4879.00    0.72657   2.07078    0.013
 4880.00    0.85432   2.08381    0.013
 4881.00    1.12122   2.09397    0.014
 4882.00    1.20244   2.10250    0.013
 4883.00    1.22445   2.11031    0.013
 4884.00    1.37038   2.11765    0.013
 4885.00    1.54934   2.12432    0.013
 4886.00    1.23106   2.13006    0.013
 4887.00    0.80430   2.13460    0.013
 4888.00    0.88543   2.13813    0.013
 4889.00    1.05461   2.14167    0.013
 4890.00    1.18298   2.14698    0.013
 4891.00    1.30597   2.15588    0.013
 4892.00    1.52054   2.16931    0.013
 4893.00    1.74361   2.18617    0.013
 4894.00    1.35633   2.20382    0.013
 4895.00    0.93444   2.21938    0.013
 4896.00    0.82170   2.23065    0.013
 4897.00    0.71927   2.23689    0.013
 4898.00    0.97393   2.23881    0.013
 4899.00    1.22815   2.23789    0.013
 4900.00    1.47172   2.23585    0.013
 4901.00    1.65801   2.23406    0.013
 4902.00    1.10352   2.23345    0.013
 4903.00    0.62552   2.23458    0.013
 4904.00    0.81258   2.23742    0.013
 4905.00    0.97876   2.24094    0.013
 4906.00    1.01067   2.24347    0.013
 4907.00    0.99447   2.24371    0.013
 4908.00    0.73639   2.24149    0.013
 4909.00    0.54198   2.23820    0.013
 4910.00    0.60667   2.23599    0.013
 4911.00    0.71505   2.23636    0.013
 4912.00    0.97084   2.23944    0.013
 4913.00    1.13290   2.24367    0.013
 4914.00    1.02810   2.24655    0.013
 4915.00    0.93451   2.24537    0.013
 4916.00    0.86820   2.23797    0.013
 4917.00    0.79519   2.22383    0.013
 4918.00    0.70808   2.20446    0.013
 4919.00    0.60760   2.18362    0.012
 4920.00    0.48272   2.16621    0.012
 4921.00    0.54624   2.15663    0.013
 4922.00    0.91021   2.15756    0.013
 4923.00    1.07628   2.16887    0.013
 4924.00    0.96537   2.18802    0.012
 4925.00    0.98552   2.21127    0.012
 4926.00    1.16708   2.23490    0.012
 4927.00    1.28165   2.25577    0.012
 4928.00    1.32347   2.27181    0.012
 4929.00    1.28347   2.28196    0.012
 4930.00    1.16510   2.28594    0.012
 4931.00    1.17788   2.28441    0.012
 4932.00    1.30139   2.27893    0.012
 4933.00    1.39413   2.27167    0.012
 4934.00    1.46399   2.26471    0.012
 4935.00    1.34948   2.25914    0.012
 4936.00    1.11455   2.25512    0.012
 4937.00    1.08456   2.25292    0.012
 4938.00    1.17174   2.25356    0.012
 4939.00    1.23319   2.25821    0.012
 4940.00    1.28183   2.26708    0.000
 4941.00    1.14932   2.27876    0.000
 4942.00    0.93881   2.29080    0.000
 4943.00    0.91902   2.30109    0.000
 4944.00    0.96964   2.30873    0.000
 4945.00    0.95895   2.31411    0.000
 4946.00    0.92908   2.31837    0.000
 4947.00    1.19592   2.32242    0.000
 4948.00    1.54018   2.32637    0.000
 4949.00    1.25588   2.32964    0.000
 4950.00    0.83773   2.33134    0.000
 4951.00    0.71618   2.33062    0.000
 4952.00    0.64461   2.32695    0.000
 4953.00    0.79462   2.32023    0.000
 4954.00    0.97281   2.31091    0.000
 4955.00    1.01024   2.30014    0.000
 4956.00    1.03518   2.29027    0.000
 4957.00    1.04165   2.28424    0.000
 4958.00    1.04714   2.28435    0.000
 4959.00    1.14580   2.29054    0.000
 4960.00    1.24255   2.30005    0.000
 4961.00    1.04982   2.30912    0.000
 4962.00    0.86779   2.31487    0.000
 4963.00    0.91825   2.31621    0.000
 4964.00    0.96467   2.31388    0.000
 4965.00    0.96142   2.30974    0.000
 4966.00    0.95386   2.30597    0.000
 4967.00    0.91013   2.30433    0.000
 4968.00    0.91066   2.30566    0.000
 4969.00    1.18756   2.30994    0.000
 4970.00    1.38272   2.31636    0.000
 4971.00    1.17715   2.32366    0.000
 4972.00    0.97475   2.33050    0.000
 4973.00    0.78501   2.33576    0.000
 4974.00    0.66065   2.33865    0.000
 4975.00    0.75260   2.33871    0.000
 4976.00    0.80817   2.33582    0.000
 4977.00    0.76208   2.33007    0.000
 4978.00    0.78798   2.32169    0.000
 4979.00    0.98608   2.31111    0.000
 4980.00    1.10501   2.29924    0.000
 4981.00    1.06041   2.28767    0.000
 4982.00    0.91842   2.27870    0.000
 4983.00    0.60146   2.27466    0.000
 4984.00    0.56113   2.27686    0.000
 4985.00    0.95546   2.28485    0.000
 4986.00    1.12619   2.29647    0.000
 4987.00    0.98851   2.30867    0.000
 4988.00    0.94103   2.31867    0.000
 4989.00    1.00308   2.32502    0.000
 4990.00    0.97427   2.32798    0.000
 4991.00    0.84820   2.32907    0.000
 4992.00    0.77946   2.33009    0.000
 4993.00    0.76485   2.33221    0.000
 4994.00    0.90697   2.33545    0.000
 4995.00    1.17957   2.33873    0.000
 4996.00    1.22728   2.34055    0.000
 4997.00    1.11020   2.33980    0.000
 4998.00    1.13557   2.33637    0.000
 4999.00    1.25260   2.33123    0.000
 5000.00    1.28363   2.32580    0.000
 5001.00    1.26622   2.32114    0.000
 5002.00    1.05495   2.31751    0.000
 5003.00    0.74870   2.31467    0.000
 5004.00    0.67224   2.31256    0.000
 5005.00    0.69310   2.31175    0.000
 5006.00    0.88090   2.31299    0.000
 5007.00    1.12924   2.31622    0.000
 5008.00    1.15630   2.31994    0.000
 5009.00    1.11546   2.32159    0.000
 5010.00    1.02928   2.31888    0.000
 5011.00    0.93152   2.31102    0.000
 5012.00    0.89165   2.29923    0.000
 5013.00    0.86381   2.28630    0.000
 5014.00    0.88361   2.27546    0.000
 5015.00    0.91121   2.26921    0.000
 5016.00    0.80735   2.26868    0.000
 5017.00    0.68735   2.27346    0.000
 5018.00    0.79166   2.28221    0.000
 5019.00    0.91493   2.29325    0.000
 5020.00    1.09505   2.30510    0.000
 5021.00    1.27794   2.31666    0.000
 5022.00    1.16206   2.32722    0.000
 5023.00    1.04366   2.33640    0.000
 5024.00    1.05340   2.34390    0.000
 5025.00    1.06224   2.34964    0.000
 5026.00    1.05307   2.35406    0.000
 5027.00    1.04439   2.35808    0.000
 5028.00    1.04127   2.36278    0.000
 5029.00    1.03795   2.36867    0.012
 5030.00    1.03297   2.37523    0.012
 5031.00    1.02462   2.38106    0.012
 5032.00    0.99584   2.38437    0.012
 5033.00    1.01098   2.38360    0.012
 5034.00    1.23624   2.37819    0.012
 5035.00    1.38002   2.36873    0.012
 5036.00    1.20643   2.35657    0.012
 5037.00    1.02008   2.34321    0.012
 5038.00    0.79233   2.33013    0.012
 5039.00    0.67587   2.31940    0.012
 5040.00    0.86492   2.31381    0.012
 5041.00    0.97167   2.31586    0.012
 5042.00    0.88489   2.32621    0.012
 5043.00    0.83809   2.34255    0.012
 5044.00    0.87259   2.36022    0.012
 5045.00    0.92013   2.37456    0.012
 5046.00    0.99074   2.38268    0.012
 5047.00    1.05552   2.38437    0.012
 5048.00    1.11126   2.38182    0.012
 5049.00    1.05949   2.37826    0.012
 5050.00    0.86154   2.37639    0.012
 5051.00    0.74615   2.37751    0.012
 5052.00    0.72957   2.38158    0.012
 5053.00    0.82376   2.38763    0.012
 5054.00    1.03484   2.39440    0.013
 5055.00    1.16646   2.40103    0.013
 5056.00    1.22411   2.40730    0.013
 5057.00    1.31898   2.41316    0.013
 5058.00    1.44439   2.41838    0.013
 5059.00    1.28705   2.42235    0.013
 5060.00    0.92548   2.42436    0.012
 5061.00    0.80811   2.42375    0.012
 5062.00    0.84557   2.42023    0.012
 5063.00    0.84242   2.41440    0.012
 5064.00    0.81677   2.40777    0.012
 5065.00    0.75700   2.40225    0.012
 5066.00    0.68079   2.39907    0.012
 5067.00    0.70780   2.39826    0.012
 5068.00    0.77779   2.39916    0.013
 5069.00    0.99968   2.40095    0.013
 5070.00    1.27566   2.40301    0.013
 5071.00    1.20031   2.40497    0.013
 5072.00    1.01929   2.40673    0.012
 5073.00    1.00233   2.40837    0.012
 5074.00    1.02635   2.40947    0.012
 5075.00    0.92886   2.40930    0.012
 5076.00    0.80673   2.40717    0.012
 5077.00    0.69155   2.40272    0.012
 5078.00    0.57747   2.39646    0.013
 5079.00    0.60111   2.39003    0.012
 5080.00    0.64105   2.38599    0.012
 5081.00    0.60617   2.38625    0.012
 5082.00    0.56528   2.39122    0.012
 5083.00    0.69485   2.39990    0.012
 5084.00    0.83209   2.41050    0.012
 5085.00    0.66228   2.42112    0.011
 5086.00    0.49999   2.43039    0.011
 5087.00    0.89320   2.43784    0.011
 5088.00    1.27136   2.44378    0.012
 5089.00    1.36957   2.44884    0.011
 5090.00    1.43833   2.45344    0.011
 5091.00    1.17905   2.45751    0.011
 5092.00    0.94330   2.46037    0.011
 5093.00    0.89089   2.46084    0.012
 5094.00    0.84284   2.45785    0.012
 5095.00    0.82042   2.45121    0.012
 5096.00    0.80971   2.44210    0.011
 5097.00    0.85365   2.43272    0.012
 5098.00    0.88997   2.42538    0.012
 5099.00    0.89723   2.42176    0.012
 5100.00    0.93359   2.42219    0.011
 5101.00    1.06257   2.42543    0.011
 5102.00    1.11423   2.42938    0.011
 5103.00    0.95741   2.43214    0.011
 5104.00    0.80157   2.43274    0.011
 5105.00    0.64800   2.43126    0.011
 5106.00    0.59287   2.42848    0.011
 5107.00    0.73467   2.42582    0.011
 5108.00    0.80823   2.42497    0.011
 5109.00    0.76287   2.42701    0.012
 5110.00    0.82264   2.43213    0.012
 5111.00    1.04277   2.43987    0.012
 5112.00    1.17917   2.44898    0.012
 5113.00    1.20336   2.45813    0.012
 5114.00    1.15202   2.46662    0.012
 5115.00    1.01157   2.47414    0.012
 5116.00    0.94815   2.48026    0.012
 5117.00    0.96490   2.48422    0.012
 5118.00    0.91155   2.48496    0.012
 5119.00    0.79386   2.48180    0.012
 5120.00    0.70529   2.47488    0.012
 5121.00    0.64026   2.46519    0.012
 5122.00    0.66246   2.45441    0.012
 5123.00    0.74675   2.44451    0.012
 5124.00    0.87581   2.43707    0.012
 5125.00    1.03283   2.43292    0.012
 5126.00    1.03363   2.43174    0.012
 5127.00    0.94915   2.43269    0.012
 5128.00    0.80422   2.43517    0.012
 5129.00    0.63060   2.43877    0.012
 5130.00    0.61000   2.44331    0.012
 5131.00    0.65200   2.44860    0.012
 5132.00    0.84248   2.45412    0.012
 5133.00    1.08486   2.45913    0.013
 5134.00    1.09498   2.46282    0.013
 5135.00    1.03663   2.46435    0.013
 5136.00    1.11507   2.46302    0.013
 5137.00    1.22693   2.45919    0.012
 5138.00    1.35478   2.45403    0.013
 5139.00    1.48579   2.44883    0.013
 5140.00    0.97947   2.44475    0.012
 5141.00    0.37488   2.44206    0.012
 5142.00    0.43699   2.44054    0.012
 5143.00    0.57504   2.44052    0.012
 5144.00    0.71896   2.44198    0.012
 5145.00    0.86333   2.44414    0.012
 5146.00    0.83903   2.44650    0.012
 5147.00    0.80780   2.44858    0.012
 5148.00    0.74426   2.44998    0.012
 5149.00    0.68352   2.45060    0.012
 5150.00    0.75176   2.45039    0.012
 5151.00    0.80921   2.45002    0.012
 5152.00    0.67982   2.45108    0.012
 5153.00    0.56470   2.45513    0.012
 5154.00    0.60131   2.46289    0.012
 5155.00    0.63707   2.47405    0.012
 5156.00    0.66647   2.48713    0.012
 5157.00    0.72937   2.49988    0.012
 5158.00    0.98412   2.51004    0.012
 5159.00    1.20453   2.51592    0.012
 5160.00    1.26858   2.51659    0.012
 5161.00    1.28885   2.51129    0.012
 5162.00    1.14573   2.49921    0.012
 5163.00    1.03509   2.47990    0.012
 5164.00    1.02580   2.45355    0.011
 5165.00    0.90015   2.42206    0.011
 5166.00    0.46636   2.38954    0.011
 5167.00    0.22131   2.36109    0.011
 5168.00    0.40548   2.34066    0.012
 5169.00    0.60149   2.32945    0.012
 5170.00    0.82083   2.32602    0.011
 5171.00    0.89451   2.32885    0.011
 5172.00    0.71821   2.33854    0.011
 5173.00    0.63737   2.35690    0.011
 5174.00    0.69998   2.38324    0.012
 5175.00    0.73667   2.41310    0.012
 5176.00    0.73910   2.44040    0.011
 5177.00    0.72528   2.46015    0.011
 5178.00    0.69255   2.46897    0.011
 5179.00    0.69367   2.46541    0.011
 5180.00    0.72950   2.45092    0.011
 5181.00    0.81719   2.42981    0.011
 5182.00    0.95181   2.40843    0.011
 5183.00    0.96401   2.39427    0.011
 5184.00    0.87858   2.39361    0.011
 5185.00    0.75828   2.40735    0.011
 5186.00    0.61352   2.43018    0.011
 5187.00    0.59172   2.45458    0.011
 5188.00    0.64557   2.47465    0.011
 5189.00    0.66962   2.48748    0.011
 5190.00    0.67764   2.49281    0.000
 5191.00    0.74272   2.49238    0.000
 5192.00    0.83445   2.49005    0.000
 5193.00    0.78599   2.48964    0.000
 5194.00    0.68115   2.49282    0.000
 5195.00    0.60927   2.49960    0.000
 5196.00    0.54869   2.50919    0.000
 5197.00    0.57864   2.51986    0.000
 5198.00    0.63474   2.52948    0.000
 5199.00    0.77576   2.53639    0.000
 5200.00    0.93707   2.53928    0.000
 5201.00    0.84990   2.53721    0.000
 5202.00    0.71490   2.53007    0.000
 5203.00    0.76083   2.51887    0.000
 5204.00    0.83380   2.50554    0.000
 5205.00    0.73449   2.49271    0.000
 5206.00    0.61631   2.48307    0.000
 5207.00    0.55253   2.47840    0.000
 5208.00    0.49267   2.47965    0.000
 5209.00    0.50058   2.48738    0.000
 5210.00    0.51101   2.50058    0.000
 5211.00    0.58836   2.51684    0.012
 5212.00    0.66458   2.53316    0.012
 5213.00    0.68842   2.54661    0.012
 5214.00    0.71478   2.55582    0.012
 5215.00    0.78213   2.56140    0.012
 5216.00    0.83812   2.56573    0.012
 5217.00    0.77848   2.57110    0.012
 5218.00    0.73953   2.57797    0.012
 5219.00    0.85115   2.58484    0.012
 5220.00    0.94040   2.58927    0.012
 5221.00    0.90509   2.58866    0.012
 5222.00    0.87729   2.58108    0.012
 5223.00    0.88291   2.56703    0.012
 5224.00    0.88813   2.54949    0.012
 5225.00    0.89185   2.53275    0.012
 5226.00    0.88966   2.52157    0.012
 5227.00    0.86933   2.51925    0.012
 5228.00    0.90328   2.52584    0.012
 5229.00    1.07845   2.53775    0.012
 5230.00    1.12361   2.55036    0.012
 5231.00    0.87801   2.56043    0.011
 5232.00    0.71877   2.56678    0.011
 5233.00    0.72693   2.57099    0.011
 5234.00    0.84404   2.57601    0.011
 5235.00    1.14531   2.58375    0.012
 5236.00    1.25044   2.59409    0.011
 5237.00    1.06508   2.60524    0.011
 5238.00    0.94090   2.61532    0.011
 5239.00    0.89640   2.62322    0.011
 5240.00    0.87394   2.62869    0.011
 5241.00    0.87675   2.63192    0.011
 5242.00    0.88839   2.63280    0.011
 5243.00    0.90897   2.63096    0.011
 5244.00    0.82714   2.62611    0.011
 5245.00    0.65395   2.61815    0.011
 5246.00    0.65784   2.60760    0.011
 5247.00    0.80096   2.59662    0.011
 5248.00    0.99505   2.58783    0.011
 5249.00    1.22437   2.58200    0.011
 5250.00    1.09471   2.57917    0.011
 5251.00    0.74742   2.57995    0.011
 5252.00    0.72483   2.58408    0.011
 5253.00    0.87407   2.59066    0.012
 5254.00    0.94866   2.59919    0.011
 5255.00    0.98897   2.60914    0.011
 5256.00    0.63209   2.61947    0.011
 5257.00    0.11817   2.62791    0.011
 5258.00    0.32811   2.63165    0.012
 5259.00    0.78189   2.62831    0.012
 5260.00    1.04301   2.61714    0.012
 5261.00    1.24960   2.59948    0.012
 5262.00    1.33266   2.57823    0.012
 5263.00    1.38688   2.55714    0.013
 5264.00    1.15793   2.53941    0.013
 5265.00    0.87589   2.52666    0.012
 5266.00    0.82448   2.51897    0.012
 5267.00    0.80649   2.51535    0.012
 5268.00    0.92827   2.51405    0.012
 5269.00    1.06476   2.51507    0.013
 5270.00    1.12605   2.52142    0.013
 5271.00    1.18222   2.53453    0.013
 5272.00    0.76417   2.55194    0.013
 5273.00    0.33021   2.57063    0.012
 5274.00    0.49664   2.58895    0.012
 5275.00    0.66247   2.60609    0.012
 5276.00    0.78804   2.62199    0.012
 5277.00    0.89862   2.63614    0.012
 5278.00    0.78109   2.64675    0.012
 5279.00    0.67141   2.65231    0.012
 5280.00    0.63828   2.65298    0.012
 5281.00    0.62189   2.65075    0.012
 5282.00    0.72342   2.64870    0.012
 5283.00    0.80683   2.64943    0.012
 5284.00    0.79205   2.65469    0.012
 5285.00    0.78780   2.66460    0.012
 5286.00    0.82935   2.67662    0.012
 5287.00    0.89073   2.68789    0.011
 5288.00    1.02307   2.69683    0.012
 5289.00    1.09941   2.70300    0.012
 5290.00    1.00751   2.70628    0.011
 5291.00    0.96682   2.70638    0.011
 5292.00    1.05707   2.70311    0.011
 5293.00    1.04719   2.69651    0.011
 5294.00    0.81705   2.68677    0.011
 5295.00    0.65814   2.67435    0.011
 5296.00    0.63513   2.66120    0.011
 5297.00    0.66908   2.65016    0.011
 5298.00    0.79788   2.64392    0.011
 5299.00    0.91816   2.64398    0.011
 5300.00    1.02600   2.64950    0.011
 5301.00    1.03035   2.65878    0.011
 5302.00    0.90189   2.67059    0.011
 5303.00    0.78831   2.68324    0.011
 5304.00    0.69156   2.69459    0.011
 5305.00    0.66906   2.70306    0.011
 5306.00    0.72060   2.70815    0.011
 5307.00    0.87045   2.71078    0.011
 5308.00    1.10677   2.71252    0.011
 5309.00    1.17550   2.71425    0.011
 5310.00    1.11435   2.71549    0.011
 5311.00    1.03948   2.71517    0.011
 5312.00    0.95525   2.71294    0.011
 5313.00    0.80864   2.70909    0.011
 5314.00    0.62477   2.70418    0.011
 5315.00    0.77218   2.69906    0.011
 5316.00    1.09217   2.69499    0.011
 5317.00    0.94552   2.69317    0.011
 5318.00    0.58807   2.69324    0.011
 5319.00    0.58362   2.69334    0.011
 5320.00    0.71632   2.69186    0.011
 5321.00    0.90851   2.68799    0.011
 5322.00    1.12037   2.68139    0.011
 5323.00    1.14694   2.67222    0.011
 5324.00    1.12214   2.66121    0.012
 5325.00    0.84668   2.64988    0.012
 5326.00    0.51405   2.63949    0.011
 5327.00    0.46480   2.63211    0.011
 5328.00    0.46728   2.63155    0.012
 5329.00    0.68311   2.64111    0.012
 5330.00    0.92886   2.65908    0.012
 5331.00    1.03790   2.67963    0.011
 5332.00    1.13316   2.69567    0.011
 5333.00    1.08374   2.70578    0.011
 5334.00    1.02504   2.71163    0.011
 5335.00    0.91433   2.71331    0.011
 5336.00    0.80259   2.71124    0.011
 5337.00    0.90444   2.70656    0.011
 5338.00    1.00350   2.70073    0.011
 5339.00    1.02300   2.69476    0.011
 5340.00    1.04444   2.69005    0.011
 5341.00    1.09377   2.68877    0.011
 5342.00    1.14514   2.69149    0.011
 5343.00    1.21549   2.69636    0.011
 5344.00    1.26203   2.70176    0.011
 5345.00    1.14615   2.70690    0.011
 5346.00    1.01136   2.71202    0.011
 5347.00    0.77674   2.71742    0.011
 5348.00    0.57101   2.72332    0.011
 5349.00    0.48800   2.73039    0.011
 5350.00    0.47681   2.73903    0.011
 5351.00    0.71735   2.74881    0.011
 5352.00    0.91417   2.75849    0.011
 5353.00    0.98209   2.76754    0.011
 5354.00    1.06399   2.77592    0.011
 5355.00    1.18097   2.78276    0.011
 5356.00    1.23561   2.78727    0.011
 5357.00    1.15534   2.78913    0.011
 5358.00    1.05148   2.78822    0.011
 5359.00    0.90327   2.78437    0.011
 5360.00    0.86903   2.77769    0.011
 5361.00    1.02170   2.76889    0.011
 5362.00    1.05632   2.75959    0.011
 5363.00    0.92117   2.75079    0.011
 5364.00    0.94486   2.74231    0.011
 5365.00    1.16949   2.73388    0.011
 5366.00    1.17852   2.72545    0.011
 5367.00    0.94717   2.71706    0.011
 5368.00    0.85442   2.70902   -2.000
 5369.00    0.89794   2.70249   -2.000
 5370.00    1.05576   2.69955   -2.000
 5371.00    1.31270   2.70260   -2.000
 5372.00    1.38968   2.71286   -2.000
 5373.00    1.32920   2.72884   -2.000
 5374.00    1.17930   2.74657   -2.000
 5375.00    0.96937   2.76224   -2.000
 5376.00    0.82823   2.77307   -2.000
 5377.00    0.72755   2.77841   -2.000
 5378.00    0.75574   2.77938   -2.000
 5379.00    0.85001   2.77705   -2.000
 5380.00    0.94905   2.77307   -2.000
 5381.00    1.05022   2.76915   -2.000
 5382.00    0.89136   2.76656   -2.000
 5383.00    0.63325   2.76571    0.011
 5384.00    0.63285   2.76662    0.011
 5385.00    0.71604   2.76839    0.011
 5386.00    0.79659   2.76971    0.011
 5387.00    0.87643   2.76968    0.011
 5388.00    0.88555   2.76787    0.011
 5389.00    0.87891   2.76424    0.011
 5390.00    1.00370   2.75903    0.011
 5391.00    1.15182   2.75268    0.011
 5392.00    0.98762   2.74546    0.011
 5393.00    0.78105   2.73803    0.011
 5394.00    0.88560   2.73131    0.011
 5395.00    1.02022   2.72619    0.011
 5396.00    0.97784   2.72349    0.010
 5397.00    0.92481   2.72429    0.010
 5398.00    0.89011   2.72910    0.010
 5399.00    0.85618   2.73548    0.010
 5400.00    0.87003   2.73987    0.010
 5401.00    0.87846   2.74057    0.010
 5402.00    0.74703   2.73673    0.010
 5403.00    0.63046   2.72855    0.010
 5404.00    0.71537   2.71862    0.010
 5405.00    0.80857   2.71054    0.010
 5406.00    0.97622   2.70721    0.010
 5407.00    1.11446   2.70924    0.010
 5408.00    1.05826   2.71486    0.010
 5409.00    1.01587   2.72241    0.010
 5410.00    1.04454   2.73183    0.010
 5411.00    1.05455   2.74326    0.010
 5412.00    0.98708   2.75567    0.010
 5413.00    0.91171   2.76739    0.010
 5414.00    0.80918   2.77749    0.010
 5415.00    0.78751   2.78606    0.010
 5416.00    0.99974   2.79307    0.010
 5417.00    1.09614   2.79790    0.010
 5418.00    0.90647   2.80028    0.010
 5419.00    0.77228   2.80068    0.010
 5420.00    0.75621   2.79981    0.010
 5421.00    0.79548   2.79845    0.010
 5422.00    0.93713   2.79702    0.010
 5423.00    0.97703   2.79532    0.010
 5424.00    0.85256   2.79377    0.010
 5425.00    0.80239   2.79260    0.010
 5426.00    0.85753   2.79064    0.011
 5427.00    0.87987   2.78654    0.011
 5428.00    0.86131   2.77931    0.011
 5429.00    0.91172   2.77038    0.011
 5430.00    1.03796   2.76302    0.011
 5431.00    1.10026   2.75829    0.011
 5432.00    1.10059   2.75545    0.010
 5433.00    1.07415   2.75486    0.010
 5434.00    1.02483   2.75778    0.011
 5435.00    1.00168   2.76525    0.011
 5436.00    0.99823   2.77727    0.011
 5437.00    0.86797   2.79261    0.011
 5438.00    0.65380   2.80897    0.010
 5439.00    0.60238   2.82353    0.010
 5440.00    0.64525   2.83395    0.010
 5441.00    0.75670   2.83885    0.010
 5442.00    0.90277   2.83749    0.010
 5443.00    0.92022   2.83044    0.010
 5444.00    0.88146   2.81912    0.010
 5445.00    0.89807   2.80613    0.010
 5446.00    0.93545   2.79523    0.010
 5447.00    0.87362   2.79015    0.010
 5448.00    0.78023   2.79183    0.010
 5449.00    0.78365   2.79714    0.010
 5450.00    0.81281   2.80248    0.010
 5451.00    0.89921   2.80545    0.010
 5452.00    0.99806   2.80475    0.010
 5453.00    0.89713   2.80072    0.010
 5454.00    0.76168   2.79501    0.010
 5455.00    0.81078   2.79047    0.010
 5456.00    0.88409   2.79018    0.010
 5457.00    0.93539   2.79417    0.010
 5458.00    0.98467   2.79968    0.010
 5459.00    0.94976   2.80429    0.010
 5460.00    0.91012   2.80694    0.010
 5461.00    0.82136   2.80781    0.010
 5462.00    0.73181   2.80829    0.010
 5463.00    0.67497   2.80971    0.010
 5464.00    0.63575   2.81318    0.010
 5465.00    1.01006   2.81830    0.010
 5466.00    1.34949   2.82318    0.010
 5467.00    1.24087   2.82676    0.010
 5468.00    1.15141   2.82852    0.010
 5469.00    1.22788   2.82762    0.010
 5470.00    1.27737   2.82401    0.010
 5471.00    1.15398   2.81849    0.010
 5472.00    1.03533   2.81131    0.010
 5473.00    0.94047   2.80285    0.010
 5474.00    0.85405   2.79465    0.011
 5475.00    0.80186   2.78771    0.010
 5476.00    0.77726   2.78288    0.010
 5477.00    0.84555   2.78254    0.010
 5478.00    0.91430   2.78684   -2.000
 5479.00    0.98439   2.79324   -2.000
 5480.00    1.00230   2.79971   -2.000
 5481.00    0.89354   2.80609   -2.000
 5482.00    0.91592   2.81350   -2.000
 5483.00    1.21302   2.82211   -2.000
 5484.00    1.50644   2.83134   -2.000
 5485.00    1.79314   2.84055   -2.000
 5486.00    2.02735   2.84888   -2.000
 5487.00    2.17802   2.85653   -2.000
 5488.00    1.92365   2.86444   -2.000
 5489.00    1.10344   2.87269   -2.000
 5490.00    0.66334   2.87723   -2.000
 5491.00    0.69054   2.87634   -2.000
 5492.00    0.56342   2.87285   -2.000
 5493.00    0.26907   2.86785   -2.000
 5494.00    0.31897   2.86237   -2.000
 5495.00    0.69793   2.85752   -2.000
 5496.00    0.91565   2.85306   -2.000
 5497.00    0.99746   2.84939   -2.000
 5498.00    1.07470   2.84779   -2.000
 5499.00    1.14856   2.84762   -2.000
 5500.00    1.21778   2.84666   -2.000
 5501.00    1.28398   2.84476   -2.000
 5502.00    1.26934   2.84336    0.010
 5503.00    1.20857   2.84233    0.009
 5504.00    1.14460   2.84112    0.009
 5505.00    1.07904   2.83927    0.009
 5506.00    1.07359   2.83741    0.009
 5507.00    1.09398   2.83732    0.009
 5508.00    1.00463   2.83855    0.009
 5509.00    0.87486   2.83902    0.009
 5510.00    0.73085   2.83804    0.010
 5511.00    0.58240   2.83619    0.010
 5512.00    0.63299   2.83503    0.010
 5513.00    0.73538   2.83611    0.010
 5514.00    0.82622   2.84063    0.010
 5515.00    0.91461   2.84866    0.010
 5516.00    0.90679   2.85880    0.010
 5517.00    0.88283   2.86966    0.010
 5518.00    0.91387   2.88018    0.010
 5519.00    0.95188   2.88856    0.010
 5520.00    0.93946   2.89375    0.010
 5521.00    0.92260   2.89562    0.010
 5522.00    0.87117   2.89443    0.010
 5523.00    0.81794   2.89038    0.010
 5524.00    0.83273   2.88381    0.010
 5525.00    0.84691   2.87567    0.010
 5526.00    0.71831   2.86771    0.010
 5527.00    0.59920   2.86140    0.010
 5528.00    0.68403   2.85855    0.010
 5529.00    0.76168   2.86033    0.010
 5530.00    0.75174   2.86503    0.010
 5531.00    0.73149   2.87007    0.010
 5532.00    0.62542   2.87423    0.010
 5533.00    0.56798   2.87722    0.010
 5534.00    0.81314   2.87948    0.010
 5535.00    1.03255   2.88194    0.010
 5536.00    1.12613   2.88570    0.010
 5537.00    1.15432   2.89064    0.010
 5538.00    0.92294   2.89604    0.009
 5539.00    0.76498   2.90168    0.009
 5540.00    0.84933   2.90650    0.009
 5541.00    0.92389   2.90939    0.009
 5542.00    0.97113   2.91042    0.009
 5543.00    1.02009   2.91049    0.009
 5544.00    1.07319   2.91086    0.009
 5545.00    1.11079   2.91234    0.009
 5546.00    1.11646   2.91521    0.009
 5547.00    1.11067   2.91942    0.009
 5548.00    1.08431   2.92383    0.009
 5549.00    1.07853   2.92743    0.009
 5550.00    1.10502   2.92931    0.009
 5551.00    1.08365   2.92877    0.009
 5552.00    0.99638   2.92592    0.009
 5553.00    0.89801   2.92185    0.009
 5554.00    0.78619   2.91804    0.009
 5555.00    0.77558   2.91570    0.009
 5556.00    0.87312   2.91463    0.009
 5557.00    0.86985   2.91408    0.009
 5558.00    0.77155   2.91382    0.009
 5559.00    0.73599   2.91324    0.010
 5560.00    0.75255   2.91173    0.010
 5561.00    0.76822   2.90925    0.010
 5562.00    0.78323   2.90592    0.010
 5563.00    0.78181   2.90256    0.010
 5564.00    0.76984   2.90020    0.010
 5565.00    0.79926   2.89853    0.010
 5566.00    0.85193   2.89717    0.010
 5567.00    0.91637   2.89615    0.010
 5568.00    0.98658   2.89522    0.010
 5569.00    1.00168   2.89424    0.010
 5570.00    0.99349   2.89407    0.010
 5571.00    0.90770   2.89480    0.010
 5572.00    0.79382   2.89559    0.010
 5573.00    0.69135   2.89736    0.010
 5574.00    0.59237   2.90105    0.009
 5575.00    0.61445   2.90579    0.010
 5576.00    0.66737   2.91107    0.010
 5577.00    0.79758   2.91670    0.010
 5578.00    0.94380   2.92177    0.009
 5579.00    0.82986   2.92564    0.009
 5580.00    0.67350   2.92718    0.009
 5581.00    0.77544   2.92567    0.009
 5582.00    0.90893   2.92149    0.009
 5583.00    0.99284   2.91495    0.009
 5584.00    1.07257   2.90614    0.009
 5585.00    0.87686   2.89536    0.009
 5586.00    0.66782   2.88386    0.009
 5587.00    0.70750   2.87435    0.009
 5588.00    0.75186   2.86900    0.009
 5589.00    0.85299   2.86824    0.009
 5590.00    0.95059   2.87186    0.009
 5591.00    0.97817   2.87848    0.009
 5592.00    1.00091   2.88586    0.009
 5593.00    0.96746   2.89282    0.009
 5594.00    0.93502   2.89874    0.009
 5595.00    0.91070   2.90367    0.010
 5596.00    0.89684   2.90659    0.010
 5597.00    0.94613   2.90564    0.010
 5598.00    0.98147   2.90200    0.010
 5599.00    0.95029   2.89869    0.010
 5600.00    0.91802   2.89722    0.010
 5601.00    0.88153   2.89837    0.010
 5602.00    0.84887   2.90315    0.010
 5603.00    0.82860   2.91239    0.010
 5604.00    0.82346   2.92558    0.010
 5605.00    0.85972   2.94037    0.010
 5606.00    0.88139   2.95444    0.010
 5607.00    0.86880   2.96564    0.010
 5608.00    0.83169   2.97301    0.010
 5609.00    0.74486   2.97634    0.010
 5610.00    0.74870   2.97542    0.010
 5611.00    0.91266   2.97073    0.010
 5612.00    1.03245   2.96277    0.010
 5613.00    1.08398   2.95231    0.010
 5614.00    1.05096   2.94022    0.009
 5615.00    0.90319   2.92902    0.009
 5616.00    0.80639   2.92295    0.009
 5617.00    0.77048   2.92256    0.009
 5618.00    0.75573   2.92492    0.009
 5619.00    0.76328   2.92830    0.009
 5620.00    0.84134   2.93255    0.009
 5621.00    0.98491   2.93696    0.009
 5622.00    0.96628   2.94003    0.009
 5623.00    0.81476   2.94128    0.009
 5624.00    0.74360   2.94204    0.009
 5625.00    0.73038   2.94459    0.009
 5626.00    0.79429   2.94950    0.009
 5627.00    0.90700   2.95551    0.009
 5628.00    0.97816   2.96187    0.009
 5629.00    1.02632   2.96817    0.009
 5630.00    1.03913   2.97319    0.009
 5631.00    1.03494   2.97638    0.009
 5632.00    0.94932   2.97744    0.009
 5633.00    0.82988   2.97625    0.009
 5634.00    0.76438   2.97337    0.009
 5635.00    0.71803   2.96911    0.009
 5636.00    0.76683   2.96411    0.009
 5637.00    0.84418   2.95961    0.009
 5638.00    0.93366   2.95640    0.009
 5639.00    1.02617   2.95470    0.009
 5640.00    1.07018   2.95386    0.009
 5641.00    1.10439   2.95390    0.009
 5642.00    1.17348   2.95571    0.009
 5643.00    1.24809   2.95850    0.009
 5644.00    1.03479   2.96166    0.009
 5645.00    0.78760   2.96523    0.009
 5646.00    0.72611   2.96904    0.009
 5647.00    0.67945   2.97309    0.009
 5648.00    0.70641   2.97707    0.009
 5649.00    0.73666   2.98047    0.009
 5650.00    0.66341   2.98306    0.009
 5651.00    0.58900   2.98512    0.009
 5652.00    0.51518   2.98588    0.009
 5653.00    0.44978   2.98424    0.009
 5654.00    0.53962   2.97968    0.009
 5655.00    0.63270   2.97305    0.009
 5656.00    0.76161   2.96527    0.009
 5657.00    0.87681   2.95636    0.009
 5658.00    0.88575   2.94844    0.009
 5659.00    0.90047   2.94533    0.009
 5660.00    0.94912   2.94706    0.009
 5661.00    0.97602   2.95036    0.009
 5662.00    0.90175   2.95429    0.009
 5663.00    0.86539   2.95978    0.009
 5664.00    0.97319   2.96654    0.009
 5665.00    1.06058   2.97289    0.009
 5666.00    1.08318   2.97750    0.009
 5667.00    1.09136   2.98096    0.009
 5668.00    1.06070   2.98447    0.009
 5669.00    1.00079   2.98814    0.009
 5670.00    0.87335   2.99261    0.009
 5671.00    0.77980   2.99819    0.009
 5672.00    0.75388   3.00442    0.009
 5673.00    0.76921   3.01000    0.009
 5674.00    0.85630   3.01415    0.009
 5675.00    0.86547   3.01690    0.009
 5676.00    0.75599   3.01859    0.009
 5677.00    0.69363   3.01887    0.009
 5678.00    0.69431   3.01734    0.009
 5679.00    0.73703   3.01486    0.009
 5680.00    0.82926   3.01190    0.009
 5681.00    0.89387   3.00823    0.009
 5682.00    0.92977   3.00403    0.009
 5683.00    0.93331   3.00036    0.009
 5684.00    0.90721   2.99792    0.009
 5685.00    0.88263   2.99610    0.009
 5686.00    0.85927   2.99501    0.009
 5687.00    0.83979   2.99576    0.009
 5688.00    0.82308   2.99907    0.009
 5689.00    0.80071   3.00493    0.009
 5690.00    0.77481   3.01225    0.009
 5691.00    0.77379   3.01936    0.009
 5692.00    0.78634   3.02500    0.009
 5693.00    0.81418   3.02805    0.009
 5694.00    0.84927   3.02803    0.009
 5695.00    0.85793   3.02559    0.009
 5696.00    0.85581   3.02155    0.009
 5697.00    0.85931   3.01579    0.009
 5698.00    0.86478   3.00901    0.009
 5699.00    0.89707   3.00327    0.009
 5700.00    0.93724   2.99865    0.009
 5701.00    0.96446   2.99473    0.009
 5702.00    0.98852   2.99237    0.009
 5703.00    1.03797   2.99101    0.009
 5704.00    1.09241   2.98904    0.009
 5705.00    0.99844   2.98518    0.009
 5706.00    0.88166   2.97953    0.009
 5707.00    0.76523   2.97359    0.009
 5708.00    0.64883   2.96869    0.009
 5709.00    0.70360   2.96629    0.009
 5710.00    0.77135   2.96829    0.009
 5711.00    0.85654   2.97461    0.009
 5712.00    0.94244   2.98461    0.009
 5713.00    0.86173   2.99769    0.009
 5714.00    0.77971   3.01124    0.009
 5715.00    0.69703   3.02330    0.009
 5716.00    0.62003   3.03366    0.009
 5717.00    0.64069   3.04217    0.009
 5718.00    0.66073   3.04915    0.009
 5719.00    0.67408   3.05490    0.009
 5720.00    0.68643   3.05945    0.009
 5721.00    0.69133   3.06264    0.009
 5722.00    0.70351   3.06415    0.009
 5723.00    0.75728   3.06342    0.009
 5724.00    0.79575   3.06063    0.009
 5725.00    0.76472   3.05668    0.009
 5726.00    0.71275   3.05223    0.009
 5727.00    0.58283   3.04864    0.009
 5728.00    0.50540   3.04720    0.009
 5729.00    0.59134   3.04785    0.009
 5730.00    0.68994   3.04982    0.009
 5731.00    0.82197   3.05282    0.009
 5732.00    0.91862   3.05751    0.009
 5733.00    0.93497   3.06324    0.009
 5734.00    0.95591   3.06843    0.009
 5735.00    0.98589   3.07197    0.009
 5736.00    0.97738   3.07367    0.009
 5737.00    0.90295   3.07412    0.009
 5738.00    0.86122   3.07395    0.009
 5739.00    0.86854   3.07361    0.009
 5740.00    0.86246   3.07377    0.000
 5741.00    0.83872   3.07435    0.000
 5742.00    0.82273   3.07543    0.000
 5743.00    0.81573   3.07685    0.000
 5744.00    0.86342   3.07814    0.000
 5745.00    0.96711   3.07916    0.000
 5746.00    1.04242   3.07963    0.000
 5747.00    1.09212   3.07885    0.000
 5748.00    1.08601   3.07731    0.000
 5749.00    1.03546   3.07648    0.000
 5750.00    0.98451   3.07527    0.000
 5751.00    0.93329   3.07258    0.000
 5752.00    0.99717   3.06899    0.000
 5753.00    1.13176   3.06558    0.000
 5754.00    1.18933   3.06430    0.000
 5755.00    1.20558   3.06631    0.000
 5756.00    1.12629   3.07054    0.000
 5757.00    1.00249   3.07490    0.000
 5758.00    0.86132   3.07807    0.000
 5759.00    0.71318   3.07919    0.000
 5760.00    0.63319   3.07848    0.000
 5761.00    0.57653   3.07666    0.000
 5762.00    0.57743   3.07497    0.000
 5763.00    0.59492   3.07504    0.000
 5764.00    0.64013   3.07782    0.000
 5765.00    0.69193   3.08187    0.000
 5766.00    0.70309   3.08612    0.000
 5767.00    0.70645   3.08995    0.000
 5768.00    0.85711   3.09278    0.000
 5769.00    1.02970   3.09475    0.000
 5770.00    1.06763   3.09610    0.000
 5771.00    1.09089   3.09694    0.000
 5772.00    1.05947   3.09707    0.000
 5773.00    1.02414   3.09668    0.000
 5774.00    0.91298   3.09575    0.000
 5775.00    0.79902   3.09392    0.000
 5776.00    0.81601   3.09116    0.000
 5777.00    0.83308   3.08675    0.000
 5778.00    0.83295   3.08023    0.000
 5779.00    0.83386   3.07210    0.000
 5780.00    0.85160   3.06295    0.000
 5781.00    0.86976   3.05412    0.000
 5782.00    0.89231   3.04856    0.000
 5783.00    0.90602   3.04716    0.000
 5784.00    0.85569   3.04844    0.000
 5785.00    0.81647   3.05231    0.000
 5786.00    0.83893   3.05945    0.000
 5787.00    0.84501   3.06770    0.000
 5788.00    0.77845   3.07509    0.000
 5789.00    0.82401   3.08162    0.000
 5790.00    1.27810   3.08662    0.000
 5791.00    1.67900   3.09049   -2.000
 5792.00    1.91748   3.09418   -2.000
 5793.00    2.06080   3.09801   -2.000
 5794.00    1.95704   3.10160   -2.000
 5795.00    1.94832   3.10474   -2.000
 5796.00    2.15172   3.10731   -2.000
 5797.00    2.79251   3.10952   -2.000
 5798.00    4.27938   3.11240   -2.000
 5799.00    4.66147   3.11706   -2.000
 5800.00    3.17960   3.12264   -2.000
 5801.00    2.04399   3.12728   -2.000
 5802.00    1.42025   3.13057   -2.000
 5803.00    1.06656   3.13220   -2.000
 5804.00    1.06383   3.13230   -2.000
 5805.00    1.02886   3.13211   -2.000
 5806.00    0.95698   3.13254   -2.000
 5807.00    0.91760   3.13384   -2.000
 5808.00    0.91104   3.13562   -2.000
 5809.00    0.89889   3.13756   -2.000
 5810.00    0.88176   3.13940   -2.000
 5811.00    0.81671   3.14025    0.000
 5812.00    0.71407   3.13969    0.000
 5813.00    0.67989   3.13813    0.000
 5814.00    0.69296   3.13688    0.000
 5815.00    0.74570   3.13676    0.000
 5816.00    0.82245   3.13814    0.000
 5817.00    0.88635   3.14136    0.000
 5818.00    0.94346   3.14590    0.000
 5819.00    0.97965   3.15018    0.000
 5820.00    1.00625   3.15350    0.000
 5821.00    1.00910   3.15583    0.000
 5822.00    1.00259   3.15699    0.000
 5823.00    1.00702   3.15774    0.000
 5824.00    1.01513   3.15854    0.000
 5825.00    0.99006   3.16025    0.000
 5826.00    0.95563   3.16273    0.000
 5827.00    0.87744   3.16567    0.000
 5828.00    0.78906   3.16847    0.000
 5829.00    0.78110   3.17042    0.000
 5830.00    0.78816   3.17176    0.000
 5831.00    0.80998   3.17273    0.000
 5832.00    0.83393   3.17318    0.000
 5833.00    0.82099   3.17312    0.000
 5834.00    0.80418   3.17291    0.000
 5835.00    0.91027   3.17286    0.000
 5836.00    1.02467   3.17289    0.000
 5837.00    0.97393   3.17310    0.000
 5838.00    0.91773   3.17369    0.000
 5839.00    0.85450   3.17482    0.000
 5840.00    0.79318   3.17639    0.000
 5841.00    0.79227   3.17755    0.000
 5842.00    0.79472   3.17686    0.000
 5843.00    0.84780   3.17455    0.000
 5844.00    0.88694   3.17106    0.000
 5845.00    0.79081   3.16693    0.000
 5846.00    0.70051   3.16258    0.000
 5847.00    0.65110   3.15870    0.000
 5848.00    0.62063   3.15597    0.000
 5849.00    0.69249   3.15288    0.000
 5850.00    0.76816   3.14856    0.000
 5851.00    0.86039   3.14331    0.000
 5852.00    0.92702   3.13714    0.000
 5853.00    0.90225   3.13040    0.000
 5854.00    0.87850   3.12456    0.000
 5855.00    0.85783   3.11966    0.000
 5856.00    0.83702   3.11493    0.000
 5857.00    0.81589   3.11132    0.000
 5858.00    0.79328   3.11091    0.000
 5859.00    0.76745   3.11430    0.000
 5860.00    0.76360   3.11990    0.000
 5861.00    0.80164   3.12561    0.000
 5862.00    0.86233   3.13062    0.000
 5863.00    0.96068   3.13548    0.000
 5864.00    1.02121   3.13995    0.000
 5865.00    1.02665   3.14323    0.000
 5866.00    1.00243   3.14552    0.000
 5867.00    0.94023   3.14805    0.000
 5868.00    0.93825   3.15130    0.000
 5869.00    1.00424   3.15320    0.000
 5870.00    1.01594   3.15210    0.000
 5871.00    0.97359   3.14788    0.000
 5872.00    0.95184   3.14056    0.000
 5873.00    0.94817   3.13153    0.000
 5874.00    0.95008   3.12135    0.000
 5875.00    0.95631   3.11231    0.000
 5876.00    0.94498   3.10776    0.000
 5877.00    0.92171   3.10858    0.000
 5878.00    0.90315   3.11339    0.000
 5879.00    0.88741   3.11835    0.000
 5880.00    0.89211   3.12308    0.000
 5881.00    0.90743   3.12687    0.000
 5882.00    0.90868   3.12792    0.000
 5883.00    0.90358   3.12367    0.000
 5884.00    0.84090   3.11338    0.000
 5885.00    0.75589   3.09719    0.000
 5886.00    0.63852   3.07530    0.000
 5887.00    0.51047   3.04774    0.000
 5888.00    0.50812   3.01573    0.000
 5889.00    0.54052   2.98309    0.000
 5890.00    0.61007   2.95863    0.000
 5891.00    0.68808   2.94933    0.000
 5892.00    0.72230   2.94948    0.000
 5893.00    0.74857   2.95219    0.000
 5894.00    0.81522   2.95571    0.000
 5895.00    0.88751   2.95955    0.000
 5896.00    0.90711   2.96900    0.000
 5897.00    0.92142   2.98908    0.000
 5898.00    0.89877   3.01458    0.000
 5899.00    0.87377   3.03978    0.000
 5900.00    0.92515   3.06475    0.000
 5901.00    0.97861   3.08890    0.008
 5902.00    0.97595   3.10970    0.008
 5903.00    0.97027   3.12622    0.008
 5904.00    0.87972   3.13862    0.009
 5905.00    0.79718   3.14727    0.009
 5906.00    0.82864   3.15321    0.009
 5907.00    0.85593   3.15724    0.009
 5908.00    0.84423   3.15923    0.009
 5909.00    0.82498   3.15885    0.009
 5910.00    0.75450   3.15700    0.008
 5911.00    0.70044   3.15458    0.008
 5912.00    0.73280   3.15044    0.008
 5913.00    0.75222   3.14498    0.008
 5914.00    0.71692   3.14049    0.008
 5915.00    0.67070   3.13874    0.008
 5916.00    0.58632   3.13926    0.008
 5917.00    0.53990   3.14187    0.008
 5918.00    0.60508   3.14536    0.008
 5919.00    0.65990   3.14916    0.008
 5920.00    0.68875   3.15333    0.008
 5921.00    0.71138   3.15693    0.008
 5922.00    0.72058   3.16055    0.008
 5923.00    0.76599   3.16487    0.008
 5924.00    0.87927   3.16850    0.008
 5925.00    0.95469   3.17092    0.008
 5926.00    0.96812   3.17255    0.008
 5927.00    0.98029   3.17325    0.008
 5928.00    0.99064   3.17352    0.008
 5929.00    0.96552   3.17370    0.008
 5930.00    0.89561   3.17432    0.008
 5931.00    0.83475   3.17632    0.009
 5932.00    0.78397   3.17869    0.009
 5933.00    0.73396   3.18009    0.009
 5934.00    0.68469   3.18067    0.008
 5935.00    0.69573   3.18208    0.008
 5936.00    0.75898   3.18403    0.008
 5937.00    0.81926   3.18518    0.008
 5938.00    0.87729   3.18511    0.008
 5939.00    0.88520   3.18400    0.008
 5940.00    0.85951   3.18222    0.008
 5941.00    0.80220   3.17993    0.008
 5942.00    0.72635   3.17859    0.008
 5943.00    0.69697   3.17831    0.008
 5944.00    0.69138   3.17823    0.008
 5945.00    0.66747   3.17886    0.008
 5946.00    0.63544   3.17971    0.008
 5947.00    0.66454   3.17938    0.008
 5948.00    0.71693   3.17773    0.008
 5949.00    0.74739   3.17652    0.008
 5950.00    0.77075   3.17672    0.008
 5951.00    0.75831   3.17690    0.008
 5952.00    0.73616   3.17601    0.008
 5953.00    0.76200   3.17531    0.008
 5954.00    0.79850   3.17681    0.008
 5955.00    0.83396   3.17883    0.008
 5956.00    0.86925   3.18009    0.008
 5957.00    0.84986   3.18310    0.008
 5958.00    0.82308   3.18894    0.008
 5959.00    0.72387   3.19592    0.008
 5960.00    0.61770   3.20316    0.008
 5961.00    0.62176   3.20986    0.008
 5962.00    0.63239   3.21537    0.008
 5963.00    0.64975   3.21914    0.008
 5964.00    0.66749   3.22127    0.008
 5965.00    0.71834   3.22225    0.008
 5966.00    0.76717   3.22325    0.009
 5967.00    0.76482   3.22514    0.008
 5968.00    0.76957   3.22701    0.008
 5969.00    0.87003   3.22849    0.008
 5970.00    0.96027   3.22942    0.008
 5971.00    0.95916   3.22922    0.008
 5972.00    0.94347   3.22750    0.008
 5973.00    0.83182   3.22425    0.008
 5974.00    0.73121   3.21970    0.008
 5975.00    0.68720   3.21492    0.008
 5976.00    0.65087   3.21086    0.008
 5977.00    0.64630   3.20771    0.008
 5978.00    0.66082   3.20593    0.008
 5979.00    0.74074   3.20641    0.008
 5980.00    0.81464   3.20805    0.008
 5981.00    0.87119   3.20874    0.008
 5982.00    0.91043   3.20808    0.008
 5983.00    0.90704   3.20637    0.008
 5984.00    0.90261   3.20494    0.008
 5985.00    0.89601   3.20570    0.008
 5986.00    0.88608   3.20807    0.008
 5987.00    0.87000   3.21120    0.008
 5988.00    0.85649   3.21581    0.008
 5989.00    0.84712   3.22173    0.008
 5990.00    0.84861   3.22749    0.008
 5991.00    0.86549   3.23215    0.008
 5992.00    0.88216   3.23615    0.008
 5993.00    0.89857   3.23957    0.008
 5994.00    0.93057   3.24172    0.008
 5995.00    0.97966   3.24182    0.008
 5996.00    0.96885   3.23959    0.008
 5997.00    0.90007   3.23634    0.008
 5998.00    0.83347   3.23380    0.008
 5999.00    0.76873   3.23251    0.008
 6000.00    0.78453   3.23120    0.008
 6001.00    0.86086   3.22902    0.008
 6002.00    0.87024   3.22621    0.008
 6003.00    0.83540   3.22383    0.008
 6004.00    0.78422   3.22233    0.008
 6005.00    0.72359   3.22101    0.008
 6006.00    0.68807   3.21903    0.008
 6007.00    0.66519   3.21710    0.008
 6008.00    0.68790   3.21671    0.008
 6009.00    0.73049   3.21894    0.008
 6010.00    0.78105   3.22260    0.008
 6011.00    0.83459   3.22568    0.008
 6012.00    0.84218   3.22730    0.008
 6013.00    0.83517   3.22848    0.008
 6014.00    0.81745   3.23058    0.008
 6015.00    0.79689   3.23241    0.008
 6016.00    0.77417   3.23222    0.008
 6017.00    0.75099   3.23146    0.008
 6018.00    0.77938   3.23149    0.008
 6019.00    0.81664   3.23108    0.008
 6020.00    0.84582   3.23004    0.008
 6021.00    0.87394   3.22957    0.008
 6022.00    0.82506   3.23062    0.008
 6023.00    0.76911   3.23331    0.008
 6024.00    0.76551   3.23708    0.008
 6025.00    0.76483   3.24235    0.008
 6026.00    0.83279   3.24811    0.008
 6027.00    0.90188   3.25359    0.008
 6028.00    0.93476   3.26013    0.008
 6029.00    0.96394   3.26717    0.008
 6030.00    0.90733   3.27347    0.008
 6031.00    0.85635   3.27888    0.008
 6032.00    0.87716   3.28331    0.008
 6033.00    0.89843   3.28691    0.008
 6034.00    0.92375   3.28943    0.008
 6035.00    0.93420   3.29071    0.008
 6036.00    0.84966   3.29044    0.008
 6037.00    0.77747   3.28932    0.008
 6038.00    0.76697   3.28776    0.008
 6039.00    0.75348   3.28637    0.008
 6040.00    0.72789   3.28591    0.008
 6041.00    0.70855   3.28692    0.008
 6042.00    0.71022   3.28932    0.008
 6043.00    0.71087   3.29236    0.007
 6044.00    0.70863   3.29558    0.008
 6045.00    0.70925   3.29912    0.008
 6046.00    0.71676   3.30219    0.008
 6047.00    0.73328   3.30460    0.008
 6048.00    0.76863   3.30663    0.008
 6049.00    0.78762   3.30761    0.008
 6050.00    0.77687   3.30792    0.008
 6051.00    0.74763   3.30755    0.008
 6052.00    0.68902   3.30570    0.008
 6053.00    0.63382   3.30291    0.008
 6054.00    0.58340   3.30008    0.008
 6055.00    0.58878   3.29736    0.008
 6056.00    0.66266   3.29529    0.008
 6057.00    0.74072   3.29428    0.008
 6058.00    0.82330   3.29387    0.008
 6059.00    0.85302   3.29284    0.008
 6060.00    0.83229   3.29012    0.008
 6061.00    0.81036   3.28630    0.008
 6062.00    0.78742   3.28207    0.008
 6063.00    0.77413   3.27797    0.008
 6064.00    0.76799   3.27429    0.008
 6065.00    0.78092   3.27233    0.008
 6066.00    0.80626   3.27532    0.008
 6067.00    0.84488   3.28304    0.008
 6068.00    0.89107   3.29193    0.008
 6069.00    0.88113   3.30069    0.008
 6070.00    0.84335   3.30879    0.008
 6071.00    0.80506   3.31587    0.008
 6072.00    0.76655   3.32123    0.008
 6073.00    0.81470   3.32347    0.008
 6074.00    0.89470   3.32310    0.008
 6075.00    0.90769   3.32087    0.008
 6076.00    0.89981   3.31594    0.008
 6077.00    0.86794   3.30928    0.008
 6078.00    0.82983   3.30257    0.008
 6079.00    0.87220   3.29722    0.008
 6080.00    0.93160   3.29299    0.008
 6081.00    0.98208   3.28921    0.008
 6082.00    1.03107   3.28706    0.008
 6083.00    0.99729   3.28767    0.008
 6084.00    0.95308   3.28978    0.008
 6085.00    0.93119   3.29215    0.008
 6086.00    0.91127   3.29512    0.008
 6087.00    0.92986   3.29789    0.008
 6088.00    0.95044   3.29961    0.008
 6089.00    0.96596   3.29992    0.008
 6090.00    0.98051   3.30006    0.008
 6091.00    0.93076   3.30127    0.008
 6092.00    0.88381   3.30376    0.008
 6093.00    0.89653   3.30706    0.008
 6094.00    0.90447   3.31112    0.008
 6095.00    0.85454   3.31510    0.008
 6096.00    0.79806   3.31666    0.008
 6097.00    0.68736   3.31536    0.008
 6098.00    0.58563   3.31203    0.008
 6099.00    0.53958   3.30757    0.008
 6100.00    0.50561   3.30240    0.007
 6101.00    0.53050   3.29561    0.007
 6102.00    0.56671   3.28815    0.007
 6103.00    0.64776   3.28558    0.008
 6104.00    0.70919   3.29009    0.008
 6105.00    0.70602   3.29712    0.008
 6106.00    0.69077   3.30340    0.008
 6107.00    0.64195   3.30881    0.008
 6108.00    0.61340   3.31487    0.008
 6109.00    0.63313   3.32219    0.008
 6110.00    0.65211   3.32832    0.008
 6111.00    0.66954   3.33200    0.008
 6112.00    0.69965   3.33504    0.008
 6113.00    0.75245   3.33860    0.008
 6114.00    0.80375   3.34099    0.008
 6115.00    0.85271   3.34113    0.008
 6116.00    0.87051   3.33859    0.008
 6117.00    0.84548   3.33457    0.008
 6118.00    0.81857   3.33020    0.008
 6119.00    0.78940   3.32388    0.008
 6120.00    0.74270   3.31619    0.008
 6121.00    0.67728   3.30871    0.008
 6122.00    0.65101   3.30352    0.008
 6123.00    0.66156   3.30319    0.008
 6124.00    0.69602   3.30599    0.008
 6125.00    0.75033   3.30893    0.008
 6126.00    0.76997   3.31243    0.008
 6127.00    0.76429   3.31744    0.008
 6128.00    0.75333   3.32304    0.007
 6129.00    0.73899   3.32816    0.007
 6130.00    0.74671   3.33121    0.007
 6131.00    0.76679   3.32935    0.007
 6132.00    0.76528   3.32250    0.007
 6133.00    0.75323   3.31337    0.007
 6134.00    0.71946   3.30271    0.007
 6135.00    0.67654   3.29007    0.008
 6136.00    0.68384   3.27673    0.008
 6137.00    0.70926   3.26875    0.008
 6138.00    0.79596   3.27159    0.008
 6139.00    0.90137   3.28164    0.008
 6140.00    0.90230   3.29163    0.008
 6141.00    0.87671   3.30004    0.008
 6142.00    0.84786   3.31107    0.008
 6143.00    0.81834   3.32485    0.008
 6144.00    0.82841   3.33684    0.008
 6145.00    0.84491   3.34432    0.008
 6146.00    0.86738   3.34718    0.008
 6147.00    0.89058   3.34775    0.008
 6148.00    0.83922   3.34696    0.008
 6149.00    0.78163   3.34457    0.008
 6150.00    0.76499   3.34171    0.008
 6151.00    0.75032   3.33992    0.008
 6152.00    0.79204   3.33985    0.008
 6153.00    0.83404   3.34035    0.008
 6154.00    0.84487   3.33885    0.008
 6155.00    0.85338   3.33535    0.008
 6156.00    0.81621   3.32988    0.008
 6157.00    0.78104   3.32100    0.007
 6158.00    0.76904   3.30890    0.007
 6159.00    0.76592   3.29475    0.008
 6160.00    0.83394   3.27836    0.008
 6161.00    0.90051   3.26083    0.008
 6162.00    0.95837   3.24725    0.007
 6163.00    0.99321   3.24062    0.007
 6164.00    0.91860   3.23930    0.008
 6165.00    0.84158   3.24112    0.008
 6166.00    0.75524   3.24427    0.008
 6167.00    0.68357   3.24915    0.008
 6168.00    0.65928   3.25296    0.008
 6169.00    0.64738   3.25413    0.008
 6170.00    0.66937   3.25772    0.008
 6171.00    0.70835   3.26554    0.008
 6172.00    0.78712   3.27402    0.008
 6173.00    0.82710   3.28091    0.008
 6174.00    0.78856   3.28786    0.008
 6175.00    0.74585   3.29560    0.008
 6176.00    0.69579   3.30326    0.008
 6177.00    0.69430   3.31016    0.008
 6178.00    0.76771   3.31634    0.007
 6179.00    0.83512   3.32137    0.007
 6180.00    0.89439   3.32552    0.008
 6181.00    0.90085   3.32942    0.008
 6182.00    0.84432   3.33227    0.007
 6183.00    0.80426   3.33261    0.007
 6184.00    0.78151   3.33040    0.007
 6185.00    0.78549   3.32612    0.007
 6186.00    0.81426   3.31915    0.007
 6187.00    0.82158   3.31090    0.007
 6188.00    0.81135   3.30389    0.008
 6189.00    0.79521   3.29885    0.008
 6190.00    0.77483   3.29467    0.008
 6191.00    0.79332   3.29195    0.007
 6192.00    0.83636   3.29580    0.007
 6193.00    0.90109   3.30477    0.007
 6194.00    0.97780   3.31244    0.008
 6195.00    1.08817   3.31713    0.008
 6196.00    1.21471   3.32066   -2.000
 6197.00    1.51396   3.32389   -2.000
 6198.00    1.88480   3.32558   -2.000
 6199.00    1.81604   3.32539   -2.000
 6200.00    1.59146   3.32632   -2.000
 6201.00    1.06050   3.33105   -2.000
 6202.00    0.43785   3.33772   -2.000
 6203.00    0.06072   3.34409   -2.000
 6204.00   -0.25542   3.34985   -2.000
 6205.00    0.00441   3.35481   -2.000
 6206.00    0.38023   3.35887   -2.000
 6207.00    0.61274   3.36084   -2.000
 6208.00    0.82265   3.35920    0.008
 6209.00    0.88692   3.35382    0.008
 6210.00    0.93413   3.34561    0.008
 6211.00    0.88075   3.33604    0.007
 6212.00    0.81939   3.32578    0.007
 6213.00    0.79316   3.31420    0.007
 6214.00    0.76847   3.30433    0.007
 6215.00    0.82119   3.29811    0.007
 6216.00    0.87408   3.29569    0.007
 6217.00    0.89526   3.29723    0.007
 6218.00    0.91535   3.29933    0.007
 6219.00    0.91543   3.30053    0.007
 6220.00    0.91614   3.30328    0.007
 6221.00    0.92377   3.30833    0.008
 6222.00    0.92968   3.31388    0.008
 6223.00    0.92231   3.31737    0.008
 6224.00    0.91201   3.31826    0.008
 6225.00    0.88460   3.31788    0.008
 6226.00    0.86032   3.31638    0.008
 6227.00    0.85056   3.31327    0.008
 6228.00    0.85513   3.30858    0.008
 6229.00    0.91409   3.30289    0.008
 6230.00    0.95744   3.29806    0.008
 6231.00    0.95141   3.29750    0.008
 6232.00    0.93098   3.30152    0.008
 6233.00    0.87186   3.30730    0.007
 6234.00    0.80243   3.31388    0.007
 6235.00    0.70926   3.31971    0.007
 6236.00    0.63464   3.32331    0.007
 6237.00    0.59701   3.32373    0.007
 6238.00    0.61478   3.32096    0.007
 6239.00    0.72873   3.31633    0.007
 6240.00    0.83278   3.31007    0.007
 6241.00    0.92175   3.30448    0.007
 6242.00    0.95864   3.29980    0.007
 6243.00    0.92596   3.29643    0.007
 6244.00    0.87311   3.29714    0.007
 6245.00    0.79652   3.29929    0.007
 6246.00    0.77458   3.30147    0.007
 6247.00    0.80930   3.30497    0.007
 6248.00    0.84151   3.30823    0.007
 6249.00    0.87144   3.30908    0.007
 6250.00    0.83804   3.30619    0.008
 6251.00    0.75360   3.29972    0.008
 6252.00    0.67546   3.29081    0.008
 6253.00    0.60178   3.28239    0.008
 6254.00    0.60083   3.27594    0.008
 6255.00    0.64513   3.27106    0.008
 6256.00    0.70732   3.26766    0.008
 6257.00    0.77922   3.26710    0.008
 6258.00    0.78222   3.27087    0.008
 6259.00    0.75266   3.28005    0.008
 6260.00    0.76844   3.29204    0.008
 6261.00    0.80269   3.30394    0.009
 6262.00    0.84264   3.31696    0.009
 6263.00    0.88458   3.32991    0.009
 6264.00    0.85820   3.33932    0.009
 6265.00    0.81178   3.34593    0.009
 6266.00    0.72307   3.35239    0.009
 6267.00    0.62410   3.35848    0.008
 6268.00    0.65067   3.36296    0.008
 6269.00    0.70189   3.36558    0.007
 6270.00    0.74850   3.36816    0.007
 6271.00    0.79441   3.37258    0.007
 6272.00    0.78422   3.37681    0.007
 6273.00    0.76770   3.37883    0.007
 6274.00    0.76808   3.37853    0.007
 6275.00    0.76972   3.37672    0.007
 6276.00    0.74688   3.37500    0.007
 6277.00    0.72305   3.37285    0.008
 6278.00    0.71859   3.36911    0.008
 6279.00    0.71538   3.36488    0.007
 6280.00    0.75718   3.36301    0.000
 6281.00    0.79313   3.36492    0.000
 6282.00    0.72962   3.36958    0.000
 6283.00    0.66593   3.37620    0.000
 6284.00    0.60047   3.38329    0.000
 6285.00    0.54793   3.39015    0.000
 6286.00    0.59173   3.39833    0.000
 6287.00    0.62936   3.40585    0.000
 6288.00    0.63194   3.40994    0.000
 6289.00    0.63796   3.41105    0.000
 6290.00    0.65956   3.40965    0.000
 6291.00    0.69048   3.40650    0.000
 6292.00    0.75607   3.40189    0.000
 6293.00    0.80944   3.39689    0.000
 6294.00    0.82489   3.39260    0.000
 6295.00    0.83740   3.38672    0.000
 6296.00    0.84217   3.37895    0.000
 6297.00    0.82544   3.37213    0.000
 6298.00    0.76003   3.36832    0.000
 6299.00    0.70186   3.36695    0.000
 6300.00    0.65790   3.36549    0.000
 6301.00    0.64605   3.36543    0.000
 6302.00    0.68908   3.37047    0.000
 6303.00    0.69323   3.37972    0.000
 6304.00    0.63915   3.38974    0.000
 6305.00    0.59059   3.39864    0.000
 6306.00    0.54929   3.40686    0.000
 6307.00    0.55312   3.41525    0.000
 6308.00    0.60927   3.42133    0.000
 6309.00    0.63931   3.42291    0.000
 6310.00    0.64267   3.42136    0.000
 6311.00    0.66234   3.41871    0.000
 6312.00    0.69672   3.41589    0.000
 6313.00    0.71382   3.41237    0.000
 6314.00    0.71718   3.40680    0.000
 6315.00    0.71972   3.40188    0.000
 6316.00    0.72170   3.40094    0.000
 6317.00    0.72217   3.40129    0.000
 6318.00    0.72172   3.40096    0.000
 6319.00    0.72659   3.40391    0.000
 6320.00    0.73430   3.41088    0.000
 6321.00    0.76231   3.41770    0.007
 6322.00    0.79976   3.42283    0.007
 6323.00    0.80584   3.42862    0.007
 6324.00    0.79935   3.43576    0.007
 6325.00    0.75884   3.44165    0.007
 6326.00    0.70670   3.44498    0.007
 6327.00    0.72304   3.44720    0.007
 6328.00    0.75906   3.45088    0.007
 6329.00    0.78380   3.45326    0.007
 6330.00    0.80586   3.45159    0.008
 6331.00    0.74755   3.44830    0.007
 6332.00    0.67387   3.44544    0.007
 6333.00    0.65703   3.44195    0.007
 6334.00    0.64863   3.43587    0.007
 6335.00    0.66324   3.42887    0.007
 6336.00    0.68035   3.42553    0.007
 6337.00    0.68546   3.42697    0.007
 6338.00    0.68971   3.43026    0.007
 6339.00    0.75099   3.43327    0.007
 6340.00    0.81434   3.43748    0.007
 6341.00    0.76904   3.44151    0.007
 6342.00    0.72253   3.44316    0.007
 6343.00    0.64792   3.44159    0.007
 6344.00    0.57970   3.43871    0.007
 6345.00    0.61355   3.43778    0.007
 6346.00    0.64971   3.43707    0.007
 6347.00    0.70915   3.43739    0.007
 6348.00    0.76150   3.44013    0.007
 6349.00    0.76264   3.44512    0.007
 6350.00    0.75586   3.44879    0.007
 6351.00    0.70530   3.45042    0.007
 6352.00    0.66054   3.45080    0.007
 6353.00    0.64143   3.44817    0.007
 6354.00    0.63140   3.44147    0.007
 6355.00    0.65438   3.43456    0.007
 6356.00    0.67995   3.42962    0.007
 6357.00    0.71341   3.42368    0.007
 6358.00    0.75261   3.41633    0.007
 6359.00    0.80671   3.41234    0.007
 6360.00    0.83379   3.41314    0.007
 6361.00    0.80073   3.41459    0.007
 6362.00    0.77848   3.41619    0.007
 6363.00    0.77708   3.42087    0.007
 6364.00    0.77369   3.42922    0.007
 6365.00    0.76693   3.43773    0.007
 6366.00    0.77050   3.44453    0.007
 6367.00    0.78933   3.45274    0.007
 6368.00    0.81807   3.46104    0.007
 6369.00    0.85966   3.46735    0.007
 6370.00    0.87182   3.47154    0.007
 6371.00    0.85034   3.47643    0.007
 6372.00    0.82043   3.48204    0.007
 6373.00    0.78202   3.48688    0.007
 6374.00    0.76508   3.48989    0.007
 6375.00    0.76722   3.49067    0.007
 6376.00    0.77456   3.49047    0.007
 6377.00    0.78597   3.48939    0.007
 6378.00    0.80489   3.48715    0.007
 6379.00    0.82898   3.48404    0.007
 6380.00    0.82326   3.48206    0.007
 6381.00    0.79954   3.48263    0.007
 6382.00    0.76603   3.48455    0.007
 6383.00    0.72736   3.48594    0.007
 6384.00    0.69261   3.48715    0.007
 6385.00    0.65966   3.48851    0.007
 6386.00    0.62692   3.48895    0.007
 6387.00    0.59426   3.48800    0.007
 6388.00    0.63930   3.48522    0.007
 6389.00    0.71038   3.48085    0.007
 6390.00    0.71364   3.47694    0.007
 6391.00    0.69780   3.47356    0.007
 6392.00    0.68014   3.46912    0.007
 6393.00    0.66206   3.46501    0.007
 6394.00    0.69012   3.46441    0.007
 6395.00    0.72676   3.46619    0.007
 6396.00    0.75103   3.46780    0.007
 6397.00    0.77351   3.47012    0.007
 6398.00    0.78754   3.47309    0.007
 6399.00    0.80068   3.47449    0.007
 6400.00    0.77461   3.47673    0.007
 6401.00    0.74591   3.48399    0.007
 6402.00    0.73529   3.49289    0.007
 6403.00    0.72527   3.49915    0.007
 6404.00    0.64545   3.50341    0.007
 6405.00    0.56646   3.50757    0.007
 6406.00    0.51374   3.50966    0.007
 6407.00    0.47000   3.50794    0.007
 6408.00    0.56101   3.50563    0.007
 6409.00    0.64965   3.50602    0.007
 6410.00    0.71544   3.50594    0.007
 6411.00    0.76569   3.50357    0.007
 6412.00    0.70734   3.50336    0.007
 6413.00    0.66006   3.50713    0.007
 6414.00    0.67231   3.51102    0.007
 6415.00    0.68897   3.51215    0.007
 6416.00    0.72469   3.51217    0.007
 6417.00    0.75012   3.51358    0.007
 6418.00    0.73890   3.51525    0.007
 6419.00    0.73191   3.51586    0.007
 6420.00    0.73759   3.51538    0.007
 6421.00    0.73535   3.51705    0.007
 6422.00    0.71299   3.52339    0.007
 6423.00    0.70023   3.53047    0.007
 6424.00    0.70848   3.53469    0.007
 6425.00    0.72986   3.53697    0.007
 6426.00    0.77617   3.53767    0.007
 6427.00    0.80611   3.53719    0.007
 6428.00    0.80888   3.53523    0.008
 6429.00    0.78826   3.53116    0.008
 6430.00    0.73362   3.52546    0.008
 6431.00    0.70352   3.52218    0.008
 6432.00    0.70480   3.52415    0.007
 6433.00    0.71296   3.52717    0.007
 6434.00    0.72888   3.52890    0.007
 6435.00    0.74866   3.53097    0.007
 6436.00    0.77229   3.53487    0.007
 6437.00    0.78606   3.53822    0.007
 6438.00    0.79118   3.53934    0.007
 6439.00    0.77244   3.54217    0.007
 6440.00    0.73527   3.54988    0.007
 6441.00    0.70764   3.55846    0.007
 6442.00    0.68648   3.56488    0.007
 6443.00    0.67844   3.56939    0.007
 6444.00    0.67821   3.57090    0.007
 6445.00    0.64105   3.56805    0.007
 6446.00    0.58472   3.56184    0.007
 6447.00    0.58336   3.55436    0.007
 6448.00    0.60673   3.54501    0.007
 6449.00    0.64953   3.53339    0.007
 6450.00    0.69986   3.52508    0.007
 6451.00    0.73788   3.52480    0.007
 6452.00    0.77184   3.52850    0.007
 6453.00    0.76850   3.53165    0.007
 6454.00    0.75486   3.53458    0.007
 6455.00    0.71430   3.53865    0.007
 6456.00    0.66764   3.54339    0.007
 6457.00    0.62224   3.54638    0.007
 6458.00    0.57708   3.54596    0.007
 6459.00    0.52306   3.54456    0.007
 6460.00    0.46782   3.54388    0.007
 6461.00    0.46503   3.54174    0.007
 6462.00    0.46747   3.53796    0.007
 6463.00    0.50730   3.53887    0.007
 6464.00    0.54948   3.54539    0.008
 6465.00    0.62062   3.55161    0.008
 6466.00    0.69252   3.55665    0.008
 6467.00    0.74041   3.56131    0.008
 6468.00    0.78599   3.56440    0.008
 6469.00    0.76734   3.56424    0.008
 6470.00    0.74959   3.56091    0.007
 6471.00    0.74443   3.55563    0.007
 6472.00    0.74083   3.55145    0.007
 6473.00    0.75171   3.54920    0.007
 6474.00    0.76411   3.54592    0.007
 6475.00    0.78682   3.54268    0.007
 6476.00    0.81274   3.54271    0.007
 6477.00    0.85544   3.54341    0.007
 6478.00    0.88523   3.54113    0.007
 6479.00    0.86048   3.53758    0.007
 6480.00    0.83355   3.53465    0.007
 6481.00    0.79897   3.53045    0.007
 6482.00    0.76329   3.52607    0.007
 6483.00    0.72436   3.52531    0.007
 6484.00    0.69990   3.52782    0.007
 6485.00    0.71163   3.52989    0.007
 6486.00    0.72339   3.53013    0.007
 6487.00    0.73523   3.52916    0.007
 6488.00    0.73928   3.52600    0.007
 6489.00    0.72874   3.51741    0.007
 6490.00    0.70655   3.50302    0.007
 6491.00    0.66532   3.48525    0.007
 6492.00    0.63391   3.46670    0.007
 6493.00    0.61659   3.44719    0.007
 6494.00    0.61116   3.42851    0.007
 6495.00    0.62075   3.41627    0.007
 6496.00    0.61029   3.41287    0.007
 6497.00    0.57756   3.41666    0.007
 6498.00    0.53238   3.42665    0.007
 6499.00    0.47498   3.44118    0.007
 6500.00    0.42489   3.46044    0.007
 6501.00    0.38111   3.48092    0.007
 6502.00    0.40025   3.49985    0.007
 6503.00    0.46728   3.51595    0.007
 6504.00    0.55710   3.52912    0.007
 6505.00    0.66216   3.53958    0.007
 6506.00    0.72107   3.54690    0.007
 6507.00    0.75294   3.55098    0.007
 6508.00    0.74185   3.55237    0.007
 6509.00    0.70880   3.55249    0.007
 6510.00    0.66349   3.55186    0.007
 6511.00    0.61276   3.54951    0.007
 6512.00    0.63011   3.54569    0.007
 6513.00    0.67335   3.54180    0.007
 6514.00    0.73158   3.53765    0.007
 6515.00    0.79465   3.53247    0.007
 6516.00    0.78963   3.52848    0.007
 6517.00    0.76621   3.52701    0.007
 6518.00    0.72014   3.52687    0.007
 6519.00    0.66905   3.52822    0.007
 6520.00    0.62548   3.53197    0.007
 6521.00    0.58323   3.53711    0.007
 6522.00    0.61148   3.54148    0.007
 6523.00    0.64921   3.54415    0.007
 6524.00    0.68671   3.54655    0.007
 6525.00    0.72419   3.54849    0.007
 6526.00    0.73786   3.54890    0.007
 6527.00    0.75012   3.54744    0.007
 6528.00    0.69182   3.54590    0.000
 6529.00    0.63209   3.54519    0.000
 6530.00    0.62302   3.54406    0.000
 6531.00    0.61620   3.54095    0.000
 6532.00    0.66580   3.53746    0.000
 6533.00    0.71170   3.53549    0.000
 6534.00    0.70805   3.53423    0.000
 6535.00    0.70684   3.53221    0.000
 6536.00    0.72736   3.53032    0.000
 6537.00    0.74601   3.52876    0.000
 6538.00    0.75243   3.52586    0.000
 6539.00    0.75875   3.52094    0.000
 6540.00    0.76461   3.51410    0.000
 6541.00    0.77531   3.50380    0.000
 6542.00    0.80607   3.48993    0.000
 6543.00    0.83758   3.47537    0.000
 6544.00    0.87168   3.46020    0.000
 6545.00    0.89161   3.44244    0.000
 6546.00    0.87077   3.42376    0.000
 6547.00    0.84176   3.40780    0.000
 6548.00    0.79269   3.39203    0.000
 6549.00    0.74886   3.37240    0.000
 6550.00    0.71613   3.34874    0.000
 6551.00    0.70552   3.32280    0.000
 6552.00    0.73564   3.29324    0.000
 6553.00    0.75961   3.25765    0.000
 6554.00    0.77367   3.21573    0.000
 6555.00    0.83064   3.16790    0.000
 6556.00    0.94822   3.11440    0.000
 6557.00    1.06531   3.05177    0.000
 6558.00    1.18179   2.97794    0.000
 6559.00    1.28006   2.90341    0.000
 6560.00    1.35837   2.84012    0.000
 6561.00    1.31009   2.78449    0.000
 6562.00    1.13950   2.73719    0.000
 6563.00    0.97099   2.72281    0.000
 6564.00    0.80427   2.75162    0.000
 6565.00    0.72881   2.80234    0.000
 6566.00    0.72183   2.85931    0.000
 6567.00    0.71273   2.92703    0.000
 6568.00    0.70224   3.00171    0.000
 6569.00    0.66148   3.07090    0.000
 6570.00    0.60326   3.12930    0.000
 6571.00    0.53941   3.17924    0.000
 6572.00    0.47274   3.22246    0.000
 6573.00    0.48713   3.26024    0.000
 6574.00    0.53680   3.29496    0.000
 6575.00    0.59696   3.32830    0.000
 6576.00    0.66103   3.35971    0.000
 6577.00    0.76085   3.38799    0.000
 6578.00    0.87198   3.41395    0.000
 6579.00    0.93013   3.43697    0.000
 6580.00    0.97427   3.45589    0.000
 6581.00    0.91823   3.47149    0.000
 6582.00    0.84053   3.48584    0.000
 6583.00    0.77026   3.49873    0.000
 6584.00    0.70127   3.50932    0.000
 6585.00    0.70215   3.51822    0.000
 6586.00    0.71211   3.52634    0.000
 6587.00    0.71804   3.53285    0.000
 6588.00    0.72360   3.53588    0.000
 6589.00    0.68779   3.53637    0.000
 6590.00    0.64970   3.53719    0.000
 6591.00    0.65045   3.53720    0.000
 6592.00    0.65226   3.53513    0.000
 6593.00    0.67550   3.53504    0.000
 6594.00    0.69840   3.54043    0.000
 6595.00    0.71377   3.54936    0.000
 6596.00    0.72936   3.55815    0.000
 6597.00    0.74772   3.56686    0.000
 6598.00    0.75887   3.57604    0.000
 6599.00    0.70823   3.58496    0.000
 6600.00    0.66094   3.59268    0.000
 6601.00    0.63503   3.59842    0.000
 6602.00    0.62265   3.60133    0.000
 6603.00    0.67762   3.60259    0.000
 6604.00    0.71206   3.60265    0.000
 6605.00    0.66362   3.60254    0.000
 6606.00    0.61124   3.60258    0.000
 6607.00    0.54571   3.60345    0.000
 6608.00    0.51188   3.60483    0.000
 6609.00    0.56772   3.60722    0.007
 6610.00    0.61865   3.61260    0.007
 6611.00    0.65773   3.61989    0.007
 6612.00    0.69034   3.62526    0.007
 6613.00    0.70943   3.62886    0.007
 6614.00    0.74070   3.63363    0.007
 6615.00    0.79403   3.63924    0.007
 6616.00    0.83211   3.64315    0.007
 6617.00    0.84601   3.64576    0.007
 6618.00    0.83726   3.64841    0.007
 6619.00    0.79699   3.65064    0.007
 6620.00    0.75736   3.65092    0.007
 6621.00    0.71852   3.64947    0.007
 6622.00    0.69147   3.64703    0.007
 6623.00    0.67717   3.64404    0.007
 6624.00    0.68844   3.64033    0.007
 6625.00    0.72406   3.63653    0.007
 6626.00    0.73804   3.63436    0.007
 6627.00    0.73385   3.63408    0.007
 6628.00    0.70185   3.63374    0.007
 6629.00    0.64929   3.63220    0.007
 6630.00    0.61304   3.63125    0.007
 6631.00    0.58738   3.63176    0.007
 6632.00    0.57024   3.63191    0.007
 6633.00    0.55792   3.63105    0.007
 6634.00    0.56624   3.63252    0.007
 6635.00    0.58478   3.63632    0.007
 6636.00    0.61770   3.64008    0.007
 6637.00    0.65678   3.64343    0.007
 6638.00    0.63751   3.64604    0.007
 6639.00    0.59684   3.64652    0.007
 6640.00    0.60607   3.64588    0.007
 6641.00    0.63080   3.64644    0.007
 6642.00    0.65228   3.64470    0.007
 6643.00    0.67293   3.64080    0.007
 6644.00    0.70516   3.63995    0.007
 6645.00    0.73984   3.64298    0.007
 6646.00    0.73964   3.64571    0.007
 6647.00    0.73363   3.64780    0.007
 6648.00    0.68424   3.65110    0.007
 6649.00    0.62942   3.65571    0.007
 6650.00    0.61725   3.65978    0.007
 6651.00    0.60881   3.66225    0.007
 6652.00    0.63470   3.66305    0.007
 6653.00    0.66236   3.66401    0.007
 6654.00    0.68479   3.66486    0.007
 6655.00    0.70660   3.66431    0.007
 6656.00    0.69160   3.66199    0.007
 6657.00    0.67694   3.65940    0.007
 6658.00    0.66954   3.65577    0.007
 6659.00    0.66298   3.64997    0.007
 6660.00    0.66654   3.64435    0.007
 6661.00    0.66636   3.63994    0.007
 6662.00    0.63529   3.63519    0.007
 6663.00    0.59811   3.63080    0.007
 6664.00    0.52318   3.63073    0.007
 6665.00    0.46987   3.63399    0.007
 6666.00    0.52157   3.63790    0.007
 6667.00    0.57093   3.64248    0.007
 6668.00    0.61103   3.64862    0.007
 6669.00    0.64489   3.65503    0.007
 6670.00    0.65827   3.65934    0.007
 6671.00    0.66224   3.66137    0.007
 6672.00    0.64007   3.66048    0.007
 6673.00    0.61378   3.65515    0.007
 6674.00    0.57767   3.64722    0.007
 6675.00    0.54830   3.64034    0.007
 6676.00    0.53276   3.63311    0.007
 6677.00    0.51576   3.62401    0.007
 6678.00    0.49616   3.61958    0.007
 6679.00    0.48069   3.62306    0.007
 6680.00    0.47168   3.63035    0.007
 6681.00    0.48575   3.63703    0.007
 6682.00    0.53149   3.64442    0.007
 6683.00    0.54372   3.65386    0.007
 6684.00    0.51548   3.66319    0.007
 6685.00    0.48348   3.66962    0.007
 6686.00    0.44747   3.67351    0.007
 6687.00    0.46469   3.67749    0.007
 6688.00    0.53188   3.68136    0.007
 6689.00    0.57416   3.68447    0.007
 6690.00    0.59583   3.68577    0.007
 6691.00    0.59089   3.68621    0.007
 6692.00    0.56656   3.68610    0.007
 6693.00    0.56483   3.68588    0.007
 6694.00    0.57758   3.68501    0.007
 6695.00    0.60556   3.68436    0.007
 6696.00    0.64206   3.68400    0.000
 6697.00    0.65844   3.68469    0.000
 6698.00    0.66503   3.68620    0.000
 6699.00    0.68270   3.68793    0.000
 6700.00    0.70502   3.68923    0.000
 6701.00    0.67368   3.69028    0.000
 6702.00    0.62301   3.69106    0.000
 6703.00    0.59902   3.69096    0.000
 6704.00    0.58316   3.69103    0.000
 6705.00    0.57686   3.69175    0.000
 6706.00    0.57298   3.69172    0.000
 6707.00    0.56068   3.69142    0.000
 6708.00    0.54665   3.69174    0.000
 6709.00    0.64074   3.69096    0.000
 6710.00    0.75234   3.68774    0.000
 6711.00    0.79388   3.68434    0.000
 6712.00    0.82695   3.68043    0.000
 6713.00    0.80644   3.67376    0.000
 6714.00    0.78149   3.66624    0.000
 6715.00    0.72515   3.66108    0.000
 6716.00    0.66733   3.65643    0.000
 6717.00    0.65294   3.65064    0.000
 6718.00    0.63952   3.64901    0.000
 6719.00    0.64554   3.65323    0.000
 6720.00    0.64997   3.65704    0.000
 6721.00    0.62319   3.65903    0.000
 6722.00    0.60129   3.66440    0.000
 6723.00    0.63532   3.67237    0.000
 6724.00    0.67580   3.67718    0.000
 6725.00    0.76763   3.68057    0.000
 6726.00    0.84618   3.68533    0.000
 6727.00    0.84511   3.69024    0.000
 6728.00    0.82860   3.69340    0.000
 6729.00    0.73901   3.69651    0.000
 6730.00    0.66188   3.69973    0.000
 6731.00    0.63289   3.70173    0.000
 6732.00    0.60277   3.70265    0.000
 6733.00    0.56900   3.70345    0.000
 6734.00    0.55424   3.70284    0.000
 6735.00    0.59129   3.70092    0.000
 6736.00    0.64306   3.70037    0.000
 6737.00    0.72922   3.69967    0.000
 6738.00    0.78852   3.69656    0.000
 6739.00    0.79355   3.69424    0.000
 6740.00    0.76917   3.69517    0.000
 6741.00    0.69303   3.69620    0.000
 6742.00    0.62362   3.69537    0.000
 6743.00    0.56455   3.69552    0.000
 6744.00    0.54152   3.69877    0.000
 6745.00    0.56720   3.70138    0.000
 6746.00    0.59096   3.70140    0.000
 6747.00    0.61241   3.70175    0.000
 6748.00    0.62070   3.70358    0.000
 6749.00    0.61518   3.70383    0.000
 6750.00    0.60771   3.70391    0.000
 6751.00    0.59843   3.70649    0.000
 6752.00    0.64554   3.70991    0.000
 6753.00    0.73868   3.71268    0.007
 6754.00    0.76735   3.71732    0.007
 6755.00    0.74972   3.72307    0.008
 6756.00    0.68303   3.72805    0.008
 6757.00    0.58541   3.73253    0.008
 6758.00    0.52547   3.73643    0.008
 6759.00    0.48631   3.73855    0.008
 6760.00    0.53726   3.73939    0.008
 6761.00    0.63140   3.73916    0.008
 6762.00    0.67114   3.73660    0.008
 6763.00    0.68838   3.73264    0.008
 6764.00    0.69958   3.72910    0.008
 6765.00    0.70864   3.72559    0.008
 6766.00    0.73075   3.72137    0.008
 6767.00    0.75674   3.71800    0.008
 6768.00    0.74708   3.71722    0.008
 6769.00    0.72858   3.71933    0.008
 6770.00    0.67780   3.72263    0.008
 6771.00    0.62054   3.72640    0.008
 6772.00    0.63030   3.73263    0.008
 6773.00    0.65058   3.74065    0.008
 6774.00    0.66089   3.74798    0.007
 6775.00    0.67004   3.75379    0.007
 6776.00    0.65490   3.75833    0.007
 6777.00    0.63784   3.76134    0.007
 6778.00    0.73979   3.76266    0.007
 6779.00    0.84693   3.76167    0.007
 6780.00    0.82023   3.75801    0.007
 6781.00    0.79104   3.75383    0.007
 6782.00    0.71051   3.75006    0.007
 6783.00    0.63401   3.74572    0.008
 6784.00    0.63055   3.74163    0.007
 6785.00    0.62257   3.74000    0.007
 6786.00    0.56512   3.73947    0.007
 6787.00    0.52022   3.73964    0.008
 6788.00    0.57177   3.74116    0.008
 6789.00    0.62327   3.74305    0.008
 6790.00    0.67456   3.74383    0.008
 6791.00    0.71075   3.74540    0.008
 6792.00    0.67712   3.74728    0.008
 6793.00    0.64585   3.74799    0.008
 6794.00    0.62348   3.74907    0.007
 6795.00    0.61853   3.75200    0.007
 6796.00    0.66857   3.75510    0.007
 6797.00    0.71409   3.75734    0.007
 6798.00    0.74748   3.76029    0.007
 6799.00    0.77018   3.76408    0.007
 6800.00    0.76830   3.76723    0.007
 6801.00    0.76408   3.76986    0.007
 6802.00    0.75520   3.77203    0.007
 6803.00    0.71414   3.77300    0.007
 6804.00    0.61733   3.77403    0.007
 6805.00    0.53142   3.77570    0.007
 6806.00    0.46204   3.77560    0.007
 6807.00    0.46391   3.77528    0.007
 6808.00    0.56073   3.77738    0.007
 6809.00    0.63471   3.77855    0.007
 6810.00    0.68189   3.77764    0.007
 6811.00    0.72416   3.77786    0.007
 6812.00    0.76137   3.77855    0.008
 6813.00    0.77403   3.77765    0.008
 6814.00    0.76428   3.77615    0.008
 6815.00    0.73661   3.77598    0.008
 6816.00    0.69452   3.77677    0.008
 6817.00    0.68328   3.77797    0.007
 6818.00    0.69387   3.78017    0.007
 6819.00    0.73191   3.78288    0.007
 6820.00    0.78699   3.78561    0.007
 6821.00    0.75489   3.78886    0.007
 6822.00    0.67546   3.79265    0.007
 6823.00    0.61469   3.79484    0.007
 6824.00    0.56271   3.79535    0.007
 6825.00    0.58989   3.79604    0.007
 6826.00    0.64925   3.79688    0.007
 6827.00    0.64917   3.79667    0.007
 6828.00    0.62846   3.79620    0.008
 6829.00    0.57191   3.79638    0.008
 6830.00    0.50487   3.79755    0.008
 6831.00    0.55526   3.79933    0.008
 6832.00    0.63409   3.79950    0.008
 6833.00    0.65599   3.79827    0.007
 6834.00    0.66675   3.79774    0.007
 6835.00    0.67557   3.79570    0.007
 6836.00    0.68408   3.79213    0.007
 6837.00    0.74196   3.78784    0.008
 6838.00    0.80538   3.78282    0.008
 6839.00    0.77882   3.77887    0.008
 6840.00    0.74554   3.77747    0.007
 6841.00    0.65027   3.77657    0.007
 6842.00    0.55255   3.77746    0.007
 6843.00    0.55154   3.78168    0.007
 6844.00    0.55385   3.78821    0.007
 6845.00    0.66151   3.79436    0.007
 6846.00    0.75263   3.79930    0.007
 6847.00    0.56446   3.80419    0.007
 6848.00    0.39635   3.80820    0.007
 6849.00    0.43823   3.81060    0.007
 6850.00    0.48056   3.81135    0.007
 6851.00    0.52619   3.81017    0.007
 6852.00    0.56242   3.80797    0.007
 6853.00    0.54531   3.80569    0.007
 6854.00    0.53923   3.80238    0.007
 6855.00    0.58288   3.79921    0.007
 6856.00    0.61050   3.79733    0.007
 6857.00    0.57876   3.79577    0.007
 6858.00    0.54284   3.79524    0.007
 6859.00    0.49396   3.79665    0.007
 6860.00    0.46718   3.79772    0.007
 6861.00    0.49853   3.79885    0.007
 6862.00    0.51966   3.80228    0.007
 6863.00    0.51770   3.80638    0.007
 6864.00    0.56465   3.80956    0.007
 6865.00    0.70734   3.81189    0.007
 6866.00    0.77121   3.81395    0.007
 6867.00    0.70056   3.81505    0.007
 6868.00    0.62832   3.81517    0.007
 6869.00    0.55368   3.81570    0.007
 6870.00    0.50970   3.81602    0.008
 6871.00    0.50602   3.81608    0.008
 6872.00    0.54974   3.81797    0.007
 6873.00    0.64832   3.82180    0.007
 6874.00    0.69081   3.82710    0.007
 6875.00    0.67608   3.83203    0.007
 6876.00    0.67484   3.83706    0.007
 6877.00    0.68572   3.84205    0.007
 6878.00    0.63395   3.84510    0.007
 6879.00    0.53248   3.84519    0.007
 6880.00    0.47559   3.84521    0.007
 6881.00    0.44980   3.84439    0.007
 6882.00    0.46752   3.84083    0.007
 6883.00    0.51186   3.83976    0.007
 6884.00    0.54480   3.84148    0.007
 6885.00    0.57166   3.84350    0.007
 6886.00    0.57350   3.84629    0.007
 6887.00    0.56372   3.85214    0.007
 6888.00    0.54358   3.85912    0.007
 6889.00    0.51930   3.86551    0.007
 6890.00    0.52040   3.87162    0.007
 6891.00    0.53015   3.87709    0.007
 6892.00    0.57568   3.88012    0.007
 6893.00    0.63146   3.88214    0.007
 6894.00    0.66077   3.88312    0.007
 6895.00    0.68382   3.88332    0.007
 6896.00    0.64643   3.88378    0.007
 6897.00    0.59752   3.88348    0.007
 6898.00    0.65078   3.88346    0.007
 6899.00    0.71913   3.88457    0.007
 6900.00    0.70849   3.88516    0.007
 6901.00    0.68933   3.88515    0.007
 6902.00    0.69913   3.88699    0.007
 6903.00    0.71096   3.88992    0.007
 6904.00    0.66989   3.89295    0.007
 6905.00    0.62692   3.89483    0.007
 6906.00    0.62652   3.89694    0.007
 6907.00    0.62300   3.90014    0.007
 6908.00    0.50703   3.90115    0.007
 6909.00    0.39824   3.89949    0.007
 6910.00    0.40306   3.89640    0.007
 6911.00    0.40694   3.89301    0.007
 6912.00    0.40138   3.88948    0.007
 6913.00    0.40331   3.88458    0.007
 6914.00    0.45908   3.88035    0.007
 6915.00    0.51582   3.87995    0.007
 6916.00    0.57784   3.88071    0.007
 6917.00    0.63237   3.88196    0.007
 6918.00    0.65382   3.88582    0.007
 6919.00    0.66110   3.88921    0.007
 6920.00    0.61705   3.89157    0.007
 6921.00    0.59151   3.89394    0.007
 6922.00    0.62225   3.89539    0.007
 6923.00    0.66592   3.89611    0.007
 6924.00    0.74304   3.89688    0.007
 6925.00    0.78024   3.89833    0.007
 6926.00    0.72873   3.89969    0.007
 6927.00    0.69791   3.90259    0.007
 6928.00    0.70697   3.90574    0.007
 6929.00    0.68283   3.90670    0.007
 6930.00    0.60288   3.90765    0.007
 6931.00    0.57299   3.90933    0.007
 6932.00    0.61681   3.90943    0.007
 6933.00    0.61743   3.90773    0.007
 6934.00    0.56211   3.90861    0.008
 6935.00    0.54611   3.91050    0.008
 6936.00    0.57495   3.91022    0.008
 6937.00    0.60062   3.91058    0.007
 6938.00    0.62310   3.91180    0.007
 6939.00    0.62283   3.91267    0.007
 6940.00    0.60236   3.91218    0.007
 6941.00    0.57911   3.91019    0.007
 6942.00    0.55368   3.90892    0.007
 6943.00    0.54622   3.90859    0.007
 6944.00    0.55111   3.90745    0.007
 6945.00    0.56929   3.90715    0.007
 6946.00    0.59547   3.91078    0.007
 6947.00    0.60036   3.91540    0.007
 6948.00    0.59404   3.91843    0.007
 6949.00    0.59384   3.92282    0.007
 6950.00    0.59644   3.92652    0.007
 6951.00    0.56369   3.92708    0.007
 6952.00    0.51706   3.92835    0.007
 6953.00    0.47865   3.93039    0.007
 6954.00    0.44299   3.93036    0.007
 6955.00    0.47656   3.93000    0.007
 6956.00    0.52958   3.93261    0.007
 6957.00    0.49092   3.93564    0.007
 6958.00    0.43103   3.93759    0.007
 6959.00    0.49287   3.94047    0.007
 6960.00    0.57731   3.94497    0.007
 6961.00    0.61042   3.94858    0.007
 6962.00    0.63619   3.95113    0.007
 6963.00    0.63237   3.95438    0.007
 6964.00    0.62550   3.95710    0.007
 6965.00    0.59311   3.95880    0.007
 6966.00    0.55903   3.96015    0.007
 6967.00    0.50583   3.96101    0.007
 6968.00    0.45204   3.96204    0.007
 6969.00    0.49494   3.96217    0.007
 6970.00    0.53525   3.96044    0.007
 6971.00    0.49614   3.95724    0.007
 6972.00    0.45570   3.95400    0.007
 6973.00    0.39550   3.94936    0.007
 6974.00    0.35305   3.94250    0.007
 6975.00    0.48104   3.93537    0.008
 6976.00    0.59161   3.93079    0.008
 6977.00    0.58107   3.92863    0.007
 6978.00    0.57033   3.92739    0.007
 6979.00    0.55854   3.93086    0.007
 6980.00    0.55004   3.94057    0.007
 6981.00    0.55571   3.95113    0.007
 6982.00    0.55268   3.96020    0.007
 6983.00    0.51873   3.97119    0.007
 6984.00    0.50050   3.98112    0.007
 6985.00    0.52918   3.98612    0.007
 6986.00    0.55571   3.98934    0.007
 6987.00    0.57676   3.99254    0.007
 6988.00    0.61862   3.99358    0.007
 6989.00    0.70594   3.99268    0.007
 6990.00    0.73386   3.99350    0.008
 6991.00    0.64910   3.99559    0.007
 6992.00    0.59925   3.99677    0.007
 6993.00    0.60721   3.99672    0.008
 6994.00    0.62995   3.99689    0.008
 6995.00    0.67411   3.99637    0.008
 6996.00    0.63693   3.99414    0.007
 6997.00    0.49590   3.99170    0.007
 6998.00    0.43259   3.98791    0.007
 6999.00    0.45670   3.98355    0.007
 7000.00    0.52310   3.97988    0.007
 7001.00    0.63144   3.97665    0.007
 7002.00    0.66566   3.97497    0.007
 7003.00    0.63503   3.97471    0.007
 7004.00    0.61009   3.97443    0.007
 7005.00    0.58955   3.97617    0.007
 7006.00    0.59516   3.98009    0.007
 7007.00    0.61847   3.98368    0.007
 7008.00    0.58694   3.98646    0.007
 7009.00    0.52283   3.98870    0.008
 7010.00    0.49324   3.98977    0.008
 7011.00    0.48152   3.98837    0.008
 7012.00    0.49748   3.98395    0.008
 7013.00    0.52586   3.97926    0.008
 7014.00    0.58023   3.97621    0.008
 7015.00    0.64464   3.97337    0.008
 7016.00    0.62202   3.97009    0.008
 7017.00    0.57083   3.97237    0.008
 7018.00    0.53123   3.97996    0.008
 7019.00    0.49482   3.98596    0.007
 7020.00    0.51473   3.99218    0.007
 7021.00    0.54736   4.00062    0.007
 7022.00    0.57880   4.00847    0.007
 7023.00    0.61002   4.01409    0.007
 7024.00    0.57547   4.01842    0.007
 7025.00    0.53180   4.02464    0.007
 7026.00    0.60213   4.03088    0.007
 7027.00    0.68377   4.03400    0.008
 7028.00    0.69794   4.03746    0.008
 7029.00    0.70788   4.04240    0.008
 7030.00    0.60732   4.04500    0.008
 7031.00    0.50372   4.04535    0.008
 7032.00    0.42470   4.04617    0.008
 7033.00    0.35107   4.04665    0.008
 7034.00    0.42540   4.04554    0.008
 7035.00    0.49637   4.04548    0.008
 7036.00    0.52010   4.04835    0.008
 7037.00    0.54275   4.05261    0.008
 7038.00    0.55552   4.05720    0.008
 7039.00    0.55657   4.06560    0.008
 7040.00    0.47868   4.07786    0.008
 7041.00    0.42515   4.08813    0.008
 7042.00    0.49897   4.09631    0.007
 7043.00    0.57183   4.10239    0.007
 7044.00    0.64069   4.10532    0.007
 7045.00    0.68680   4.10489    0.007
 7046.00    0.65377   4.09844    0.008
 7047.00    0.62771   4.09179    0.008
 7048.00    0.62206   4.08746    0.008
 7049.00    0.61211   4.07453    0.008
 7050.00    0.59141   4.06394   -2.000
 7051.00    0.60460   4.06393   -2.000
 7052.00    0.69065   4.05891   -2.000
 7053.00    0.69605   4.05104   -2.000
 7054.00    0.55085   4.05146   -2.000
 7055.00    0.50466   4.05077   -2.000
 7056.00    0.61997   4.04643   -2.000
 7057.00    0.64914   4.04516   -2.000
 7058.00    0.55508   4.04404   -2.000
 7059.00    0.56152   4.04018   -2.000
 7060.00    0.69443   4.03790   -2.000
 7061.00    0.70295   4.03730   -2.000
 7062.00    0.57355   4.03497   -2.000
 7063.00    0.52601   4.03386   -2.000
 7064.00    0.55853   4.03533   -2.000
 7065.00    0.62291   4.03406   -2.000
 7066.00    0.71477   4.03403   -2.000
 7067.00    0.72124   4.03764   -2.000
 7068.00    0.66283   4.04012   -2.000
 7069.00    0.61470   4.04392   -2.000
 7070.00    0.57345   4.05030   -2.000
 7071.00    0.61614   4.05638   -2.000
 7072.00    0.70791   4.06197   -2.000
 7073.00    0.67536   4.06669   -2.000
 7074.00    0.57943   4.07020   -2.000
 7075.00    0.53933   4.07301   -2.000
 7076.00    0.52389   4.07265   -2.000
 7077.00    0.49658   4.06976   -2.000
 7078.00    0.46477   4.06732   -2.000
 7079.00    0.53372   4.06171   -2.000
 7080.00    0.63511   4.05217   -2.000
 7081.00    0.68506   4.04194   -2.000
 7082.00    0.72114   4.03014   -2.000
 7083.00    0.71181   4.01666   -2.000
 7084.00    0.69244   4.00120   -2.000
 7085.00    0.70430   3.98689   -2.000
 7086.00    0.72166   3.97579   -2.000
 7087.00    0.72549   3.96354   -2.000
 7088.00    0.72752   3.95234   -2.000
 7089.00    0.69252   3.94531   -2.000
 7090.00    0.65400   3.93931   -2.000
 7091.00    0.59510   3.93484   -2.000
 7092.00    0.53500   3.93430   -2.000
 7093.00    0.59188   3.93597   -2.000
 7094.00    0.65203   3.93904   -2.000
 7095.00    0.76424   3.94518   -2.000
 7096.00    0.86493   3.95497   -2.000
 7097.00    0.67908   3.96460   -2.000
 7098.00    0.50656   3.97446   -2.000
 7099.00    0.51109   3.98793   -2.000
 7100.00    0.51194   3.99908   -2.000
 7101.00    0.48015   4.00787   -2.000
 7102.00    0.45675   4.01570   -2.000
 7103.00    0.48816   4.02167   -2.000
 7104.00    0.51909   4.02571   -2.000
 7105.00    0.54760   4.02852   -2.000
 7106.00    0.57768   4.02979   -2.000
 7107.00    0.61424   4.02957   -2.000
 7108.00    0.64388   4.03105   -2.000
 7109.00    0.64993   4.03290   -2.000
 7110.00    0.65989   4.03391   -2.000
 7111.00    0.68111   4.03673   -2.000
 7112.00    0.65863   4.04174   -2.000
 7113.00    0.52893   4.04734   -2.000
 7114.00    0.47012   4.05296   -2.000
 7115.00    0.56130   4.05857   -2.000
 7116.00    0.62251   4.06370   -2.000
 7117.00    0.62860   4.06782   -2.000
 7118.00    0.61143   4.06926   -2.000
 7119.00    0.55690   4.06826   -2.000
 7120.00    0.58231   4.06722   -2.000
 7121.00    0.72040   4.06376   -2.000
 7122.00    0.77699   4.05706   -2.000
 7123.00    0.73251   4.05136   -2.000
 7124.00    0.71619   4.04556   -2.000
 7125.00    0.73066   4.03717   -2.000
 7126.00    0.76384   4.02905   -2.000
 7127.00    0.81507   4.02254   -2.000
 7128.00    0.73936   4.01721   -2.000
 7129.00    0.55569   4.01404   -2.000
 7130.00    0.51210   4.01244   -2.000
 7131.00    0.57340   4.01351   -2.000
 7132.00    0.57170   4.01812   -2.000
 7133.00    0.52855   4.02329   -2.000
 7134.00    0.48142   4.03003   -2.000
 7135.00    0.43201   4.03673   -2.000
 7136.00    0.47999   4.04184   -2.000
 7137.00    0.57685   4.04769   -2.000
 7138.00    0.51797   4.05194   -2.000
 7139.00    0.39146   4.05392   -2.000
 7140.00    0.47093   4.05605   -2.000
 7141.00    0.62713   4.05759   -2.000
 7142.00    0.65759   4.05730   -2.000
 7143.00    0.64833   4.05662   -2.000
 7144.00    0.71347   4.05451   -2.000
 7145.00    0.79822   4.05166   -2.000
 7146.00    0.80812   4.05127   -2.000
 7147.00    0.80188   4.05092   -2.000
 7148.00    0.75312   4.05077   -2.000
 7149.00    0.69709   4.05629   -2.000
 7150.00    0.65591   4.06421   -2.000
 7151.00    0.61665   4.07182   -2.000
 7152.00    0.37964   4.08165   -2.000
 7153.00    0.12468   4.09189   -2.000
 7154.00    0.41349   4.10041   -2.000
 7155.00    0.73206   4.10704   -2.000
 7156.00    0.72027   4.11211   -2.000
 7157.00    0.70385   4.11542   -2.000
 7158.00    0.89726   4.11609   -2.000
 7159.00    1.07929   4.11478   -2.000
 7160.00    1.00302   4.11129   -2.000
 7161.00    0.94193   4.10724   -2.000
 7162.00    1.07204   4.10385   -2.000
 7163.00    1.15876   4.09984   -2.000
 7164.00    0.87542   4.09641   -2.000
 7165.00    0.65060   4.09512   -2.000
 7166.00    0.79663   4.09772   -2.000
 7167.00    0.84981   4.10167   -2.000
 7168.00    0.44200   4.10519   -2.000
 7169.00    0.15769   4.11052   -2.000
 7170.00    0.37047   4.11643   -2.000
 7171.00    0.52983   4.12083   -2.000
 7172.00    0.51067   4.12419   -2.000
 7173.00    0.49091   4.12598   -2.000
 7174.00    0.46945   4.12682   -2.000
 7175.00    0.48739   4.12651   -2.000
 7176.00    0.60039   4.12343   -2.000
 7177.00    0.71449   4.12013   -2.000
 7178.00    0.83088   4.11836   -2.000
 7179.00    0.94588   4.11525   -2.000
 7180.00    1.05839   4.11126   -2.000
 7181.00    1.04831   4.10946   -2.000
 7182.00    0.84418   4.10945   -2.000
 7183.00    0.68812   4.10887   -2.000
 7184.00    0.59887   4.10722   -2.000
 7185.00    0.56498   4.10728   -2.000
 7186.00    0.59877   4.10667   -2.000
 7187.00    0.60609   4.10471   -2.000
 7188.00    0.58489   4.10565   -2.000
 7189.00    0.54687   4.10759   -2.000
 7190.00    0.49284   4.10979   -2.000
 7191.00    0.49194   4.11523   -2.000
 7192.00    0.53557   4.12147   -2.000
 7193.00    0.62260   4.12550   -2.000
 7194.00    0.74166   4.13000   -2.000
 7195.00    0.71694   4.13618   -2.000
 7196.00    0.59899   4.13862   -2.000
 7197.00    0.55910   4.13882   -2.000
 7198.00    0.56349   4.14144   -2.000
 7199.00    0.64998   4.14213   -2.000
 7200.00    0.77700   4.14198   -2.000
 7201.00    0.79397   4.14273   -2.000
 7202.00    0.76395   4.14196   -2.000
 7203.00    0.62053   4.14049   -2.000
 7204.00    0.43562   4.13959   -2.000
 7205.00    0.40871   4.13905   -2.000
 7206.00    0.43075   4.13659   -2.000
 7207.00    0.37593   4.13410   -2.000
 7208.00    0.30126   4.13675   -2.000
 7209.00    0.42921   4.13987   -2.000
 7210.00    0.59977   4.14290   -2.000
 7211.00    0.65454   4.15086   -2.000
 7212.00    0.69007   4.15856   -2.000
 7213.00    0.75697   4.16500   -2.000
 7214.00    0.82779   4.17342   -2.000
 7215.00    0.69798   4.18141   -2.000
 7216.00    0.55080   4.18796   -2.000
 7217.00    0.53237   4.19454   -2.000
 7218.00    0.52049   4.20165   -2.000
