###################################################################
## OUTPUT of StarlightChains_v04.for    [Cid@UFSC - 01/Apr/2007] ##
###################################################################

## Some input info
KUG0210-078._39_37.txt                   [arq_obs]
Base.CB07.vall.4m                        [arq_base]
Masks.EmLines.NEW.gm                     [arq_masks]
StCv04.C11.config                        [arq_config]
   66                                    [N_base]
    0                                    [N_YAV_components = # of components with extra extinction!]
    0                                    [i_FitPowerLaw (1/0 = Yes/No)]
-9.99                                    [alpha_PowerLaw]
CCM                                      [red_law_option]
 1.458241                                [q_norm = A(l_norm)/A(V)]

## (Re)Sampling Parameters
 3741.00                                 [l_ini (A)]
 7218.00                                 [l_fin (A)]
    1.00                                 [dl    (A)]     (OBS: dl_cushion =    50.00 A)

## Normalization info
 4020.00                                 [l_norm (A) - for base]
 4010.00                                 [llow_norm (A) - window for f_obs]
 4060.00                                 [lupp_norm (A) - window for f_obs]
1.794522E-17                             [fobs_norm (in input units)]

## S/N
 3691.00                                 [llow_SN (A) - window for S/N]
 7268.00                                 [lupp_SN (A) - window for S/N]
   5.753                                 [S/N in S/N window]
   5.123                                 [S/N in norm. window]
   0.022                                 [S/N_err in S/N window]
   0.020                                 [S/N_err in norm. window]
  1.0000                                 [fscale_chi2]

## etc...
    -2007694                             [idum_orig]
  2432                                   [NOl_eff]
  2411                                   [Nl_eff]
    21    NSIGMA                         [Ntot_cliped & clip_method]
  5498150                                [Nglobal_steps]
   7                                     [N_chains]
  20                                     [NEX0s_base = N_base in EX0s-fits]
 0   0   1       21   2.0   3.422E+03    [Clip-Bug, RC-Crash & Burn-In warning-flags, n_censored_weights, wei_nsig_threshold & wei_limit]
   338    334.460    331.915      2.545  [idt_all, wdt_TotTime, wdt_UsrTime & wdt_SysTime (sec)]

## Synthesis Results - Best model ##

 8.17400E-06                             [chi2/Nl_eff]
     6.53090                             [adev (%)]

   115.02776                             [sum-of-x (%)]
 1.30916E-17                             [Flux_tot (units of input spectrum!)]
 6.27969E-13                             [Mini_tot (???)]
 3.25063E-13                             [Mcor_tot (???)]

-136.81                                  [v0_min  (km/s)]
 374.40                                  [vd_min  (km/s)]
-0.3390                                  [AV_min  (mag)]
 0.0000                                  [YAV_min (mag)]

# j     x_j(%)      Mini_j(%)     Mcor_j(%)     age_j(yr)     Z_j      (L/M)_j    YAV?  Mstars   component_j        a/Fe...       SSP_chi2r SSP_adev(%)   SSP_AV   SSP_x(%)
  1      0.0000     0.0000E+00    0.0000E+00    1.000000E+06  0.00400  1.094E-02    0   1.0000   age020_m42            0.0000     2.0573E-05    11.4058   3.4007    93.3377
  2      0.0000     0.0000E+00    0.0000E+00    3.160000E+06  0.00400  4.007E-02    0   0.9999   age045_m42            0.0000     1.6442E-05    10.4390   2.6489   100.6770
  3      0.0000     0.0000E+00    0.0000E+00    5.010000E+06  0.00400  2.539E-02    0   0.9488   age055_m42            0.0000     1.8214E-05    10.9159   2.9823    97.7504
  4      0.0000     0.0000E+00    0.0000E+00    6.610000E+06  0.00400  2.620E-02    0   0.9220   age061_m42            0.0000     1.6419E-05    10.4998   2.5771   100.8278
  5      0.0000     0.0000E+00    0.0000E+00    1.000000E+07  0.00400  1.322E-02    0   0.8862   age070_m42            0.0000     1.8306E-05    11.7774   2.3304   101.6911
  6      0.7592     1.7455E-03    2.8902E-03    1.445000E+07  0.00400  7.883E-03    0   0.8571   age078_m42            0.0000     1.9240E-05    11.9201   2.6593    99.0459
  7      0.0000     0.0000E+00    0.0000E+00    2.512000E+07  0.00400  5.251E-03    0   0.8174   age090_m42            0.0000     1.8428E-05    11.9848   2.2048   102.1134
  8      0.0000     0.0000E+00    0.0000E+00    4.000000E+07  0.00400  3.649E-03    0   0.7851   age104_m42            0.0000     1.7411E-05    11.6396   1.9705   103.2480
  9      0.0000     0.0000E+00    0.0000E+00    5.500000E+07  0.00400  3.098E-03    0   0.7629   age110_m42            0.0000     1.6183E-05    10.8939   2.1034   104.0252
 10      0.0000     0.0000E+00    0.0000E+00    1.015200E+08  0.00400  2.228E-03    0   0.7207   age116_m42            0.0000     1.5412E-05    10.4014   2.1094   104.7436
 11      0.0000     0.0000E+00    0.0000E+00    2.861200E+08  0.00400  1.093E-03    0   0.6648   age125_m42            0.0000     1.5142E-05    10.7210   1.5411   107.6541
 12      0.0000     0.0000E+00    0.0000E+00    5.088000E+08  0.00400  6.597E-04    0   0.6365   age130_m42            0.0000     1.3793E-05     9.8613   1.5114   109.3744
 13      0.0000     0.0000E+00    0.0000E+00    1.434000E+09  0.00400  2.132E-04    0   0.5798   age139_m42            0.0000     1.0891E-05     8.6712   0.5321   111.8998
 14      0.0000     0.0000E+00    0.0000E+00    4.250000E+09  0.00400  5.895E-05    0   0.5377   age158_m42            0.0000     9.8428E-06     7.8888   0.0809   107.9163
 15      0.0000     0.0000E+00    0.0000E+00    7.500000E+09  0.00400  3.510E-05    0   0.5212   age171_m42            0.0000     9.4864E-06     7.5987  -0.1178   107.5470
 16      0.0000     0.0000E+00    0.0000E+00    1.300000E+10  0.00400  2.005E-05    0   0.5034   age193_m42            0.0000     9.3838E-06     7.4538  -0.2922   107.2590
 17      0.0000     0.0000E+00    0.0000E+00    1.800000E+10  0.00400  1.525E-05    0   0.4967   age213_m42            0.0000     9.5596E-06     7.5613  -0.3121   106.6642
 18      0.0000     0.0000E+00    0.0000E+00    1.000000E+06  0.00800  1.238E-02    0   1.0000   age020_m52            0.0000     2.0596E-05    11.3913   3.3961    93.5483
 19      0.0000     0.0000E+00    0.0000E+00    3.160000E+06  0.00800  3.074E-02    0   0.9966   age045_m52            0.0000     2.0220E-05    11.2817   3.3185    94.4456
 20      0.0000     0.0000E+00    0.0000E+00    5.010000E+06  0.00800  2.668E-02    0   0.9443   age055_m52            0.0000     1.8827E-05    11.0598   3.0700    96.7135
 21      0.0000     0.0000E+00    0.0000E+00    6.610000E+06  0.00800  2.136E-02    0   0.9177   age061_m52            0.0000     1.7339E-05    11.4071   1.8344   102.7442
 22      0.0000     0.0000E+00    0.0000E+00    1.000000E+07  0.00800  1.215E-02    0   0.8827   age070_m52            0.0000     1.9686E-05    12.3573   2.5196   101.0545
 23      0.0000     0.0000E+00    0.0000E+00    1.445000E+07  0.00800  8.717E-03    0   0.8552   age078_m52            0.0000     1.8914E-05    11.8571   2.6237   100.4706
 24      0.0000     0.0000E+00    0.0000E+00    2.512000E+07  0.00800  5.592E-03    0   0.8162   age090_m52            0.0000     1.8399E-05    12.0239   2.2669   103.3699
 25      0.0000     0.0000E+00    0.0000E+00    4.000000E+07  0.00800  3.896E-03    0   0.7841   age104_m52            0.0000     1.7195E-05    11.5442   2.1669   104.6176
 26      0.0000     0.0000E+00    0.0000E+00    1.015200E+08  0.00800  2.148E-03    0   0.7226   age116_m52            0.0000     1.5567E-05    10.7153   2.0856   105.2037
 27      0.0000     0.0000E+00    0.0000E+00    2.861200E+08  0.00800  9.925E-04    0   0.6683   age125_m52            0.0000     1.3741E-05     9.7959   1.5763   110.4109
 28      8.7965     5.0757E-01    6.0186E-01    9.047900E+08  0.00800  3.141E-04    0   0.6138   age135_m52            0.0000     1.0652E-05     8.2929   0.7441   116.3076
 29      0.0000     0.0000E+00    0.0000E+00    1.434000E+09  0.00800  1.719E-04    0   0.5853   age139_m52            0.0000     9.7791E-06     8.1574   0.1713   113.5338
 30      0.0000     0.0000E+00    0.0000E+00    2.500000E+09  0.00800  7.872E-05    0   0.5600   age150_m52            0.0000     8.8906E-06     7.2490  -0.1153   111.2403
 31      0.0000     0.0000E+00    0.0000E+00    4.250000E+09  0.00800  4.336E-05    0   0.5426   age158_m52            0.0000     9.0863E-06     7.3187  -0.1296   110.1478
 32     13.5111     7.7516E+00    7.9652E+00    6.250000E+09  0.00800  3.159E-05    0   0.5319   age166_m52            0.0000     8.6860E-06     6.9968  -0.3503   110.8145
 33      0.0000     0.0000E+00    0.0000E+00    1.300000E+10  0.00800  1.361E-05    0   0.5073   age193_m52            0.0000     8.6257E-06     6.7797  -0.8409   110.9102
 34      0.0000     0.0000E+00    0.0000E+00    1.800000E+10  0.00800  9.886E-06    0   0.4990   age213_m52            0.0000     8.8559E-06     6.8991  -0.9725   111.2201
 35      0.0000     0.0000E+00    0.0000E+00    1.000000E+06  0.02000  1.544E-02    0   1.0000   age020_m62            0.0000     2.0753E-05    11.4288   3.3939    93.7222
 36      0.0000     0.0000E+00    0.0000E+00    3.160000E+06  0.02000  3.762E-02    0   0.9858   age045_m62            0.0000     2.0750E-05    11.3801   3.3304    94.6327
 37      0.0000     0.0000E+00    0.0000E+00    5.010000E+06  0.02000  3.296E-02    0   0.9342   age055_m62            0.0000     1.7362E-05    10.5672   2.9320    99.3444
 38      0.0000     0.0000E+00    0.0000E+00    8.710000E+06  0.02000  1.154E-02    0   0.8861   age067_m62            0.0000     2.7273E-05    16.0165   2.0326   101.4022
 39      0.0000     0.0000E+00    0.0000E+00    1.445000E+07  0.02000  7.663E-03    0   0.8472   age078_m62            0.0000     2.1121E-05    13.2812   2.1819   102.6649
 40      0.0000     0.0000E+00    0.0000E+00    2.512000E+07  0.02000  4.532E-03    0   0.8099   age090_m62            0.0000     2.1253E-05    13.4523   2.1737   102.3585
 41      0.0000     0.0000E+00    0.0000E+00    5.500000E+07  0.02000  2.733E-03    0   0.7595   age110_m62            0.0000     1.7326E-05    11.5441   2.1523   103.7645
 42      0.0000     0.0000E+00    0.0000E+00    1.609000E+08  0.02000  1.369E-03    0   0.6985   age120_m62            0.0000     1.5070E-05    10.3394   1.9563   107.9857
 43      0.0000     0.0000E+00    0.0000E+00    2.861200E+08  0.02000  9.013E-04    0   0.6714   age125_m62            0.0000     1.4006E-05     9.6516   1.6845   111.9810
 44     13.2363     4.7711E-01    5.9441E-01    5.088000E+08  0.02000  5.028E-04    0   0.6449   age130_m62            0.0000     1.2020E-05     8.4169   1.2729   116.3139
 45      0.0000     0.0000E+00    0.0000E+00    9.047900E+08  0.02000  2.428E-04    0   0.6179   age135_m62            0.0000     9.7297E-06     7.5873   0.6788   115.8512
 46      0.0000     0.0000E+00    0.0000E+00    1.434000E+09  0.02000  1.263E-04    0   0.5908   age139_m62            0.0000     9.1704E-06     7.3454   0.2344   114.0895
 47      6.6885     2.0254E+00    2.2197E+00    2.500000E+09  0.02000  5.985E-05    0   0.5673   age150_m62            0.0000     8.8092E-06     6.9245  -0.1503   113.2141
 48      5.8904     3.2638E+00    3.4476E+00    4.250000E+09  0.02000  3.271E-05    0   0.5468   age158_m62            0.0000     8.4850E-06     6.6525  -0.4834   113.3029
 49     37.6619     5.0190E+01    5.0098E+01    1.000000E+10  0.02000  1.360E-05    0   0.5167   age181_m62            0.0000     9.1539E-06     7.0284  -0.8699   114.2306
 50      0.0000     0.0000E+00    0.0000E+00    1.800000E+10  0.02000  7.124E-06    0   0.5013   age213_m62            0.0000     1.0609E-05     7.0427  -1.0000   111.2065
 51      0.0000     0.0000E+00    0.0000E+00    1.000000E+06  0.05000  2.592E-02    0   0.9998   age020_m72            0.0000     2.1277E-05    11.5716   3.3888    93.6363
 52      0.0000     0.0000E+00    0.0000E+00    3.160000E+06  0.05000  4.845E-02    0   0.9577   age045_m72            0.0000     1.9272E-05    10.9790   3.2030    96.2590
 53      0.0000     0.0000E+00    0.0000E+00    5.010000E+06  0.05000  3.072E-02    0   0.9147   age055_m72            0.0000     2.1094E-05    12.6338   2.7494    99.3112
 54      0.0000     0.0000E+00    0.0000E+00    6.610000E+06  0.05000  1.455E-02    0   0.8877   age061_m72            0.0000     3.3357E-05    18.6597   2.0769   101.5708
 55      0.0000     0.0000E+00    0.0000E+00    1.000000E+07  0.05000  9.074E-03    0   0.8524   age070_m72            0.0000     2.2216E-05    13.1391   2.9179    99.1499
 56      0.0000     0.0000E+00    0.0000E+00    2.512000E+07  0.05000  4.250E-03    0   0.7902   age090_m72            0.0000     1.9849E-05    12.5736   2.6173   101.3367
 57      0.0852     5.0049E-04    7.3656E-04    4.000000E+07  0.05000  3.087E-03    0   0.7618   age104_m72            0.0000     1.9551E-05    12.6946   2.3889   103.0628
 58      0.0000     0.0000E+00    0.0000E+00    1.015200E+08  0.05000  1.700E-03    0   0.7096   age116_m72            0.0000     1.6146E-05    10.9859   2.1094   107.0740
 59      0.0000     0.0000E+00    0.0000E+00    2.861200E+08  0.05000  7.384E-04    0   0.6633   age125_m72            0.0000     1.2922E-05     8.9815   1.5343   114.2593
 60     14.2836     6.7786E-01    8.3442E-01    5.088000E+08  0.05000  3.819E-04    0   0.6372   age130_m72            0.0000     1.0531E-05     7.7173   1.0177   117.1142
 61      0.0000     0.0000E+00    0.0000E+00    9.047900E+08  0.05000  1.676E-04    0   0.6110   age135_m72            0.0000     9.0455E-06     6.8731   0.3002   115.7973
 62      0.0000     0.0000E+00    0.0000E+00    1.434000E+09  0.05000  8.837E-05    0   0.5874   age139_m72            0.0000     8.8990E-06     6.9239  -0.1605   115.2546
 63      1.7724     7.5887E-01    8.2067E-01    2.500000E+09  0.05000  4.233E-05    0   0.5598   age150_m72            0.0000     8.6568E-06     6.7342  -0.4970   114.7973
 64      0.0000     0.0000E+00    0.0000E+00    6.250000E+09  0.05000  1.435E-05    0   0.5249   age166_m72            0.0000     9.3642E-06     7.2138  -0.9775   114.1740
 65     12.3425     3.4346E+01    3.3414E+01    1.300000E+10  0.05000  6.513E-06    0   0.5036   age193_m72            0.0000     1.3400E-05     8.4198  -1.0000   107.6494
 66      0.0000     0.0000E+00    0.0000E+00    1.800000E+10  0.05000  4.527E-06    0   0.4945   age213_m72            0.0000     1.8451E-05    10.9374  -1.0000   102.3875


## Synthesis Results - Average & Chains ##

# j      x_j: min, <> & last-chain-values for 1 ...  7 chains
  1      0.0000      0.4514      0.0000      0.0049      0.0000      0.0494      0.1548      0.0739      0.0014
  2      0.0000      0.4959      0.0650      0.3118      0.0000      0.0487      0.1284      0.2244      0.0486
  3      0.0000      0.8651      0.0000      0.3666      0.2711      0.0148      0.1771      0.0164      0.1064
  4      0.0000      0.3802      0.0162      0.0252      0.0121      0.1046      0.0000      0.0000      0.2042
  5      0.0000      0.5345      0.0000      0.0210      0.1929      0.0000      0.0273      0.0699      0.1033
  6      0.7592      0.4696      0.1073      0.1868      0.1956      0.3072      0.1515      0.0000      0.1291
  7      0.0000      0.8245      0.0210      0.1366      0.0441      0.0000      0.1308      0.0502      0.0916
  8      0.0000      0.9116      0.0704      0.0416      0.0000      0.0337      0.1870      0.0000      0.3060
  9      0.0000      0.6993      0.0502      0.0521      0.0245      0.0000      0.0373      0.0331      0.0058
 10      0.0000      0.4228      0.1569      0.0433      0.1832      0.0000      0.0000      0.1202      0.0309
 11      0.0000      0.4880      0.0000      0.1227      0.0000      0.0000      0.0865      0.0000      0.0072
 12      0.0000      0.7217      0.0000      0.0000      0.1836      0.2170      0.0214      0.0000      0.1121
 13      0.0000      0.4419      0.1981      0.0000      0.0000      0.0000      0.0000      0.0000      0.2524
 14      0.0000      0.4036      0.3549      0.0146      0.0000      0.0166      0.1219      0.0058      0.0000
 15      0.0000      0.5468      0.0000      0.0232      0.0931      0.0000      0.0194      0.1264      0.0000
 16      0.0000      0.6395      0.2042      0.0000      0.0000      0.1211      0.0379      0.1103      0.0000
 17      0.0000      0.8357      0.0286      0.0154      0.0893      0.3172      0.0000      0.0000      0.2097
 18      0.0000      0.7454      0.0249      0.0000      0.0703      0.0836      0.0488      0.0000      0.0241
 19      0.0000      0.6200      0.0744      0.1456      0.0000      0.1220      0.2172      0.1098      0.0254
 20      0.0000      0.6245      0.1990      0.0000      0.0000      0.0000      0.1592      0.0176      0.0743
 21      0.0000      0.7125      0.0358      0.0000      0.0000      0.0554      0.0000      0.0109      0.0000
 22      0.0000      0.5741      0.0996      0.0000      0.1609      0.0000      0.0000      0.0939      0.0599
 23      0.0000      0.5790      0.0676      0.1387      0.3017      0.0572      0.1363      0.0039      0.2931
 24      0.0000      0.7171      0.0230      0.0657      0.0000      0.0175      0.1261      0.0064      0.2072
 25      0.0000      0.5425      0.0000      0.1077      0.0000      0.0274      0.0060      0.0000      0.1241
 26      0.0000      0.8521      0.0000      0.0747      0.0709      0.0000      0.0065      0.0000      0.2520
 27      0.0000      0.7477      0.0555      0.0153      0.1635      0.1044      0.0000      0.0000      0.0000
 28      8.7965      0.6694      0.0274      0.1434      0.4087      0.1633      0.0731      0.0000      0.0000
 29      0.0000      0.7281      0.0000      0.0073      0.0554      0.0000      0.1611      0.0000      0.0109
 30      0.0000      0.8240      0.0783      0.0084      0.0000      0.1405      0.0531      0.0000      0.0000
 31      0.0000      0.5317      0.3420      0.0657      0.2599      0.0461      0.0000      0.0374      0.1084
 32     13.5111      0.4943      0.0519      0.1203      0.3306      0.0383      0.0765      0.0000      0.0358
 33      0.0000      0.6224      0.0122      0.0855      0.0000      0.0000      0.0853      0.0000      0.0820
 34      0.0000      0.5239      0.0284      0.0051      0.2859      0.1690      0.2166      0.3973      0.0589
 35      0.0000      0.6584      0.0002      0.0509      0.0755      0.0000      0.0000      0.0388      0.0305
 36      0.0000      0.5671      0.0000      0.1189      0.0682      0.0000      0.0000      0.2942      0.0000
 37      0.0000      0.5012      0.0281      0.0000      0.0000      0.0000      0.0000      0.0437      0.0173
 38      0.0000      1.0606      0.2147      0.0660      0.0000      0.4666      0.0051      0.0000      0.0000
 39      0.0000      0.7169      0.1140      0.0000      0.2135      0.0000      0.0209      0.0087      0.0000
 40      0.0000      0.5156      0.0000      0.0000      0.0000      0.0000      0.0000      0.3317      0.0195
 41      0.0000      0.5100      0.0000      0.0665      0.0000      0.6001      0.0000      0.0000      0.0207
 42      0.0000      0.7648      0.1100      0.1604      0.3357      0.0099      0.1673      0.0653      0.0000
 43      0.0000      0.5100      0.0390      0.0000      0.0000      0.1820      0.0000      0.0000      0.0579
 44     13.2363      1.8143      1.7647      2.2713      1.7905      1.9258      1.9709      1.9551      1.9857
 45      0.0000      0.4443      0.0551      0.0186      0.1862      0.0000      0.1411      0.0351      0.0000
 46      0.0000      0.4792      0.0090      0.0268      0.1289      0.0596      0.0343      0.0642      0.0000
 47      6.6885      0.8073      0.0131      0.0768      0.4614      0.0000      0.0000      0.1314      0.0861
 48      5.8904      0.6342      0.1455      0.0428      0.6356      0.0000      0.0348      0.0656      0.0677
 49     37.6619      0.7924      0.3615      0.0046      0.2238      0.0248      0.0499      0.0057      0.0266
 50      0.0000      0.7536      0.0540      0.0184      0.1299      0.0000      0.0954      0.0000      0.0783
 51      0.0000      0.5826      0.0413      0.0000      0.4165      0.1695      0.0000      0.0456      0.0521
 52      0.0000      0.6350      0.0000      0.0000      0.0466      0.0869      0.0387      0.0056      0.0001
 53      0.0000      0.5318      0.1431      0.0865      0.0000      0.0000      0.0000      0.0779      0.0672
 54      0.0000      0.6176      0.1570      0.1274      0.0453      0.0000      0.0000      0.0000      0.1855
 55      0.0000      0.5683      0.0000      0.1120      0.0000      0.3798      0.0000      0.0178      0.0000
 56      0.0000      0.5730      0.1684      0.0000      0.0000      0.0835      0.0526      0.0000      0.0000
 57      0.0852      0.4232      0.0606      0.1335      0.2574      0.2768      0.0269      0.0000      0.0037
 58      0.0000      0.5618      0.0314      0.0000      0.0139      0.0792      0.0193      0.0080      0.2227
 59      0.0000      0.4696      0.0546      0.2181      0.0000      0.0083      0.0890      0.1716      0.0379
 60     14.2836     37.9160     52.0955     58.8613     54.1085     52.1530     51.8902     60.6807     51.9647
 61      0.0000     42.1270     63.1426     56.4851     57.1929     61.5694     64.0185     54.6907     63.4671
 62      0.0000      1.0296      0.0576      0.0000      0.1627      0.4235      0.0000      0.0344      0.0000
 63      1.7724      0.8826      0.0704      0.1136      0.5019      0.0153      0.0000      0.4952      0.0000
 64      0.0000      0.6590      0.0891      0.0251      0.0519      0.1565      0.0194      0.0431      0.1088
 65     12.3425      0.5482      0.0000      0.1334      0.5213      0.4409      0.1745      0.0420      0.0000
 66      0.0000      0.6753      0.0545      0.0000      0.2788      0.0200      0.0000      0.6660      0.0000

# j      m_j: min, <> & last-chain-values for 1 ...  7 chains
  1  0.0000E+00  6.6705E-03  0.0000E+00  1.3625E-04  0.0000E+00  1.1703E-03  3.8699E-03  1.6238E-03  3.7516E-05
  2  0.0000E+00  2.0008E-03  4.4071E-04  2.3496E-03  0.0000E+00  3.1488E-04  8.7601E-04  1.3458E-03  3.4740E-04
  3  0.0000E+00  5.2261E-03  0.0000E+00  4.1376E-03  2.2789E-03  1.4358E-04  1.8101E-03  1.4697E-04  1.1381E-03
  4  0.0000E+00  2.1628E-03  1.5527E-04  2.6831E-04  9.5411E-05  9.5450E-04  0.0000E+00  0.0000E+00  2.0582E-03
  5  0.0000E+00  5.7927E-03  0.0000E+00  4.2532E-04  2.9097E-03  0.0000E+00  5.0128E-04  1.1271E-03  1.9835E-03
  6  2.8902E-03  8.2542E-03  3.1709E-03  6.1328E-03  4.7839E-03  8.6597E-03  4.5039E-03  0.0000E+00  4.0182E-03
  7  0.0000E+00  2.0750E-02  8.8740E-04  6.4237E-03  1.5441E-03  0.0000E+00  5.5678E-03  1.8770E-03  4.0849E-03
  8  0.0000E+00  3.1710E-02  4.1163E-03  2.7007E-03  0.0000E+00  1.8821E-03  1.1004E-02  0.0000E+00  1.8855E-02
  9  0.0000E+00  2.7840E-02  3.3601E-03  3.8770E-03  1.3591E-03  0.0000E+00  2.5121E-03  1.9585E-03  4.0871E-04
 10  0.0000E+00  2.2108E-02  1.3789E-02  4.2270E-03  1.3332E-02  0.0000E+00  0.0000E+00  9.3436E-03  2.8600E-03
 11  0.0000E+00  4.7982E-02  0.0000E+00  2.2532E-02  0.0000E+00  0.0000E+00  1.4396E-02  0.0000E+00  1.2627E-03
 12  0.0000E+00  1.1257E-01  0.0000E+00  0.0000E+00  3.9850E-02  5.4301E-02  5.6490E-03  0.0000E+00  3.0970E-02
 13  0.0000E+00  1.9430E-01  1.4637E-01  0.0000E+00  0.0000E+00  0.0000E+00  0.0000E+00  0.0000E+00  1.9653E-01
 14  0.0000E+00  5.9519E-01  8.7941E-01  4.0221E-02  0.0000E+00  3.9363E-02  3.0414E-01  1.2721E-02  0.0000E+00
 15  0.0000E+00  1.3127E+00  0.0000E+00  1.0392E-01  3.1106E-01  0.0000E+00  7.8583E-02  4.5117E-01  0.0000E+00
 16  0.0000E+00  2.5959E+00  1.3928E+00  0.0000E+00  0.0000E+00  7.8835E-01  2.5994E-01  6.6556E-01  0.0000E+00
 17  0.0000E+00  4.4006E+00  2.5342E-01  1.5123E-01  6.5428E-01  2.6793E+00  0.0000E+00  0.0000E+00  1.9555E+00
 18  0.0000E+00  9.7337E-03  5.4731E-04  0.0000E+00  1.2775E-03  1.7508E-03  1.0779E-03  0.0000E+00  5.5729E-04
 19  0.0000E+00  3.2494E-03  6.5514E-04  1.4257E-03  0.0000E+00  1.0252E-03  1.9259E-03  8.5571E-04  2.3562E-04
 20  0.0000E+00  3.5731E-03  1.9136E-03  0.0000E+00  0.0000E+00  0.0000E+00  1.5410E-03  1.4934E-04  7.5309E-04
 21  0.0000E+00  4.9489E-03  4.1827E-04  0.0000E+00  0.0000E+00  6.1766E-04  0.0000E+00  1.1257E-04  0.0000E+00
 22  0.0000E+00  6.7430E-03  1.9649E-03  0.0000E+00  2.6301E-03  0.0000E+00  0.0000E+00  1.6398E-03  1.2451E-03
 23  0.0000E+00  9.1838E-03  1.8009E-03  4.1109E-03  6.6602E-03  1.4547E-03  3.6569E-03  9.1264E-05  8.2325E-03
 24  0.0000E+00  1.6921E-02  9.1182E-04  2.8958E-03  0.0000E+00  6.6108E-04  5.0324E-03  2.2426E-04  8.6590E-03
 25  0.0000E+00  1.7652E-02  0.0000E+00  6.5440E-03  0.0000E+00  1.4308E-03  3.2790E-04  0.0000E+00  7.1516E-03
 26  0.0000E+00  4.6345E-02  0.0000E+00  7.5908E-03  5.3682E-03  0.0000E+00  6.0160E-04  0.0000E+00  2.4276E-02
 27  0.0000E+00  8.1390E-02  1.0145E-02  3.1211E-03  2.4769E-02  1.8229E-02  0.0000E+00  0.0000E+00  0.0000E+00
 28  6.0186E-01  2.1148E-01  1.4539E-02  8.4621E-02  1.7969E-01  8.2758E-02  3.9079E-02  0.0000E+00  0.0000E+00
 29  0.0000E+00  4.0078E-01  0.0000E+00  7.5032E-03  4.2427E-02  0.0000E+00  1.5003E-01  0.0000E+00  1.0587E-02
 30  0.0000E+00  9.4764E-01  1.5125E-01  1.8018E-02  0.0000E+00  2.5910E-01  1.0340E-01  0.0000E+00  0.0000E+00
 31  0.0000E+00  1.0757E+00  1.1627E+00  2.4839E-01  7.3159E-01  1.4962E-01  0.0000E+00  1.1260E-01  3.8834E-01
 32  7.9652E+00  1.3456E+00  2.3755E-01  6.1154E-01  1.2524E+00  1.6706E-01  3.5247E-01  0.0000E+00  1.7267E-01
 33  0.0000E+00  3.7505E+00  1.2363E-01  9.6247E-01  0.0000E+00  0.0000E+00  8.6965E-01  0.0000E+00  8.7479E-01
 34  0.0000E+00  4.2751E+00  3.9014E-01  7.7337E-02  3.2467E+00  2.2124E+00  2.9894E+00  4.8205E+00  8.5201E-01
 35  0.0000E+00  6.8942E-03  2.9087E-06  9.9514E-04  1.0996E-03  0.0000E+00  0.0000E+00  6.0420E-04  5.6489E-04
 36  0.0000E+00  2.4026E-03  0.0000E+00  9.4122E-04  4.0235E-04  0.0000E+00  0.0000E+00  1.8531E-03  0.0000E+00
 37  0.0000E+00  2.2967E-03  2.1607E-04  0.0000E+00  0.0000E+00  0.0000E+00  0.0000E+00  2.9749E-04  1.4024E-04
 38  0.0000E+00  1.3166E-02  4.4797E-03  1.5316E-03  0.0000E+00  9.2911E-03  1.0683E-04  0.0000E+00  0.0000E+00
 39  0.0000E+00  1.2814E-02  3.4238E-03  0.0000E+00  5.3094E-03  0.0000E+00  6.3204E-04  2.3114E-04  0.0000E+00
 40  0.0000E+00  1.4896E-02  0.0000E+00  0.0000E+00  0.0000E+00  0.0000E+00  0.0000E+00  1.4247E-02  9.9630E-04
 41  0.0000E+00  2.2914E-02  0.0000E+00  5.5779E-03  0.0000E+00  4.3244E-02  0.0000E+00  0.0000E+00  1.6461E-03
 42  0.0000E+00  6.3086E-02  1.5249E-02  2.4712E-02  3.8536E-02  1.3085E-03  2.3344E-02  8.0110E-03  0.0000E+00
 43  0.0000E+00  6.1415E-02  7.8862E-03  0.0000E+00  0.0000E+00  3.5149E-02  0.0000E+00  0.0000E+00  1.2354E-02
 44  5.9441E-01  3.7621E-01  6.1495E-01  8.7977E-01  5.1667E-01  6.4049E-01  6.9132E-01  6.0278E-01  7.2928E-01
 45  0.0000E+00  1.8281E-01  3.8108E-02  1.4304E-02  1.0661E-01  0.0000E+00  9.8213E-02  2.1476E-02  0.0000E+00
 46  0.0000E+00  3.6237E-01  1.1409E-02  3.7855E-02  1.3566E-01  7.2300E-02  4.3838E-02  7.2163E-02  0.0000E+00
 47  2.2197E+00  1.2372E+00  3.3827E-02  2.1988E-01  9.8401E-01  0.0000E+00  0.0000E+00  2.9945E-01  2.3373E-01
 48  3.4476E+00  1.7139E+00  6.6075E-01  2.1618E-01  2.3903E+00  0.0000E+00  1.5924E-01  2.6342E-01  3.2422E-01
 49  5.0098E+01  4.8673E+00  3.7315E+00  5.3257E-02  1.9129E+00  2.4417E-01  5.1850E-01  5.1619E-02  2.8960E-01
 50  0.0000E+00  8.5737E+00  1.0324E+00  3.9184E-01  2.0567E+00  0.0000E+00  1.8358E+00  0.0000E+00  1.5771E+00
 51  0.0000E+00  3.6329E-03  4.3284E-04  0.0000E+00  3.6145E-03  1.6957E-03  0.0000E+00  4.2258E-04  5.7496E-04
 52  0.0000E+00  2.0292E-03  0.0000E+00  0.0000E+00  2.0710E-04  4.4564E-04  2.0935E-04  2.6574E-05  3.9672E-07
 53  0.0000E+00  2.5601E-03  1.1579E-03  7.7759E-04  0.0000E+00  0.0000E+00  0.0000E+00  5.5737E-04  5.7268E-04
 54  0.0000E+00  6.0914E-03  2.6021E-03  2.3476E-03  6.2241E-04  0.0000E+00  0.0000E+00  0.0000E+00  3.2400E-03
 55  0.0000E+00  8.6304E-03  0.0000E+00  3.1775E-03  0.0000E+00  9.2504E-03  0.0000E+00  4.0186E-04  0.0000E+00
 56  0.0000E+00  1.7223E-02  8.5067E-03  0.0000E+00  0.0000E+00  4.0263E-03  2.6751E-03  0.0000E+00  0.0000E+00
 57  7.3656E-04  1.6882E-02  4.0628E-03  9.9522E-03  1.4293E-02  1.7713E-02  1.8165E-03  0.0000E+00  2.5823E-04
 58  0.0000E+00  3.7914E-02  3.5616E-03  0.0000E+00  1.3071E-03  8.5707E-03  2.1994E-03  8.0711E-04  2.6618E-02
 59  0.0000E+00  6.8195E-02  1.3330E-02  5.9179E-02  0.0000E+00  1.9314E-03  2.1863E-02  3.7050E-02  9.7444E-03
 60  8.3442E-01  1.0228E+01  2.3616E+01  2.9659E+01  2.0312E+01  2.2564E+01  2.3678E+01  2.4337E+01  2.4827E+01
 61  0.0000E+00  2.4829E+01  6.2541E+01  6.2188E+01  4.6910E+01  5.8203E+01  6.3826E+01  4.7927E+01  6.6253E+01
 62  0.0000E+00  1.1064E+00  1.0398E-01  0.0000E+00  2.4331E-01  7.2990E-01  0.0000E+00  5.4923E-02  0.0000E+00
 63  8.2067E-01  1.8870E+00  2.5298E-01  4.5371E-01  1.4932E+00  5.2484E-02  0.0000E+00  1.5742E+00  0.0000E+00
 64  0.0000E+00  3.8972E+00  8.8550E-01  2.7744E-01  4.2748E-01  1.4842E+00  1.9410E-01  3.7873E-01  1.1398E+00
 65  3.3414E+01  6.8525E+00  0.0000E+00  3.1147E+00  9.0690E+00  8.8409E+00  3.6909E+00  7.8059E-01  0.0000E+00
 66  0.0000E+00  1.1926E+01  1.6175E+00  0.0000E+00  6.8526E+00  5.6546E-01  0.0000E+00  1.7489E+01  0.0000E+00

# AV, chi2 & Mass for <> & i_chain = 1 ...  7 solutions
AV      -0.3390      0.5162      0.4969      0.5599      0.4982      0.5123      0.5025      0.5320      0.5145
chi2 8.1740E-06  1.1791E-05  9.9654E-06  1.0107E-05  9.9488E-06  1.0016E-05  9.9687E-06  1.0008E-05  1.0006E-05
Mass 3.2506E-13  2.2202E-13  1.2875E-13  1.2605E-13  1.5574E-13  1.3770E-13  1.2886E-13  1.5253E-13  1.2507E-13
-136.81                                  [v0_min (km/s) before EX0s...]
 374.40                                  [vd_min (km/s) before EX0s...]


## Synthetic spectrum (Best Model) ##l_obs f_obs f_syn wei
 3478    [Nl_obs]
 3741.00    0.71474   0.49515    0.000
 3742.00    0.78928   0.49164    0.000
 3743.00    0.83060   0.48711    0.000
 3744.00    0.80847   0.48254    0.000
 3745.00    0.74937   0.47998    0.050
 3746.00    0.63309   0.48024    0.047
 3747.00    0.48778   0.48461    0.043
 3748.00    0.42916   0.49222    0.046
 3749.00    0.40866   0.50363    0.055
 3750.00    0.45097   0.51660    0.050
 3751.00    0.51700   0.53053    0.041
 3752.00    0.54344   0.54426    0.040
 3753.00    0.55719   0.55635    0.040
 3754.00    0.62794   0.56602    0.039
 3755.00    0.71397   0.57251    0.039
 3756.00    0.69988   0.57657    0.039
 3757.00    0.66381   0.57804    0.038
 3758.00    0.64514   0.57789    0.038
 3759.00    0.62950   0.57639    0.039
 3760.00    0.67501   0.57468    0.053
 3761.00    0.72865   0.57352    0.090
 3762.00    0.72430   0.57318    0.058
 3763.00    0.71450   0.57377    0.040
 3764.00    0.53405   0.57547    0.038
 3765.00    0.34376   0.57877    0.037
 3766.00    0.39731   0.58358    0.038
 3767.00    0.45758   0.59094    0.039
 3768.00    0.63148   0.59985    0.039
 3769.00    0.79763   0.61099    0.038
 3770.00    0.77547   0.62395    0.037
 3771.00    0.74574   0.63857    0.037
 3772.00    0.61681   0.65379    0.036
 3773.00    0.50733   0.66969    0.036
 3774.00    0.56864   0.68526    0.036
 3775.00    0.63179   0.69994    0.037
 3776.00    0.70691   0.71276    0.038
 3777.00    0.76703   0.72327    0.039
 3778.00    0.75122   0.73066    0.038
 3779.00    0.73172   0.73461    0.037
 3780.00    0.69710   0.73456    0.037
 3781.00    0.62580   0.73057    0.037
 3782.00    0.43002   0.72273    0.037
 3783.00    0.29823   0.71130    0.037
 3784.00    0.34944   0.69694    0.038
 3785.00    0.37151   0.68063    0.038
 3786.00    0.32237   0.66276    0.038
 3787.00    0.30277   0.64462    0.037
 3788.00    0.34542   0.62609    0.037
 3789.00    0.44896   0.60883    0.038
 3790.00    0.66400   0.59263    0.038
 3791.00    0.81131   0.57860    0.038
 3792.00    0.85021   0.56710    0.038
 3793.00    0.84072   0.55871    0.037
 3794.00    0.76327   0.55404    0.037
 3795.00    0.71206   0.55321    0.036
 3796.00    0.69330   0.55691    0.036
 3797.00    0.58724   0.56456    0.036
 3798.00    0.38606   0.57624    0.036
 3799.00    0.24909   0.59083    0.035
 3800.00    0.17385   0.60731    0.035
 3801.00    0.16610   0.62478    0.035
 3802.00    0.21553   0.64168    0.035
 3803.00    0.31102   0.65737    0.036
 3804.00    0.44088   0.67050    0.037
 3805.00    0.53378   0.68074    0.037
 3806.00    0.60247   0.68739    0.037
 3807.00    0.60289   0.69045    0.036
 3808.00    0.56415   0.69008    0.036
 3809.00    0.53011   0.68619    0.036
 3810.00    0.49842   0.67978    0.037
 3811.00    0.43626   0.67075    0.039
 3812.00    0.36093   0.66019    0.042
 3813.00    0.45922   0.64822    0.040
 3814.00    0.62189   0.63546    0.037
 3815.00    0.60161   0.62227    0.036
 3816.00    0.52382   0.60898    0.036
 3817.00    0.44808   0.59590    0.038
 3818.00    0.37287   0.58279    0.040
 3819.00    0.49042   0.57011    0.038
 3820.00    0.64928   0.55708    0.036
 3821.00    0.66520   0.54423    0.036
 3822.00    0.65687   0.53101    0.036
 3823.00    0.47422   0.51774    0.035
 3824.00    0.26920   0.50442    0.034
 3825.00    0.29979   0.49147    0.035
 3826.00    0.35152   0.47889    0.035
 3827.00    0.31338   0.46685    0.036
 3828.00    0.27041   0.45548    0.036
 3829.00    0.37809   0.44561    0.036
 3830.00    0.48919   0.43752    0.036
 3831.00    0.63378   0.43188    0.037
 3832.00    0.77156   0.42885    0.038
 3833.00    0.75794   0.42926    0.037
 3834.00    0.73616   0.43311    0.037
 3835.00    0.61280   0.44095    0.037
 3836.00    0.49938   0.45228    0.037
 3837.00    0.46993   0.46727    0.039
 3838.00    0.45406   0.48520    0.040
 3839.00    0.52367   0.50523    0.038
 3840.00    0.57734   0.52656    0.036
 3841.00    0.55232   0.54794    0.036
 3842.00    0.53500   0.56866    0.036
 3843.00    0.54854   0.58776    0.036
 3844.00    0.55448   0.60491    0.037
 3845.00    0.53517   0.61927    0.038
 3846.00    0.50018   0.63109    0.039
 3847.00    0.42113   0.63991    0.000
 3848.00    0.36152   0.64600    0.000
 3849.00    0.34861   0.64975    0.000
 3850.00    0.37688   0.65144    0.000
 3851.00    0.49057   0.65172    0.000
 3852.00    0.55010   0.65087    0.000
 3853.00    0.51191   0.64951    0.000
 3854.00    0.55275   0.64809    0.000
 3855.00    0.71820   0.64750    0.000
 3856.00    0.76236   0.64771    0.000
 3857.00    0.63860   0.64904    0.000
 3858.00    0.54975   0.65142    0.000
 3859.00    0.50343   0.65480    0.000
 3860.00    0.48865   0.65864    0.000
 3861.00    0.50774   0.66251    0.000
 3862.00    0.57893   0.66586    0.000
 3863.00    0.69951   0.66800    0.000
 3864.00    0.78144   0.66894    0.000
 3865.00    0.83109   0.66847    0.000
 3866.00    0.87176   0.66657    0.000
 3867.00    0.90583   0.66359    0.000
 3868.00    0.81727   0.65955    0.000
 3869.00    0.64952   0.65520    0.000
 3870.00    0.57747   0.65032    0.000
 3871.00    0.55950   0.64556    0.000
 3872.00    0.62494   0.64032    0.000
 3873.00    0.73140   0.63509    0.000
 3874.00    0.66555   0.62908    0.000
 3875.00    0.52642   0.62277    0.000
 3876.00    0.54455   0.61553    0.000
 3877.00    0.61995   0.60794    0.000
 3878.00    0.66901   0.59966    0.000
 3879.00    0.70994   0.59136    0.000
 3880.00    0.64702   0.58305    0.000
 3881.00    0.55745   0.57547    0.035
 3882.00    0.55877   0.56911    0.035
 3883.00    0.57911   0.56463    0.034
 3884.00    0.49868   0.56278    0.034
 3885.00    0.40164   0.56361    0.034
 3886.00    0.35993   0.56793    0.035
 3887.00    0.32507   0.57510    0.036
 3888.00    0.40178   0.58554    0.036
 3889.00    0.48803   0.59805    0.035
 3890.00    0.52455   0.61273    0.036
 3891.00    0.55859   0.62797    0.036
 3892.00    0.52747   0.64368    0.036
 3893.00    0.49534   0.65878    0.036
 3894.00    0.46711   0.67308    0.035
 3895.00    0.44827   0.68607    0.035
 3896.00    0.62149   0.69766    0.036
 3897.00    0.78048   0.70823    0.037
 3898.00    0.77119   0.71752    0.035
 3899.00    0.76396   0.72644    0.034
 3900.00    0.77350   0.73488    0.034
 3901.00    0.78444   0.74373    0.034
 3902.00    0.80382   0.75288    0.034
 3903.00    0.80053   0.76285    0.033
 3904.00    0.68810   0.77327    0.031
 3905.00    0.60092   0.78414    0.030
 3906.00    0.61267   0.79487    0.030
 3907.00    0.61104   0.80510    0.030
 3908.00    0.56579   0.81382    0.031
 3909.00    0.54989   0.82071    0.031
 3910.00    0.61495   0.82484    0.032
 3911.00    0.70808   0.82633    0.033
 3912.00    0.86750   0.82434    0.034
 3913.00    0.97068   0.81966    0.035
 3914.00    0.95906   0.81176    0.035
 3915.00    0.86764   0.80154    0.035
 3916.00    0.63448   0.78889    0.035
 3917.00    0.49293   0.77439    0.034
 3918.00    0.49372   0.75809    0.035
 3919.00    0.54441   0.73997    0.035
 3920.00    0.66319   0.72013    0.035
 3921.00    0.72440   0.69811    0.035
 3922.00    0.71646   0.67414    0.035
 3923.00    0.77921   0.64789    0.035
 3924.00    0.91682   0.61993    0.036
 3925.00    0.89830   0.59070    0.036
 3926.00    0.73390   0.56125    0.036
 3927.00    0.60710   0.53296    0.036
 3928.00    0.51124   0.50716    0.035
 3929.00    0.49143   0.48569    0.036
 3930.00    0.52674   0.46968    0.036
 3931.00    0.54633   0.46047    0.036
 3932.00    0.55590   0.45848    0.037
 3933.00    0.56362   0.46391    0.037
 3934.00    0.57030   0.47620    0.036
 3935.00    0.63666   0.49441    0.036
 3936.00    0.73191   0.51731    0.036
 3937.00    0.67297   0.54336    0.036
 3938.00    0.54956   0.57126    0.036
 3939.00    0.63882   0.59963    0.036
 3940.00    0.80416   0.62758    0.037
 3941.00    0.84350   0.65428    0.037
 3942.00    0.84476   0.67931    0.037
 3943.00    0.82993   0.70230    0.037
 3944.00    0.81104   0.72308    0.037
 3945.00    0.84403   0.74146    0.038
 3946.00    0.88760   0.75727    0.038
 3947.00    0.91894   0.77026    0.038
 3948.00    0.94833   0.78020    0.038
 3949.00    0.90275   0.78677    0.038
 3950.00    0.84822   0.78970    0.038
 3951.00    0.85549   0.78862    0.037
 3952.00    0.86778   0.78331    0.037
 3953.00    0.85096   0.77351    0.037
 3954.00    0.83279   0.75912    0.037
 3955.00    0.69523   0.74007    0.037
 3956.00    0.56101   0.71656    0.036
 3957.00    0.68107   0.68895    0.037
 3958.00    0.79362   0.65786    0.038
 3959.00    0.76376   0.62421    0.037
 3960.00    0.73630   0.58912    0.000
 3961.00    0.73597   0.55413    0.000
 3962.00    0.71519   0.52071    0.000
 3963.00    0.53368   0.49073    0.000
 3964.00    0.36448   0.46569    0.000
 3965.00    0.26830   0.44730    0.000
 3966.00    0.19033   0.43660    0.000
 3967.00    0.19780   0.43457    0.000
 3968.00    0.22354   0.44132    0.000
 3969.00    0.31927   0.45678    0.000
 3970.00    0.41429   0.47999    0.000
 3971.00    0.50707   0.50992    0.000
 3972.00    0.56413   0.54482    0.000
 3973.00    0.52445   0.58319    0.000
 3974.00    0.55475   0.62312    0.000
 3975.00    0.74754   0.66317    0.000
 3976.00    0.90897   0.70189    0.000
 3977.00    1.00739   0.73835    0.000
 3978.00    1.05651   0.77182    0.000
 3979.00    1.01940   0.80206    0.000
 3980.00    1.06513   0.82896    0.000
 3981.00    1.23767   0.85272    0.038
 3982.00    1.26126   0.87367    0.038
 3983.00    1.08454   0.89208    0.038
 3984.00    0.92183   0.90836    0.038
 3985.00    0.77572   0.92267    0.038
 3986.00    0.78251   0.93527    0.038
 3987.00    0.94897   0.94631    0.038
 3988.00    1.02853   0.95580    0.037
 3989.00    1.02804   0.96409    0.037
 3990.00    0.97485   0.97100    0.037
 3991.00    0.87887   0.97715    0.036
 3992.00    0.91738   0.98228    0.036
 3993.00    1.05197   0.98709    0.037
 3994.00    1.05244   0.99133    0.037
 3995.00    0.96882   0.99543    0.037
 3996.00    0.90546   0.99927    0.037
 3997.00    0.85321   1.00282    0.036
 3998.00    0.91296   1.00626    0.036
 3999.00    1.02607   1.00919    0.037
 4000.00    1.12485   1.01216    0.038
 4001.00    1.21775   1.01475    0.038
 4002.00    1.27180   1.01776    0.037
 4003.00    1.31221   1.02096    0.037
 4004.00    1.26589   1.02496    0.037
 4005.00    1.19387   1.02979    0.037
 4006.00    1.15263   1.03547    0.037
 4007.00    1.11897   1.04220    0.037
 4008.00    0.98821   1.04929    0.036
 4009.00    0.83814   1.05709    0.036
 4010.00    0.94478   1.06453    0.036
 4011.00    1.09130   1.07206    0.036
 4012.00    0.87013   1.07859    0.036
 4013.00    0.60667   1.08469    0.035
 4014.00    0.74411   1.08947    0.035
 4015.00    0.91254   1.09354    0.036
 4016.00    0.87778   1.09621    0.036
 4017.00    0.83446   1.09806    0.036
 4018.00    0.95047   1.09854    0.036
 4019.00    1.06353   1.09810    0.036
 4020.00    0.98325   1.09627    0.036
 4021.00    0.91364   1.09336    0.036
 4022.00    1.03203   1.08909    0.036
 4023.00    1.15084   1.08366    0.036
 4024.00    1.27417   1.07715    0.036
 4025.00    1.36222   1.06978    0.036
 4026.00    1.18239   1.06221    0.037
 4027.00    1.00993   1.05465    0.037
 4028.00    0.88004   1.04827    0.036
 4029.00    0.78719   1.04306    0.036
 4030.00    0.86408   1.04023    0.035
 4031.00    0.92573   1.03922    0.035
 4032.00    0.93022   1.04069    0.035
 4033.00    0.94655   1.04341    0.035
 4034.00    1.00000   1.04729    0.035
 4035.00    1.03424   1.05091    0.034
 4036.00    1.01736   1.05378    0.034
 4037.00    1.01307   1.05498    0.034
 4038.00    1.03754   1.05426    0.035
 4039.00    1.08648   1.05177    0.035
 4040.00    1.18383   1.04768    0.036
 4041.00    1.23881   1.04314    0.036
 4042.00    1.22080   1.03841    0.037
 4043.00    1.15394   1.03492    0.037
 4044.00    1.01336   1.03243    0.037
 4045.00    0.94645   1.03187    0.037
 4046.00    0.97719   1.03245    0.037
 4047.00    1.02454   1.03420    0.037
 4048.00    1.09126   1.03615    0.037
 4049.00    1.16317   1.03772    0.037
 4050.00    1.24043   1.03843    0.037
 4051.00    1.17527   1.03755    0.037
 4052.00    0.98076   1.03541    0.037
 4053.00    0.84972   1.03157    0.037
 4054.00    0.76947   1.02674    0.037
 4055.00    0.84488   1.02090    0.037
 4056.00    1.02989   1.01474    0.037
 4057.00    1.03136   1.00858    0.037
 4058.00    0.91945   1.00278    0.037
 4059.00    0.85694   0.99794    0.037
 4060.00    0.82108   0.99387    0.036
 4061.00    0.85919   0.99121    0.036
 4062.00    0.93196   0.98947    0.036
 4063.00    0.84094   0.98931    0.036
 4064.00    0.68374   0.98967    0.035
 4065.00    0.67809   0.99097    0.035
 4066.00    0.72470   0.99205    0.035
 4067.00    0.73142   0.99341    0.035
 4068.00    0.72655   0.99408    0.036
 4069.00    0.79909   0.99475    0.036
 4070.00    0.89022   0.99466    0.036
 4071.00    0.93500   0.99495    0.036
 4072.00    0.97081   0.99509    0.036
 4073.00    1.17884   0.99630    0.036
 4074.00    1.41282   0.99819    0.036
 4075.00    1.41858   1.00169    0.036
 4076.00    1.39909   1.00641    0.036
 4077.00    1.19513   1.01280    0.036
 4078.00    0.97765   1.02018    0.035
 4079.00    1.00626   1.02860    0.035
 4080.00    1.04429   1.03721    0.035
 4081.00    1.15071   1.04572    0.035
 4082.00    1.25204   1.05328    0.035
 4083.00    1.14784   1.05968    0.035
 4084.00    1.05420   1.06400    0.034
 4085.00    1.13458   1.06615    0.034
 4086.00    1.19995   1.06545    0.034
 4087.00    1.11090   1.06143    0.034
 4088.00    1.02687   1.05407    0.034
 4089.00    0.97968   1.04315    0.034
 4090.00    0.94179   1.02908    0.035
 4091.00    0.95599   1.01187    0.035
 4092.00    0.99072   0.99257    0.000
 4093.00    1.11733   0.97144    0.000
 4094.00    1.20579   0.95026    0.000
 4095.00    1.15418   0.92958    0.000
 4096.00    1.06823   0.91115    0.000
 4097.00    0.87670   0.89567    0.000
 4098.00    0.75788   0.88434    0.000
 4099.00    0.82912   0.87735    0.000
 4100.00    0.88288   0.87539    0.000
 4101.00    0.89739   0.87783    0.000
 4102.00    0.92658   0.88468    0.000
 4103.00    0.98434   0.89485    0.000
 4104.00    1.03863   0.90774    0.000
 4105.00    1.08702   0.92233    0.000
 4106.00    1.07207   0.93778    0.000
 4107.00    0.96297   0.95341    0.000
 4108.00    0.92534   0.96842    0.000
 4109.00    0.98109   0.98243    0.000
 4110.00    1.02028   0.99511    0.000
 4111.00    1.04043   1.00622    0.000
 4112.00    1.13441   1.01564    0.000
 4113.00    1.30332   1.02319    0.035
 4114.00    1.34398   1.02973    0.035
 4115.00    1.26981   1.03433    0.035
 4116.00    1.24770   1.03792    0.035
 4117.00    1.26666   1.03999    0.035
 4118.00    1.23051   1.04143    0.050
 4119.00    1.15611   1.04191    0.181
 4120.00    1.08404   1.04129   -1.000
 4121.00    1.01339   1.04019   -1.000
 4122.00    0.96239   1.03778   -1.000
 4123.00    0.92182   1.03555   -1.000
 4124.00    0.92754   1.03188   -1.000
 4125.00    0.95460   1.02896   -1.000
 4126.00    1.04479   1.02480    0.098
 4127.00    1.16005   1.02238    0.041
 4128.00    1.23415   1.01975    0.036
 4129.00    1.29431   1.01915    0.036
 4130.00    1.23711   1.01953    0.036
 4131.00    1.14651   1.02102    0.035
 4132.00    1.11650   1.02392    0.035
 4133.00    1.10071   1.02681    0.035
 4134.00    1.03304   1.03032    0.035
 4135.00    0.95556   1.03278    0.034
 4136.00    0.99473   1.03455    0.035
 4137.00    1.05092   1.03461    0.035
 4138.00    1.10872   1.03367    0.035
 4139.00    1.16669   1.03171    0.034
 4140.00    1.25266   1.02901    0.035
 4141.00    1.34057   1.02638    0.035
 4142.00    1.18810   1.02339    0.035
 4143.00    1.02735   1.02095    0.035
 4144.00    1.21490   1.01861    0.035
 4145.00    1.39453   1.01740    0.036
 4146.00    1.28983   1.01607    0.035
 4147.00    1.18627   1.01631    0.035
 4148.00    1.10033   1.01603    0.035
 4149.00    1.02621   1.01740    0.034
 4150.00    1.06861   1.01839    0.034
 4151.00    1.10096   1.02100    0.034
 4152.00    1.06200   1.02410    0.034
 4153.00    1.02846   1.02822    0.034
 4154.00    1.02450   1.03357    0.034
 4155.00    1.03155   1.03911    0.033
 4156.00    1.08675   1.04564    0.033
 4157.00    1.12384   1.05133    0.033
 4158.00    1.09584   1.05727    0.033
 4159.00    1.07497   1.06172    0.033
 4160.00    1.07561   1.06477    0.033
 4161.00    1.06610   1.06586    0.033
 4162.00    1.03054   1.06508    0.033
 4163.00    1.03625   1.06213    0.034
 4164.00    1.13313   1.05721    0.033
 4165.00    1.21379   1.05122    0.033
 4166.00    1.26341   1.04321    0.033
 4167.00    1.27005   1.03477    0.033
 4168.00    1.20488   1.02527    0.033
 4169.00    1.13821   1.01680    0.033
 4170.00    1.06933   1.00919    0.033
 4171.00    0.98792   1.00309    0.033
 4172.00    0.89035   0.99835    0.032
 4173.00    0.85654   0.99534    0.032
 4174.00    0.89510   0.99399    0.032
 4175.00    0.98518   0.99480    0.032
 4176.00    1.12681   0.99690    0.033
 4177.00    1.13927   1.00022    0.033
 4178.00    1.03771   1.00389    0.033
 4179.00    1.00828   1.00885    0.033
 4180.00    1.03495   1.01368    0.033
 4181.00    1.03691   1.01893    0.033
 4182.00    1.02196   1.02357    0.033
 4183.00    0.99505   1.02704    0.033
 4184.00    0.96097   1.03091    0.032
 4185.00    0.93559   1.03428    0.032
 4186.00    0.91476   1.03691    0.032
 4187.00    0.97985   1.03809    0.032
 4188.00    1.08393   1.03846    0.032
 4189.00    1.18937   1.03823    0.033
 4190.00    1.29534   1.03594    0.033
 4191.00    1.16710   1.03261    0.033
 4192.00    0.96108   1.02782    0.032
 4193.00    0.93156   1.02320    0.032
 4194.00    0.95123   1.01787    0.032
 4195.00    0.89544   1.01353    0.033
 4196.00    0.82234   1.01056    0.033
 4197.00    0.87319   1.00878    0.033
 4198.00    0.94682   1.00892    0.033
 4199.00    0.91222   1.01155    0.033
 4200.00    0.86232   1.01625    0.034
 4201.00    0.89445   1.02245    0.033
 4202.00    0.93494   1.03055    0.032
 4203.00    0.98956   1.03887    0.032
 4204.00    1.04509   1.04796    0.032
 4205.00    1.02559   1.05600    0.033
 4206.00    1.00394   1.06352    0.033
 4207.00    1.08494   1.06979    0.033
 4208.00    1.15776   1.07525    0.034
 4209.00    0.99051   1.07893    0.033
 4210.00    0.84360   1.08159    0.032
 4211.00    0.99281   1.08260    0.033
 4212.00    1.13365   1.08270    0.034
 4213.00    1.19544   1.08274    0.033
 4214.00    1.25038   1.08086    0.033
 4215.00    1.25828   1.07841    0.033
 4216.00    1.24005   1.07339    0.033
 4217.00    1.08295   1.06736    0.033
 4218.00    0.95419   1.05845    0.033
 4219.00    0.94649   1.04852    0.033
 4220.00    0.95708   1.03712    0.032
 4221.00    1.03214   1.02539    0.032
 4222.00    1.03046   1.01447    0.032
 4223.00    0.80154   1.00506    0.032
 4224.00    0.66866   0.99968    0.031
 4225.00    0.77812   0.99682    0.032
 4226.00    0.85820   0.99782    0.032
 4227.00    0.87440   1.00136    0.032
 4228.00    0.88633   1.00686    0.031
 4229.00    0.89020   1.01351    0.031
 4230.00    0.92107   1.02164    0.031
 4231.00    0.99638   1.02998    0.031
 4232.00    1.03763   1.03825    0.030
 4233.00    1.02971   1.04727    0.030
 4234.00    1.04941   1.05528    0.030
 4235.00    1.10418   1.06363    0.031
 4236.00    1.16244   1.07142    0.031
 4237.00    1.22460   1.07895    0.030
 4238.00    1.27247   1.08575    0.030
 4239.00    1.30623   1.09115    0.030
 4240.00    1.24735   1.09603    0.030
 4241.00    1.10785   1.09815    0.030
 4242.00    1.04328   1.09906    0.030
 4243.00    1.03617   1.09734    0.030
 4244.00    1.06078   1.09379    0.030
 4245.00    1.10677   1.08894    0.031
 4246.00    1.16937   1.08265    0.031
 4247.00    1.24178   1.07682    0.032
 4248.00    1.26447   1.07084    0.032
 4249.00    1.26157   1.06579    0.032
 4250.00    1.15194   1.06166    0.032
 4251.00    0.99470   1.05892    0.032
 4252.00    0.96935   1.05728    0.032
 4253.00    0.99457   1.05786    0.031
 4254.00    0.96724   1.05933    0.031
 4255.00    0.92279   1.06240    0.031
 4256.00    0.96291   1.06546    0.031
 4257.00    1.02611   1.06932    0.031
 4258.00    1.03949   1.07404    0.031
 4259.00    1.04169   1.07845    0.031
 4260.00    0.96011   1.08291    0.031
 4261.00    0.86355   1.08527    0.031
 4262.00    0.93794   1.08601    0.031
 4263.00    1.03571   1.08338    0.031
 4264.00    1.00940   1.07912    0.031
 4265.00    0.97096   1.07192    0.031
 4266.00    0.98746   1.06327    0.030
 4267.00    1.00732   1.05374    0.030
 4268.00    0.96170   1.04432    0.030
 4269.00    0.91400   1.03650    0.030
 4270.00    0.80352   1.03019    0.029
 4271.00    0.69499   1.02771    0.029
 4272.00    0.63823   1.02725    0.029
 4273.00    0.59719   1.02921    0.030
 4274.00    0.77242   1.03350    0.030
 4275.00    0.94945   1.03882    0.030
 4276.00    1.14283   1.04351    0.030
 4277.00    1.30995   1.04791    0.033
 4278.00    1.30212   1.05024    0.071
 4279.00    1.30494   1.05139   -1.000
 4280.00    1.36296   1.05119   -1.000
 4281.00    1.42191   1.04784   -1.000
 4282.00    1.48474   1.04393   -2.000
 4283.00    1.49784   1.03707   -2.000
 4284.00    1.33930   1.03003   -2.000
 4285.00    1.17306   1.02171   -2.000
 4286.00    0.98445   1.01313   -2.000
 4287.00    0.89901   1.00427   -2.000
 4288.00    1.06947   0.99487   -2.000
 4289.00    1.23142   0.98722   -2.000
 4290.00    1.37515   0.97786   -2.000
 4291.00    1.43232   0.96899   -2.000
 4292.00    1.32877   0.95756   -2.000
 4293.00    1.21318   0.94560   -2.000
 4294.00    1.07807   0.93318   -2.000
 4295.00    0.97159   0.91872   -2.000
 4296.00    0.90582   0.90479   -2.000
 4297.00    0.86645   0.89005   -2.000
 4298.00    0.86009   0.87689    0.032
 4299.00    0.89301   0.86551    0.031
 4300.00    0.96924   0.85649    0.031
 4301.00    0.92593   0.84917    0.031
 4302.00    0.76631   0.84600    0.030
 4303.00    0.73005   0.84579    0.030
 4304.00    0.79965   0.84919    0.031
 4305.00    0.80983   0.85763    0.031
 4306.00    0.77512   0.86928    0.031
 4307.00    0.83386   0.88702    0.031
 4308.00    0.95465   0.90785    0.031
 4309.00    1.10022   0.93267    0.031
 4310.00    1.26019   0.95879    0.032
 4311.00    1.26767   0.98606    0.032
 4312.00    1.19784   1.01327    0.032
 4313.00    1.10053   1.03777    0.031
 4314.00    0.99115   1.06117    0.030
 4315.00    0.94684   1.07827    0.030
 4316.00    0.92704   1.09124    0.030
 4317.00    1.02337   1.09779    0.030
 4318.00    1.15684   1.10161    0.031
 4319.00    1.12877   1.09972    0.031
 4320.00    1.05754   1.09696    0.030
 4321.00    1.01930   1.09154    0.030
 4322.00    0.98829   1.08542    0.030
 4323.00    1.01315   1.08138    0.031
 4324.00    1.04772   1.07800    0.032
 4325.00    1.02495   1.07894    0.032
 4326.00    0.99459   1.07950    0.031
 4327.00    1.03951   1.08054    0.031
 4328.00    1.09146   1.07953    0.032
 4329.00    1.12238   1.07719    0.032
 4330.00    1.15210   1.07396    0.000
 4331.00    1.04883   1.06733    0.000
 4332.00    0.94289   1.05904    0.000
 4333.00    0.88580   1.04811    0.000
 4334.00    0.83605   1.03649    0.000
 4335.00    0.96250   1.02307    0.000
 4336.00    1.07851   1.01125    0.000
 4337.00    1.05856   1.00318    0.000
 4338.00    1.03581   0.99748    0.000
 4339.00    0.98867   0.99684    0.000
 4340.00    0.95366   1.00082    0.000
 4341.00    0.99700   1.00802    0.000
 4342.00    1.02268   1.01661    0.000
 4343.00    0.95929   1.02857    0.000
 4344.00    0.90691   1.04110    0.000
 4345.00    0.89949   1.05320    0.000
 4346.00    0.94104   1.06557    0.000
 4347.00    1.14827   1.07740    0.000
 4348.00    1.30283   1.08773    0.000
 4349.00    1.30712   1.09571    0.000
 4350.00    1.25452   1.10413    0.000
 4351.00    1.06321   1.11454    0.031
 4352.00    0.98658   1.12516    0.031
 4353.00    1.15116   1.13519    0.032
 4354.00    1.27271   1.14587    0.039
 4355.00    1.31558   1.15689    0.102
 4356.00    1.30499   1.16723   -1.000
 4357.00    1.20899   1.17646   -1.000
 4358.00    1.14565   1.18633   -1.000
 4359.00    1.12813   1.19543   -1.000
 4360.00    1.11201   1.20268   -1.000
 4361.00    1.09763   1.20696   -1.000
 4362.00    1.11331   1.20985    0.125
 4363.00    1.16170   1.21111    0.041
 4364.00    1.15118   1.20893    0.031
 4365.00    1.08414   1.20444    0.031
 4366.00    1.09563   1.19827    0.031
 4367.00    1.17353   1.19224    0.031
 4368.00    1.15950   1.18448    0.031
 4369.00    1.07701   1.17612    0.031
 4370.00    1.03932   1.16723    0.030
 4371.00    1.03096   1.15754    0.030
 4372.00    1.07750   1.14683    0.030
 4373.00    1.15550   1.13668    0.031
 4374.00    1.29505   1.12711    0.031
 4375.00    1.46529   1.11838    0.032
 4376.00    1.44008   1.10825    0.032
 4377.00    1.33051   1.09754    0.032
 4378.00    1.17392   1.08659    0.032
 4379.00    0.99994   1.07665    0.032
 4380.00    0.91588   1.06786    0.031
 4381.00    0.86002   1.05857    0.030
 4382.00    0.85043   1.05362    0.029
 4383.00    0.85294   1.05366    0.029
 4384.00    0.96807   1.05789    0.029
 4385.00    1.10725   1.06338    0.030
 4386.00    1.13945   1.07008    0.030
 4387.00    1.15356   1.07899    0.029
 4388.00    1.15776   1.08852    0.029
 4389.00    1.16068   1.09932    0.029
 4390.00    1.08974   1.11048    0.029
 4391.00    1.01220   1.12030    0.029
 4392.00    1.00075   1.12818    0.029
 4393.00    0.99283   1.13447    0.029
 4394.00    1.14552   1.14006    0.029
 4395.00    1.29822   1.14446    0.029
 4396.00    1.19674   1.14491    0.029
 4397.00    1.09933   1.14361    0.029
 4398.00    1.09155   1.14031    0.029
 4399.00    1.08223   1.13709    0.030
 4400.00    1.05400   1.13571    0.029
 4401.00    1.03604   1.13343    0.029
 4402.00    1.10453   1.12988    0.029
 4403.00    1.17195   1.12888    0.029
 4404.00    1.23260   1.13205    0.030
 4405.00    1.26601   1.13646    0.030
 4406.00    1.16542   1.14111    0.029
 4407.00    1.09519   1.14804    0.029
 4408.00    1.14615   1.15640    0.029
 4409.00    1.17662   1.16423    0.029
 4410.00    1.13913   1.17184    0.029
 4411.00    1.10606   1.17891    0.028
 4412.00    1.08535   1.18426    0.029
 4413.00    1.10632   1.18746    0.029
 4414.00    1.22721   1.19305    0.029
 4415.00    1.28551   1.19842    0.029
 4416.00    1.21427   1.20275    0.029
 4417.00    1.20078   1.20691    0.029
 4418.00    1.29123   1.20971    0.029
 4419.00    1.38298   1.21106    0.029
 4420.00    1.47676   1.21117    0.029
 4421.00    1.45655   1.21090    0.029
 4422.00    1.27882   1.21160    0.029
 4423.00    1.18625   1.21064    0.029
 4424.00    1.19724   1.20921    0.029
 4425.00    1.20845   1.20803    0.029
 4426.00    1.21990   1.20671    0.029
 4427.00    1.24158   1.20611    0.029
 4428.00    1.27294   1.20325    0.029
 4429.00    1.26470   1.20233    0.029
 4430.00    1.22344   1.20248    0.029
 4431.00    1.21518   1.20183    0.029
 4432.00    1.23114   1.20204    0.029
 4433.00    1.26589   1.20273    0.029
 4434.00    1.31275   1.20565    0.029
 4435.00    1.34175   1.21046    0.029
 4436.00    1.36066   1.21467    0.029
 4437.00    1.34118   1.21973    0.029
 4438.00    1.30286   1.22350    0.029
 4439.00    1.26294   1.22648    0.029
 4440.00    1.22234   1.22944    0.029
 4441.00    1.18950   1.23230    0.029
 4442.00    1.15948   1.23572    0.029
 4443.00    1.18557   1.23837    0.029
 4444.00    1.22892   1.23989    0.029
 4445.00    1.25499   1.23830    0.029
 4446.00    1.27664   1.23590    0.029
 4447.00    1.28905   1.23205    0.029
 4448.00    1.29954   1.22442    0.029
 4449.00    1.27452   1.21694    0.029
 4450.00    1.24367   1.20813    0.028
 4451.00    1.26470   1.19787    0.028
 4452.00    1.29214   1.18821    0.028
 4453.00    1.28899   1.17756    0.028
 4454.00    1.28324   1.17017    0.029
 4455.00    1.21308   1.16388    0.028
 4456.00    1.13974   1.15955    0.028
 4457.00    1.11632   1.15696    0.028
 4458.00    1.09481   1.15672    0.028
 4459.00    1.14275   1.15916    0.028
 4460.00    1.18666   1.16236    0.028
 4461.00    1.14911   1.17065    0.000
 4462.00    1.11709   1.17904    0.000
 4463.00    1.15011   1.18811    0.000
 4464.00    1.18289   1.19846    0.000
 4465.00    1.21371   1.20865    0.000
 4466.00    1.23198   1.22048    0.000
 4467.00    1.17386   1.23056    0.000
 4468.00    1.12915   1.24162    0.000
 4469.00    1.14880   1.25166    0.000
 4470.00    1.17962   1.26119    0.000
 4471.00    1.25401   1.26977    0.000
 4472.00    1.33495   1.27702    0.000
 4473.00    1.43716   1.28231    0.000
 4474.00    1.52094   1.28611    0.000
 4475.00    1.55404   1.28964    0.000
 4476.00    1.52941   1.29099    0.000
 4477.00    1.36877   1.29066    0.000
 4478.00    1.26764   1.28837    0.000
 4479.00    1.28772   1.28655    0.000
 4480.00    1.33967   1.28493    0.000
 4481.00    1.44812   1.28498    0.000
 4482.00    1.47967   1.28507    0.028
 4483.00    1.39193   1.28397    0.028
 4484.00    1.30477   1.28343    0.028
 4485.00    1.21839   1.28152    0.028
 4486.00    1.23604   1.27938    0.028
 4487.00    1.37845   1.27723    0.028
 4488.00    1.42394   1.27606    0.028
 4489.00    1.36696   1.27717    0.028
 4490.00    1.31607   1.27830    0.028
 4491.00    1.27087   1.28142    0.028
 4492.00    1.32144   1.28348    0.028
 4493.00    1.45073   1.28799    0.028
 4494.00    1.45534   1.29450    0.028
 4495.00    1.36973   1.30198    0.028
 4496.00    1.29086   1.31203    0.028
 4497.00    1.21628   1.32133    0.028
 4498.00    1.20616   1.33206    0.028
 4499.00    1.23185   1.34099    0.027
 4500.00    1.25931   1.35028    0.028
 4501.00    1.28761   1.35990    0.028
 4502.00    1.31168   1.36718    0.028
 4503.00    1.33399   1.37299    0.028
 4504.00    1.32629   1.37633    0.028
 4505.00    1.30788   1.37781    0.028
 4506.00    1.36482   1.37740    0.028
 4507.00    1.44447   1.37575    0.028
 4508.00    1.42645   1.37302    0.028
 4509.00    1.38397   1.36887    0.027
 4510.00    1.32005   1.36401    0.027
 4511.00    1.25176   1.35776    0.027
 4512.00    1.22450   1.35116    0.028
 4513.00    1.20378   1.34407    0.028
 4514.00    1.28707   1.33725    0.028
 4515.00    1.38272   1.32999    0.028
 4516.00    1.36112   1.32112    0.028
 4517.00    1.33003   1.31330    0.028
 4518.00    1.35415   1.30344    0.028
 4519.00    1.38077   1.29403    0.028
 4520.00    1.33259   1.28253    0.027
 4521.00    1.28436   1.27057    0.027
 4522.00    1.28076   1.25963    0.027
 4523.00    1.27860   1.24808    0.027
 4524.00    1.30334   1.23715    0.027
 4525.00    1.31955   1.22697    0.027
 4526.00    1.24013   1.21949    0.027
 4527.00    1.16949   1.21380    0.027
 4528.00    1.16754   1.21276    0.027
 4529.00    1.16704   1.21175    0.027
 4530.00    1.17515   1.21474    0.027
 4531.00    1.19111   1.21829    0.027
 4532.00    1.24386   1.22302    0.027
 4533.00    1.29217   1.22977    0.027
 4534.00    1.32353   1.23677    0.027
 4535.00    1.35278   1.24719    0.027
 4536.00    1.37532   1.25418    0.028
 4537.00    1.37062   1.26152    0.028
 4538.00    1.29233   1.26606    0.028
 4539.00    1.25031   1.26948    0.028
 4540.00    1.29233   1.27224    0.028
 4541.00    1.31796   1.27363    0.028
 4542.00    1.31073   1.27473    0.028
 4543.00    1.28176   1.27327    0.027
 4544.00    1.21485   1.27349    0.027
 4545.00    1.18138   1.27167    0.027
 4546.00    1.19899   1.27067    0.027
 4547.00    1.19549   1.26924    0.027
 4548.00    1.16364   1.26976    0.027
 4549.00    1.18747   1.27292    0.027
 4550.00    1.27713   1.27511    0.000
 4551.00    1.27680   1.27929    0.000
 4552.00    1.18265   1.28280    0.000
 4553.00    1.16250   1.28818    0.000
 4554.00    1.21039   1.29378    0.000
 4555.00    1.21406   1.30033    0.000
 4556.00    1.18190   1.30626    0.000
 4557.00    1.20310   1.31197    0.000
 4558.00    1.26235   1.31808    0.000
 4559.00    1.32452   1.32211    0.000
 4560.00    1.38853   1.32587    0.000
 4561.00    1.37136   1.32791    0.000
 4562.00    1.30978   1.32873    0.000
 4563.00    1.33434   1.32985    0.000
 4564.00    1.39983   1.33207    0.000
 4565.00    1.36630   1.33443    0.000
 4566.00    1.29217   1.33549    0.000
 4567.00    1.24113   1.33570    0.000
 4568.00    1.19820   1.33583    0.000
 4569.00    1.18257   1.33354    0.000
 4570.00    1.17501   1.33083    0.000
 4571.00    1.21627   1.32955    0.000
 4572.00    1.26948   1.32648    0.000
 4573.00    1.25814   1.32391    0.000
 4574.00    1.23401   1.32015    0.000
 4575.00    1.21205   1.31530    0.000
 4576.00    1.19043   1.31038    0.000
 4577.00    1.19111   1.30445    0.000
 4578.00    1.19434   1.30016    0.000
 4579.00    1.20032   1.29624    0.000
 4580.00    1.20651   1.29491    0.000
 4581.00    1.23628   1.29342    0.000
 4582.00    1.26704   1.29152    0.000
 4583.00    1.22950   1.29123    0.000
 4584.00    1.19361   1.29038    0.000
 4585.00    1.25395   1.29153    0.000
 4586.00    1.30993   1.29196    0.000
 4587.00    1.28971   1.29294    0.000
 4588.00    1.26913   1.29353    0.000
 4589.00    1.24471   1.29253    0.000
 4590.00    1.22208   1.29239    0.000
 4591.00    1.21300   1.29051    0.000
 4592.00    1.20715   1.29016    0.000
 4593.00    1.21981   1.28987    0.000
 4594.00    1.24453   1.28986    0.000
 4595.00    1.32437   1.29129    0.000
 4596.00    1.36028   1.29132    0.000
 4597.00    1.23182   1.29485    0.000
 4598.00    1.14637   1.29709    0.000
 4599.00    1.19542   1.30184    0.000
 4600.00    1.23672   1.30837    0.000
 4601.00    1.25745   1.31352    0.000
 4602.00    1.28845   1.32087    0.000
 4603.00    1.34284   1.32663    0.000
 4604.00    1.34833   1.33391    0.000
 4605.00    1.25734   1.34108    0.000
 4606.00    1.18890   1.34885    0.000
 4607.00    1.15924   1.35566    0.000
 4608.00    1.15680   1.36125    0.000
 4609.00    1.19534   1.36562    0.000
 4610.00    1.22815   1.36854    0.000
 4611.00    1.25336   1.37120    0.000
 4612.00    1.29385   1.37394    0.000
 4613.00    1.35217   1.37676    0.000
 4614.00    1.34760   1.37762    0.000
 4615.00    1.27840   1.37953    0.000
 4616.00    1.26570   1.37966    0.000
 4617.00    1.30421   1.37867    0.000
 4618.00    1.34287   1.37880    0.000
 4619.00    1.38165   1.37900    0.000
 4620.00    1.37409   1.37797    0.000
 4621.00    1.33395   1.37696    0.000
 4622.00    1.29448   1.37642    0.000
 4623.00    1.25541   1.37387    0.000
 4624.00    1.24289   1.37075    0.000
 4625.00    1.24467   1.36793    0.000
 4626.00    1.21835   1.36446    0.000
 4627.00    1.17889   1.36010    0.000
 4628.00    1.20039   1.35520    0.000
 4629.00    1.24646   1.35070    0.000
 4630.00    1.28822   1.34471    0.000
 4631.00    1.32850   1.33745    0.000
 4632.00    1.32939   1.33178    0.000
 4633.00    1.31888   1.32483    0.000
 4634.00    1.32422   1.31864    0.000
 4635.00    1.33336   1.31205    0.000
 4636.00    1.29938   1.30529    0.000
 4637.00    1.25708   1.29881    0.000
 4638.00    1.20750   1.29148    0.000
 4639.00    1.15682   1.28681    0.000
 4640.00    1.20216   1.28219    0.000
 4641.00    1.25807   1.27847    0.000
 4642.00    1.32575   1.27561    0.000
 4643.00    1.39429   1.27328    0.000
 4644.00    1.28946   1.27170    0.000
 4645.00    1.17808   1.27065    0.000
 4646.00    1.10957   1.27223    0.000
 4647.00    1.04754   1.27438    0.000
 4648.00    1.21735   1.27833    0.000
 4649.00    1.37395   1.28341    0.000
 4650.00    1.31460   1.28827    0.000
 4651.00    1.25744   1.29419    0.000
 4652.00    1.22268   1.29757    0.000
 4653.00    1.19848   1.30138    0.000
 4654.00    1.25152   1.30383    0.000
 4655.00    1.29736   1.30547    0.000
 4656.00    1.30296   1.30758    0.000
 4657.00    1.31122   1.30657    0.000
 4658.00    1.33129   1.30439    0.000
 4659.00    1.32658   1.29914    0.000
 4660.00    1.23107   1.29278    0.000
 4661.00    1.15860   1.28639    0.000
 4662.00    1.15686   1.28076    0.000
 4663.00    1.15353   1.27618    0.000
 4664.00    1.14606   1.27095    0.000
 4665.00    1.15950   1.26599    0.000
 4666.00    1.21982   1.26265    0.000
 4667.00    1.26530   1.26224    0.000
 4668.00    1.28196   1.26338    0.000
 4669.00    1.29481   1.26692    0.000
 4670.00    1.30122   1.27016    0.000
 4671.00    1.32228   1.27254    0.000
 4672.00    1.36505   1.27528    0.000
 4673.00    1.37598   1.27793    0.000
 4674.00    1.34536   1.28253    0.000
 4675.00    1.30687   1.28561    0.000
 4676.00    1.25933   1.28813    0.000
 4677.00    1.27482   1.28968    0.000
 4678.00    1.35418   1.28958    0.000
 4679.00    1.37977   1.29021    0.000
 4680.00    1.35729   1.29063    0.000
 4681.00    1.31510   1.29221    0.000
 4682.00    1.25737   1.29323    0.000
 4683.00    1.27855   1.29363    0.000
 4684.00    1.35438   1.29398    0.000
 4685.00    1.36971   1.29378    0.000
 4686.00    1.34829   1.29411    0.000
 4687.00    1.32279   1.29457    0.000
 4688.00    1.29511   1.29488    0.000
 4689.00    1.24967   1.29387    0.000
 4690.00    1.19605   1.29259    0.000
 4691.00    1.15201   1.29048    0.000
 4692.00    1.11176   1.28777    0.000
 4693.00    1.15443   1.28566    0.000
 4694.00    1.22509   1.28237    0.000
 4695.00    1.20774   1.27894    0.000
 4696.00    1.16540   1.27378    0.000
 4697.00    1.18493   1.26978    0.000
 4698.00    1.21894   1.26665    0.000
 4699.00    1.26294   1.26302    0.000
 4700.00    1.30882   1.26032    0.000
 4701.00    1.27160   1.25784    0.000
 4702.00    1.22228   1.25773    0.000
 4703.00    1.24912   1.25793    0.000
 4704.00    1.28401   1.26028    0.000
 4705.00    1.24194   1.26275    0.000
 4706.00    1.19458   1.26593    0.000
 4707.00    1.16607   1.26989    0.000
 4708.00    1.13821   1.27472    0.000
 4709.00    1.17973   1.28346    0.000
 4710.00    1.22055   1.29109    0.000
 4711.00    1.23494   1.29909    0.000
 4712.00    1.25108   1.30618    0.000
 4713.00    1.29409   1.31256    0.000
 4714.00    1.32730   1.32041    0.000
 4715.00    1.26451   1.32660    0.000
 4716.00    1.21608   1.33314    0.000
 4717.00    1.26923   1.33841    0.000
 4718.00    1.31500   1.34065    0.000
 4719.00    1.32053   1.34140    0.000
 4720.00    1.32945   1.33901    0.000
 4721.00    1.35312   1.33655    0.000
 4722.00    1.37018   1.33349    0.000
 4723.00    1.36347   1.32919    0.000
 4724.00    1.35159   1.32498    0.000
 4725.00    1.32414   1.31921    0.000
 4726.00    1.29196   1.31379    0.000
 4727.00    1.24770   1.30822    0.000
 4728.00    1.22095   1.30533    0.000
 4729.00    1.23281   1.30364    0.000
 4730.00    1.24589   1.30310    0.000
 4731.00    1.26132   1.30500    0.000
 4732.00    1.30051   1.30629    0.000
 4733.00    1.37934   1.30932    0.000
 4734.00    1.38673   1.31195    0.000
 4735.00    1.28966   1.31603    0.000
 4736.00    1.24712   1.32199    0.000
 4737.00    1.27469   1.32678    0.000
 4738.00    1.28835   1.33143    0.000
 4739.00    1.28625   1.33579    0.000
 4740.00    1.27657   1.33980    0.000
 4741.00    1.25932   1.34300    0.000
 4742.00    1.26750   1.34529    0.000
 4743.00    1.29808   1.34777    0.000
 4744.00    1.32409   1.34987    0.000
 4745.00    1.34657   1.34911    0.000
 4746.00    1.37952   1.34843    0.000
 4747.00    1.41961   1.34692    0.000
 4748.00    1.40280   1.34479    0.000
 4749.00    1.35196   1.34187    0.000
 4750.00    1.30920   1.33741    0.000
 4751.00    1.27064   1.33397    0.000
 4752.00    1.30463   1.32880    0.000
 4753.00    1.37144   1.32431    0.000
 4754.00    1.31089   1.31870    0.000
 4755.00    1.20074   1.31300    0.000
 4756.00    1.25288   1.30858    0.000
 4757.00    1.35878   1.30320    0.000
 4758.00    1.41403   1.29928    0.000
 4759.00    1.45521   1.29436    0.000
 4760.00    1.38999   1.29146    0.000
 4761.00    1.30042   1.28978    0.026
 4762.00    1.33088   1.28870    0.026
 4763.00    1.38332   1.28980    0.026
 4764.00    1.35263   1.28988    0.026
 4765.00    1.31023   1.29280    0.026
 4766.00    1.28610   1.29651    0.026
 4767.00    1.26382   1.30198    0.026
 4768.00    1.26178   1.30874    0.026
 4769.00    1.26104   1.31279    0.026
 4770.00    1.36652   1.31870    0.026
 4771.00    1.47476   1.32323    0.026
 4772.00    1.35968   1.32784    0.026
 4773.00    1.25326   1.33257    0.025
 4774.00    1.39797   1.33468    0.026
 4775.00    1.52960   1.33707    0.026
 4776.00    1.47209   1.33548    0.026
 4777.00    1.41750   1.33412    0.025
 4778.00    1.39039   1.33429    0.025
 4779.00    1.35950   1.33116    0.025
 4780.00    1.30276   1.32928    0.025
 4781.00    1.26857   1.32670    0.025
 4782.00    1.35384   1.32430    0.025
 4783.00    1.40465   1.32407    0.025
 4784.00    1.30870   1.32246    0.025
 4785.00    1.23238   1.32340    0.025
 4786.00    1.22503   1.32540    0.025
 4787.00    1.21630   1.32745    0.025
 4788.00    1.20346   1.33114    0.025
 4789.00    1.21495   1.33398    0.025
 4790.00    1.28770   1.33802    0.025
 4791.00    1.35172   1.34103    0.025
 4792.00    1.39684   1.34358    0.025
 4793.00    1.42049   1.34691    0.025
 4794.00    1.40373   1.34920    0.025
 4795.00    1.37025   1.35103    0.025
 4796.00    1.30933   1.35135    0.025
 4797.00    1.25822   1.35044    0.025
 4798.00    1.22125   1.34845    0.025
 4799.00    1.25753   1.34840    0.025
 4800.00    1.38667   1.34745    0.026
 4801.00    1.43489   1.34542    0.026
 4802.00    1.39273   1.34473    0.026
 4803.00    1.35627   1.34287    0.026
 4804.00    1.32542   1.34224    0.025
 4805.00    1.30561   1.34140    0.025
 4806.00    1.29539   1.34163    0.025
 4807.00    1.25351   1.34378    0.025
 4808.00    1.18741   1.34475    0.025
 4809.00    1.20819   1.34661    0.025
 4810.00    1.28741   1.34850    0.025
 4811.00    1.33362   1.34989    0.025
 4812.00    1.36038   1.35259    0.025
 4813.00    1.34020   1.35378    0.025
 4814.00    1.29591   1.35522    0.025
 4815.00    1.31407   1.35652    0.025
 4816.00    1.36004   1.35392    0.025
 4817.00    1.33167   1.35260    0.025
 4818.00    1.27485   1.35157    0.025
 4819.00    1.33561   1.34948    0.025
 4820.00    1.43461   1.34681    0.026
 4821.00    1.41832   1.34145    0.025
 4822.00    1.37065   1.33743    0.025
 4823.00    1.35808   1.33452    0.025
 4824.00    1.35335   1.33049    0.025
 4825.00    1.31281   1.32722    0.025
 4826.00    1.26589   1.32403    0.025
 4827.00    1.23115   1.32093    0.025
 4828.00    1.19808   1.31805    0.024
 4829.00    1.21700   1.31452    0.024
 4830.00    1.24097   1.31332    0.024
 4831.00    1.28967   1.31146    0.024
 4832.00    1.33986   1.30807    0.024
 4833.00    1.28395   1.30590    0.024
 4834.00    1.22588   1.30386    0.024
 4835.00    1.28638   1.30271    0.025
 4836.00    1.34347   1.29898    0.025
 4837.00    1.31159   1.29551    0.024
 4838.00    1.27923   1.29414    0.024
 4839.00    1.24020   1.29182    0.024
 4840.00    1.20654   1.28934    0.024
 4841.00    1.22144   1.28425    0.024
 4842.00    1.24581   1.27987    0.024
 4843.00    1.33297   1.27589    0.024
 4844.00    1.38838   1.26975    0.024
 4845.00    1.27997   1.26410    0.024
 4846.00    1.20227   1.25614    0.024
 4847.00    1.25237   1.24583    0.024
 4848.00    1.29701   1.23325    0.000
 4849.00    1.32287   1.21957    0.000
 4850.00    1.33084   1.20863    0.000
 4851.00    1.28692   1.19569    0.000
 4852.00    1.25025   1.17974    0.000
 4853.00    1.23154   1.16268    0.000
 4854.00    1.21833   1.14525    0.000
 4855.00    1.21688   1.13322    0.000
 4856.00    1.19395   1.12330    0.000
 4857.00    1.13123   1.11379    0.000
 4858.00    1.08649   1.10660    0.000
 4859.00    1.07088   1.09871    0.000
 4860.00    1.04080   1.09609    0.000
 4861.00    0.99020   1.09772    0.000
 4862.00    0.99652   1.10272    0.000
 4863.00    1.07395   1.10979    0.000
 4864.00    1.13979   1.11378    0.000
 4865.00    1.19288   1.12115    0.000
 4866.00    1.21148   1.13052    0.000
 4867.00    1.19657   1.14251    0.000
 4868.00    1.14616   1.15456    0.000
 4869.00    1.06534   1.16289    0.000
 4870.00    1.05552   1.17277    0.000
 4871.00    1.09925   1.18220    0.000
 4872.00    1.12360   1.19365    0.000
 4873.00    1.13511   1.20361    0.000
 4874.00    1.20655   1.21032    0.000
 4875.00    1.31278   1.21764    0.024
 4876.00    1.35084   1.22271    0.024
 4877.00    1.35442   1.22912    0.024
 4878.00    1.26065   1.23347    0.024
 4879.00    1.12424   1.23422    0.024
 4880.00    1.16271   1.23681    0.024
 4881.00    1.26692   1.23774    0.024
 4882.00    1.30689   1.23984    0.024
 4883.00    1.32638   1.24197    0.024
 4884.00    1.28314   1.24132    0.024
 4885.00    1.22317   1.24511    0.024
 4886.00    1.24618   1.24890    0.024
 4887.00    1.28728   1.25478    0.024
 4888.00    1.24256   1.26331    0.024
 4889.00    1.18296   1.26901    0.024
 4890.00    1.18046   1.27793    0.024
 4891.00    1.18549   1.28631    0.024
 4892.00    1.23234   1.29546    0.024
 4893.00    1.28307   1.30635    0.024
 4894.00    1.31353   1.31405    0.025
 4895.00    1.34283   1.32059    0.025
 4896.00    1.37044   1.32521    0.025
 4897.00    1.39753   1.32885    0.025
 4898.00    1.37113   1.33227    0.025
 4899.00    1.34574   1.33439    0.025
 4900.00    1.34403   1.33398    0.025
 4901.00    1.34145   1.33239    0.025
 4902.00    1.32770   1.32969    0.025
 4903.00    1.31200   1.32581    0.025
 4904.00    1.27930   1.32293    0.025
 4905.00    1.26477   1.31903    0.025
 4906.00    1.36718   1.31443    0.025
 4907.00    1.43784   1.30873    0.025
 4908.00    1.34883   1.30153    0.025
 4909.00    1.27281   1.29585    0.025
 4910.00    1.24973   1.29064    0.025
 4911.00    1.23290   1.28434    0.025
 4912.00    1.23718   1.27721    0.025
 4913.00    1.23111   1.26935    0.025
 4914.00    1.19561   1.26352    0.025
 4915.00    1.18069   1.25999    0.025
 4916.00    1.21585   1.25644    0.025
 4917.00    1.23030   1.25366    0.025
 4918.00    1.20129   1.25128    0.025
 4919.00    1.18254   1.25209    0.025
 4920.00    1.18252   1.25580    0.025
 4921.00    1.18685   1.26012    0.025
 4922.00    1.19810   1.26606    0.025
 4923.00    1.23191   1.27081    0.025
 4924.00    1.29728   1.27724    0.025
 4925.00    1.35967   1.28425    0.025
 4926.00    1.41839   1.28915    0.025
 4927.00    1.41845   1.29460    0.025
 4928.00    1.35483   1.29759    0.025
 4929.00    1.29569   1.30023    0.025
 4930.00    1.24085   1.30300    0.024
 4931.00    1.23683   1.30263    0.024
 4932.00    1.27574   1.30253    0.024
 4933.00    1.30557   1.30267    0.024
 4934.00    1.32866   1.30346    0.024
 4935.00    1.35009   1.30630    0.024
 4936.00    1.37044   1.30836    0.024
 4937.00    1.30423   1.31023    0.024
 4938.00    1.18853   1.31365    0.024
 4939.00    1.13107   1.31873    0.024
 4940.00    1.10261   1.32475    0.000
 4941.00    1.16456   1.33071    0.000
 4942.00    1.26544   1.33511    0.000
 4943.00    1.33980   1.33878    0.000
 4944.00    1.40437   1.34294    0.000
 4945.00    1.38455   1.34456    0.000
 4946.00    1.33834   1.34564    0.000
 4947.00    1.35639   1.34487    0.000
 4948.00    1.39122   1.34237    0.000
 4949.00    1.32868   1.34065    0.000
 4950.00    1.24540   1.33416    0.000
 4951.00    1.27433   1.32892    0.000
 4952.00    1.32216   1.32354    0.000
 4953.00    1.29461   1.31754    0.000
 4954.00    1.25747   1.31548    0.000
 4955.00    1.23367   1.30851    0.000
 4956.00    1.21106   1.30406    0.000
 4957.00    1.24047   1.30150    0.000
 4958.00    1.27263   1.29816    0.000
 4959.00    1.23242   1.30015    0.000
 4960.00    1.19209   1.29815    0.000
 4961.00    1.25011   1.29673    0.000
 4962.00    1.30574   1.29828    0.000
 4963.00    1.30970   1.29732    0.000
 4964.00    1.31269   1.30003    0.000
 4965.00    1.30368   1.30063    0.000
 4966.00    1.29431   1.29921    0.000
 4967.00    1.28190   1.30109    0.000
 4968.00    1.27301   1.29933    0.000
 4969.00    1.28612   1.29873    0.000
 4970.00    1.30506   1.29755    0.000
 4971.00    1.35263   1.29248    0.000
 4972.00    1.38226   1.28996    0.000
 4973.00    1.34046   1.28420    0.000
 4974.00    1.29540   1.27844    0.000
 4975.00    1.23954   1.27332    0.000
 4976.00    1.18647   1.26481    0.000
 4977.00    1.14116   1.25909    0.000
 4978.00    1.12253   1.25253    0.000
 4979.00    1.16771   1.24712    0.000
 4980.00    1.22167   1.24448    0.000
 4981.00    1.29375   1.23990    0.000
 4982.00    1.31007   1.23907    0.000
 4983.00    1.22622   1.23885    0.000
 4984.00    1.15022   1.23862    0.000
 4985.00    1.08656   1.24258    0.000
 4986.00    1.07449   1.24367    0.000
 4987.00    1.13361   1.24640    0.000
 4988.00    1.18690   1.24991    0.000
 4989.00    1.23311   1.24922    0.000
 4990.00    1.25102   1.25213    0.000
 4991.00    1.23865   1.25215    0.000
 4992.00    1.22358   1.24998    0.000
 4993.00    1.20598   1.24965    0.000
 4994.00    1.24694   1.24391    0.000
 4995.00    1.33664   1.23976    0.000
 4996.00    1.33918   1.23572    0.000
 4997.00    1.27784   1.22855    0.000
 4998.00    1.22360   1.22408    0.000
 4999.00    1.17395   1.21662    0.000
 5000.00    1.16960   1.20926    0.000
 5001.00    1.19075   1.20466    0.000
 5002.00    1.16031   1.19814    0.000
 5003.00    1.10460   1.19425    0.000
 5004.00    1.13764   1.18923    0.000
 5005.00    1.20825   1.18351    0.000
 5006.00    1.22021   1.18139    0.000
 5007.00    1.21091   1.17702    0.000
 5008.00    1.17763   1.17488    0.000
 5009.00    1.13699   1.17345    0.000
 5010.00    1.18282   1.17029    0.000
 5011.00    1.25074   1.17089    0.000
 5012.00    1.21070   1.16892    0.000
 5013.00    1.14823   1.16897    0.000
 5014.00    1.15795   1.17260    0.000
 5015.00    1.17947   1.17324    0.000
 5016.00    1.12496   1.17715    0.000
 5017.00    1.06111   1.17965    0.000
 5018.00    1.08544   1.18325    0.000
 5019.00    1.11723   1.19202    0.000
 5020.00    1.15138   1.19568    0.000
 5021.00    1.18564   1.20137    0.000
 5022.00    1.18605   1.20766    0.000
 5023.00    1.18583   1.21225    0.000
 5024.00    1.18009   1.22125    0.000
 5025.00    1.17350   1.22395    0.000
 5026.00    1.14983   1.22601    0.000
 5027.00    1.13329   1.23166    0.000
 5028.00    1.19997   1.23261    0.000
 5029.00    1.26004   1.23441    0.024
 5030.00    1.26674   1.23292    0.024
 5031.00    1.26822   1.22816    0.024
 5032.00    1.23804   1.22942    0.024
 5033.00    1.20315   1.22704    0.023
 5034.00    1.14572   1.22148    0.024
 5035.00    1.10722   1.21917    0.024
 5036.00    1.14249   1.21436    0.023
 5037.00    1.17064   1.21463    0.023
 5038.00    1.17570   1.21561    0.023
 5039.00    1.16782   1.21198    0.023
 5040.00    1.12444   1.21469    0.023
 5041.00    1.11895   1.21712    0.023
 5042.00    1.20253   1.22004    0.023
 5043.00    1.25297   1.22559    0.023
 5044.00    1.23605   1.22764    0.023
 5045.00    1.23481   1.23350    0.023
 5046.00    1.26132   1.23970    0.023
 5047.00    1.28218   1.24360    0.022
 5048.00    1.29428   1.25008    0.023
 5049.00    1.27745   1.25448    0.023
 5050.00    1.22129   1.25963    0.023
 5051.00    1.19865   1.26574    0.023
 5052.00    1.21615   1.26906    0.022
 5053.00    1.22504   1.27407    0.022
 5054.00    1.22485   1.27675    0.023
 5055.00    1.26969   1.27813    0.023
 5056.00    1.35645   1.28166    0.022
 5057.00    1.37802   1.28104    0.022
 5058.00    1.34609   1.28028    0.022
 5059.00    1.28245   1.27818    0.022
 5060.00    1.19588   1.27406    0.022
 5061.00    1.18781   1.27284    0.022
 5062.00    1.22949   1.26744    0.022
 5063.00    1.24350   1.26165    0.022
 5064.00    1.24217   1.25722    0.022
 5065.00    1.26439   1.25114    0.022
 5066.00    1.29798   1.24733    0.022
 5067.00    1.26381   1.24137    0.022
 5068.00    1.20144   1.23591    0.022
 5069.00    1.18800   1.23150    0.022
 5070.00    1.19199   1.22573    0.023
 5071.00    1.23812   1.22221    0.023
 5072.00    1.29692   1.21822    0.023
 5073.00    1.21426   1.21433    0.024
 5074.00    1.09627   1.21024    0.024
 5075.00    1.15051   1.20663    0.024
 5076.00    1.23966   1.20618    0.024
 5077.00    1.21820   1.20551    0.023
 5078.00    1.17915   1.20475    0.023
 5079.00    1.13697   1.20521    0.022
 5080.00    1.09441   1.20761    0.022
 5081.00    1.13281   1.21155    0.022
 5082.00    1.17770   1.21515    0.023
 5083.00    1.16486   1.21885    0.022
 5084.00    1.14943   1.22350    0.022
 5085.00    1.25082   1.22879    0.022
 5086.00    1.34936   1.23276    0.022
 5087.00    1.23636   1.23608    0.022
 5088.00    1.13092   1.23876    0.022
 5089.00    1.16603   1.23960    0.022
 5090.00    1.20301   1.24092    0.022
 5091.00    1.26067   1.24100    0.023
 5092.00    1.31426   1.23932    0.023
 5093.00    1.33602   1.23713    0.023
 5094.00    1.34650   1.23280    0.023
 5095.00    1.29054   1.23030    0.023
 5096.00    1.24524   1.22891    0.023
 5097.00    1.24972   1.22436    0.023
 5098.00    1.23067   1.22112    0.023
 5099.00    1.12194   1.21864    0.023
 5100.00    1.06096   1.21598    0.023
 5101.00    1.15185   1.21658    0.023
 5102.00    1.21334   1.21487    0.023
 5103.00    1.19557   1.21363    0.023
 5104.00    1.17056   1.21649    0.023
 5105.00    1.12878   1.21598    0.023
 5106.00    1.11535   1.21812    0.023
 5107.00    1.15865   1.22179    0.023
 5108.00    1.20619   1.22218    0.023
 5109.00    1.26109   1.22676    0.023
 5110.00    1.28791   1.22850    0.023
 5111.00    1.27189   1.22900    0.023
 5112.00    1.23381   1.23325    0.023
 5113.00    1.16616   1.23185    0.023
 5114.00    1.13514   1.23104    0.023
 5115.00    1.14735   1.23100    0.023
 5116.00    1.16802   1.22693    0.023
 5117.00    1.19752   1.22508    0.023
 5118.00    1.23421   1.21987    0.023
 5119.00    1.27751   1.21307    0.023
 5120.00    1.27476   1.21015    0.023
 5121.00    1.23474   1.20493    0.023
 5122.00    1.18818   1.20014    0.022
 5123.00    1.13695   1.19579    0.022
 5124.00    1.12265   1.19036    0.022
 5125.00    1.13141   1.18995    0.022
 5126.00    1.15298   1.18863    0.022
 5127.00    1.18156   1.18585    0.022
 5128.00    1.20513   1.18581    0.022
 5129.00    1.22632   1.18360    0.022
 5130.00    1.15899   1.18596    0.022
 5131.00    1.05543   1.18757    0.022
 5132.00    1.10373   1.18300    0.022
 5133.00    1.20513   1.18377    0.022
 5134.00    1.23744   1.18255    0.022
 5135.00    1.24939   1.18172    0.022
 5136.00    1.19377   1.18304    0.022
 5137.00    1.12163   1.17579    0.022
 5138.00    1.13970   1.17416    0.022
 5139.00    1.17559   1.17612    0.022
 5140.00    1.20283   1.17201    0.022
 5141.00    1.22875   1.17096    0.022
 5142.00    1.20531   1.16815    0.022
 5143.00    1.17625   1.16658    0.022
 5144.00    1.15054   1.17034    0.022
 5145.00    1.12508   1.16900    0.022
 5146.00    1.12383   1.16768    0.022
 5147.00    1.12358   1.17076    0.022
 5148.00    1.15049   1.17220    0.022
 5149.00    1.17650   1.17339    0.022
 5150.00    1.15501   1.17536    0.022
 5151.00    1.13515   1.17550    0.022
 5152.00    1.14376   1.17633    0.022
 5153.00    1.15260   1.17658    0.022
 5154.00    1.16399   1.17195    0.022
 5155.00    1.18264   1.16843    0.022
 5156.00    1.25598   1.16357    0.023
 5157.00    1.29938   1.15238    0.023
 5158.00    1.17120   1.14291    0.023
 5159.00    1.07335   1.13193    0.023
 5160.00    1.11364   1.11860    0.023
 5161.00    1.14418   1.10493    0.023
 5162.00    1.13840   1.08528    0.023
 5163.00    1.12122   1.07003    0.023
 5164.00    1.06852   1.06109    0.023
 5165.00    1.01430   1.05060    0.023
 5166.00    0.95606   1.03973    0.023
 5167.00    0.90387   1.02763    0.023
 5168.00    0.86546   1.02175    0.023
 5169.00    0.84910   1.02432    0.023
 5170.00    0.87616   1.02457    0.023
 5171.00    0.90336   1.02409    0.023
 5172.00    0.93079   1.02725    0.023
 5173.00    0.99045   1.03166    0.023
 5174.00    1.09855   1.03775    0.023
 5175.00    1.16196   1.04274    0.023
 5176.00    1.16634   1.04730    0.023
 5177.00    1.16011   1.05512    0.023
 5178.00    1.14155   1.05784    0.022
 5179.00    1.13273   1.06050    0.022
 5180.00    1.13392   1.06991    0.022
 5181.00    1.12908   1.07535    0.022
 5182.00    1.11880   1.08055    0.022
 5183.00    1.11951   1.08573    0.022
 5184.00    1.12899   1.09107    0.022
 5185.00    1.10108   1.10300    0.022
 5186.00    1.04694   1.10812    0.022
 5187.00    1.06320   1.10998    0.022
 5188.00    1.12278   1.12104    0.022
 5189.00    1.14478   1.13090    0.022
 5190.00    1.14658   1.13638    0.000
 5191.00    1.14938   1.14035    0.000
 5192.00    1.15264   1.14339    0.000
 5193.00    1.16961   1.15078    0.000
 5194.00    1.19209   1.15641    0.000
 5195.00    1.19845   1.15497    0.000
 5196.00    1.19928   1.15570    0.000
 5197.00    1.19556   1.15753    0.000
 5198.00    1.19052   1.15697    0.000
 5199.00    1.15267   1.15608    0.000
 5200.00    1.10698   1.15120    0.000
 5201.00    1.07895   1.14988    0.000
 5202.00    1.05432   1.15235    0.000
 5203.00    1.04444   1.14864    0.000
 5204.00    1.03676   1.14809    0.000
 5205.00    1.10498   1.15013    0.000
 5206.00    1.18152   1.15165    0.000
 5207.00    1.14193   1.15728    0.000
 5208.00    1.09396   1.16039    0.000
 5209.00    1.08672   1.16481    0.000
 5210.00    1.08100   1.17137    0.000
 5211.00    1.18263   1.17529    0.022
 5212.00    1.28038   1.18138    0.022
 5213.00    1.21893   1.18721    0.022
 5214.00    1.16117   1.19093    0.021
 5215.00    1.16315   1.19485    0.021
 5216.00    1.16964   1.19651    0.021
 5217.00    1.22211   1.19700    0.022
 5218.00    1.26646   1.19819    0.022
 5219.00    1.25173   1.19652    0.022
 5220.00    1.23976   1.19498    0.022
 5221.00    1.24321   1.19396    0.022
 5222.00    1.23983   1.18951    0.022
 5223.00    1.20611   1.19120    0.022
 5224.00    1.17271   1.19329    0.023
 5225.00    1.14052   1.19081    0.023
 5226.00    1.14333   1.19525    0.023
 5227.00    1.25328   1.19679    0.023
 5228.00    1.31792   1.19873    0.023
 5229.00    1.26466   1.20655    0.023
 5230.00    1.20837   1.20927    0.023
 5231.00    1.14532   1.21772    0.022
 5232.00    1.13814   1.22705    0.022
 5233.00    1.23926   1.22980    0.023
 5234.00    1.28237   1.23658    0.023
 5235.00    1.22742   1.24208    0.023
 5236.00    1.21739   1.24670    0.023
 5237.00    1.27385   1.25132    0.023
 5238.00    1.30101   1.25198    0.023
 5239.00    1.29002   1.25473    0.022
 5240.00    1.29046   1.25756    0.022
 5241.00    1.30402   1.25508    0.022
 5242.00    1.28968   1.25003    0.022
 5243.00    1.24712   1.24983    0.022
 5244.00    1.23353   1.25029    0.022
 5245.00    1.24579   1.24478    0.022
 5246.00    1.24124   1.24110    0.022
 5247.00    1.22348   1.23849    0.022
 5248.00    1.19956   1.23692    0.022
 5249.00    1.17139   1.23479    0.022
 5250.00    1.16874   1.22615    0.022
 5251.00    1.18156   1.22381    0.022
 5252.00    1.18770   1.22355    0.022
 5253.00    1.19031   1.21607    0.022
 5254.00    1.21031   1.21079    0.022
 5255.00    1.23829   1.20347    0.022
 5256.00    1.26092   1.19407    0.022
 5257.00    1.28142   1.18608    0.022
 5258.00    1.27942   1.17460    0.022
 5259.00    1.26985   1.16482    0.022
 5260.00    1.27591   1.15588    0.022
 5261.00    1.28640   1.14358    0.022
 5262.00    1.23991   1.13636    0.022
 5263.00    1.18012   1.13208    0.022
 5264.00    1.12546   1.12288    0.022
 5265.00    1.07176   1.11691    0.022
 5266.00    1.05229   1.12014    0.022
 5267.00    1.03778   1.12382    0.022
 5268.00    1.06113   1.12702    0.022
 5269.00    1.08847   1.13290    0.022
 5270.00    1.12395   1.13898    0.022
 5271.00    1.15999   1.15071    0.022
 5272.00    1.15636   1.16419    0.023
 5273.00    1.15140   1.17304    0.023
 5274.00    1.20277   1.18675    0.022
 5275.00    1.25456   1.19975    0.022
 5276.00    1.31832   1.20906    0.023
 5277.00    1.37622   1.22282    0.023
 5278.00    1.34483   1.23256    0.023
 5279.00    1.31060   1.24027    0.022
 5280.00    1.24873   1.25275    0.022
 5281.00    1.19776   1.26219    0.022
 5282.00    1.22359   1.26930    0.022
 5283.00    1.25325   1.27496    0.022
 5284.00    1.30367   1.27813    0.022
 5285.00    1.34201   1.28380    0.022
 5286.00    1.32785   1.28893    0.022
 5287.00    1.31771   1.28928    0.022
 5288.00    1.32194   1.28884    0.022
 5289.00    1.32544   1.28962    0.022
 5290.00    1.32672   1.28912    0.022
 5291.00    1.33528   1.28722    0.023
 5292.00    1.36247   1.28366    0.023
 5293.00    1.37112   1.28003    0.023
 5294.00    1.33901   1.28099    0.023
 5295.00    1.28372   1.28165    0.023
 5296.00    1.18423   1.27929    0.022
 5297.00    1.13126   1.27968    0.022
 5298.00    1.15576   1.28239    0.022
 5299.00    1.18162   1.28637    0.022
 5300.00    1.20947   1.29019    0.022
 5301.00    1.21843   1.29291    0.022
 5302.00    1.20314   1.29781    0.022
 5303.00    1.23974   1.30358    0.022
 5304.00    1.33504   1.30808    0.022
 5305.00    1.38058   1.31135    0.022
 5306.00    1.37650   1.31404    0.022
 5307.00    1.38373   1.31661    0.022
 5308.00    1.40089   1.31670    0.022
 5309.00    1.39830   1.31631    0.021
 5310.00    1.38039   1.31519    0.021
 5311.00    1.35626   1.31003    0.021
 5312.00    1.32787   1.30612    0.021
 5313.00    1.29994   1.30252    0.021
 5314.00    1.27228   1.29485    0.021
 5315.00    1.27733   1.28686    0.021
 5316.00    1.29942   1.27813    0.021
 5317.00    1.31548   1.27042    0.021
 5318.00    1.32881   1.26390    0.021
 5319.00    1.31761   1.25219    0.021
 5320.00    1.29688   1.24218    0.021
 5321.00    1.25167   1.23878    0.021
 5322.00    1.19837   1.23211    0.021
 5323.00    1.17508   1.22250    0.021
 5324.00    1.16011   1.21824    0.021
 5325.00    1.15426   1.21831    0.020
 5326.00    1.15048   1.21911    0.020
 5327.00    1.15563   1.21699    0.020
 5328.00    1.16240   1.21549    0.021
 5329.00    1.23846   1.22152    0.021
 5330.00    1.32424   1.22723    0.021
 5331.00    1.30251   1.22823    0.021
 5332.00    1.26993   1.23066    0.021
 5333.00    1.25856   1.23731    0.021
 5334.00    1.24856   1.24453    0.021
 5335.00    1.26137   1.24539    0.021
 5336.00    1.27475   1.24712    0.021
 5337.00    1.24088   1.25332    0.021
 5338.00    1.20979   1.25688    0.021
 5339.00    1.25803   1.26082    0.021
 5340.00    1.30123   1.26185    0.021
 5341.00    1.27208   1.26382    0.021
 5342.00    1.24685   1.27199    0.021
 5343.00    1.25839   1.27434    0.021
 5344.00    1.26609   1.27676    0.022
 5345.00    1.24767   1.28414    0.021
 5346.00    1.22783   1.28968    0.021
 5347.00    1.20055   1.29688    0.021
 5348.00    1.17528   1.30129    0.021
 5349.00    1.15863   1.30497    0.021
 5350.00    1.16173   1.31335    0.021
 5351.00    1.23410   1.31764    0.021
 5352.00    1.30578   1.32004    0.022
 5353.00    1.37540   1.32327    0.022
 5354.00    1.41745   1.32437    0.022
 5355.00    1.39023   1.32595    0.021
 5356.00    1.37079   1.32371    0.021
 5357.00    1.36820   1.31888    0.021
 5358.00    1.36065   1.31709    0.021
 5359.00    1.34379   1.31208    0.021
 5360.00    1.33381   1.30518    0.021
 5361.00    1.33514   1.30016    0.021
 5362.00    1.34215   1.29291    0.020
 5363.00    1.35733   1.28682    0.020
 5364.00    1.35034   1.28232    0.020
 5365.00    1.31531   1.27637    0.020
 5366.00    1.28308   1.27240    0.020
 5367.00    1.25398   1.27100    0.020
 5368.00    1.22877   1.27036   -2.000
 5369.00    1.20739   1.27010   -2.000
 5370.00    1.19877   1.27123   -2.000
 5371.00    1.20122   1.27315   -2.000
 5372.00    1.22885   1.27505   -2.000
 5373.00    1.27572   1.27857   -2.000
 5374.00    1.32679   1.28117   -2.000
 5375.00    1.38069   1.28291   -2.000
 5376.00    1.40319   1.28702   -2.000
 5377.00    1.40723   1.28902   -2.000
 5378.00    1.37400   1.28840   -2.000
 5379.00    1.32166   1.28938   -2.000
 5380.00    1.31436   1.28831   -2.000
 5381.00    1.32707   1.28505   -2.000
 5382.00    1.32334   1.28346   -2.000
 5383.00    1.31333   1.27929    0.020
 5384.00    1.28732   1.27391    0.020
 5385.00    1.25612   1.27030    0.020
 5386.00    1.25522   1.26361    0.020
 5387.00    1.26255   1.25803    0.020
 5388.00    1.27859   1.25324    0.020
 5389.00    1.29656   1.24410    0.020
 5390.00    1.32977   1.23941    0.020
 5391.00    1.36568   1.23553    0.020
 5392.00    1.30827   1.22622    0.020
 5393.00    1.23819   1.22161    0.020
 5394.00    1.17405   1.21882    0.020
 5395.00    1.11050   1.21330    0.020
 5396.00    1.10395   1.20935    0.021
 5397.00    1.10084   1.20491    0.021
 5398.00    1.13887   1.20260    0.021
 5399.00    1.17782   1.20224    0.021
 5400.00    1.19242   1.19860    0.021
 5401.00    1.20660   1.19739    0.021
 5402.00    1.20982   1.20057    0.021
 5403.00    1.21100   1.20253    0.021
 5404.00    1.18441   1.20339    0.021
 5405.00    1.16084   1.20688    0.021
 5406.00    1.16440   1.21237    0.021
 5407.00    1.17059   1.21689    0.020
 5408.00    1.19421   1.22248    0.020
 5409.00    1.21457   1.22889    0.020
 5410.00    1.21827   1.23478    0.020
 5411.00    1.22819   1.24342    0.020
 5412.00    1.26396   1.24935    0.020
 5413.00    1.29007   1.25176    0.020
 5414.00    1.28296   1.25924    0.020
 5415.00    1.27039   1.26382    0.020
 5416.00    1.24202   1.26388    0.020
 5417.00    1.23751   1.26824    0.020
 5418.00    1.29190   1.26860    0.019
 5419.00    1.33566   1.26766    0.019
 5420.00    1.35676   1.26989    0.019
 5421.00    1.35656   1.26454    0.019
 5422.00    1.31699   1.26278    0.019
 5423.00    1.29509   1.26490    0.019
 5424.00    1.30176   1.25713    0.019
 5425.00    1.30474   1.25547    0.019
 5426.00    1.30250   1.25697    0.019
 5427.00    1.29580   1.25136    0.019
 5428.00    1.28354   1.25198    0.019
 5429.00    1.27316   1.25190    0.019
 5430.00    1.26485   1.25077    0.019
 5431.00    1.25740   1.25544    0.019
 5432.00    1.25076   1.25452    0.019
 5433.00    1.23672   1.25478    0.019
 5434.00    1.21634   1.26139    0.019
 5435.00    1.21948   1.26320    0.019
 5436.00    1.24032   1.26387    0.019
 5437.00    1.28236   1.26733    0.020
 5438.00    1.33843   1.26815    0.020
 5439.00    1.32347   1.26798    0.019
 5440.00    1.26736   1.27028    0.019
 5441.00    1.27534   1.26990    0.019
 5442.00    1.31566   1.26816    0.020
 5443.00    1.31593   1.26857    0.020
 5444.00    1.29871   1.26542    0.020
 5445.00    1.27386   1.26331    0.020
 5446.00    1.24616   1.26254    0.020
 5447.00    1.25641   1.25676    0.020
 5448.00    1.27873   1.25582    0.020
 5449.00    1.27198   1.25597    0.020
 5450.00    1.25751   1.25108    0.020
 5451.00    1.28915   1.25178    0.020
 5452.00    1.33083   1.25199    0.020
 5453.00    1.34902   1.25012    0.020
 5454.00    1.36315   1.25106    0.020
 5455.00    1.28765   1.24792    0.020
 5456.00    1.20039   1.24830    0.020
 5457.00    1.24483   1.25144    0.020
 5458.00    1.30143   1.24731    0.020
 5459.00    1.31750   1.24713    0.020
 5460.00    1.33129   1.25013    0.020
 5461.00    1.30446   1.24862    0.019
 5462.00    1.27693   1.24696    0.019
 5463.00    1.26952   1.24541    0.019
 5464.00    1.26306   1.24520    0.019
 5465.00    1.27889   1.24240    0.019
 5466.00    1.29445   1.23793    0.019
 5467.00    1.30666   1.23840    0.019
 5468.00    1.31260   1.23515    0.019
 5469.00    1.26431   1.22995    0.019
 5470.00    1.22157   1.22936    0.019
 5471.00    1.21446   1.22756    0.019
 5472.00    1.20890   1.22529    0.019
 5473.00    1.21112   1.22184    0.019
 5474.00    1.21541   1.22056    0.019
 5475.00    1.22808   1.22336    0.019
 5476.00    1.24382   1.22093    0.019
 5477.00    1.26991   1.22104    0.019
 5478.00    1.28163   1.22643   -2.000
 5479.00    1.25250   1.22537   -2.000
 5480.00    1.25176   1.22615   -2.000
 5481.00    1.31991   1.23194   -2.000
 5482.00    1.35171   1.23402   -2.000
 5483.00    1.30735   1.23685   -2.000
 5484.00    1.22558   1.23993   -2.000
 5485.00    1.07568   1.24113   -2.000
 5486.00    1.03659   1.24427   -2.000
 5487.00    1.17389   1.24671   -2.000
 5488.00    1.31051   1.24834   -2.000
 5489.00    1.44618   1.24961   -2.000
 5490.00    1.48251   1.24863   -2.000
 5491.00    1.39669   1.25026   -2.000
 5492.00    1.33349   1.25173   -2.000
 5493.00    1.29480   1.24879   -2.000
 5494.00    1.29558   1.24843   -2.000
 5495.00    1.33409   1.24867   -2.000
 5496.00    1.35542   1.24652   -2.000
 5497.00    1.36227   1.24500   -2.000
 5498.00    1.34201   1.24207   -2.000
 5499.00    1.30162   1.24139   -2.000
 5500.00    1.26876   1.24068   -2.000
 5501.00    1.24080   1.23573   -2.000
 5502.00    1.23245   1.23610    0.019
 5503.00    1.23530   1.23637    0.019
 5504.00    1.25844   1.23134    0.019
 5505.00    1.29165   1.23187    0.019
 5506.00    1.30267   1.23200    0.019
 5507.00    1.30414   1.23080    0.019
 5508.00    1.29495   1.23380    0.019
 5509.00    1.28183   1.23247    0.019
 5510.00    1.27161   1.23361    0.019
 5511.00    1.26229   1.23884    0.018
 5512.00    1.25664   1.23843    0.018
 5513.00    1.25196   1.24060    0.019
 5514.00    1.22820   1.24453    0.018
 5515.00    1.20040   1.24498    0.018
 5516.00    1.21298   1.24768    0.018
 5517.00    1.23235   1.24906    0.018
 5518.00    1.22148   1.25048    0.018
 5519.00    1.20678   1.25287    0.018
 5520.00    1.21944   1.25087    0.018
 5521.00    1.23450   1.25163    0.018
 5522.00    1.23039   1.25409    0.018
 5523.00    1.22527   1.25180    0.018
 5524.00    1.22328   1.25081    0.018
 5525.00    1.22188   1.25179    0.018
 5526.00    1.26002   1.25108    0.018
 5527.00    1.29592   1.25042    0.018
 5528.00    1.28355   1.25099    0.018
 5529.00    1.27228   1.25199    0.018
 5530.00    1.27440   1.25291    0.018
 5531.00    1.27460   1.25373    0.018
 5532.00    1.25883   1.25494    0.018
 5533.00    1.24957   1.25861    0.018
 5534.00    1.28077   1.26172    0.019
 5535.00    1.30559   1.26123    0.019
 5536.00    1.29913   1.26467    0.019
 5537.00    1.29128   1.26938    0.019
 5538.00    1.27789   1.26857    0.019
 5539.00    1.26415   1.27161    0.019
 5540.00    1.24925   1.27628    0.019
 5541.00    1.24672   1.27610    0.022
 5542.00    1.27872   1.27837    0.052
 5543.00    1.29836   1.28058   -1.000
 5544.00    1.28847   1.28099   -1.000
 5545.00    1.28620   1.28316   -1.000
 5546.00    1.29962   1.28195   -1.000
 5547.00    1.32239   1.28132   -1.000
 5548.00    1.36190   1.28376   -1.000
 5549.00    1.38310   1.28104    0.093
 5550.00    1.37560   1.27893    0.026
 5551.00    1.35865   1.27975    0.018
 5552.00    1.32870   1.27630    0.018
 5553.00    1.27965   1.27392    0.018
 5554.00    1.20744   1.27221    0.018
 5555.00    1.15189   1.26762    0.018
 5556.00    1.11416   1.26581    0.018
 5557.00    1.10038   1.26305    0.018
 5558.00    1.10918   1.25768    0.018
 5559.00    1.14409   1.25630    0.018
 5560.00    1.20068   1.25478    0.018
 5561.00    1.24033   1.24958    0.017
 5562.00    1.26760   1.24725    0.017
 5563.00    1.27756   1.24782    0.017
 5564.00    1.27640   1.24458    0.018
 5565.00    1.27957   1.24157    0.018
 5566.00    1.28517   1.24310    0.018
 5567.00    1.26922   1.24174    0.017
 5568.00    1.24272   1.24021    0.017
 5569.00    1.21272   1.24189    0.017
 5570.00    1.18123   1.23990    0.017
 5571.00    1.16473   1.24034    0.018
 5572.00    1.15366   1.24172    0.018
 5573.00    1.17049   1.23737    0.018
 5574.00    1.19587   1.23887    0.018
 5575.00    1.20767   1.23901    0.018
 5576.00    1.21601   1.23152    0.018
 5577.00    1.21085   1.23224    0.018
 5578.00    1.20289   1.23099    0.018
 5579.00    1.24019   1.22256    0.018
 5580.00    1.28486   1.22166    0.019
 5581.00    1.30165   1.21846    0.019
 5582.00    1.31504   1.21156    0.019
 5583.00    1.32407   1.20987    0.019
 5584.00    1.33273   1.20574    0.019
 5585.00    1.27659   1.20243    0.019
 5586.00    1.21732   1.20100    0.018
 5587.00    1.19193   1.19717    0.019
 5588.00    1.16778   1.19792    0.019
 5589.00    1.18706   1.19775    0.019
 5590.00    1.20483   1.19562    0.019
 5591.00    1.19279   1.19878    0.019
 5592.00    1.18282   1.19995    0.019
 5593.00    1.19699   1.20180    0.019
 5594.00    1.20940   1.20648    0.019
 5595.00    1.20777   1.20790    0.019
 5596.00    1.20625   1.21270    0.018
 5597.00    1.20547   1.21748    0.019
 5598.00    1.20564   1.21877    0.019
 5599.00    1.21029   1.22542    0.019
 5600.00    1.22001   1.23048    0.019
 5601.00    1.24941   1.23107    0.018
 5602.00    1.27316   1.23674    0.018
 5603.00    1.27866   1.24109    0.018
 5604.00    1.28228   1.24067    0.018
 5605.00    1.28075   1.24383    0.018
 5606.00    1.28057   1.24656    0.018
 5607.00    1.28359   1.24536    0.018
 5608.00    1.26800   1.24608    0.018
 5609.00    1.21469   1.24606    0.018
 5610.00    1.18223   1.24312    0.018
 5611.00    1.18660   1.24231    0.018
 5612.00    1.19868   1.24044    0.018
 5613.00    1.22269   1.23622    0.018
 5614.00    1.21636   1.23512    0.018
 5615.00    1.16886   1.23320    0.017
 5616.00    1.13512   1.23014    0.018
 5617.00    1.11783   1.23023    0.018
 5618.00    1.11700   1.22852    0.018
 5619.00    1.13351   1.22665    0.018
 5620.00    1.16060   1.22898    0.018
 5621.00    1.19751   1.22945    0.018
 5622.00    1.21839   1.22870    0.018
 5623.00    1.22613   1.23108    0.018
 5624.00    1.22712   1.23237    0.018
 5625.00    1.22325   1.23284    0.018
 5626.00    1.23796   1.23517    0.018
 5627.00    1.26443   1.23543    0.018
 5628.00    1.30088   1.23555    0.018
 5629.00    1.34283   1.23780    0.018
 5630.00    1.35762   1.23741    0.018
 5631.00    1.35933   1.23673    0.018
 5632.00    1.34855   1.23768    0.018
 5633.00    1.33259   1.23685    0.018
 5634.00    1.31830   1.23612    0.018
 5635.00    1.30460   1.23565    0.017
 5636.00    1.27247   1.23480    0.017
 5637.00    1.23481   1.23458    0.017
 5638.00    1.23305   1.23330    0.017
 5639.00    1.24025   1.23321    0.017
 5640.00    1.22655   1.23366    0.017
 5641.00    1.20864   1.23171    0.017
 5642.00    1.18884   1.23283    0.017
 5643.00    1.16873   1.23373    0.017
 5644.00    1.19617   1.23019    0.017
 5645.00    1.22921   1.23148    0.017
 5646.00    1.21916   1.23257    0.017
 5647.00    1.20567   1.22792    0.017
 5648.00    1.17909   1.22802    0.017
 5649.00    1.15193   1.22834    0.017
 5650.00    1.16360   1.22404    0.017
 5651.00    1.17566   1.22327    0.017
 5652.00    1.18496   1.22205    0.017
 5653.00    1.19347   1.21875    0.017
 5654.00    1.18753   1.21860    0.017
 5655.00    1.18326   1.21696    0.017
 5656.00    1.19733   1.21538    0.017
 5657.00    1.20310   1.21680    0.017
 5658.00    1.14446   1.21547    0.017
 5659.00    1.09701   1.21609    0.018
 5660.00    1.11531   1.22021    0.018
 5661.00    1.13458   1.22005    0.018
 5662.00    1.15841   1.22159    0.018
 5663.00    1.17639   1.22776    0.018
 5664.00    1.17211   1.22991    0.018
 5665.00    1.17617   1.23167    0.018
 5666.00    1.20671   1.23729    0.018
 5667.00    1.23373   1.24068    0.018
 5668.00    1.25130   1.24263    0.018
 5669.00    1.25300   1.24650    0.018
 5670.00    1.21812   1.24910    0.018
 5671.00    1.19324   1.25025    0.018
 5672.00    1.18831   1.25213    0.017
 5673.00    1.18157   1.25332    0.017
 5674.00    1.17166   1.25310    0.018
 5675.00    1.17973   1.25301    0.018
 5676.00    1.21518   1.25288    0.018
 5677.00    1.22672   1.25181    0.018
 5678.00    1.20628   1.25050    0.017
 5679.00    1.18481   1.24928    0.017
 5680.00    1.16214   1.24807    0.017
 5681.00    1.14690   1.24701    0.017
 5682.00    1.13939   1.24553    0.017
 5683.00    1.13396   1.24452    0.017
 5684.00    1.13042   1.24427    0.017
 5685.00    1.13574   1.24329    0.017
 5686.00    1.14821   1.24246    0.017
 5687.00    1.17375   1.24236    0.017
 5688.00    1.20858   1.24186    0.017
 5689.00    1.22844   1.24086    0.017
 5690.00    1.23896   1.24005    0.017
 5691.00    1.24647   1.23895    0.017
 5692.00    1.25232   1.23675    0.017
 5693.00    1.27326   1.23506    0.017
 5694.00    1.30134   1.23273    0.017
 5695.00    1.28990   1.22846    0.017
 5696.00    1.26232   1.22643    0.017
 5697.00    1.24254   1.22342    0.018
 5698.00    1.22548   1.21734    0.018
 5699.00    1.22657   1.21573    0.018
 5700.00    1.23300   1.21316    0.018
 5701.00    1.21915   1.20714    0.018
 5702.00    1.20035   1.20704    0.018
 5703.00    1.19436   1.20557    0.018
 5704.00    1.19089   1.20212    0.018
 5705.00    1.19006   1.20467    0.018
 5706.00    1.18963   1.20446    0.018
 5707.00    1.16888   1.20523    0.017
 5708.00    1.14582   1.21100    0.017
 5709.00    1.18374   1.21185    0.017
 5710.00    1.22627   1.21637    0.018
 5711.00    1.24889   1.22458    0.018
 5712.00    1.27069   1.22626    0.018
 5713.00    1.25998   1.23279    0.017
 5714.00    1.24900   1.24149    0.017
 5715.00    1.23707   1.24349    0.017
 5716.00    1.22511   1.25022    0.017
 5717.00    1.21256   1.25750    0.017
 5718.00    1.20396   1.25888    0.017
 5719.00    1.23705   1.26413    0.017
 5720.00    1.26847   1.26898    0.017
 5721.00    1.28742   1.26941    0.017
 5722.00    1.30764   1.27257    0.017
 5723.00    1.33514   1.27502    0.017
 5724.00    1.35518   1.27467    0.017
 5725.00    1.34125   1.27610    0.017
 5726.00    1.32741   1.27712    0.017
 5727.00    1.31386   1.27658    0.017
 5728.00    1.31010   1.27674    0.017
 5729.00    1.33681   1.27721    0.017
 5730.00    1.35934   1.27695    0.017
 5731.00    1.37087   1.27610    0.017
 5732.00    1.36762   1.27648    0.017
 5733.00    1.33087   1.27683    0.017
 5734.00    1.30286   1.27518    0.017
 5735.00    1.29203   1.27532    0.017
 5736.00    1.29047   1.27599    0.017
 5737.00    1.30477   1.27378    0.018
 5738.00    1.31356   1.27346    0.018
 5739.00    1.31410   1.27363    0.018
 5740.00    1.30453   1.27128    0.000
 5741.00    1.28165   1.27087    0.000
 5742.00    1.26106   1.26995    0.000
 5743.00    1.24316   1.26727    0.000
 5744.00    1.22829   1.26697    0.000
 5745.00    1.21654   1.26528    0.000
 5746.00    1.21126   1.26267    0.000
 5747.00    1.21181   1.26280    0.000
 5748.00    1.22210   1.26072    0.000
 5749.00    1.24014   1.25861    0.000
 5750.00    1.27323   1.25942    0.000
 5751.00    1.31687   1.25737    0.000
 5752.00    1.34086   1.25622    0.000
 5753.00    1.35280   1.25799    0.000
 5754.00    1.32767   1.25615    0.000
 5755.00    1.28266   1.25591    0.000
 5756.00    1.26652   1.25880    0.000
 5757.00    1.26383   1.25770    0.000
 5758.00    1.27424   1.25824    0.000
 5759.00    1.28990   1.26142    0.000
 5760.00    1.26476   1.26041    0.000
 5761.00    1.22565   1.26156    0.000
 5762.00    1.22943   1.26485    0.000
 5763.00    1.24557   1.26346    0.000
 5764.00    1.28649   1.26411    0.000
 5765.00    1.33332   1.26619    0.000
 5766.00    1.34992   1.26360    0.000
 5767.00    1.36073   1.26310    0.000
 5768.00    1.35787   1.26344    0.000
 5769.00    1.35297   1.25935    0.000
 5770.00    1.32020   1.25738    0.000
 5771.00    1.28439   1.25589    0.000
 5772.00    1.29990   1.25070    0.000
 5773.00    1.31908   1.24724    0.000
 5774.00    1.32734   1.24419    0.000
 5775.00    1.33520   1.23907    0.000
 5776.00    1.30183   1.23542    0.000
 5777.00    1.26964   1.23219    0.000
 5778.00    1.28583   1.22857    0.000
 5779.00    1.29983   1.22592    0.000
 5780.00    1.27851   1.22414    0.000
 5781.00    1.25870   1.22335    0.000
 5782.00    1.25408   1.22236    0.000
 5783.00    1.25117   1.22301    0.000
 5784.00    1.26053   1.22542    0.000
 5785.00    1.27370   1.22602    0.000
 5786.00    1.30806   1.22894    0.000
 5787.00    1.33588   1.23375    0.000
 5788.00    1.33471   1.23537    0.000
 5789.00    1.33220   1.23964    0.000
 5790.00    1.32478   1.24567    0.000
 5791.00    1.31507   1.24760   -2.000
 5792.00    1.29836   1.25154   -2.000
 5793.00    1.29340   1.25729   -2.000
 5794.00    1.31894   1.25928   -2.000
 5795.00    1.33028   1.26190   -2.000
 5796.00    1.30995   1.26626   -2.000
 5797.00    1.29015   1.26794   -2.000
 5798.00    1.27136   1.26887   -2.000
 5799.00    1.26964   1.27187   -2.000
 5800.00    1.29672   1.27333   -2.000
 5801.00    1.33850   1.27277   -2.000
 5802.00    1.40203   1.27463   -2.000
 5803.00    1.42788   1.27592   -2.000
 5804.00    1.40475   1.27459   -2.000
 5805.00    1.38029   1.27575   -2.000
 5806.00    1.35429   1.27713   -2.000
 5807.00    1.35408   1.27600   -2.000
 5808.00    1.37991   1.27684   -2.000
 5809.00    1.37418   1.27828   -2.000
 5810.00    1.34034   1.27790   -2.000
 5811.00    1.31907   1.27879    0.000
 5812.00    1.30766   1.28043    0.000
 5813.00    1.30157   1.28090    0.000
 5814.00    1.29914   1.28198    0.000
 5815.00    1.29443   1.28385    0.000
 5816.00    1.28835   1.28482    0.000
 5817.00    1.29251   1.28590    0.000
 5818.00    1.30208   1.28782    0.000
 5819.00    1.30890   1.28887    0.000
 5820.00    1.31445   1.28954    0.000
 5821.00    1.33743   1.29118    0.000
 5822.00    1.36730   1.29201    0.000
 5823.00    1.37600   1.29201    0.000
 5824.00    1.37760   1.29311    0.000
 5825.00    1.36201   1.29365    0.000
 5826.00    1.34156   1.29295    0.000
 5827.00    1.33014   1.29341    0.000
 5828.00    1.32084   1.29368    0.000
 5829.00    1.32639   1.29244    0.000
 5830.00    1.33472   1.29234    0.000
 5831.00    1.33198   1.29240    0.000
 5832.00    1.32765   1.29074    0.000
 5833.00    1.31513   1.29020    0.000
 5834.00    1.30174   1.29004    0.000
 5835.00    1.32515   1.28788    0.000
 5836.00    1.35105   1.28670    0.000
 5837.00    1.37844   1.28608    0.000
 5838.00    1.40587   1.28319    0.000
 5839.00    1.40098   1.28099    0.000
 5840.00    1.39610   1.27961    0.000
 5841.00    1.39191   1.27584    0.000
 5842.00    1.38474   1.27235    0.000
 5843.00    1.33266   1.27006    0.000
 5844.00    1.28364   1.26564    0.000
 5845.00    1.26422   1.26106    0.000
 5846.00    1.25012   1.25811    0.000
 5847.00    1.27327   1.25369    0.000
 5848.00    1.29674   1.24873    0.000
 5849.00    1.32194   1.24574    0.000
 5850.00    1.33992   1.24226    0.000
 5851.00    1.32663   1.23793    0.000
 5852.00    1.30797   1.23574    0.000
 5853.00    1.27012   1.23393    0.000
 5854.00    1.23824   1.23100    0.000
 5855.00    1.22421   1.23026    0.000
 5856.00    1.21551   1.23049    0.000
 5857.00    1.22038   1.22922    0.000
 5858.00    1.22112   1.22991    0.000
 5859.00    1.21282   1.23188    0.000
 5860.00    1.20721   1.23199    0.000
 5861.00    1.20672   1.23345    0.000
 5862.00    1.22203   1.23619    0.000
 5863.00    1.26357   1.23690    0.000
 5864.00    1.29482   1.23817    0.000
 5865.00    1.31110   1.24052    0.000
 5866.00    1.31343   1.24079    0.000
 5867.00    1.29790   1.24080    0.000
 5868.00    1.28846   1.24150    0.000
 5869.00    1.28591   1.24025    0.000
 5870.00    1.29102   1.23825    0.000
 5871.00    1.30375   1.23631    0.000
 5872.00    1.32050   1.23228    0.000
 5873.00    1.34079   1.22775    0.000
 5874.00    1.34137   1.22268    0.000
 5875.00    1.32671   1.21485    0.000
 5876.00    1.31809   1.20766    0.000
 5877.00    1.31357   1.19959    0.000
 5878.00    1.29865   1.18753    0.000
 5879.00    1.27752   1.17832    0.000
 5880.00    1.25631   1.16840    0.000
 5881.00    1.23506   1.15276    0.000
 5882.00    1.24674   1.14319    0.000
 5883.00    1.27327   1.13385    0.000
 5884.00    1.24324   1.11673    0.000
 5885.00    1.19129   1.10940    0.000
 5886.00    1.14804   1.10385    0.000
 5887.00    1.10764   1.08840    0.000
 5888.00    1.07234   1.08590    0.000
 5889.00    1.03844   1.08680    0.000
 5890.00    1.03805   1.07596    0.000
 5891.00    1.04528   1.07962    0.000
 5892.00    1.05343   1.08782    0.000
 5893.00    1.06175   1.08294    0.000
 5894.00    1.05215   1.09188    0.000
 5895.00    1.04005   1.10565    0.000
 5896.00    1.04681   1.10609    0.000
 5897.00    1.05548   1.11771    0.000
 5898.00    1.06435   1.13361    0.000
 5899.00    1.07324   1.13727    0.000
 5900.00    1.10152   1.14848    0.000
 5901.00    1.13042   1.16290    0.016
 5902.00    1.18010   1.16731    0.016
 5903.00    1.22882   1.17613    0.016
 5904.00    1.25012   1.18689    0.016
 5905.00    1.26880   1.19044    0.016
 5906.00    1.25014   1.19632    0.016
 5907.00    1.23221   1.20286    0.016
 5908.00    1.22112   1.20500    0.016
 5909.00    1.21181   1.20872    0.017
 5910.00    1.21461   1.21191    0.016
 5911.00    1.21899   1.21300    0.016
 5912.00    1.23167   1.21563    0.017
 5913.00    1.24063   1.21673    0.017
 5914.00    1.23379   1.21739    0.016
 5915.00    1.22823   1.21969    0.016
 5916.00    1.22709   1.21968    0.017
 5917.00    1.22380   1.22032    0.017
 5918.00    1.21417   1.22246    0.016
 5919.00    1.20594   1.22192    0.016
 5920.00    1.20122   1.22259    0.016
 5921.00    1.19465   1.22443    0.016
 5922.00    1.18407   1.22361    0.016
 5923.00    1.18114   1.22416    0.016
 5924.00    1.19255   1.22561    0.016
 5925.00    1.21374   1.22475    0.016
 5926.00    1.25096   1.22499    0.016
 5927.00    1.27051   1.22615    0.016
 5928.00    1.26472   1.22554    0.016
 5929.00    1.25848   1.22532    0.016
 5930.00    1.25166   1.22642    0.016
 5931.00    1.24436   1.22626    0.016
 5932.00    1.23652   1.22548    0.016
 5933.00    1.23000   1.22663    0.016
 5934.00    1.22478   1.22688    0.016
 5935.00    1.21898   1.22554    0.016
 5936.00    1.21270   1.22667    0.016
 5937.00    1.22330   1.22709    0.016
 5938.00    1.24676   1.22527    0.016
 5939.00    1.25260   1.22626    0.016
 5940.00    1.24664   1.22659    0.016
 5941.00    1.25229   1.22445    0.016
 5942.00    1.26476   1.22529    0.016
 5943.00    1.27125   1.22548    0.016
 5944.00    1.27469   1.22327    0.016
 5945.00    1.25639   1.22409    0.016
 5946.00    1.22844   1.22441    0.016
 5947.00    1.22221   1.22246    0.016
 5948.00    1.22423   1.22343    0.016
 5949.00    1.22416   1.22433    0.016
 5950.00    1.22340   1.22302    0.016
 5951.00    1.22037   1.22420    0.016
 5952.00    1.21671   1.22599    0.016
 5953.00    1.22783   1.22562    0.016
 5954.00    1.24223   1.22685    0.016
 5955.00    1.24604   1.22946    0.016
 5956.00    1.24797   1.23009    0.016
 5957.00    1.25443   1.23105    0.016
 5958.00    1.26149   1.23397    0.015
 5959.00    1.26302   1.23533    0.015
 5960.00    1.26401   1.23566    0.016
 5961.00    1.27478   1.23814    0.016
 5962.00    1.28613   1.23972    0.016
 5963.00    1.28778   1.23916    0.016
 5964.00    1.28907   1.24053    0.015
 5965.00    1.27333   1.24179    0.016
 5966.00    1.25761   1.24023    0.016
 5967.00    1.24220   1.24014    0.016
 5968.00    1.22869   1.24078    0.016
 5969.00    1.24081   1.23838    0.016
 5970.00    1.25163   1.23690    0.016
 5971.00    1.25079   1.23698    0.016
 5972.00    1.24801   1.23414    0.016
 5973.00    1.23241   1.23173    0.016
 5974.00    1.22135   1.23165    0.016
 5975.00    1.23355   1.22892    0.016
 5976.00    1.24207   1.22623    0.016
 5977.00    1.23538   1.22648    0.016
 5978.00    1.23178   1.22445    0.016
 5979.00    1.23874   1.22205    0.016
 5980.00    1.23882   1.22290    0.016
 5981.00    1.21901   1.22196    0.016
 5982.00    1.20173   1.22012    0.016
 5983.00    1.19063   1.22143    0.016
 5984.00    1.18919   1.22160    0.016
 5985.00    1.20825   1.22026    0.016
 5986.00    1.22401   1.22155    0.016
 5987.00    1.23369   1.22242    0.016
 5988.00    1.24145   1.22123    0.016
 5989.00    1.24615   1.22204    0.016
 5990.00    1.25973   1.22293    0.015
 5991.00    1.28588   1.22147    0.015
 5992.00    1.28737   1.22162    0.015
 5993.00    1.25816   1.22196    0.015
 5994.00    1.23583   1.21995    0.015
 5995.00    1.22105   1.21962    0.015
 5996.00    1.21939   1.21918    0.015
 5997.00    1.23044   1.21664    0.015
 5998.00    1.22310   1.21616    0.015
 5999.00    1.20007   1.21507    0.016
 6000.00    1.18906   1.21236    0.016
 6001.00    1.18708   1.21197    0.016
 6002.00    1.18405   1.21049    0.016
 6003.00    1.18033   1.20813    0.016
 6004.00    1.16848   1.20793    0.016
 6005.00    1.15192   1.20628    0.016
 6006.00    1.16244   1.20472    0.016
 6007.00    1.18660   1.20476    0.016
 6008.00    1.21344   1.20310    0.016
 6009.00    1.24144   1.20254    0.016
 6010.00    1.24258   1.20299    0.016
 6011.00    1.23367   1.20159    0.016
 6012.00    1.21895   1.20194    0.016
 6013.00    1.20238   1.20308    0.016
 6014.00    1.17673   1.20244    0.016
 6015.00    1.14867   1.20344    0.016
 6016.00    1.14304   1.20551    0.016
 6017.00    1.14227   1.20622    0.016
 6018.00    1.17085   1.20766    0.016
 6019.00    1.20448   1.21055    0.016
 6020.00    1.20941   1.21295    0.016
 6021.00    1.21059   1.21472    0.015
 6022.00    1.20201   1.21799    0.016
 6023.00    1.19254   1.22181    0.016
 6024.00    1.22019   1.22381    0.015
 6025.00    1.24990   1.22684    0.015
 6026.00    1.26977   1.23136    0.015
 6027.00    1.28915   1.23339    0.015
 6028.00    1.28061   1.23571    0.015
 6029.00    1.27313   1.24008    0.015
 6030.00    1.29052   1.24187    0.016
 6031.00    1.30748   1.24329    0.016
 6032.00    1.31888   1.24700    0.016
 6033.00    1.32779   1.24832    0.016
 6034.00    1.31534   1.24890    0.016
 6035.00    1.30290   1.25180    0.016
 6036.00    1.29054   1.25259    0.016
 6037.00    1.28061   1.25250    0.016
 6038.00    1.28285   1.25462    0.016
 6039.00    1.28509   1.25496    0.016
 6040.00    1.28732   1.25434    0.016
 6041.00    1.28190   1.25558    0.016
 6042.00    1.25080   1.25556    0.016
 6043.00    1.22573   1.25456    0.016
 6044.00    1.21776   1.25472    0.016
 6045.00    1.21258   1.25432    0.016
 6046.00    1.21416   1.25317    0.016
 6047.00    1.22682   1.25214    0.016
 6048.00    1.26267   1.25134    0.015
 6049.00    1.28815   1.25042    0.015
 6050.00    1.29480   1.24841    0.015
 6051.00    1.29174   1.24725    0.015
 6052.00    1.27325   1.24703    0.015
 6053.00    1.26153   1.24459    0.015
 6054.00    1.25924   1.24323    0.015
 6055.00    1.26213   1.24409    0.015
 6056.00    1.27136   1.24196    0.016
 6057.00    1.26270   1.24060    0.015
 6058.00    1.23468   1.24262    0.015
 6059.00    1.21681   1.24141    0.015
 6060.00    1.20862   1.24019    0.016
 6061.00    1.21226   1.24290    0.016
 6062.00    1.22584   1.24290    0.016
 6063.00    1.22995   1.24173    0.016
 6064.00    1.22705   1.24419    0.016
 6065.00    1.22838   1.24517    0.016
 6066.00    1.23248   1.24383    0.016
 6067.00    1.23667   1.24492    0.016
 6068.00    1.24092   1.24625    0.016
 6069.00    1.26269   1.24453    0.016
 6070.00    1.29316   1.24349    0.016
 6071.00    1.30829   1.24446    0.016
 6072.00    1.31685   1.24237    0.016
 6073.00    1.28693   1.23924    0.016
 6074.00    1.24287   1.23948    0.016
 6075.00    1.22311   1.23728    0.016
 6076.00    1.21091   1.23294    0.016
 6077.00    1.21075   1.23256    0.016
 6078.00    1.21372   1.23052    0.015
 6079.00    1.21702   1.22617    0.015
 6080.00    1.22040   1.22569    0.015
 6081.00    1.22694   1.22387    0.015
 6082.00    1.23401   1.22039    0.014
 6083.00    1.23466   1.22053    0.014
 6084.00    1.23450   1.21871    0.014
 6085.00    1.23232   1.21617    0.014
 6086.00    1.22996   1.21749    0.014
 6087.00    1.22231   1.21547    0.014
 6088.00    1.21437   1.21323    0.014
 6089.00    1.22799   1.21590    0.015
 6090.00    1.24175   1.21376    0.015
 6091.00    1.23803   1.21116    0.015
 6092.00    1.23458   1.21488    0.015
 6093.00    1.23702   1.21276    0.015
 6094.00    1.23987   1.20954    0.016
 6095.00    1.24772   1.21394    0.016
 6096.00    1.25152   1.21223    0.016
 6097.00    1.22168   1.20863    0.016
 6098.00    1.19412   1.21322    0.016
 6099.00    1.18064   1.21237    0.016
 6100.00    1.16962   1.20910    0.016
 6101.00    1.17065   1.21321    0.016
 6102.00    1.17216   1.21325    0.016
 6103.00    1.17557   1.21100    0.015
 6104.00    1.17883   1.21393    0.015
 6105.00    1.18158   1.21447    0.015
 6106.00    1.18191   1.21348    0.015
 6107.00    1.17547   1.21441    0.015
 6108.00    1.17318   1.21476    0.015
 6109.00    1.18078   1.21507    0.015
 6110.00    1.19361   1.21357    0.015
 6111.00    1.21721   1.21299    0.015
 6112.00    1.23318   1.21455    0.015
 6113.00    1.23550   1.21096    0.015
 6114.00    1.23468   1.20903    0.015
 6115.00    1.22896   1.21162    0.015
 6116.00    1.22268   1.20694    0.015
 6117.00    1.21566   1.20377    0.015
 6118.00    1.20198   1.20717    0.015
 6119.00    1.18024   1.20261    0.015
 6120.00    1.17485   1.19859    0.015
 6121.00    1.18689   1.20220    0.015
 6122.00    1.19905   1.19842    0.015
 6123.00    1.21132   1.19408    0.015
 6124.00    1.21576   1.19723    0.016
 6125.00    1.21371   1.19415    0.016
 6126.00    1.20921   1.18985    0.016
 6127.00    1.20290   1.19256    0.016
 6128.00    1.20805   1.19053    0.016
 6129.00    1.22054   1.18644    0.016
 6130.00    1.22228   1.18817    0.016
 6131.00    1.21798   1.18737    0.015
 6132.00    1.20671   1.18435    0.015
 6133.00    1.19203   1.18547    0.015
 6134.00    1.19822   1.18599    0.015
 6135.00    1.21321   1.18445    0.015
 6136.00    1.22488   1.18511    0.015
 6137.00    1.23534   1.18676    0.016
 6138.00    1.23760   1.18686    0.015
 6139.00    1.23736   1.18694    0.015
 6140.00    1.25019   1.18874    0.015
 6141.00    1.26634   1.19011    0.015
 6142.00    1.26577   1.18922    0.015
 6143.00    1.26174   1.18959    0.015
 6144.00    1.24915   1.19133    0.015
 6145.00    1.23517   1.18931    0.015
 6146.00    1.22484   1.18695    0.015
 6147.00    1.21495   1.18785    0.015
 6148.00    1.20221   1.18489    0.015
 6149.00    1.18923   1.17960    0.015
 6150.00    1.18814   1.17869    0.015
 6151.00    1.18762   1.17507    0.016
 6152.00    1.17831   1.16795    0.016
 6153.00    1.16882   1.16530    0.015
 6154.00    1.15615   1.16125    0.015
 6155.00    1.14403   1.15420    0.015
 6156.00    1.14275   1.15145    0.016
 6157.00    1.13987   1.14735    0.016
 6158.00    1.11871   1.14130    0.016
 6159.00    1.10065   1.14026    0.016
 6160.00    1.10739   1.13725    0.016
 6161.00    1.11668   1.13243    0.016
 6162.00    1.14132   1.13404    0.015
 6163.00    1.16343   1.13393    0.015
 6164.00    1.17350   1.13058    0.015
 6165.00    1.18008   1.13387    0.015
 6166.00    1.17313   1.13701    0.015
 6167.00    1.16820   1.13532    0.015
 6168.00    1.16976   1.13867    0.015
 6169.00    1.17162   1.14441    0.015
 6170.00    1.17433   1.14459    0.015
 6171.00    1.17667   1.14644    0.015
 6172.00    1.17811   1.15287    0.015
 6173.00    1.17846   1.15464    0.015
 6174.00    1.17660   1.15451    0.015
 6175.00    1.16846   1.15972    0.015
 6176.00    1.14924   1.16202    0.015
 6177.00    1.13025   1.16032    0.015
 6178.00    1.11162   1.16343    0.015
 6179.00    1.09608   1.16486    0.015
 6180.00    1.08473   1.16252    0.015
 6181.00    1.09496   1.16436    0.015
 6182.00    1.13095   1.16399    0.015
 6183.00    1.15210   1.16125    0.015
 6184.00    1.15765   1.16323    0.015
 6185.00    1.16689   1.16217    0.015
 6186.00    1.17955   1.15954    0.016
 6187.00    1.18831   1.16184    0.016
 6188.00    1.19389   1.16119    0.016
 6189.00    1.19244   1.15937    0.015
 6190.00    1.18593   1.16187    0.015
 6191.00    1.17739   1.16202    0.015
 6192.00    1.16755   1.16128    0.015
 6193.00    1.16139   1.16394    0.015
 6194.00    1.15726   1.16499    0.015
 6195.00    1.15116   1.16472    0.015
 6196.00    1.14411   1.16678   -2.000
 6197.00    1.21915   1.16823   -2.000
 6198.00    1.32821   1.16767   -2.000
 6199.00    1.37589   1.16843   -2.000
 6200.00    1.40181   1.16954   -2.000
 6201.00    1.32550   1.16784   -2.000
 6202.00    1.21858   1.16693   -2.000
 6203.00    1.14731   1.16733   -2.000
 6204.00    1.08489   1.16400   -2.000
 6205.00    1.09293   1.16131   -2.000
 6206.00    1.11517   1.16097   -2.000
 6207.00    1.16804   1.15650   -2.000
 6208.00    1.22575   1.15262    0.016
 6209.00    1.22111   1.15180    0.016
 6210.00    1.20918   1.14721    0.016
 6211.00    1.18653   1.14294    0.016
 6212.00    1.16304   1.14178    0.015
 6213.00    1.14173   1.13834    0.015
 6214.00    1.12051   1.13463    0.015
 6215.00    1.13267   1.13274    0.015
 6216.00    1.14501   1.13115    0.015
 6217.00    1.14886   1.12916    0.015
 6218.00    1.15203   1.12626    0.015
 6219.00    1.14278   1.12595    0.015
 6220.00    1.13505   1.12614    0.014
 6221.00    1.14401   1.12226    0.015
 6222.00    1.15085   1.12215    0.015
 6223.00    1.14129   1.12462    0.015
 6224.00    1.13366   1.12024    0.015
 6225.00    1.13724   1.11912    0.015
 6226.00    1.14264   1.12343    0.015
 6227.00    1.15641   1.11983    0.015
 6228.00    1.16647   1.11703    0.015
 6229.00    1.16245   1.12200    0.015
 6230.00    1.15443   1.11997    0.015
 6231.00    1.13375   1.11489    0.015
 6232.00    1.11905   1.11943    0.015
 6233.00    1.12037   1.11967    0.015
 6234.00    1.12077   1.11254    0.015
 6235.00    1.11908   1.11583    0.015
 6236.00    1.11764   1.11856    0.015
 6237.00    1.11670   1.11028    0.015
 6238.00    1.11835   1.11146    0.015
 6239.00    1.12447   1.11597    0.015
 6240.00    1.13363   1.10807    0.015
 6241.00    1.14743   1.10714    0.015
 6242.00    1.15346   1.11232    0.015
 6243.00    1.14913   1.10580    0.015
 6244.00    1.14287   1.10322    0.015
 6245.00    1.13434   1.10809    0.015
 6246.00    1.12856   1.10320    0.015
 6247.00    1.12564   1.09976    0.015
 6248.00    1.12407   1.10435    0.015
 6249.00    1.12375   1.10154    0.015
 6250.00    1.12228   1.09814    0.015
 6251.00    1.11990   1.10293    0.015
 6252.00    1.12094   1.10174    0.015
 6253.00    1.12441   1.09869    0.015
 6254.00    1.12282   1.10481    0.015
 6255.00    1.11810   1.10588    0.015
 6256.00    1.10234   1.10297    0.015
 6257.00    1.08060   1.10961    0.015
 6258.00    1.08673   1.11332    0.016
 6259.00    1.10604   1.11057    0.016
 6260.00    1.17213   1.11614    0.017
 6261.00    1.25728   1.12215    0.019
 6262.00    1.28461   1.12055    0.019
 6263.00    1.29183   1.12422    0.019
 6264.00    1.25071   1.13064    0.019
 6265.00    1.19541   1.13000    0.018
 6266.00    1.14417   1.13213    0.017
 6267.00    1.09391   1.13807    0.017
 6268.00    1.08956   1.13789    0.016
 6269.00    1.09422   1.13873    0.015
 6270.00    1.12993   1.14356    0.015
 6271.00    1.17040   1.14354    0.015
 6272.00    1.18323   1.14392    0.015
 6273.00    1.19295   1.14759    0.015
 6274.00    1.15839   1.14737    0.014
 6275.00    1.12050   1.14765    0.014
 6276.00    1.11745   1.15042    0.014
 6277.00    1.11581   1.15050    0.014
 6278.00    1.13708   1.15102    0.015
 6279.00    1.15776   1.15266    0.015
 6280.00    1.14774   1.15281    0.000
 6281.00    1.13854   1.15301    0.000
 6282.00    1.14339   1.15391    0.000
 6283.00    1.15025   1.15431    0.000
 6284.00    1.17828   1.15346    0.000
 6285.00    1.20155   1.15330    0.000
 6286.00    1.18926   1.15364    0.000
 6287.00    1.17741   1.15182    0.000
 6288.00    1.16799   1.15104    0.000
 6289.00    1.16185   1.15128    0.000
 6290.00    1.17051   1.14875    0.000
 6291.00    1.17821   1.14734    0.000
 6292.00    1.18234   1.14725    0.000
 6293.00    1.18522   1.14496    0.000
 6294.00    1.18423   1.14406    0.000
 6295.00    1.17823   1.14389    0.000
 6296.00    1.15901   1.14133    0.000
 6297.00    1.14348   1.14104    0.000
 6298.00    1.13635   1.14227    0.000
 6299.00    1.13243   1.13985    0.000
 6300.00    1.13481   1.13905    0.000
 6301.00    1.14125   1.14170    0.000
 6302.00    1.15465   1.13998    0.000
 6303.00    1.16911   1.13805    0.000
 6304.00    1.18519   1.14136    0.000
 6305.00    1.19706   1.14037    0.000
 6306.00    1.20337   1.13672    0.000
 6307.00    1.19874   1.14042    0.000
 6308.00    1.18141   1.14108    0.000
 6309.00    1.15948   1.13551    0.000
 6310.00    1.13284   1.13846    0.000
 6311.00    1.10859   1.14170    0.000
 6312.00    1.08648   1.13591    0.000
 6313.00    1.07833   1.13688    0.000
 6314.00    1.08127   1.14216    0.000
 6315.00    1.10010   1.13880    0.000
 6316.00    1.13004   1.13799    0.000
 6317.00    1.14298   1.14334    0.000
 6318.00    1.14549   1.14300    0.000
 6319.00    1.14347   1.14167    0.000
 6320.00    1.13902   1.14603    0.000
 6321.00    1.14586   1.14720    0.015
 6322.00    1.15793   1.14607    0.014
 6323.00    1.16538   1.14916    0.014
 6324.00    1.17098   1.15035    0.014
 6325.00    1.16576   1.14955    0.014
 6326.00    1.15685   1.15108    0.014
 6327.00    1.14925   1.15165    0.014
 6328.00    1.14202   1.15143    0.014
 6329.00    1.14590   1.15132    0.014
 6330.00    1.15241   1.15036    0.014
 6331.00    1.16488   1.15081    0.014
 6332.00    1.17850   1.15066    0.014
 6333.00    1.18715   1.14859    0.015
 6334.00    1.19506   1.14893    0.015
 6335.00    1.18976   1.14941    0.015
 6336.00    1.18303   1.14763    0.015
 6337.00    1.17658   1.14736    0.015
 6338.00    1.17015   1.14750    0.015
 6339.00    1.14140   1.14676    0.015
 6340.00    1.11183   1.14655    0.015
 6341.00    1.09154   1.14603    0.015
 6342.00    1.07214   1.14564    0.015
 6343.00    1.08260   1.14547    0.015
 6344.00    1.09392   1.14470    0.015
 6345.00    1.11879   1.14377    0.015
 6346.00    1.14178   1.14268    0.014
 6347.00    1.14582   1.14202    0.014
 6348.00    1.14985   1.14058    0.014
 6349.00    1.15384   1.13773    0.014
 6350.00    1.15829   1.13707    0.014
 6351.00    1.16530   1.13642    0.014
 6352.00    1.16816   1.13254    0.014
 6353.00    1.15267   1.13102    0.014
 6354.00    1.13493   1.13177    0.014
 6355.00    1.10900   1.12910    0.014
 6356.00    1.08624   1.12699    0.014
 6357.00    1.07313   1.12858    0.014
 6358.00    1.06775   1.12851    0.014
 6359.00    1.08242   1.12750    0.015
 6360.00    1.09334   1.12967    0.015
 6361.00    1.09588   1.13179    0.015
 6362.00    1.09579   1.13259    0.015
 6363.00    1.09061   1.13534    0.015
 6364.00    1.08677   1.13866    0.015
 6365.00    1.08519   1.14050    0.015
 6366.00    1.09314   1.14345    0.015
 6367.00    1.11519   1.14746    0.015
 6368.00    1.13093   1.14946    0.015
 6369.00    1.13850   1.15150    0.015
 6370.00    1.14103   1.15555    0.015
 6371.00    1.13779   1.15762    0.015
 6372.00    1.14456   1.15786    0.015
 6373.00    1.16141   1.16078    0.015
 6374.00    1.17519   1.16289    0.014
 6375.00    1.18624   1.16171    0.014
 6376.00    1.17981   1.16319    0.014
 6377.00    1.15970   1.16510    0.014
 6378.00    1.13739   1.16304    0.014
 6379.00    1.11356   1.16326    0.014
 6380.00    1.10561   1.16476    0.014
 6381.00    1.10723   1.16222    0.014
 6382.00    1.11809   1.16148    0.014
 6383.00    1.13382   1.16268    0.014
 6384.00    1.14592   1.15982    0.014
 6385.00    1.15638   1.15862    0.015
 6386.00    1.15723   1.16007    0.015
 6387.00    1.15429   1.15652    0.015
 6388.00    1.14674   1.15446    0.015
 6389.00    1.13763   1.15721    0.015
 6390.00    1.13780   1.15417    0.015
 6391.00    1.14057   1.15056    0.014
 6392.00    1.16000   1.15429    0.015
 6393.00    1.18331   1.15358    0.015
 6394.00    1.18533   1.14840    0.015
 6395.00    1.18339   1.15132    0.015
 6396.00    1.17756   1.15338    0.015
 6397.00    1.17117   1.14840    0.015
 6398.00    1.16388   1.14920    0.015
 6399.00    1.15649   1.15252    0.015
 6400.00    1.14501   1.15058    0.015
 6401.00    1.13326   1.14957    0.014
 6402.00    1.12897   1.15032    0.014
 6403.00    1.12493   1.15123    0.014
 6404.00    1.11892   1.15118    0.014
 6405.00    1.11287   1.14875    0.014
 6406.00    1.10551   1.15019    0.014
 6407.00    1.09946   1.15272    0.014
 6408.00    1.11320   1.14921    0.014
 6409.00    1.12730   1.14883    0.014
 6410.00    1.14493   1.15296    0.014
 6411.00    1.15914   1.15076    0.014
 6412.00    1.14947   1.14845    0.015
 6413.00    1.13843   1.15272    0.015
 6414.00    1.12000   1.15284    0.015
 6415.00    1.10612   1.14931    0.015
 6416.00    1.11194   1.15252    0.015
 6417.00    1.11809   1.15516    0.015
 6418.00    1.12542   1.15157    0.015
 6419.00    1.12984   1.15270    0.015
 6420.00    1.12558   1.15716    0.015
 6421.00    1.13126   1.15526    0.014
 6422.00    1.16224   1.15421    0.014
 6423.00    1.19069   1.15804    0.014
 6424.00    1.21356   1.15789    0.014
 6425.00    1.21867   1.15605    0.014
 6426.00    1.19002   1.15863    0.014
 6427.00    1.16057   1.15948    0.014
 6428.00    1.12981   1.15782    0.014
 6429.00    1.11894   1.15909    0.015
 6430.00    1.13698   1.16028    0.015
 6431.00    1.15927   1.16025    0.015
 6432.00    1.18701   1.16054    0.015
 6433.00    1.20275   1.16013    0.015
 6434.00    1.20498   1.16131    0.015
 6435.00    1.19369   1.16222    0.015
 6436.00    1.16896   1.16003    0.015
 6437.00    1.15540   1.16040    0.015
 6438.00    1.15163   1.16292    0.015
 6439.00    1.15133   1.16144    0.015
 6440.00    1.15370   1.15912    0.015
 6441.00    1.15145   1.16087    0.015
 6442.00    1.14605   1.16161    0.015
 6443.00    1.13921   1.15736    0.015
 6444.00    1.13152   1.15698    0.014
 6445.00    1.12904   1.16050    0.014
 6446.00    1.12927   1.15590    0.014
 6447.00    1.13468   1.15234    0.014
 6448.00    1.14243   1.15770    0.014
 6449.00    1.14644   1.15598    0.014
 6450.00    1.14900   1.15098    0.015
 6451.00    1.13025   1.15584    0.014
 6452.00    1.10449   1.15687    0.014
 6453.00    1.09954   1.15075    0.014
 6454.00    1.10035   1.15381    0.014
 6455.00    1.12809   1.15850    0.014
 6456.00    1.16193   1.15295    0.014
 6457.00    1.17286   1.15302    0.014
 6458.00    1.17963   1.15988    0.015
 6459.00    1.17317   1.15564    0.015
 6460.00    1.16488   1.15234    0.015
 6461.00    1.16950   1.15987    0.015
 6462.00    1.17541   1.15921    0.015
 6463.00    1.15707   1.15456    0.015
 6464.00    1.13720   1.15988    0.015
 6465.00    1.13681   1.16089    0.015
 6466.00    1.13702   1.15536    0.015
 6467.00    1.14603   1.15852    0.014
 6468.00    1.15472   1.16095    0.014
 6469.00    1.15419   1.15534    0.014
 6470.00    1.15475   1.15614    0.014
 6471.00    1.17082   1.15955    0.014
 6472.00    1.18644   1.15425    0.014
 6473.00    1.19803   1.15165    0.014
 6474.00    1.20510   1.15496    0.014
 6475.00    1.18155   1.15135    0.014
 6476.00    1.15948   1.14633    0.014
 6477.00    1.14517   1.14755    0.014
 6478.00    1.13364   1.14475    0.014
 6479.00    1.13387   1.13828    0.014
 6480.00    1.13444   1.13688    0.014
 6481.00    1.13623   1.13480    0.014
 6482.00    1.13530   1.12918    0.014
 6483.00    1.12640   1.12577    0.014
 6484.00    1.11641   1.12287    0.014
 6485.00    1.10365   1.11774    0.015
 6486.00    1.10026   1.11388    0.015
 6487.00    1.11705   1.11092    0.015
 6488.00    1.13019   1.10599    0.014
 6489.00    1.13648   1.10302    0.014
 6490.00    1.12902   1.10159    0.014
 6491.00    1.09910   1.09766    0.014
 6492.00    1.07321   1.09573    0.014
 6493.00    1.05308   1.09601    0.014
 6494.00    1.05134   1.09590    0.014
 6495.00    1.07277   1.09716    0.014
 6496.00    1.08877   1.09818    0.014
 6497.00    1.09874   1.10028    0.014
 6498.00    1.10683   1.10368    0.014
 6499.00    1.11309   1.10580    0.014
 6500.00    1.11399   1.10914    0.014
 6501.00    1.11026   1.11339    0.014
 6502.00    1.11019   1.11597    0.014
 6503.00    1.11291   1.11898    0.014
 6504.00    1.12149   1.12367    0.014
 6505.00    1.13399   1.12637    0.014
 6506.00    1.13693   1.12741    0.014
 6507.00    1.13427   1.13145    0.015
 6508.00    1.13511   1.13509    0.015
 6509.00    1.13775   1.13462    0.015
 6510.00    1.15562   1.13618    0.015
 6511.00    1.18022   1.13963    0.015
 6512.00    1.17583   1.13904    0.015
 6513.00    1.16043   1.13848    0.015
 6514.00    1.14161   1.14131    0.015
 6515.00    1.12169   1.14153    0.014
 6516.00    1.11392   1.13996    0.014
 6517.00    1.10942   1.14159    0.014
 6518.00    1.11024   1.14291    0.014
 6519.00    1.11223   1.14209    0.014
 6520.00    1.12089   1.14191    0.014
 6521.00    1.13074   1.14276    0.014
 6522.00    1.15102   1.14337    0.014
 6523.00    1.17270   1.14277    0.014
 6524.00    1.17677   1.14239    0.014
 6525.00    1.17914   1.14309    0.014
 6526.00    1.15283   1.14323    0.014
 6527.00    1.12483   1.14262    0.014
 6528.00    1.12675   1.14258    0.000
 6529.00    1.12952   1.14260    0.000
 6530.00    1.14639   1.14122    0.000
 6531.00    1.16205   1.14027    0.000
 6532.00    1.14709   1.14064    0.000
 6533.00    1.13259   1.13922    0.000
 6534.00    1.12409   1.13679    0.000
 6535.00    1.11943   1.13566    0.000
 6536.00    1.14884   1.13386    0.000
 6537.00    1.17678   1.13087    0.000
 6538.00    1.19506   1.12850    0.000
 6539.00    1.20849   1.12526    0.000
 6540.00    1.19709   1.12038    0.000
 6541.00    1.18312   1.11741    0.000
 6542.00    1.15854   1.11365    0.000
 6543.00    1.14042   1.10614    0.000
 6544.00    1.14438   1.10174    0.000
 6545.00    1.15250   1.09846    0.000
 6546.00    1.17261   1.08954    0.000
 6547.00    1.18495   1.08231    0.000
 6548.00    1.17818   1.07924    0.000
 6549.00    1.16658   1.07007    0.000
 6550.00    1.14472   1.05958    0.000
 6551.00    1.12997   1.05761    0.000
 6552.00    1.12831   1.05152    0.000
 6553.00    1.12850   1.03841    0.000
 6554.00    1.13168   1.03602    0.000
 6555.00    1.13060   1.03624    0.000
 6556.00    1.12352   1.02367    0.000
 6557.00    1.11577   1.01810    0.000
 6558.00    1.10718   1.02504    0.000
 6559.00    1.11479   1.01716    0.000
 6560.00    1.14013   1.00663    0.000
 6561.00    1.15670   1.01762    0.000
 6562.00    1.16479   1.02290    0.000
 6563.00    1.15863   1.01544    0.000
 6564.00    1.14033   1.02242    0.000
 6565.00    1.12660   1.03302    0.000
 6566.00    1.11629   1.03051    0.000
 6567.00    1.11015   1.03382    0.000
 6568.00    1.10674   1.04648    0.000
 6569.00    1.09356   1.04962    0.000
 6570.00    1.07473   1.05060    0.000
 6571.00    1.06751   1.06103    0.000
 6572.00    1.06613   1.06773    0.000
 6573.00    1.07831   1.06949    0.000
 6574.00    1.09640   1.07651    0.000
 6575.00    1.11488   1.08355    0.000
 6576.00    1.13350   1.08575    0.000
 6577.00    1.14202   1.08866    0.000
 6578.00    1.14734   1.09351    0.000
 6579.00    1.17436   1.09608    0.000
 6580.00    1.20712   1.09677    0.000
 6581.00    1.23537   1.09999    0.000
 6582.00    1.26264   1.10280    0.000
 6583.00    1.26628   1.10178    0.000
 6584.00    1.26587   1.10289    0.000
 6585.00    1.24486   1.10600    0.000
 6586.00    1.22117   1.10487    0.000
 6587.00    1.19647   1.10376    0.000
 6588.00    1.17168   1.10657    0.000
 6589.00    1.14059   1.10639    0.000
 6590.00    1.10916   1.10290    0.000
 6591.00    1.10762   1.10462    0.000
 6592.00    1.10674   1.10722    0.000
 6593.00    1.10873   1.10493    0.000
 6594.00    1.11079   1.10524    0.000
 6595.00    1.11470   1.10762    0.000
 6596.00    1.11984   1.10603    0.000
 6597.00    1.14067   1.10598    0.000
 6598.00    1.15895   1.10915    0.000
 6599.00    1.15530   1.10910    0.000
 6600.00    1.14987   1.10777    0.000
 6601.00    1.13301   1.10981    0.000
 6602.00    1.11880   1.11141    0.000
 6603.00    1.11778   1.11056    0.000
 6604.00    1.11393   1.11182    0.000
 6605.00    1.09867   1.11399    0.000
 6606.00    1.08858   1.11332    0.000
 6607.00    1.09580   1.11375    0.000
 6608.00    1.10086   1.11661    0.000
 6609.00    1.09981   1.11769    0.014
 6610.00    1.10051   1.11700    0.014
 6611.00    1.10542   1.11729    0.014
 6612.00    1.11192   1.11905    0.014
 6613.00    1.12176   1.11963    0.014
 6614.00    1.13043   1.11865    0.014
 6615.00    1.13699   1.11892    0.014
 6616.00    1.13853   1.11965    0.014
 6617.00    1.13212   1.11854    0.014
 6618.00    1.12007   1.11750    0.014
 6619.00    1.10017   1.11784    0.014
 6620.00    1.08698   1.11669    0.015
 6621.00    1.08202   1.11367    0.014
 6622.00    1.08304   1.11296    0.014
 6623.00    1.09052   1.11322    0.015
 6624.00    1.10045   1.11062    0.015
 6625.00    1.11271   1.10907    0.015
 6626.00    1.12105   1.10905    0.015
 6627.00    1.12609   1.10647    0.014
 6628.00    1.12029   1.10519    0.014
 6629.00    1.10647   1.10604    0.014
 6630.00    1.09921   1.10335    0.014
 6631.00    1.09621   1.10092    0.014
 6632.00    1.10497   1.10311    0.014
 6633.00    1.12042   1.10295    0.014
 6634.00    1.11818   1.10023    0.014
 6635.00    1.10719   1.10206    0.014
 6636.00    1.09791   1.10336    0.014
 6637.00    1.08937   1.10008    0.014
 6638.00    1.08212   1.10107    0.014
 6639.00    1.07535   1.10454    0.014
 6640.00    1.07127   1.10155    0.014
 6641.00    1.06802   1.09970    0.014
 6642.00    1.07545   1.10401    0.014
 6643.00    1.08565   1.10416    0.014
 6644.00    1.08880   1.10081    0.014
 6645.00    1.09047   1.10279    0.015
 6646.00    1.10133   1.10464    0.015
 6647.00    1.11372   1.10148    0.015
 6648.00    1.11293   1.10121    0.014
 6649.00    1.11049   1.10352    0.014
 6650.00    1.09846   1.10076    0.014
 6651.00    1.08559   1.09846    0.014
 6652.00    1.07122   1.10090    0.014
 6653.00    1.05677   1.09982    0.014
 6654.00    1.05008   1.09623    0.014
 6655.00    1.04355   1.09711    0.014
 6656.00    1.03829   1.09765    0.014
 6657.00    1.03319   1.09433    0.014
 6658.00    1.03139   1.09357    0.014
 6659.00    1.03171   1.09515    0.014
 6660.00    1.05764   1.09253    0.014
 6661.00    1.08215   1.09030    0.014
 6662.00    1.09491   1.09248    0.014
 6663.00    1.10380   1.09260    0.014
 6664.00    1.08881   1.08968    0.014
 6665.00    1.07615   1.08919    0.014
 6666.00    1.07474   1.09146    0.014
 6667.00    1.07286   1.09093    0.014
 6668.00    1.06914   1.08853    0.014
 6669.00    1.06359   1.09005    0.015
 6670.00    1.05203   1.09158    0.014
 6671.00    1.04151   1.08919    0.014
 6672.00    1.03385   1.08873    0.014
 6673.00    1.03243   1.09197    0.014
 6674.00    1.04581   1.09116    0.014
 6675.00    1.05478   1.08735    0.014
 6676.00    1.05471   1.09000    0.014
 6677.00    1.05341   1.09310    0.014
 6678.00    1.04988   1.09000    0.014
 6679.00    1.04531   1.08960    0.014
 6680.00    1.03911   1.09297    0.014
 6681.00    1.03984   1.09244    0.014
 6682.00    1.05008   1.09040    0.014
 6683.00    1.05774   1.09212    0.014
 6684.00    1.06229   1.09326    0.014
 6685.00    1.06338   1.09092    0.014
 6686.00    1.06077   1.09075    0.014
 6687.00    1.07011   1.09272    0.014
 6688.00    1.09069   1.09210    0.015
 6689.00    1.09845   1.09052    0.015
 6690.00    1.09560   1.09055    0.014
 6691.00    1.08835   1.09089    0.014
 6692.00    1.07790   1.08973    0.015
 6693.00    1.05766   1.08805    0.014
 6694.00    1.03116   1.08779    0.014
 6695.00    1.02645   1.08751    0.014
 6696.00    1.03394   1.08617    0.000
 6697.00    1.03279   1.08513    0.000
 6698.00    1.02744   1.08477    0.000
 6699.00    1.02296   1.08420    0.000
 6700.00    1.01885   1.08222    0.000
 6701.00    1.03282   1.08059    0.000
 6702.00    1.05331   1.08050    0.000
 6703.00    1.07151   1.07929    0.000
 6704.00    1.08900   1.07675    0.000
 6705.00    1.07652   1.07598    0.000
 6706.00    1.05645   1.07625    0.000
 6707.00    1.06136   1.07387    0.000
 6708.00    1.07141   1.07180    0.000
 6709.00    1.09596   1.07263    0.000
 6710.00    1.12286   1.07169    0.000
 6711.00    1.13189   1.06914    0.000
 6712.00    1.13875   1.06904    0.000
 6713.00    1.15157   1.06990    0.000
 6714.00    1.16489   1.06842    0.000
 6715.00    1.17908   1.06737    0.000
 6716.00    1.19331   1.06924    0.000
 6717.00    1.18828   1.06994    0.000
 6718.00    1.18275   1.06907    0.000
 6719.00    1.16410   1.06967    0.000
 6720.00    1.14545   1.07129    0.000
 6721.00    1.12662   1.07207    0.000
 6722.00    1.10845   1.07179    0.000
 6723.00    1.09798   1.07242    0.000
 6724.00    1.09007   1.07383    0.000
 6725.00    1.10261   1.07395    0.000
 6726.00    1.11451   1.07390    0.000
 6727.00    1.12259   1.07516    0.000
 6728.00    1.12480   1.07585    0.000
 6729.00    1.09921   1.07443    0.000
 6730.00    1.08004   1.07390    0.000
 6731.00    1.08566   1.07531    0.000
 6732.00    1.09077   1.07442    0.000
 6733.00    1.09423   1.07222    0.000
 6734.00    1.08919   1.07289    0.000
 6735.00    1.06093   1.07305    0.000
 6736.00    1.03490   1.07026    0.000
 6737.00    1.01407   1.06955    0.000
 6738.00    1.00509   1.07125    0.000
 6739.00    1.02006   1.06935    0.000
 6740.00    1.03406   1.06643    0.000
 6741.00    1.04634   1.06844    0.000
 6742.00    1.04708   1.06910    0.000
 6743.00    1.03004   1.06592    0.000
 6744.00    1.01639   1.06666    0.000
 6745.00    1.00730   1.06908    0.000
 6746.00    0.99709   1.06733    0.000
 6747.00    0.98555   1.06625    0.000
 6748.00    0.98150   1.06969    0.000
 6749.00    0.98531   1.07051    0.000
 6750.00    0.99392   1.06830    0.000
 6751.00    1.00698   1.07067    0.000
 6752.00    1.03603   1.07323    0.000
 6753.00    1.07812   1.07210    0.016
 6754.00    1.09119   1.07265    0.016
 6755.00    1.08342   1.07523    0.017
 6756.00    1.05751   1.07574    0.017
 6757.00    1.02017   1.07487    0.017
 6758.00    0.99742   1.07618    0.016
 6759.00    0.98271   1.07777    0.016
 6760.00    1.02633   1.07726    0.016
 6761.00    1.09789   1.07710    0.016
 6762.00    1.15106   1.07833    0.017
 6763.00    1.19662   1.07888    0.017
 6764.00    1.22681   1.07784    0.017
 6765.00    1.25155   1.07783    0.017
 6766.00    1.26393   1.07949    0.016
 6767.00    1.27262   1.07910    0.016
 6768.00    1.23515   1.07773    0.016
 6769.00    1.18624   1.07878    0.016
 6770.00    1.16216   1.07943    0.016
 6771.00    1.14307   1.07827    0.016
 6772.00    1.12957   1.07825    0.016
 6773.00    1.11696   1.07874    0.016
 6774.00    1.11014   1.07755    0.016
 6775.00    1.10399   1.07690    0.015
 6776.00    1.09051   1.07739    0.015
 6777.00    1.07645   1.07664    0.016
 6778.00    1.08526   1.07602    0.016
 6779.00    1.09507   1.07580    0.016
 6780.00    1.06017   1.07434    0.016
 6781.00    1.02530   1.07370    0.016
 6782.00    1.01347   1.07426    0.016
 6783.00    1.00360   1.07275    0.015
 6784.00    1.02922   1.07153    0.015
 6785.00    1.05411   1.07303    0.015
 6786.00    1.07098   1.07242    0.015
 6787.00    1.08478   1.07049    0.015
 6788.00    1.07482   1.07186    0.015
 6789.00    1.06881   1.07281    0.015
 6790.00    1.08585   1.07049    0.015
 6791.00    1.10264   1.07058    0.016
 6792.00    1.11833   1.07318    0.016
 6793.00    1.13668   1.07190    0.016
 6794.00    1.16510   1.07061    0.016
 6795.00    1.17764   1.07333    0.016
 6796.00    1.14004   1.07370    0.016
 6797.00    1.11411   1.07145    0.016
 6798.00    1.11940   1.07280    0.016
 6799.00    1.11671   1.07496    0.015
 6800.00    1.09571   1.07298    0.015
 6801.00    1.07790   1.07212    0.015
 6802.00    1.06644   1.07483    0.015
 6803.00    1.06415   1.07473    0.015
 6804.00    1.07776   1.07260    0.015
 6805.00    1.08162   1.07390    0.015
 6806.00    1.07072   1.07554    0.015
 6807.00    1.05999   1.07403    0.015
 6808.00    1.04949   1.07374    0.015
 6809.00    1.05466   1.07568    0.015
 6810.00    1.07821   1.07550    0.015
 6811.00    1.10998   1.07418    0.015
 6812.00    1.15025   1.07512    0.016
 6813.00    1.16970   1.07662    0.016
 6814.00    1.17015   1.07614    0.016
 6815.00    1.14969   1.07584    0.016
 6816.00    1.11241   1.07706    0.016
 6817.00    1.08039   1.07721    0.016
 6818.00    1.05210   1.07627    0.016
 6819.00    1.05543   1.07656    0.015
 6820.00    1.07840   1.07766    0.015
 6821.00    1.08803   1.07743    0.015
 6822.00    1.09041   1.07631    0.015
 6823.00    1.10417   1.07650    0.015
 6824.00    1.12330   1.07679    0.015
 6825.00    1.13252   1.07549    0.015
 6826.00    1.13770   1.07436    0.015
 6827.00    1.11560   1.07449    0.015
 6828.00    1.08404   1.07399    0.015
 6829.00    1.06769   1.07210    0.015
 6830.00    1.05579   1.07107    0.015
 6831.00    1.04916   1.07085    0.015
 6832.00    1.04380   1.06943    0.015
 6833.00    1.06428   1.06779    0.015
 6834.00    1.08981   1.06734    0.015
 6835.00    1.08663   1.06694    0.015
 6836.00    1.07908   1.06542    0.016
 6837.00    1.09570   1.06424    0.016
 6838.00    1.11503   1.06380    0.017
 6839.00    1.12526   1.06309    0.017
 6840.00    1.13480   1.06231    0.017
 6841.00    1.09653   1.06151    0.016
 6842.00    1.05636   1.06153    0.016
 6843.00    1.04017   1.06190    0.015
 6844.00    1.02637   1.06059    0.015
 6845.00    1.10078   1.05905    0.015
 6846.00    1.16841   1.05992    0.015
 6847.00    1.12152   1.06015    0.015
 6848.00    1.07668   1.05766    0.014
 6849.00    1.05314   1.05785    0.015
 6850.00    1.03451   1.05979    0.015
 6851.00    1.05241   1.05698    0.015
 6852.00    1.07029   1.05430    0.015
 6853.00    1.08809   1.05718    0.015
 6854.00    1.09674   1.05758    0.015
 6855.00    1.06410   1.05330    0.015
 6856.00    1.04169   1.05431    0.015
 6857.00    1.05709   1.05700    0.016
 6858.00    1.06181   1.05293    0.016
 6859.00    1.03341   1.05097    0.016
 6860.00    1.01562   1.05569    0.015
 6861.00    1.02577   1.05555    0.015
 6862.00    1.03576   1.05082    0.015
 6863.00    1.04540   1.05328    0.015
 6864.00    1.05326   1.05671    0.015
 6865.00    1.05760   1.05262    0.015
 6866.00    1.05978   1.05155    0.015
 6867.00    1.05830   1.05686    0.015
 6868.00    1.05865   1.05674    0.015
 6869.00    1.06175   1.05266    0.015
 6870.00    1.05554   1.05589    0.015
 6871.00    1.03712   1.05974    0.015
 6872.00    1.02806   1.05615    0.015
 6873.00    1.02984   1.05536    0.015
 6874.00    1.02971   1.06094    0.015
 6875.00    1.02761   1.06145    0.015
 6876.00    1.03017   1.05790    0.015
 6877.00    1.03691   1.06146    0.015
 6878.00    1.03599   1.06573    0.015
 6879.00    1.02899   1.06276    0.015
 6880.00    1.02395   1.06244    0.015
 6881.00    1.02026   1.06819    0.015
 6882.00    1.03051   1.06878    0.015
 6883.00    1.04928   1.06578    0.015
 6884.00    1.06982   1.06968    0.015
 6885.00    1.09132   1.07363    0.015
 6886.00    1.08259   1.07096    0.015
 6887.00    1.05984   1.07125    0.015
 6888.00    1.05214   1.07638    0.015
 6889.00    1.05047   1.07640    0.014
 6890.00    1.05709   1.07395    0.014
 6891.00    1.06654   1.07726    0.015
 6892.00    1.06164   1.08020    0.015
 6893.00    1.05262   1.07794    0.015
 6894.00    1.05583   1.07791    0.015
 6895.00    1.06194   1.08135    0.015
 6896.00    1.07583   1.08114    0.015
 6897.00    1.09119   1.07911    0.015
 6898.00    1.07672   1.08078    0.015
 6899.00    1.05783   1.08267    0.015
 6900.00    1.05340   1.08090    0.016
 6901.00    1.05052   1.07988    0.016
 6902.00    1.04939   1.08164    0.016
 6903.00    1.04838   1.08148    0.015
 6904.00    1.03081   1.07924    0.015
 6905.00    1.01264   1.07947    0.015
 6906.00    1.01359   1.08069    0.015
 6907.00    1.01460   1.07873    0.015
 6908.00    1.01542   1.07697    0.014
 6909.00    1.01658   1.07798    0.014
 6910.00    1.02307   1.07774    0.015
 6911.00    1.02727   1.07535    0.015
 6912.00    1.00845   1.07515    0.014
 6913.00    0.99504   1.07614    0.014
 6914.00    1.02048   1.07415    0.015
 6915.00    1.03957   1.07245    0.015
 6916.00    1.02360   1.07319    0.015
 6917.00    1.01005   1.07329    0.015
 6918.00    1.00716   1.07187    0.015
 6919.00    1.01330   1.07147    0.015
 6920.00    1.05219   1.07225    0.015
 6921.00    1.07937   1.07155    0.015
 6922.00    1.07096   1.07047    0.015
 6923.00    1.06084   1.07042    0.015
 6924.00    1.04627   1.07108    0.015
 6925.00    1.02686   1.07134    0.015
 6926.00    0.99668   1.07057    0.015
 6927.00    0.98692   1.07065    0.015
 6928.00    1.01650   1.07126    0.014
 6929.00    1.02539   1.07111    0.014
 6930.00    0.99950   1.07034    0.014
 6931.00    0.98823   1.07062    0.015
 6932.00    0.99850   1.07176    0.015
 6933.00    1.01629   1.07126    0.015
 6934.00    1.04382   1.07022    0.015
 6935.00    1.06601   1.07043    0.015
 6936.00    1.08212   1.07117    0.015
 6937.00    1.08490   1.07049    0.016
 6938.00    1.07425   1.06943    0.016
 6939.00    1.05839   1.07048    0.016
 6940.00    1.03791   1.07100    0.016
 6941.00    1.02221   1.06918    0.016
 6942.00    1.01026   1.06857    0.016
 6943.00    1.00126   1.07020    0.015
 6944.00    0.99430   1.06999    0.015
 6945.00    0.98873   1.06839    0.015
 6946.00    0.98402   1.06983    0.015
 6947.00    0.98602   1.07144    0.015
 6948.00    0.99157   1.06983    0.015
 6949.00    0.98946   1.06964    0.015
 6950.00    0.98386   1.07204    0.015
 6951.00    1.00098   1.07233    0.015
 6952.00    1.02703   1.07137    0.015
 6953.00    1.03265   1.07317    0.015
 6954.00    1.03143   1.07502    0.015
 6955.00    1.00816   1.07413    0.015
 6956.00    0.97870   1.07436    0.015
 6957.00    0.98139   1.07621    0.015
 6958.00    0.99151   1.07643    0.016
 6959.00    1.00064   1.07602    0.016
 6960.00    1.00959   1.07687    0.016
 6961.00    1.02820   1.07698    0.016
 6962.00    1.04819   1.07611    0.015
 6963.00    1.05432   1.07651    0.016
 6964.00    1.05901   1.07624    0.016
 6965.00    1.03970   1.07475    0.015
 6966.00    1.01878   1.07496    0.015
 6967.00    0.99325   1.07516    0.015
 6968.00    0.96757   1.07233    0.015
 6969.00    0.99192   1.07086    0.015
 6970.00    1.01560   1.07284    0.015
 6971.00    1.01861   1.07153    0.015
 6972.00    1.02040   1.06823    0.015
 6973.00    1.00399   1.06984    0.015
 6974.00    0.99099   1.07161    0.015
 6975.00    1.01069   1.06813    0.015
 6976.00    1.03164   1.06681    0.016
 6977.00    1.06125   1.07078    0.016
 6978.00    1.08141   1.07093    0.016
 6979.00    1.05089   1.06801    0.016
 6980.00    1.02234   1.07029    0.016
 6981.00    1.00230   1.07361    0.016
 6982.00    0.98564   1.07182    0.016
 6983.00    0.98101   1.07082    0.016
 6984.00    0.98490   1.07430    0.016
 6985.00    1.01421   1.07551    0.016
 6986.00    1.03891   1.07344    0.016
 6987.00    1.05191   1.07428    0.015
 6988.00    1.06369   1.07685    0.015
 6989.00    1.07280   1.07592    0.015
 6990.00    1.07781   1.07403    0.015
 6991.00    1.07504   1.07528    0.015
 6992.00    1.06665   1.07617    0.015
 6993.00    1.04893   1.07412    0.015
 6994.00    1.04122   1.07287    0.016
 6995.00    1.04805   1.07398    0.016
 6996.00    1.06164   1.07330    0.016
 6997.00    1.08387   1.07072    0.016
 6998.00    1.08204   1.07024    0.016
 6999.00    1.05316   1.07079    0.016
 7000.00    1.03205   1.06945    0.016
 7001.00    1.01864   1.06754    0.016
 7002.00    0.99343   1.06720    0.016
 7003.00    0.95789   1.06705    0.016
 7004.00    0.96471   1.06604    0.016
 7005.00    1.00418   1.06494    0.016
 7006.00    1.01282   1.06412    0.016
 7007.00    1.00057   1.06425    0.016
 7008.00    0.98883   1.06418    0.016
 7009.00    0.97739   1.06246    0.016
 7010.00    0.97736   1.06171    0.016
 7011.00    0.98323   1.06359    0.016
 7012.00    0.99438   1.06372    0.016
 7013.00    1.00789   1.06095    0.016
 7014.00    1.03314   1.06124    0.016
 7015.00    1.06292   1.06420    0.016
 7016.00    1.03086   1.06324    0.017
 7017.00    0.97851   1.06110    0.017
 7018.00    0.98460   1.06389    0.017
 7019.00    1.00678   1.06672    0.017
 7020.00    1.00740   1.06431    0.017
 7021.00    1.00314   1.06324    0.017
 7022.00    0.99977   1.06747    0.017
 7023.00    0.99655   1.06940    0.016
 7024.00    0.97914   1.06689    0.016
 7025.00    0.95975   1.06814    0.016
 7026.00    0.97797   1.07318    0.016
 7027.00    0.99992   1.07328    0.016
 7028.00    1.01516   1.07073    0.016
 7029.00    1.02999   1.07425    0.016
 7030.00    1.00234   1.07889    0.016
 7031.00    0.97361   1.07687    0.016
 7032.00    0.98046   1.07612    0.016
 7033.00    0.98746   1.08188    0.016
 7034.00    0.99881   1.08394    0.017
 7035.00    1.00937   1.08020    0.017
 7036.00    1.00895   1.08184    0.017
 7037.00    1.01000   1.08698    0.017
 7038.00    1.02460   1.08507    0.017
 7039.00    1.03190   1.08219    0.017
 7040.00    0.99003   1.08588    0.017
 7041.00    0.95903   1.08740    0.017
 7042.00    0.98478   1.08239    0.017
 7043.00    1.01167   1.08082    0.017
 7044.00    1.04333   1.08339    0.017
 7045.00    1.06221   1.08051    0.017
 7046.00    1.03659   1.07533    0.017
 7047.00    1.01302   1.07516    0.016
 7048.00    0.99547   1.07470    0.017
 7049.00    0.97729   1.06900    0.017
 7050.00    0.95751   1.06482   -2.000
 7051.00    0.95895   1.06455   -2.000
 7052.00    1.00603   1.06134   -2.000
 7053.00    1.04356   1.05587   -2.000
 7054.00    1.06327   1.05383   -2.000
 7055.00    1.07598   1.05287   -2.000
 7056.00    1.07730   1.04880   -2.000
 7057.00    1.09486   1.04517   -2.000
 7058.00    1.13563   1.04417   -2.000
 7059.00    1.13505   1.04248   -2.000
 7060.00    1.08242   1.03990   -2.000
 7061.00    1.06328   1.03876   -2.000
 7062.00    1.08127   1.03813   -2.000
 7063.00    1.08790   1.03689   -2.000
 7064.00    1.08340   1.03602   -2.000
 7065.00    1.07938   1.03514   -2.000
 7066.00    1.07579   1.03421   -2.000
 7067.00    1.06747   1.03445   -2.000
 7068.00    1.05558   1.03463   -2.000
 7069.00    1.05224   1.03319   -2.000
 7070.00    1.05462   1.03204   -2.000
 7071.00    1.08049   1.03237   -2.000
 7072.00    1.12010   1.03133   -2.000
 7073.00    1.16193   1.02889   -2.000
 7074.00    1.20489   1.02792   -2.000
 7075.00    1.18343   1.02766   -2.000
 7076.00    1.13353   1.02510   -2.000
 7077.00    1.13228   1.02157   -2.000
 7078.00    1.14947   1.02028   -2.000
 7079.00    1.11095   1.01890   -2.000
 7080.00    1.05448   1.01528   -2.000
 7081.00    1.07523   1.01173   -2.000
 7082.00    1.11678   1.01031   -2.000
 7083.00    1.12815   1.00821   -2.000
 7084.00    1.13286   1.00450   -2.000
 7085.00    1.10068   1.00257   -2.000
 7086.00    1.06201   1.00145   -2.000
 7087.00    1.04478   0.99913   -2.000
 7088.00    1.03041   0.99648   -2.000
 7089.00    1.08774   0.99570   -2.000
 7090.00    1.15189   0.99501   -2.000
 7091.00    1.13383   0.99399   -2.000
 7092.00    1.11095   0.99382   -2.000
 7093.00    1.05444   0.99322   -2.000
 7094.00    0.99750   0.99283   -2.000
 7095.00    0.99588   0.99314   -2.000
 7096.00    0.99269   0.99361   -2.000
 7097.00    0.95058   0.99299   -2.000
 7098.00    0.91455   0.99395   -2.000
 7099.00    0.95940   0.99550   -2.000
 7100.00    0.99501   0.99463   -2.000
 7101.00    0.94871   0.99410   -2.000
 7102.00    0.91060   0.99619   -2.000
 7103.00    0.92592   0.99735   -2.000
 7104.00    0.94120   0.99531   -2.000
 7105.00    0.95631   0.99559   -2.000
 7106.00    0.96109   0.99804   -2.000
 7107.00    0.92334   0.99741   -2.000
 7108.00    0.90284   0.99494   -2.000
 7109.00    0.94117   0.99628   -2.000
 7110.00    0.97794   0.99837   -2.000
 7111.00    1.01023   0.99605   -2.000
 7112.00    1.02225   0.99388   -2.000
 7113.00    0.98455   0.99572   -2.000
 7114.00    0.97313   0.99662   -2.000
 7115.00    1.01736   0.99324   -2.000
 7116.00    1.04109   0.99195   -2.000
 7117.00    1.02713   0.99389   -2.000
 7118.00    1.01216   0.99320   -2.000
 7119.00    0.99557   0.98982   -2.000
 7120.00    0.98859   0.98981   -2.000
 7121.00    0.99516   0.99158   -2.000
 7122.00    1.02105   0.98949   -2.000
 7123.00    1.07092   0.98716   -2.000
 7124.00    1.10176   0.98798   -2.000
 7125.00    1.11179   0.98871   -2.000
 7126.00    1.08727   0.98679   -2.000
 7127.00    1.02945   0.98642   -2.000
 7128.00    1.02337   0.98781   -2.000
 7129.00    1.06128   0.98737   -2.000
 7130.00    1.06839   0.98652   -2.000
 7131.00    1.05242   0.98729   -2.000
 7132.00    1.09147   0.98848   -2.000
 7133.00    1.16672   0.98794   -2.000
 7134.00    1.10070   0.98789   -2.000
 7135.00    0.95331   0.98918   -2.000
 7136.00    0.94144   0.98983   -2.000
 7137.00    0.99756   0.98937   -2.000
 7138.00    1.02072   0.99006   -2.000
 7139.00    1.02955   0.99218   -2.000
 7140.00    1.03429   0.99218   -2.000
 7141.00    1.03751   0.99066   -2.000
 7142.00    1.01386   0.99175   -2.000
 7143.00    0.98171   0.99457   -2.000
 7144.00    0.97319   0.99373   -2.000
 7145.00    0.97090   0.99229   -2.000
 7146.00    0.96663   0.99489   -2.000
 7147.00    0.96192   0.99677   -2.000
 7148.00    0.99062   0.99462   -2.000
 7149.00    1.02503   0.99452   -2.000
 7150.00    1.04327   0.99804   -2.000
 7151.00    1.05942   0.99778   -2.000
 7152.00    1.00507   0.99533   -2.000
 7153.00    0.94432   0.99710   -2.000
 7154.00    0.97213   0.99998   -2.000
 7155.00    1.00478   0.99868   -2.000
 7156.00    0.97361   0.99781   -2.000
 7157.00    0.94141   0.99995   -2.000
 7158.00    0.93695   1.00016   -2.000
 7159.00    0.93794   0.99891   -2.000
 7160.00    1.06233   1.00017   -2.000
 7161.00    1.18456   1.00195   -2.000
 7162.00    1.27946   1.00056   -2.000
 7163.00    1.34619   1.00010   -2.000
 7164.00    1.17268   1.00217   -2.000
 7165.00    1.01316   1.00259   -2.000
 7166.00    0.94234   1.00115   -2.000
 7167.00    0.90632   1.00152   -2.000
 7168.00    1.04310   1.00284   -2.000
 7169.00    1.14179   1.00151   -2.000
 7170.00    1.08717   1.00027   -2.000
 7171.00    1.03633   1.00197   -2.000
 7172.00    0.99807   1.00287   -2.000
 7173.00    0.97374   1.00000   -2.000
 7174.00    0.98867   0.99805   -2.000
 7175.00    1.00959   0.99932   -2.000
 7176.00    1.04493   0.99941   -2.000
 7177.00    1.06094   0.99732   -2.000
 7178.00    1.03672   0.99654   -2.000
 7179.00    1.03506   0.99680   -2.000
 7180.00    1.07423   0.99507   -2.000
 7181.00    1.06087   0.99344   -2.000
 7182.00    0.96437   0.99370   -2.000
 7183.00    0.92610   0.99373   -2.000
 7184.00    0.96872   0.99288   -2.000
 7185.00    0.96098   0.99200   -2.000
 7186.00    0.89167   0.99127   -2.000
 7187.00    0.89411   0.99117   -2.000
 7188.00    0.97389   0.99222   -2.000
 7189.00    1.00661   0.99227   -2.000
 7190.00    0.99457   0.99116   -2.000
 7191.00    0.97752   0.99161   -2.000
 7192.00    0.95626   0.99289   -2.000
 7193.00    0.93753   0.99223   -2.000
 7194.00    0.92067   0.99176   -2.000
 7195.00    0.93993   0.99352   -2.000
 7196.00    0.98260   0.99446   -2.000
 7197.00    0.99421   0.99405   -2.000
 7198.00    0.98820   0.99465   -2.000
 7199.00    0.99966   0.99583   -2.000
 7200.00    1.01974   0.99547   -2.000
 7201.00    1.02289   0.99549   -2.000
 7202.00    1.01882   0.99686   -2.000
 7203.00    1.02456   0.99792   -2.000
 7204.00    1.03390   0.99879   -2.000
 7205.00    0.91040   0.99948   -2.000
 7206.00    0.74576   0.99971   -2.000
 7207.00    0.76536   1.00038   -2.000
 7208.00    0.83252   1.00232   -2.000
 7209.00    0.86805   1.00344   -2.000
 7210.00    0.89693   1.00407   -2.000
 7211.00    0.89782   1.00573   -2.000
 7212.00    0.89407   1.00716   -2.000
 7213.00    0.89374   1.00786   -2.000
 7214.00    0.89385   1.00940   -2.000
 7215.00    0.93717   1.01211   -2.000
 7216.00    0.98424   1.01330   -2.000
 7217.00    0.97299   1.01410   -2.000
 7218.00    0.95878   1.01611   -2.000
