###################################################################
## OUTPUT of StarlightChains_v04.for    [Cid@UFSC - 01/Apr/2007] ##
###################################################################

## Some input info
KUG0210-078._62_35.txt                   [arq_obs]
Base.CB07.vall.4m                        [arq_base]
Masks.EmLines.NEW.gm                     [arq_masks]
StCv04.C11.config                        [arq_config]
   66                                    [N_base]
    0                                    [N_YAV_components = # of components with extra extinction!]
    0                                    [i_FitPowerLaw (1/0 = Yes/No)]
-9.99                                    [alpha_PowerLaw]
CCM                                      [red_law_option]
 1.458241                                [q_norm = A(l_norm)/A(V)]

## (Re)Sampling Parameters
 3741.00                                 [l_ini (A)]
 7218.00                                 [l_fin (A)]
    1.00                                 [dl    (A)]     (OBS: dl_cushion =    50.00 A)

## Normalization info
 4020.00                                 [l_norm (A) - for base]
 4010.00                                 [llow_norm (A) - window for f_obs]
 4060.00                                 [lupp_norm (A) - window for f_obs]
3.368964E-18                             [fobs_norm (in input units)]

## S/N
 3691.00                                 [llow_SN (A) - window for S/N]
 7268.00                                 [lupp_SN (A) - window for S/N]
   2.148                                 [S/N in S/N window]
   1.799                                 [S/N in norm. window]
   0.004                                 [S/N_err in S/N window]
   0.004                                 [S/N_err in norm. window]
  1.0000                                 [fscale_chi2]

## etc...
    -2008042                             [idum_orig]
  2338                                   [NOl_eff]
  2316                                   [Nl_eff]
    22    NSIGMA                         [Ntot_cliped & clip_method]
  1207500                                [Nglobal_steps]
   7                                     [N_chains]
  39                                     [NEX0s_base = N_base in EX0s-fits]
 0   0   1       22   2.0   6.717E+02    [Clip-Bug, RC-Crash & Burn-In warning-flags, n_censored_weights, wei_nsig_threshold & wei_limit]
    25     25.132     24.614      0.518  [idt_all, wdt_TotTime, wdt_UsrTime & wdt_SysTime (sec)]

## Synthesis Results - Best model ##

 9.52114E-06                             [chi2/Nl_eff]
    63.65367                             [adev (%)]

   130.00000                             [sum-of-x (%)]
 6.46582E-17                             [Flux_tot (units of input spectrum!)]
 4.26970E-14                             [Mini_tot (???)]
 2.68580E-14                             [Mcor_tot (???)]

-362.04                                  [v0_min  (km/s)]
   0.00                                  [vd_min  (km/s)]
 2.0044                                  [AV_min  (mag)]
 0.0000                                  [YAV_min (mag)]

# j     x_j(%)      Mini_j(%)     Mcor_j(%)     age_j(yr)     Z_j      (L/M)_j    YAV?  Mstars   component_j        a/Fe...       SSP_chi2r SSP_adev(%)   SSP_AV   SSP_x(%)
  1     65.1593     6.9381E+00    1.1030E+01    1.000000E+06  0.00400  1.094E-02    0   1.0000   age020_m42            0.0000     8.9236E-06    63.1114   2.5100   142.5829
  2      0.0000     0.0000E+00    0.0000E+00    3.160000E+06  0.00400  4.007E-02    0   0.9999   age045_m42            0.0000     8.9567E-06    62.3790   1.7901   151.0104
  3      7.7114     3.5380E-01    5.3364E-01    5.010000E+06  0.00400  2.539E-02    0   0.9488   age055_m42            0.0000     8.9762E-06    63.0194   2.1130   147.5831
  4      0.2061     9.1614E-03    1.3428E-02    6.610000E+06  0.00400  2.620E-02    0   0.9220   age061_m42            0.0000     9.0114E-06    62.6392   1.7229   150.9106
  5      0.0000     0.0000E+00    0.0000E+00    1.000000E+07  0.00400  1.322E-02    0   0.8862   age070_m42            0.0000     9.1844E-06    64.9484   1.4908   151.6783
  6      1.2851     1.8990E-01    2.5874E-01    1.445000E+07  0.00400  7.883E-03    0   0.8571   age078_m42            0.0000     9.1468E-06    64.8996   1.8056   148.6632
  7      1.3859     3.0746E-01    3.9953E-01    2.512000E+07  0.00400  5.251E-03    0   0.8174   age090_m42            0.0000     9.2281E-06    65.3105   1.3666   152.0636
  8      0.0000     0.0000E+00    0.0000E+00    4.000000E+07  0.00400  3.649E-03    0   0.7851   age104_m42            0.0000     9.1987E-06    64.9010   1.1368   153.3454
  9      0.1700     6.3934E-02    7.7540E-02    5.500000E+07  0.00400  3.098E-03    0   0.7629   age110_m42            0.0000     9.1320E-06    63.6720   1.2684   154.3451
 10     12.1427     6.3487E+00    7.2738E+00    1.015200E+08  0.00400  2.228E-03    0   0.7207   age116_m42            0.0000     9.1323E-06    62.8660   1.2794   154.9894
 11      0.0000     0.0000E+00    0.0000E+00    2.861200E+08  0.00400  1.093E-03    0   0.6648   age125_m42            0.0000     9.2969E-06    63.4658   0.7317   157.8275
 12      0.0000     0.0000E+00    0.0000E+00    5.088000E+08  0.00400  6.597E-04    0   0.6365   age130_m42            0.0000     9.2643E-06    62.1689   0.7074   159.7692
 13      0.0000     0.0000E+00    0.0000E+00    1.434000E+09  0.00400  2.132E-04    0   0.5798   age139_m42            0.0000     9.1056E-06    60.9753  -0.2805   163.3024
 14      0.0000     0.0000E+00    0.0000E+00    4.250000E+09  0.00400  5.895E-05    0   0.5377   age158_m42            0.0000     8.9147E-06    59.8154  -0.7558   159.0653
 15      0.0000     0.0000E+00    0.0000E+00    7.500000E+09  0.00400  3.510E-05    0   0.5212   age171_m42            0.0000     8.8949E-06    59.0919  -0.9589   158.6141
 16      0.0000     0.0000E+00    0.0000E+00    1.300000E+10  0.00400  2.005E-05    0   0.5034   age193_m42            0.0000     8.9247E-06    60.3878  -1.0000   154.2286
 17      0.2948     2.2516E+01    1.7779E+01    1.800000E+10  0.00400  1.525E-05    0   0.4967   age213_m42            0.0000     8.9297E-06    60.9239  -1.0000   152.8752
 18      0.0000     0.0000E+00    0.0000E+00    1.000000E+06  0.00800  1.238E-02    0   1.0000   age020_m52            0.0000     8.9352E-06    63.0619   2.5026   142.9663
 19      0.0000     0.0000E+00    0.0000E+00    3.160000E+06  0.00800  3.074E-02    0   0.9966   age045_m52            0.0000     8.9557E-06    63.0530   2.4264   144.1444
 20      0.5645     2.4646E-02    3.6998E-02    5.010000E+06  0.00800  2.668E-02    0   0.9443   age055_m52            0.0000     8.9723E-06    63.1959   2.1929   146.5791
 21      0.3227     1.7599E-02    2.5675E-02    6.610000E+06  0.00800  2.136E-02    0   0.9177   age061_m52            0.0000     9.0780E-06    64.6420   0.9779   154.0483
 22      0.6441     6.1754E-02    8.6656E-02    1.000000E+07  0.00800  1.215E-02    0   0.8827   age070_m52            0.0000     9.2196E-06    65.7096   1.6740   151.2612
 23      0.0688     9.1909E-03    1.2495E-02    1.445000E+07  0.00800  8.717E-03    0   0.8552   age078_m52            0.0000     9.1444E-06    64.9719   1.7703   150.7497
 24     22.9048     4.7714E+00    6.1910E+00    2.512000E+07  0.00800  5.592E-03    0   0.8162   age090_m52            0.0000     9.2153E-06    65.5045   1.4279   154.0438
 25      0.0000     0.0000E+00    0.0000E+00    4.000000E+07  0.00800  3.896E-03    0   0.7841   age104_m52            0.0000     9.1742E-06    64.9059   1.3296   155.5860
 26      0.0000     0.0000E+00    0.0000E+00    1.015200E+08  0.00800  2.148E-03    0   0.7226   age116_m52            0.0000     9.1326E-06    63.6683   1.2520   156.0502
 27      0.0000     0.0000E+00    0.0000E+00    2.861200E+08  0.00800  9.925E-04    0   0.6683   age125_m52            0.0000     9.2100E-06    62.2713   0.7650   161.8591
 28      0.0000     0.0000E+00    0.0000E+00    9.047900E+08  0.00800  3.141E-04    0   0.6138   age135_m52            0.0000     9.0438E-06    60.1763  -0.0770   170.1662
 29      5.4293     3.6792E+01    3.4233E+01    1.434000E+09  0.00800  1.719E-04    0   0.5853   age139_m52            0.0000     8.9769E-06    60.1437  -0.6587   166.6216
 30      0.0000     0.0000E+00    0.0000E+00    2.500000E+09  0.00800  7.872E-05    0   0.5600   age150_m52            0.0000     8.8350E-06    58.5076  -0.9605   163.9978
 31      0.0178     4.7923E-01    4.1338E-01    4.250000E+09  0.00800  4.336E-05    0   0.5426   age158_m52            0.0000     8.8255E-06    58.5201  -0.9775   162.6402
 32      0.0000     0.0000E+00    0.0000E+00    6.250000E+09  0.00800  3.159E-05    0   0.5319   age166_m52            0.0000     8.8823E-06    60.2873  -1.0000   157.3947
 33      0.0000     0.0000E+00    0.0000E+00    1.300000E+10  0.00800  1.361E-05    0   0.5073   age193_m52            0.0000     9.5662E-06    67.1647  -1.0000   140.4403
 34      0.0000     0.0000E+00    0.0000E+00    1.800000E+10  0.00800  9.886E-06    0   0.4990   age213_m52            0.0000     9.8722E-06    68.1416  -1.0000   135.8104
 35      0.0000     0.0000E+00    0.0000E+00    1.000000E+06  0.02000  1.544E-02    0   1.0000   age020_m62            0.0000     8.9545E-06    63.1178   2.5004   143.2631
 36      0.2341     7.2474E-03    1.1358E-02    3.160000E+06  0.02000  3.762E-02    0   0.9858   age045_m62            0.0000     8.9914E-06    63.1180   2.4405   144.4039
 37      0.9234     3.2635E-02    4.8467E-02    5.010000E+06  0.02000  3.296E-02    0   0.9342   age055_m62            0.0000     8.9666E-06    62.6015   2.0650   149.7622
 38      0.0000     0.0000E+00    0.0000E+00    8.710000E+06  0.02000  1.154E-02    0   0.8861   age067_m62            0.0000     9.7037E-06    70.1851   1.1944   151.6863
 39      1.3555     2.0605E-01    2.7751E-01    1.445000E+07  0.02000  7.663E-03    0   0.8472   age078_m62            0.0000     9.3221E-06    67.0899   1.3370   153.5754
 40      0.0000     0.0000E+00    0.0000E+00    2.512000E+07  0.02000  4.532E-03    0   0.8099   age090_m62            0.0000     9.3569E-06    67.4211   1.3347   152.8219
 41      0.0000     0.0000E+00    0.0000E+00    5.500000E+07  0.02000  2.733E-03    0   0.7595   age110_m62            0.0000     9.1504E-06    64.9810   1.3104   154.7056
 42      0.0000     0.0000E+00    0.0000E+00    1.609000E+08  0.02000  1.369E-03    0   0.6985   age120_m62            0.0000     9.1890E-06    63.0330   1.1323   159.3784
 43      0.6657     8.6043E-01    9.1838E-01    2.861200E+08  0.02000  9.013E-04    0   0.6714   age125_m62            0.0000     9.2612E-06    61.8932   0.8788   163.7765
 44      0.4119     9.5433E-01    9.7840E-01    5.088000E+08  0.02000  5.028E-04    0   0.6449   age130_m62            0.0000     9.1490E-06    59.7541   0.4635   169.6390
 45      0.0000     0.0000E+00    0.0000E+00    9.047900E+08  0.02000  2.428E-04    0   0.6179   age135_m62            0.0000     8.9187E-06    59.1179  -0.1541   170.2164
 46      0.0000     0.0000E+00    0.0000E+00    1.434000E+09  0.02000  1.263E-04    0   0.5908   age139_m62            0.0000     8.8449E-06    58.7059  -0.6111   168.2977
 47      0.0000     0.0000E+00    0.0000E+00    2.500000E+09  0.02000  5.985E-05    0   0.5673   age150_m62            0.0000     8.7466E-06    57.4144  -1.0000   167.3078
 48      0.0000     0.0000E+00    0.0000E+00    4.250000E+09  0.02000  3.271E-05    0   0.5468   age158_m62            0.0000     8.9182E-06    60.5586  -1.0000   156.3929
 49      0.0000     0.0000E+00    0.0000E+00    1.000000E+10  0.02000  1.360E-05    0   0.5167   age181_m62            0.0000     9.5556E-06    65.0137  -1.0000   143.3815
 50      0.0000     0.0000E+00    0.0000E+00    1.800000E+10  0.02000  7.124E-06    0   0.5013   age213_m62            0.0000     1.0182E-05    67.5215  -1.0000   134.2626
 51      0.0000     0.0000E+00    0.0000E+00    1.000000E+06  0.05000  2.592E-02    0   0.9998   age020_m72            0.0000     8.9995E-06    63.2970   2.4930   143.2786
 52      0.0000     0.0000E+00    0.0000E+00    3.160000E+06  0.05000  4.845E-02    0   0.9577   age045_m72            0.0000     8.9566E-06    62.8935   2.3172   146.4708
 53      0.0000     0.0000E+00    0.0000E+00    5.010000E+06  0.05000  3.072E-02    0   0.9147   age055_m72            0.0000     9.1853E-06    65.7928   1.8883   149.8075
 54      0.0000     0.0000E+00    0.0000E+00    6.610000E+06  0.05000  1.455E-02    0   0.8877   age061_m72            0.0000     1.0010E-05    72.2731   1.2556   151.5890
 55      1.7474     2.2432E-01    3.0398E-01    1.000000E+07  0.05000  9.074E-03    0   0.8524   age070_m72            0.0000     9.2248E-06    65.9857   2.0628   149.3729
 56      0.0000     0.0000E+00    0.0000E+00    2.512000E+07  0.05000  4.250E-03    0   0.7902   age090_m72            0.0000     9.2077E-06    65.9234   1.7731   151.7101
 57      0.0000     0.0000E+00    0.0000E+00    4.000000E+07  0.05000  3.087E-03    0   0.7618   age104_m72            0.0000     9.2566E-06    66.0881   1.5490   153.8042
 58      0.1769     1.2121E-01    1.3674E-01    1.015200E+08  0.05000  1.700E-03    0   0.7096   age116_m72            0.0000     9.2523E-06    63.9967   1.2830   158.3203
 59      0.0901     1.4221E-01    1.4996E-01    2.861200E+08  0.05000  7.384E-04    0   0.6633   age125_m72            0.0000     9.1968E-06    60.7327   0.7221   167.1317
 60      6.0877     1.8569E+01    1.8810E+01    5.088000E+08  0.05000  3.819E-04    0   0.6372   age130_m72            0.0000     8.9719E-06    59.1108   0.1894   171.9113
 61      0.0000     0.0000E+00    0.0000E+00    9.047900E+08  0.05000  1.676E-04    0   0.6110   age135_m72            0.0000     8.7562E-06    57.2594  -0.5602   171.5826
 62      0.0000     0.0000E+00    0.0000E+00    1.434000E+09  0.05000  8.837E-05    0   0.5874   age139_m72            0.0000     8.7647E-06    57.2450  -1.0000   169.9117
 63      0.0000     0.0000E+00    0.0000E+00    2.500000E+09  0.05000  4.233E-05    0   0.5598   age150_m72            0.0000     8.8965E-06    60.3624  -1.0000   158.0584
 64      0.0000     0.0000E+00    0.0000E+00    6.250000E+09  0.05000  1.435E-05    0   0.5249   age166_m72            0.0000     9.7776E-06    66.5648  -1.0000   139.2764
 65      0.0000     0.0000E+00    0.0000E+00    1.300000E+10  0.05000  6.513E-06    0   0.5036   age193_m72            0.0000     1.0794E-05    69.7880  -1.0000   129.3043
 66      0.0000     0.0000E+00    0.0000E+00    1.800000E+10  0.05000  4.527E-06    0   0.4945   age213_m72            0.0000     1.1476E-05    71.4888  -1.0000   122.3920


## Synthesis Results - Average & Chains ##

# j      x_j: min, <> & last-chain-values for 1 ...  7 chains
  1     65.1593      1.0359      0.0456      0.0000      1.1753      0.2647      1.1042      1.7117      2.0656
  2      0.0000      0.8523      0.7231      0.7176      0.0000      0.6572      1.1073      0.0000      0.5733
  3      7.7114      0.8968      0.1989      0.7107      0.3876      0.0000      0.3682      0.0000      0.5134
  4      0.2061      1.1727      0.6444      0.3846      1.5074      0.4614      0.2053      1.3467      2.2750
  5      0.0000      1.2241      1.2823      0.6876      0.1557      0.3602      0.2611      0.0000      0.4090
  6      1.2851      0.8904      1.1224      0.0000      0.8748      0.5440      0.2215      0.0000      1.1328
  7      1.3859      1.3622      0.3841      0.5292      1.8972      1.6594      1.6969      0.3839      0.4645
  8      0.0000      0.9172      0.6500      0.0000      0.7875      0.0000      0.0000      0.8514      0.0000
  9      0.1700      1.0721      0.8860      0.5051      0.2110      0.0000      0.9652      0.4048      1.3702
 10     12.1427      1.3697      0.6597      1.7344      1.6883      0.4657      0.0000      0.0000      0.9033
 11      0.0000      1.3770      1.5645      0.0000      1.1883      0.0264      0.6653      2.1892      1.7393
 12      0.0000      1.1529      0.7968      0.4459      1.5727      0.0000      0.0000      0.0000      0.0000
 13      0.0000      1.0125      0.4603      0.0000      0.6037      0.4844      0.4153      0.0000      0.0000
 14      0.0000      0.8516      1.2524      0.1355      0.3618      0.6593      1.2785      1.0912      1.0472
 15      0.0000      0.9404      0.0589      1.8172      0.0000      0.0000      0.0897      0.0000      0.0000
 16      0.0000      0.8041      0.7383      0.1082      0.7979      0.0000      0.0000      1.5659      1.0597
 17      0.2948      1.0039      1.0163      0.5627      0.6122      0.3090      0.0000      2.1510      1.0700
 18      0.0000      0.8399      1.6339      1.3045      0.0349      2.1824      0.0000      0.0000      0.0000
 19      0.0000      1.1633      0.0000      0.5943      0.5461      0.3421      1.5332      0.5442      0.0000
 20      0.5645      0.7717      0.4048      0.7242      0.6105      0.4395      0.9101      0.1198      0.4092
 21      0.3227      1.0515      0.0998      0.2867      1.3058      0.9133      1.4077      0.4533      1.6551
 22      0.6441      1.1346      1.2720      3.0092      0.0000      1.0873      0.0000      0.9165      2.0316
 23      0.0688      1.3961      0.0000      1.3577      0.0000      0.0524      0.6721      0.9735      1.0152
 24     22.9048      1.0797      0.0000      1.0275      0.0000      0.8075      0.0000      0.5099      0.7048
 25      0.0000      1.4419      0.0000      1.9885      0.0000      1.8761      0.0753      2.0265      0.8837
 26      0.0000      0.7617      0.0000      0.8825      0.8464      0.0000      0.0000      0.4010      0.9907
 27      0.0000      1.0006      0.7170      1.3784      0.0000      0.1619      0.8199      0.0698      0.0919
 28      0.0000      1.3590      0.7565      2.6952      0.0000      0.6805      0.9049      0.2663      0.6433
 29      5.4293      1.4124      0.3874      1.7228      1.9706      0.0000      1.4041      0.1163      1.6190
 30      0.0000      0.9128      1.8943      0.0000      0.3044      1.0532      0.0000      0.0000      0.6348
 31      0.0178      1.2943      0.3811      0.3848      1.2545      0.0000      0.0000      1.8629      1.4408
 32      0.0000      0.9353      2.9245      0.6295      0.7288      0.0000      0.3138      0.1778      0.0000
 33      0.0000      0.9716      0.0000      0.0000      0.9840      0.4987      0.0000      0.0000      1.1758
 34      0.0000      1.4073      1.9417      0.9840      0.0211      2.1558      0.0130      1.9298      0.6646
 35      0.0000      1.1105      0.0000      0.5642      1.0161      0.9778      1.4537      0.4451      0.3707
 36      0.2341      0.9889      0.0000      1.2181      1.6516      0.2948      0.5148      0.3041      4.3026
 37      0.9234      0.8636      1.4376      0.7028      0.0000      0.8468      0.5465      0.5711      3.1549
 38      0.0000      1.0032      0.2890      0.4072      1.6559      0.7052      1.5395      0.7490      0.0000
 39      1.3555      1.3948      0.9969      0.0000      2.3175      0.0000      1.0861      0.9494      1.7329
 40      0.0000      1.0600      1.6612      0.5940      0.0062      0.0000      0.3795      0.6119      0.0000
 41      0.0000      1.3128      0.0000      0.0000      0.4093      1.2587      2.4356      2.4700      0.1065
 42      0.0000      0.9232      0.8206      0.0000      0.5389      0.4014      0.6248      0.7833      0.0000
 43      0.6657      0.9498      1.1375      0.1779      0.0000      0.6287      0.0000      0.0000      0.4381
 44      0.4119      1.1389      1.4958      1.7153      1.2447      1.2081      0.6863      0.9316      0.5498
 45      0.0000      0.9914      0.0000      1.9500      0.0000      0.7174      0.4322      0.0000      0.0000
 46      0.0000      0.8731      0.3332      0.0409      0.0000      0.5389      0.7299      0.1543      0.0000
 47      0.0000      1.1055      0.5244      2.2841      0.0000      2.2279      1.7058      0.0000      0.0000
 48      0.0000      1.4550      1.6309      0.7467      3.2857      0.2193      0.9897      0.0807      0.0241
 49      0.0000      1.0907      0.6912      0.1812      2.0635      0.0556      1.3723      0.9539      0.1893
 50      0.0000      1.1372      0.2436      2.4782      0.4856      0.6743      2.5995      0.2729      0.0443
 51      0.0000      0.8853      0.1067      0.0418      0.0000      0.1876      0.0000      0.8523      0.0360
 52      0.0000      1.0096      0.8600      0.0000      0.4806      0.0135      2.1023      1.7872      0.2210
 53      0.0000      1.0026      0.6691      0.3591      0.1940      1.6458      0.5791      0.3330      0.3963
 54      0.0000      1.0281      0.9207      0.8249      1.1378      0.0000      1.8118      0.5442      0.0000
 55      1.7474      0.9492      0.0000      1.3930      0.4334      0.0000      0.9145      0.0000      2.8125
 56      0.0000      1.1965      0.2844      1.7905      0.0937      0.8650      0.6592      0.6178      0.9738
 57      0.0000      1.2359      0.4151      1.1410      1.2352      1.7479      0.0750      0.3953      0.0000
 58      0.1769      1.0611      0.0000      0.4447      0.5642      1.5312      0.6998      2.2947      0.5231
 59      0.0901      0.8177      0.2197      0.3667      0.1526      0.0000      0.7510      0.0000      0.8250
 60      6.0877      1.1849      1.0254      0.7038      1.3987      1.7307      0.0000      0.8698      1.5303
 61      0.0000      0.9002      0.2135      0.0000      0.4815      0.8629      0.0000      0.9944      0.0000
 62      0.0000      0.7638      1.3738      0.0000      0.5969      0.0000      0.2645      0.0000      0.9168
 63      0.0000      0.8630      0.6946      0.7217      1.0062      1.5572      0.0999      0.2494      0.2475
 64      0.0000      0.8671      0.1942      1.3106      0.1250      1.3505      0.2019      0.1035      2.5195
 65      0.0000     17.9523     21.5062     25.1709     23.4632     26.4084     25.4776     23.2387     22.0090
 66      0.0000     39.5132     59.6066     52.4575     58.4120     58.0280     58.8001     60.5133     54.2271

# j      m_j: min, <> & last-chain-values for 1 ...  7 chains
  1  1.1030E+01  1.5367E-03  4.8934E-05  0.0000E+00  1.2617E-03  2.7826E-04  1.1590E-03  1.7929E-03  2.3828E-03
  2  0.0000E+00  3.4517E-04  2.1180E-04  2.2140E-04  0.0000E+00  1.8864E-04  3.1731E-04  0.0000E+00  1.8054E-04
  3  5.3364E-01  5.4388E-04  8.7241E-05  3.2833E-04  1.7011E-04  0.0000E+00  1.5800E-04  0.0000E+00  2.4211E-04
  4  1.3428E-02  6.6975E-04  2.6615E-04  1.6734E-04  6.2296E-04  1.8676E-04  8.2973E-05  5.4304E-04  1.0104E-03
  5  0.0000E+00  1.3317E-03  1.0089E-03  5.6988E-04  1.2258E-04  2.7768E-04  2.0101E-04  0.0000E+00  3.4601E-04
  6  2.5874E-01  1.5712E-03  1.4323E-03  0.0000E+00  1.1170E-03  6.8026E-04  2.7661E-04  0.0000E+00  1.5544E-03
  7  3.9953E-01  3.4412E-03  7.0178E-04  1.0184E-03  3.4684E-03  2.9710E-03  3.0335E-03  6.8470E-04  9.1247E-04
  8  0.0000E+00  3.2027E-03  1.6415E-03  0.0000E+00  1.9898E-03  0.0000E+00  0.0000E+00  2.0991E-03  0.0000E+00
  9  7.7540E-02  4.2845E-03  2.5608E-03  1.5377E-03  6.1020E-04  0.0000E+00  2.7296E-03  1.1423E-03  4.2584E-03
 10  7.2738E+00  7.1907E-03  2.5046E-03  6.9362E-03  6.4135E-03  1.7328E-03  0.0000E+00  0.0000E+00  3.6876E-03
 11  0.0000E+00  1.3593E-02  1.1169E-02  0.0000E+00  8.4885E-03  1.8484E-04  4.6473E-03  1.5258E-02  1.3351E-02
 12  0.0000E+00  1.8052E-02  9.0234E-03  5.3190E-03  1.7821E-02  0.0000E+00  0.0000E+00  0.0000E+00  0.0000E+00
 13  0.0000E+00  4.4687E-02  1.4693E-02  0.0000E+00  1.9282E-02  1.5153E-02  1.2970E-02  0.0000E+00  0.0000E+00
 14  0.0000E+00  1.2606E-01  1.3408E-01  1.5282E-02  3.8751E-02  6.9167E-02  1.3392E-01  1.1405E-01  1.2055E-01
 15  0.0000E+00  2.2661E-01  1.0271E-02  3.3361E-01  0.0000E+00  0.0000E+00  1.5298E-02  0.0000E+00  0.0000E+00
 16  0.0000E+00  3.2766E-01  2.1756E-01  3.3578E-02  2.3528E-01  0.0000E+00  0.0000E+00  4.5050E-01  3.3577E-01
 17  1.7779E+01  5.3066E-01  3.8851E-01  2.2658E-01  2.3416E-01  1.1575E-01  0.0000E+00  8.0278E-01  4.3983E-01
 18  0.0000E+00  1.1010E-03  1.5490E-03  1.3028E-03  3.3110E-05  2.0275E-03  0.0000E+00  0.0000E+00  0.0000E+00
 19  0.0000E+00  6.1208E-04  0.0000E+00  2.3819E-04  2.0793E-04  1.2757E-04  5.7084E-04  2.0215E-04  0.0000E+00
 20  3.6998E-02  4.4328E-04  1.6818E-04  3.1690E-04  2.5376E-04  1.7892E-04  3.6992E-04  4.8582E-05  1.8276E-04
 21  2.5675E-02  7.3314E-04  5.0321E-05  1.5227E-04  6.5886E-04  4.5131E-04  6.9452E-04  2.2316E-04  8.9741E-04
 22  8.6656E-02  1.3377E-03  1.0846E-03  2.7029E-03  0.0000E+00  9.0856E-04  0.0000E+00  7.6294E-04  1.8627E-03
 23  1.2495E-02  2.2228E-03  0.0000E+00  1.6468E-03  0.0000E+00  5.9128E-05  7.5727E-04  1.0944E-03  1.2570E-03
 24  6.1910E+00  2.5576E-03  0.0000E+00  1.8541E-03  0.0000E+00  1.3556E-03  0.0000E+00  8.5276E-04  1.2982E-03
 25  0.0000E+00  4.7095E-03  0.0000E+00  4.9478E-03  0.0000E+00  4.3428E-03  1.7405E-04  4.6733E-03  2.2445E-03
 26  0.0000E+00  4.1585E-03  0.0000E+00  3.6705E-03  3.3439E-03  0.0000E+00  0.0000E+00  1.5456E-03  4.2061E-03
 27  0.0000E+00  1.0934E-02  5.6667E-03  1.1475E-02  0.0000E+00  1.2538E-03  6.3398E-03  5.3876E-04  7.8124E-04
 28  0.0000E+00  4.3098E-02  1.7350E-02  6.5115E-02  0.0000E+00  1.5296E-02  2.0308E-02  5.9626E-03  1.5865E-02
 29  3.4233E+01  7.8048E-02  1.5481E-02  7.2522E-02  7.8800E-02  0.0000E+00  5.4901E-02  4.5355E-03  6.9570E-02
 30  0.0000E+00  1.0538E-01  1.5817E-01  0.0000E+00  2.5431E-02  8.6171E-02  0.0000E+00  0.0000E+00  5.6990E-02
 31  4.1338E-01  2.6285E-01  5.5968E-02  5.9526E-02  1.8437E-01  0.0000E+00  0.0000E+00  2.6712E-01  2.2754E-01
 32  0.0000E+00  2.5559E-01  5.7796E-01  1.3105E-01  1.4411E-01  0.0000E+00  6.0679E-02  3.4300E-02  0.0000E+00
 33  0.0000E+00  5.8773E-01  0.0000E+00  0.0000E+00  4.3073E-01  2.1382E-01  0.0000E+00  0.0000E+00  5.5312E-01
 34  0.0000E+00  1.1528E+00  1.1503E+00  6.1405E-01  1.2484E-02  1.2516E+00  7.5616E-03  1.1162E+00  4.2333E-01
 35  0.0000E+00  1.1672E-03  0.0000E+00  4.5174E-04  7.7285E-04  7.2839E-04  1.0812E-03  3.3035E-04  3.0299E-04
 36  1.1358E-02  4.2055E-04  0.0000E+00  3.9464E-04  5.0827E-04  8.8845E-05  1.5491E-04  9.1301E-05  1.4229E-03
 37  4.8467E-02  3.9722E-04  4.7823E-04  2.4628E-04  0.0000E+00  2.7606E-04  1.7787E-04  1.8548E-04  1.1285E-03
 38  0.0000E+00  1.2501E-03  2.6043E-04  3.8658E-04  1.4932E-03  6.2277E-04  1.3575E-03  6.5901E-04  0.0000E+00
 39  2.7751E-01  2.5026E-03  1.2936E-03  0.0000E+00  3.0090E-03  0.0000E+00  1.3790E-03  1.2027E-03  2.4178E-03
 40  0.0000E+00  3.0741E-03  3.4843E-03  1.3123E-03  1.2930E-05  0.0000E+00  7.7883E-04  1.2530E-03  0.0000E+00
 41  0.0000E+00  5.9205E-03  0.0000E+00  0.0000E+00  1.3357E-03  4.0230E-03  7.7728E-03  7.8650E-03  3.7368E-04
 42  0.0000E+00  7.6446E-03  4.9144E-03  0.0000E+00  3.2289E-03  2.3556E-03  3.6609E-03  4.5792E-03  0.0000E+00
 43  9.1838E-01  1.1482E-02  9.9452E-03  1.6388E-03  0.0000E+00  5.3864E-03  0.0000E+00  0.0000E+00  4.1187E-03
 44  9.7840E-01  2.3707E-02  2.2518E-02  2.7199E-02  1.8749E-02  1.7823E-02  1.0109E-02  1.3692E-02  8.8991E-03
 45  0.0000E+00  4.0944E-02  0.0000E+00  6.1352E-02  0.0000E+00  2.0998E-02  1.2631E-02  0.0000E+00  0.0000E+00
 46  0.0000E+00  6.6283E-02  1.8295E-02  2.3641E-03  0.0000E+00  2.8993E-02  3.9209E-02  8.2694E-03  0.0000E+00
 47  0.0000E+00  1.7006E-01  5.8338E-02  2.6767E-01  0.0000E+00  2.4289E-01  1.8568E-01  0.0000E+00  0.0000E+00
 48  0.0000E+00  3.9474E-01  3.1999E-01  1.5432E-01  6.4506E-01  4.2157E-02  1.9000E-01  1.5455E-02  5.0787E-03
 49  0.0000E+00  6.7252E-01  3.0824E-01  8.5125E-02  9.2070E-01  2.4316E-02  5.9874E-01  4.1528E-01  9.0784E-02
 50  0.0000E+00  1.2987E+00  2.0118E-01  2.1560E+00  4.0128E-01  5.4577E-01  2.1007E+00  2.2003E-01  3.9331E-02
 51  0.0000E+00  5.5419E-04  4.8315E-05  1.9924E-05  0.0000E+00  8.3241E-05  0.0000E+00  3.7669E-04  1.7515E-05
 52  0.0000E+00  3.2386E-04  1.9952E-04  0.0000E+00  1.1156E-04  3.0641E-06  4.7722E-04  4.0479E-04  5.5143E-05
 53  0.0000E+00  4.8446E-04  2.3384E-04  1.3218E-04  6.7830E-05  5.6362E-04  1.9801E-04  1.1363E-04  1.4891E-04
 54  0.0000E+00  1.0179E-03  6.5929E-04  6.2224E-04  8.1525E-04  0.0000E+00  1.2694E-03  3.8046E-04  0.0000E+00
 55  3.0398E-01  1.4471E-03  0.0000E+00  1.6178E-03  4.7811E-04  0.0000E+00  9.8657E-04  0.0000E+00  3.3343E-03
 56  0.0000E+00  3.6104E-03  6.2073E-04  4.1158E-03  2.0454E-04  1.8499E-03  1.4075E-03  1.3161E-03  2.2849E-03
 57  0.0000E+00  4.9497E-03  1.2022E-03  3.4811E-03  3.5798E-03  4.9610E-03  2.1265E-04  1.1177E-03  0.0000E+00
 58  1.3674E-01  7.1883E-03  0.0000E+00  2.2947E-03  2.7656E-03  7.3512E-03  3.3544E-03  1.0975E-02  2.7558E-03
 59  1.4996E-01  1.1921E-02  2.3164E-03  4.0723E-03  1.6104E-03  0.0000E+00  7.7474E-03  0.0000E+00  9.3525E-03
 60  1.8810E+01  3.2086E-02  2.0081E-02  1.4518E-02  2.7407E-02  3.3213E-02  0.0000E+00  1.6629E-02  3.2222E-02
 61  0.0000E+00  5.3257E-02  9.1354E-03  0.0000E+00  2.0615E-02  3.6180E-02  0.0000E+00  4.1538E-02  0.0000E+00
 62  0.0000E+00  8.2394E-02  1.0718E-01  0.0000E+00  4.6599E-02  0.0000E+00  2.0192E-02  0.0000E+00  7.6906E-02
 63  0.0000E+00  1.8523E-01  1.0781E-01  1.1800E-01  1.5627E-01  2.3686E-01  1.5167E-02  3.7791E-02  4.1315E-02
 64  0.0000E+00  5.1473E-01  8.3373E-02  5.9267E-01  5.3717E-02  5.6816E-01  8.4805E-02  4.3368E-02  1.1631E+00
 65  0.0000E+00  2.2528E+01  1.9518E+01  2.4062E+01  2.1306E+01  2.3486E+01  2.2623E+01  2.0589E+01  2.1477E+01
 66  0.0000E+00  7.0047E+01  7.6421E+01  7.0842E+01  7.4933E+01  7.2904E+01  7.3760E+01  7.5741E+01  7.4755E+01

# AV, chi2 & Mass for <> & i_chain = 1 ...  7 solutions
AV       2.0044     -0.9711     -0.9727     -0.9111     -0.9828     -0.9894     -0.9747     -0.9646     -0.8484
chi2 9.5211E-06  1.0563E-05  1.0273E-05  1.0071E-05  1.0073E-05  1.0236E-05  1.0128E-05  1.0259E-05  1.0056E-05
Mass 2.6858E-14  5.6335E-14  7.7722E-14  8.0153E-14  7.6630E-14  7.7557E-14  7.9221E-14  8.0488E-14  8.5417E-14
-362.04                                  [v0_min (km/s) before EX0s...]
   0.00                                  [vd_min (km/s) before EX0s...]


## Synthetic spectrum (Best Model) ##l_obs f_obs f_syn wei
 3478    [Nl_obs]
 3741.00   -1.72592   1.07037    0.000
 3742.00   -0.53564   1.03294    0.000
 3743.00    0.76738   0.98526    0.000
 3744.00    1.53312   0.92728    0.000
 3745.00    1.98581   0.88499    0.009
 3746.00    2.13760   0.88879    0.010
 3747.00    2.13659   0.93452    0.010
 3748.00    0.77964   0.99237    0.009
 3749.00   -1.17357   1.04343    0.000
 3750.00   -1.84007   1.08519    0.000
 3751.00   -2.02080   1.11670    0.000
 3752.00    0.17015   1.13491    0.009
 3753.00    3.12119   1.14294    0.009
 3754.00    3.96836   1.14746    0.009
 3755.00    4.25174   1.15354    0.009
 3756.00    2.87166   1.16270    0.008
 3757.00    1.12648   1.17049    0.008
 3758.00   -0.27577   1.16890    0.000
 3759.00   -1.61815   1.15534    0.000
 3760.00   -1.40840   1.13422    0.000
 3761.00   -0.99247   1.10358    0.000
 3762.00    0.09730   1.06023    0.008
 3763.00    1.25040   1.00772    0.008
 3764.00    0.25352   0.94682    0.008
 3765.00   -0.86739   0.88550    0.000
 3766.00   -1.06377   0.85622    0.000
 3767.00   -1.22580   0.88333    0.000
 3768.00    0.11791   0.94656    0.008
 3769.00    1.40751   1.01106    0.008
 3770.00    1.38294   1.06322    0.008
 3771.00    1.34238   1.10539    0.008
 3772.00    1.09217   1.14080    0.008
 3773.00    0.93558   1.16955    0.008
 3774.00    1.60091   1.19199    0.008
 3775.00    2.04446   1.21122    0.008
 3776.00    1.05002   1.22566    0.008
 3777.00    0.09483   1.23361    0.008
 3778.00   -0.66166   1.23795    0.000
 3779.00   -1.09583   1.24021    0.000
 3780.00   -0.21068   1.23653    0.000
 3781.00    0.41054   1.22688    0.008
 3782.00    0.13658   1.21619    0.009
 3783.00    0.08162   1.20595    0.009
 3784.00    0.65306   1.19472    0.009
 3785.00    1.30834   1.17986    0.009
 3786.00    2.16844   1.16005    0.009
 3787.00    2.48925   1.13550    0.009
 3788.00    1.67341   1.10196    0.008
 3789.00    1.08346   1.05443    0.008
 3790.00    0.90730   0.99544    0.008
 3791.00    0.62302   0.92786    0.008
 3792.00    0.16566   0.85638    0.008
 3793.00   -0.21406   0.80938    0.000
 3794.00   -0.48471   0.82201    0.000
 3795.00   -0.53410   0.88699    0.000
 3796.00   -0.30999   0.96497    0.000
 3797.00   -0.29195   1.03116    0.000
 3798.00   -0.49843   1.08508    0.000
 3799.00   -0.86609   1.12694    0.000
 3800.00   -1.38864   1.15321    0.000
 3801.00   -1.39580   1.16835    0.000
 3802.00   -0.96623   1.18455    0.000
 3803.00   -0.74403   1.20714    0.000
 3804.00   -0.67657   1.22945    0.000
 3805.00   -0.53544   1.24740    0.000
 3806.00   -0.34602   1.25883    0.000
 3807.00    0.22751   1.25991    0.008
 3808.00    1.02147   1.25228    0.008
 3809.00    1.52397   1.24487    0.008
 3810.00    1.88079   1.24225    0.008
 3811.00    1.74627   1.24235    0.008
 3812.00    1.39927   1.23932    0.008
 3813.00    0.40907   1.21626    0.008
 3814.00   -0.81967   1.16475    0.000
 3815.00   -1.28685   1.12856    0.000
 3816.00   -1.51463   1.15031    0.000
 3817.00   -2.21617   1.19765    0.000
 3818.00   -3.04199   1.22351    0.000
 3819.00   -1.96877   1.22105    0.000
 3820.00   -0.48869   1.20586    0.000
 3821.00   -0.74686   1.19141    0.000
 3822.00   -1.30004   1.17628    0.000
 3823.00   -0.30966   1.15561    0.000
 3824.00    0.87879   1.12906    0.008
 3825.00    0.70715   1.09781    0.008
 3826.00    0.41343   1.05714    0.008
 3827.00    0.84007   1.00020    0.008
 3828.00    1.30543   0.92841    0.008
 3829.00    0.05069   0.84808    0.008
 3830.00   -1.21276   0.78041    0.000
 3831.00   -0.30262   0.76700    0.000
 3832.00    0.55757   0.81735    0.008
 3833.00    0.30795   0.89484    0.008
 3834.00    0.03816   0.96774    0.008
 3835.00   -0.48249   1.02661    0.000
 3836.00   -0.85991   1.07457    0.000
 3837.00   -0.02676   1.11734    0.000
 3838.00    0.54157   1.15410    0.008
 3839.00   -0.55610   1.18227    0.000
 3840.00   -1.46241   1.20142    0.000
 3841.00   -1.42453   1.21592    0.000
 3842.00   -1.21268   1.23063    0.000
 3843.00   -0.30441   1.24316    0.000
 3844.00    0.40218   1.24908    0.008
 3845.00    0.43833   1.25221    0.008
 3846.00    0.42068   1.26014    0.008
 3847.00    0.25201   1.27052    0.000
 3848.00    0.31469   1.27634    0.000
 3849.00    0.93307   1.27660    0.000
 3850.00    0.91549   1.27121    0.000
 3851.00   -0.42101   1.26449    0.000
 3852.00   -1.45415   1.26596    0.000
 3853.00   -1.94014   1.27200    0.000
 3854.00   -1.95103   1.27212    0.000
 3855.00   -1.21268   1.27042    0.000
 3856.00   -0.83328   1.27583    0.000
 3857.00   -0.95081   1.28193    0.000
 3858.00   -0.98836   1.28393    0.000
 3859.00   -0.92846   1.28546    0.000
 3860.00   -1.03134   1.28451    0.000
 3861.00   -1.30905   1.27637    0.000
 3862.00   -1.70243   1.26132    0.000
 3863.00   -2.20542   1.25737    0.000
 3864.00   -2.30732   1.26884    0.000
 3865.00   -2.07415   1.27233    0.000
 3866.00   -1.12218   1.25459    0.000
 3867.00    0.35848   1.23283    0.000
 3868.00    1.03783   1.23029    0.000
 3869.00    1.19959   1.24106    0.000
 3870.00    1.27636   1.24728    0.000
 3871.00    1.30509   1.24202    0.000
 3872.00    1.21370   1.22729    0.000
 3873.00    1.06321   1.20706    0.000
 3874.00    0.95233   1.19210    0.000
 3875.00    0.85831   1.18484    0.000
 3876.00    0.61996   1.17100    0.000
 3877.00    0.32905   1.14400    0.000
 3878.00    0.01242   1.11137    0.000
 3879.00   -0.31215   1.07666    0.000
 3880.00    0.56986   1.02911    0.000
 3881.00    1.76162   0.96326    0.007
 3882.00    2.09558   0.88345    0.007
 3883.00    2.25021   0.79617    0.007
 3884.00    1.96025   0.73779    0.008
 3885.00    1.59699   0.75548    0.008
 3886.00    0.56426   0.83539    0.008
 3887.00   -0.55138   0.92471    0.000
 3888.00   -1.59056   0.99564    0.000
 3889.00   -2.62320   1.04858    0.000
 3890.00   -0.93838   1.08914    0.000
 3891.00    0.88187   1.12268    0.009
 3892.00    0.54564   1.15257    0.009
 3893.00    0.17729   1.17490    0.009
 3894.00    0.01507   1.18803    0.008
 3895.00   -0.14637   1.20162    0.000
 3896.00   -0.29173   1.21938    0.000
 3897.00   -0.37522   1.23391    0.000
 3898.00    0.27290   1.24189    0.007
 3899.00    0.91301   1.24811    0.007
 3900.00    1.48798   1.25040    0.007
 3901.00    1.82618   1.25044    0.007
 3902.00    0.71821   1.25750    0.007
 3903.00   -0.26001   1.27086    0.000
 3904.00   -0.61385   1.28224    0.000
 3905.00   -0.79147   1.28794    0.000
 3906.00   -0.27902   1.29020    0.000
 3907.00    0.23333   1.28927    0.006
 3908.00    0.74533   1.28534    0.007
 3909.00    1.01761   1.28314    0.007
 3910.00    0.62884   1.28529    0.007
 3911.00    0.17063   1.28571    0.007
 3912.00   -0.45158   1.28237    0.000
 3913.00   -0.43489   1.27520    0.000
 3914.00    0.88569   1.26336    0.007
 3915.00    1.63800   1.25280    0.007
 3916.00    1.38096   1.25113    0.007
 3917.00    0.99080   1.25746    0.007
 3918.00    0.39379   1.25982    0.008
 3919.00    0.17668   1.25826    0.008
 3920.00    0.47792   1.25122    0.007
 3921.00    0.23636   1.23472    0.007
 3922.00   -0.65720   1.22741    0.000
 3923.00   -0.50899   1.23673    0.000
 3924.00    0.74255   1.24225    0.008
 3925.00    1.59431   1.23868    0.008
 3926.00    2.07261   1.22720    0.007
 3927.00    1.47315   1.20312    0.007
 3928.00   -0.01394   1.17169    0.000
 3929.00    0.18236   1.15865    0.008
 3930.00    1.59899   1.17585    0.008
 3931.00    2.15462   1.20738    0.008
 3932.00    2.16230   1.23508    0.008
 3933.00    1.00671   1.25307    0.008
 3934.00   -0.79627   1.26396    0.000
 3935.00   -1.22337   1.27213    0.000
 3936.00   -0.98443   1.27628    0.000
 3937.00   -0.95715   1.27518    0.000
 3938.00   -1.01836   1.27029    0.000
 3939.00    0.31915   1.26555    0.008
 3940.00    2.15698   1.26826    0.008
 3941.00    1.76331   1.27582    0.008
 3942.00    0.69514   1.27651    0.008
 3943.00    0.12039   1.27096    0.008
 3944.00   -0.33042   1.26703    0.000
 3945.00    0.15040   1.26658    0.008
 3946.00    0.82121   1.26515    0.008
 3947.00    0.63989   1.25935    0.008
 3948.00    0.32214   1.25366    0.008
 3949.00    0.24476   1.25146    0.008
 3950.00    0.19609   1.24637    0.008
 3951.00    1.11504   1.23391    0.008
 3952.00    2.11279   1.22054    0.008
 3953.00    1.75213   1.21408    0.008
 3954.00    1.32904   1.20815    0.008
 3955.00   -0.22185   1.19312    0.000
 3956.00   -1.74827   1.16380    0.000
 3957.00   -1.24602   1.13324    0.000
 3958.00   -0.76150   1.10390    0.000
 3959.00   -0.61285   1.06207    0.000
 3960.00   -0.40050   1.01396    0.000
 3961.00    0.52968   0.96701    0.000
 3962.00    1.38751   0.90436    0.000
 3963.00    1.67676   0.82086    0.000
 3964.00    1.72808   0.73380    0.000
 3965.00    0.36766   0.68604    0.000
 3966.00   -0.75359   0.71745    0.000
 3967.00   -0.75187   0.80380    0.000
 3968.00   -0.67148   0.89304    0.000
 3969.00   -0.28965   0.96667    0.000
 3970.00    0.07518   1.02655    0.000
 3971.00    0.38565   1.07252    0.000
 3972.00    0.81860   1.10851    0.000
 3973.00    1.58328   1.13958    0.000
 3974.00    2.18162   1.16669    0.000
 3975.00    2.39372   1.18926    0.000
 3976.00    2.47752   1.20265    0.000
 3977.00    2.30367   1.20891    0.000
 3978.00    2.04762   1.21586    0.000
 3979.00    1.64776   1.22694    0.000
 3980.00    1.26046   1.23950    0.000
 3981.00    0.89240   1.24804    0.008
 3982.00    0.49886   1.25553    0.008
 3983.00    0.07105   1.26435    0.008
 3984.00   -0.47484   1.26888    0.000
 3985.00   -1.16056   1.26998    0.000
 3986.00   -1.13361   1.27383    0.000
 3987.00   -0.36249   1.28073    0.000
 3988.00   -0.29956   1.28559    0.000
 3989.00   -0.88889   1.28384    0.000
 3990.00   -1.66471   1.27935    0.000
 3991.00   -2.59195   1.27666    0.000
 3992.00   -1.83800   1.27407    0.000
 3993.00    0.11710   1.27389    0.008
 3994.00    1.12446   1.28140    0.008
 3995.00    1.53758   1.29106    0.008
 3996.00    0.85238   1.29340    0.008
 3997.00   -0.43472   1.29233    0.000
 3998.00    0.22911   1.29066    0.008
 3999.00    1.82225   1.28425    0.008
 4000.00    1.52401   1.27139    0.008
 4001.00    0.44839   1.26545    0.008
 4002.00    0.34023   1.26700    0.008
 4003.00    0.57187   1.26094    0.008
 4004.00    1.11516   1.24925    0.008
 4005.00    1.75079   1.25253    0.008
 4006.00    1.63306   1.27033    0.008
 4007.00    1.33025   1.28408    0.008
 4008.00    1.29178   1.28950    0.008
 4009.00    1.30585   1.29317    0.008
 4010.00    1.11609   1.29660    0.008
 4011.00    0.89465   1.29796    0.008
 4012.00    0.93264   1.29520    0.008
 4013.00    1.00045   1.29457    0.008
 4014.00    0.72192   1.29864    0.008
 4015.00    0.41662   1.29990    0.008
 4016.00    1.07406   1.29123    0.008
 4017.00    1.77203   1.27727    0.008
 4018.00    1.65837   1.25643    0.007
 4019.00    1.51801   1.21616    0.007
 4020.00    0.53230   1.15594    0.007
 4021.00   -0.36628   1.11655    0.000
 4022.00    0.27122   1.14540    0.007
 4023.00    0.83495   1.21024    0.008
 4024.00    0.60491   1.25139    0.007
 4025.00    0.42755   1.26160    0.007
 4026.00    0.65000   1.26228    0.007
 4027.00    0.82906   1.26669    0.007
 4028.00    0.75791   1.27250    0.007
 4029.00    0.57636   1.27953    0.007
 4030.00   -0.11111   1.28686    0.000
 4031.00   -0.48112   1.29771    0.000
 4032.00    0.33969   1.30926    0.007
 4033.00    1.02943   1.31400    0.007
 4034.00    1.30828   1.31143    0.007
 4035.00    1.37751   1.30516    0.007
 4036.00    0.88908   1.30083    0.007
 4037.00    0.78196   1.30213    0.007
 4038.00    1.54556   1.30173    0.007
 4039.00    1.80458   1.29000    0.007
 4040.00    1.06610   1.27260    0.007
 4041.00    0.89050   1.26925    0.007
 4042.00    1.68458   1.28385    0.007
 4043.00    2.61943   1.29761    0.008
 4044.00    3.76663   1.30124    0.008
 4045.00    3.97259   1.30292    0.008
 4046.00    2.93085   1.30399    0.008
 4047.00    2.40491   1.30125    0.008
 4048.00    2.48116   1.29527    0.008
 4049.00    2.36763   1.28892    0.008
 4050.00    2.05872   1.28760    0.008
 4051.00    1.59440   1.28970    0.008
 4052.00    0.98896   1.28968    0.008
 4053.00    1.00000   1.28829    0.008
 4054.00    1.50444   1.29005    0.008
 4055.00    1.35259   1.29501    0.008
 4056.00    0.73861   1.29584    0.008
 4057.00    0.03302   1.28526    0.008
 4058.00   -0.72915   1.27057    0.000
 4059.00    0.04169   1.26704    0.008
 4060.00    1.63974   1.27773    0.008
 4061.00    1.82884   1.28301    0.008
 4062.00    1.35759   1.27664    0.008
 4063.00    1.10615   1.27455    0.008
 4064.00    0.94352   1.27716    0.008
 4065.00    0.41435   1.27119    0.007
 4066.00   -0.24121   1.25951    0.000
 4067.00    0.04895   1.25625    0.007
 4068.00    0.61372   1.26750    0.007
 4069.00    1.86118   1.27513    0.007
 4070.00    3.27261   1.26365    0.007
 4071.00    3.27308   1.24599    0.007
 4072.00    3.00015   1.23599    0.007
 4073.00    2.55674   1.23842    0.007
 4074.00    2.08765   1.25013    0.007
 4075.00    2.55108   1.26351    0.007
 4076.00    3.11765   1.27029    0.007
 4077.00    3.03633   1.26676    0.007
 4078.00    2.90756   1.25725    0.007
 4079.00    0.88457   1.24519    0.007
 4080.00   -1.21095   1.23753    0.000
 4081.00   -0.57291   1.23547    0.000
 4082.00    0.09206   1.23521    0.007
 4083.00    1.20127   1.22883    0.007
 4084.00    2.23911   1.21749    0.007
 4085.00    2.10080   1.20947    0.007
 4086.00    1.91852   1.20020    0.007
 4087.00    1.28378   1.18294    0.007
 4088.00    0.68429   1.16412    0.007
 4089.00    0.34341   1.14397    0.007
 4090.00    0.15493   1.11317    0.007
 4091.00    0.82143   1.07213    0.007
 4092.00    1.33943   1.02733    0.000
 4093.00    1.19294   0.97649    0.000
 4094.00    0.79512   0.91104    0.000
 4095.00   -0.52579   0.82239    0.000
 4096.00   -1.45829   0.72913    0.000
 4097.00   -1.19626   0.70176    0.000
 4098.00   -0.73623   0.76892    0.000
 4099.00    0.24127   0.86777    0.000
 4100.00    1.07346   0.94986    0.000
 4101.00    1.57929   1.01231    0.000
 4102.00    1.87617   1.05824    0.000
 4103.00    1.76645   1.09302    0.000
 4104.00    1.87861   1.12011    0.000
 4105.00    2.36723   1.14040    0.000
 4106.00    2.30994   1.15855    0.000
 4107.00    1.44117   1.17823    0.000
 4108.00    1.25169   1.19631    0.000
 4109.00    1.94981   1.20953    0.000
 4110.00    1.86986   1.21850    0.000
 4111.00    0.89433   1.22657    0.000
 4112.00    0.28649   1.23279    0.000
 4113.00    0.05190   1.23119    0.007
 4114.00    0.12984   1.22119    0.007
 4115.00    0.48760   1.20633    0.007
 4116.00    0.79898   1.20493    0.007
 4117.00    1.07375   1.22625    0.007
 4118.00    1.77698   1.24758    0.007
 4119.00    2.77753   1.25946    0.007
 4120.00    2.68381   1.26862    0.007
 4121.00    1.92424   1.26816    0.007
 4122.00    1.32684   1.25705    0.011
 4123.00    0.81558   1.24712    0.044
 4124.00    0.58152   1.24986   -1.000
 4125.00    0.47528   1.25023   -1.000
 4126.00    0.40744   1.24377   -1.000
 4127.00    0.35485   1.24329   -1.000
 4128.00    0.34921   1.25017   -1.000
 4129.00    0.35945   1.26024   -1.000
 4130.00    0.94797   1.27216   -1.000
 4131.00    1.70103   1.28050   -1.000
 4132.00    1.39033   1.28008    0.017
 4133.00    0.82987   1.28076    0.008
 4134.00    0.53566   1.28480    0.007
 4135.00    0.29170   1.28474    0.007
 4136.00    0.41799   1.27518    0.007
 4137.00    0.59835   1.24208    0.007
 4138.00    1.29936   1.19165    0.007
 4139.00    2.05570   1.17870    0.007
 4140.00    2.65027   1.21985    0.007
 4141.00    3.23366   1.25992    0.007
 4142.00    2.07529   1.27578    0.007
 4143.00    0.85685   1.27964    0.007
 4144.00    2.14263   1.27627    0.007
 4145.00    3.35634   1.27386    0.007
 4146.00    2.02489   1.27690    0.007
 4147.00    0.79006   1.27688    0.007
 4148.00    1.04915   1.27168    0.007
 4149.00    1.30614   1.26861    0.007
 4150.00    1.54242   1.26986    0.007
 4151.00    1.75717   1.27144    0.007
 4152.00    1.81899   1.27417    0.007
 4153.00    1.84054   1.28071    0.007
 4154.00    1.64228   1.28636    0.007
 4155.00    1.40938   1.28717    0.007
 4156.00    1.02503   1.28475    0.007
 4157.00    0.65274   1.28426    0.007
 4158.00    0.32385   1.28648    0.007
 4159.00    0.15189   1.28765    0.006
 4160.00    0.45353   1.28750    0.007
 4161.00    0.75720   1.28519    0.007
 4162.00    1.06607   1.27942    0.006
 4163.00    1.40334   1.27292    0.007
 4164.00    1.80337   1.27355    0.007
 4165.00    2.31065   1.27757    0.007
 4166.00    3.02340   1.27141    0.007
 4167.00    3.33889   1.25682    0.007
 4168.00    2.99045   1.25199    0.007
 4169.00    2.56661   1.25957    0.007
 4170.00    2.03233   1.26915    0.007
 4171.00    1.73406   1.27292    0.006
 4172.00    1.73975   1.26795    0.006
 4173.00    1.51297   1.26230    0.006
 4174.00    1.02237   1.26667    0.007
 4175.00    0.81421   1.27714    0.007
 4176.00    0.88874   1.27998    0.007
 4177.00    1.13874   1.27633    0.007
 4178.00    1.54364   1.27632    0.007
 4179.00    1.80297   1.27913    0.007
 4180.00    1.94910   1.28127    0.007
 4181.00    1.40404   1.27795    0.007
 4182.00    0.38629   1.26925    0.007
 4183.00    0.35001   1.26789    0.007
 4184.00    0.90203   1.27405    0.007
 4185.00    1.41608   1.27800    0.007
 4186.00    1.91029   1.27820    0.007
 4187.00    2.05084   1.28149    0.007
 4188.00    2.03099   1.28822    0.007
 4189.00    2.10827   1.28756    0.007
 4190.00    2.22346   1.27551    0.007
 4191.00    2.00303   1.26217    0.007
 4192.00    1.67114   1.24783    0.007
 4193.00    1.44243   1.22578    0.007
 4194.00    1.24248   1.20900    0.007
 4195.00    1.25352   1.21212    0.007
 4196.00    1.31296   1.22504    0.007
 4197.00    0.72305   1.23822    0.007
 4198.00    0.01380   1.25254    0.007
 4199.00    0.72743   1.26239    0.007
 4200.00    1.64225   1.26803    0.007
 4201.00    1.71786   1.27573    0.007
 4202.00    1.70790   1.28271    0.007
 4203.00    1.29290   1.28536    0.007
 4204.00    0.85151   1.28369    0.006
 4205.00    0.87983   1.28180    0.007
 4206.00    0.92420   1.28494    0.007
 4207.00    2.00287   1.28937    0.007
 4208.00    3.01728   1.28918    0.007
 4209.00    2.14347   1.28119    0.007
 4210.00    1.32864   1.26709    0.007
 4211.00    1.37234   1.26399    0.007
 4212.00    1.42336   1.27647    0.007
 4213.00    1.54371   1.28824    0.007
 4214.00    1.53782   1.29302    0.007
 4215.00    0.66404   1.29359    0.007
 4216.00   -0.01705   1.29254    0.000
 4217.00    0.32597   1.28735    0.006
 4218.00    0.64969   1.27950    0.006
 4219.00    0.89100   1.26781    0.006
 4220.00    1.01497   1.25089    0.006
 4221.00    0.72551   1.23466    0.006
 4222.00    0.36989   1.23393    0.006
 4223.00   -0.18164   1.25507    0.000
 4224.00   -0.08583   1.27861    0.000
 4225.00    1.64362   1.28987    0.006
 4226.00    2.75274   1.29103    0.006
 4227.00    2.51389   1.28049    0.006
 4228.00    2.12955   1.26663    0.006
 4229.00    1.47084   1.26641    0.006
 4230.00    1.38048   1.27131    0.006
 4231.00    2.22581   1.26945    0.006
 4232.00    2.39056   1.27064    0.006
 4233.00    1.57285   1.27382    0.006
 4234.00    1.09700   1.27452    0.006
 4235.00    1.05518   1.27825    0.006
 4236.00    1.18362   1.28248    0.006
 4237.00    1.50255   1.28272    0.006
 4238.00    1.72498   1.28625    0.006
 4239.00    1.85218   1.29370    0.006
 4240.00    2.06824   1.29264    0.006
 4241.00    2.36162   1.28106    0.006
 4242.00    1.95342   1.27181    0.006
 4243.00    1.00735   1.27188    0.006
 4244.00    1.21049   1.27148    0.006
 4245.00    2.18810   1.26543    0.006
 4246.00    2.78113   1.26635    0.006
 4247.00    3.14711   1.27359    0.006
 4248.00    2.83619   1.27208    0.006
 4249.00    2.17675   1.26554    0.006
 4250.00    2.26211   1.26909    0.006
 4251.00    2.67977   1.28082    0.006
 4252.00    2.54135   1.28675    0.006
 4253.00    2.18972   1.28041    0.006
 4254.00    1.73131   1.26962    0.006
 4255.00    1.23811   1.26162    0.006
 4256.00    0.70252   1.26254    0.006
 4257.00    0.15536   1.27467    0.006
 4258.00    0.37718   1.28802    0.006
 4259.00    0.77132   1.29386    0.006
 4260.00    1.69032   1.29137    0.006
 4261.00    2.70319   1.27660    0.006
 4262.00    2.95902   1.25983    0.006
 4263.00    3.11127   1.26135    0.006
 4264.00    2.66668   1.26934    0.006
 4265.00    2.16379   1.26369    0.006
 4266.00    1.56265   1.25017    0.006
 4267.00    0.95551   1.24683    0.006
 4268.00    1.14515   1.25419    0.006
 4269.00    1.35626   1.25657    0.006
 4270.00    1.56367   1.25761    0.006
 4271.00    1.76858   1.26724    0.006
 4272.00    1.90750   1.27913    0.006
 4273.00    2.00423   1.28457    0.006
 4274.00    1.52107   1.28269    0.006
 4275.00    1.06828   1.27758    0.006
 4276.00    0.89134   1.27344    0.006
 4277.00    0.74757   1.26966    0.006
 4278.00    0.82474   1.26878    0.006
 4279.00    0.99087   1.26969    0.006
 4280.00    1.61750   1.26802    0.006
 4281.00    2.10801   1.26794    0.006
 4282.00    2.03029   1.26817   -2.000
 4283.00    1.80000   1.26023   -2.000
 4284.00    1.04302   1.24517   -2.000
 4285.00    0.60075   1.23816   -2.000
 4286.00    1.07327   1.24986   -2.000
 4287.00    1.38834   1.26701   -2.000
 4288.00    1.31290   1.27076   -2.000
 4289.00    1.63809   1.26278   -2.000
 4290.00    2.81976   1.25856   -2.000
 4291.00    3.52826   1.25908   -2.000
 4292.00    3.35821   1.25650   -2.000
 4293.00    2.64727   1.24688   -2.000
 4294.00    1.05906   1.23136   -2.000
 4295.00    0.23392   1.22421   -2.000
 4296.00    0.49431   1.22831   -2.000
 4297.00    0.85027   1.22895   -2.000
 4298.00    1.32584   1.22911    0.006
 4299.00    1.37885   1.23612    0.006
 4300.00    0.96573   1.24035    0.006
 4301.00    0.75436   1.23689    0.006
 4302.00    0.73928   1.22754    0.006
 4303.00    0.76117   1.21979    0.006
 4304.00    0.81479   1.22329    0.006
 4305.00    1.11440   1.23441    0.006
 4306.00    1.59992   1.24356    0.006
 4307.00    1.61731   1.24480    0.006
 4308.00    1.32384   1.23940    0.006
 4309.00    1.86893   1.23620    0.006
 4310.00    2.90166   1.24506    0.006
 4311.00    2.60888   1.26035    0.006
 4312.00    1.64432   1.26731    0.006
 4313.00    1.30413   1.26396    0.006
 4314.00    1.23792   1.25670    0.006
 4315.00    1.24795   1.24934    0.006
 4316.00    1.28670   1.24476    0.006
 4317.00    1.02434   1.24147    0.006
 4318.00    0.66571   1.23021    0.006
 4319.00    0.97675   1.20879    0.006
 4320.00    1.46678   1.18668    0.006
 4321.00    1.22384   1.18060    0.006
 4322.00    0.82050   1.19298    0.006
 4323.00    0.92565   1.20327    0.006
 4324.00    1.11925   1.19693    0.006
 4325.00    0.89745   1.17957    0.006
 4326.00    0.62070   1.16192    0.006
 4327.00    1.36840   1.14484    0.006
 4328.00    2.21182   1.12360    0.006
 4329.00    2.65194   1.09769    0.006
 4330.00    3.06899   1.06355    0.000
 4331.00    2.72929   1.01053    0.000
 4332.00    2.37470   0.93671    0.000
 4333.00    2.33373   0.85309    0.000
 4334.00    2.27584   0.76630    0.000
 4335.00    1.81190   0.70893    0.000
 4336.00    1.36352   0.73627    0.000
 4337.00    1.11757   0.83032    0.000
 4338.00    0.93293   0.92087    0.000
 4339.00    1.28395   0.98595    0.000
 4340.00    1.64358   1.03743    0.000
 4341.00    2.05883   1.07732    0.000
 4342.00    2.31008   1.10792    0.000
 4343.00    1.73397   1.13575    0.000
 4344.00    1.27961   1.15691    0.000
 4345.00    1.32219   1.16178    0.000
 4346.00    1.36114   1.15647    0.000
 4347.00    1.38783   1.16285    0.000
 4348.00    1.47233   1.18680    0.000
 4349.00    1.72177   1.21011    0.000
 4350.00    1.86418   1.22475    0.000
 4351.00    1.74566   1.23672    0.006
 4352.00    1.66098   1.24313    0.006
 4353.00    1.64750   1.24164    0.006
 4354.00    1.60862   1.24118    0.006
 4355.00    1.52332   1.24893    0.006
 4356.00    1.50380   1.25931    0.006
 4357.00    1.58938   1.26606    0.006
 4358.00    1.89751   1.27057    0.007
 4359.00    2.51767   1.27688    0.020
 4360.00    2.82724   1.28036   -1.000
 4361.00    2.75360   1.27388   -1.000
 4362.00    2.22667   1.26356   -1.000
 4363.00    1.20675   1.26033   -1.000
 4364.00    1.16907   1.26474   -1.000
 4365.00    2.07365   1.26975   -1.000
 4366.00    2.59838   1.27328    0.021
 4367.00    2.80179   1.27349    0.007
 4368.00    2.70045   1.26675    0.006
 4369.00    2.37211   1.25556    0.006
 4370.00    2.14742   1.25286    0.006
 4371.00    1.99056   1.26569    0.006
 4372.00    1.76074   1.28239    0.006
 4373.00    1.48914   1.28919    0.006
 4374.00    0.88032   1.28709    0.006
 4375.00    0.10328   1.28373    0.006
 4376.00    0.20003   1.27681    0.006
 4377.00    0.67384   1.25687    0.006
 4378.00    1.06652   1.23013    0.006
 4379.00    1.42917   1.21793    0.006
 4380.00    1.52953   1.22368    0.006
 4381.00    1.54763   1.22173    0.006
 4382.00    1.57349   1.20046    0.006
 4383.00    1.60139   1.19494    0.006
 4384.00    1.27401   1.22205    0.005
 4385.00    0.87075   1.25050    0.005
 4386.00    1.26153   1.26647    0.005
 4387.00    1.78660   1.27768    0.005
 4388.00    2.46410   1.27902    0.005
 4389.00    3.16107   1.27079    0.005
 4390.00    2.64225   1.26842    0.005
 4391.00    2.01494   1.28068    0.006
 4392.00    2.12010   1.29402    0.006
 4393.00    2.26426   1.29365    0.006
 4394.00    2.22473   1.28274    0.006
 4395.00    2.17663   1.27355    0.006
 4396.00    1.72398   1.27683    0.006
 4397.00    1.30127   1.28551    0.006
 4398.00    1.53671   1.28055    0.006
 4399.00    1.76970   1.26541    0.006
 4400.00    1.97230   1.26294    0.006
 4401.00    2.12173   1.27361    0.006
 4402.00    1.82386   1.27806    0.006
 4403.00    1.63394   1.27654    0.006
 4404.00    2.12057   1.28225    0.006
 4405.00    2.52588   1.29184    0.006
 4406.00    2.53124   1.29782    0.006
 4407.00    2.39694   1.30085    0.005
 4408.00    1.70513   1.29379    0.005
 4409.00    1.17859   1.27335    0.005
 4410.00    1.20015   1.25789    0.005
 4411.00    1.35804   1.25890    0.005
 4412.00    1.89791   1.26876    0.005
 4413.00    2.24151   1.28236    0.006
 4414.00    2.11473   1.29572    0.006
 4415.00    1.88260   1.30034    0.006
 4416.00    1.43240   1.29413    0.006
 4417.00    1.32523   1.28576    0.006
 4418.00    1.83560   1.28639    0.006
 4419.00    2.02162   1.29215    0.006
 4420.00    1.69709   1.29299    0.006
 4421.00    1.35648   1.28959    0.005
 4422.00    0.99368   1.28830    0.005
 4423.00    0.86560   1.29085    0.005
 4424.00    1.02302   1.28960    0.005
 4425.00    1.37386   1.28489    0.006
 4426.00    1.93210   1.28685    0.006
 4427.00    2.20291   1.28988    0.006
 4428.00    2.20186   1.28299    0.006
 4429.00    2.03217   1.27136    0.006
 4430.00    1.72183   1.26572    0.006
 4431.00    2.25083   1.26849    0.006
 4432.00    3.39605   1.27747    0.006
 4433.00    3.23739   1.29220    0.006
 4434.00    2.23810   1.30341    0.006
 4435.00    1.77632   1.29937    0.006
 4436.00    1.61771   1.28450    0.006
 4437.00    1.59975   1.27120    0.006
 4438.00    1.65083   1.26829    0.006
 4439.00    1.63970   1.27962    0.006
 4440.00    1.60216   1.29514    0.006
 4441.00    1.89004   1.29975    0.006
 4442.00    2.29619   1.29694    0.006
 4443.00    2.39281   1.29708    0.006
 4444.00    2.39425   1.29658    0.006
 4445.00    2.38203   1.29324    0.006
 4446.00    2.36631   1.29405    0.006
 4447.00    2.02508   1.29573    0.006
 4448.00    1.61600   1.28908    0.006
 4449.00    1.10906   1.27612    0.006
 4450.00    0.58605   1.26999    0.006
 4451.00    1.44925   1.27559    0.006
 4452.00    2.48333   1.28111    0.006
 4453.00    2.50579   1.27998    0.006
 4454.00    2.44221   1.27719    0.005
 4455.00    2.01167   1.27450    0.005
 4456.00    1.56303   1.27091    0.005
 4457.00    1.84532   1.27377    0.005
 4458.00    2.12911   1.28346    0.005
 4459.00    1.77753   1.28771    0.005
 4460.00    1.45820   1.28435    0.006
 4461.00    1.79199   1.27884    0.000
 4462.00    2.07956   1.26930    0.000
 4463.00    1.82385   1.25107    0.000
 4464.00    1.54962   1.21997    0.000
 4465.00    1.12528   1.17528    0.000
 4466.00    0.82019   1.14970    0.000
 4467.00    1.24086   1.18307    0.000
 4468.00    1.58506   1.24571    0.000
 4469.00    1.56237   1.28307    0.000
 4470.00    1.57041   1.29463    0.000
 4471.00    1.69852   1.30226    0.000
 4472.00    1.78604   1.30873    0.000
 4473.00    1.74162   1.30485    0.000
 4474.00    1.72131   1.28296    0.000
 4475.00    1.76732   1.25049    0.000
 4476.00    1.80863   1.23662    0.000
 4477.00    1.83887   1.25722    0.000
 4478.00    1.92891   1.28905    0.000
 4479.00    2.14077   1.30792    0.000
 4480.00    2.40278   1.31475    0.000
 4481.00    2.75371   1.31436    0.000
 4482.00    2.88183   1.30653    0.005
 4483.00    2.66436   1.29378    0.005
 4484.00    2.33079   1.28572    0.005
 4485.00    1.83910   1.28799    0.005
 4486.00    1.39540   1.29697    0.005
 4487.00    1.00926   1.30375    0.005
 4488.00    0.89601   1.30119    0.005
 4489.00    1.07126   1.29337    0.005
 4490.00    1.22534   1.29051    0.005
 4491.00    1.35968   1.29456    0.005
 4492.00    1.58207   1.30241    0.005
 4493.00    1.87685   1.31025    0.006
 4494.00    1.74793   1.31138    0.006
 4495.00    1.31243   1.30379    0.005
 4496.00    1.46981   1.29885    0.005
 4497.00    2.00380   1.30782    0.005
 4498.00    1.99801   1.32236    0.005
 4499.00    1.69240   1.32827    0.005
 4500.00    1.52297   1.32521    0.005
 4501.00    1.41933   1.31820    0.005
 4502.00    1.43226   1.31116    0.005
 4503.00    1.49383   1.30921    0.005
 4504.00    1.83449   1.31419    0.005
 4505.00    2.27476   1.31947    0.005
 4506.00    1.83069   1.31760    0.005
 4507.00    1.11998   1.31120    0.005
 4508.00    1.36283   1.30555    0.005
 4509.00    1.84452   1.30105    0.005
 4510.00    1.70754   1.30063    0.005
 4511.00    1.44479   1.30425    0.005
 4512.00    1.67355   1.30552    0.005
 4513.00    1.98072   1.30498    0.005
 4514.00    2.07588   1.30681    0.005
 4515.00    2.14584   1.30919    0.005
 4516.00    2.28843   1.30582    0.005
 4517.00    2.43689   1.29698    0.005
 4518.00    1.79473   1.29300    0.005
 4519.00    1.11661   1.29403    0.005
 4520.00    1.74198   1.29205    0.005
 4521.00    2.35526   1.28676    0.005
 4522.00    1.53496   1.27956    0.005
 4523.00    0.79413   1.27296    0.005
 4524.00    1.54501   1.27308    0.005
 4525.00    2.19096   1.28016    0.005
 4526.00    1.66135   1.28826    0.005
 4527.00    1.22618   1.28853    0.005
 4528.00    1.53017   1.27806    0.005
 4529.00    1.70494   1.26940    0.005
 4530.00    1.11575   1.27539    0.005
 4531.00    0.62657   1.29209    0.005
 4532.00    0.60554   1.30258    0.005
 4533.00    0.61598   1.29533    0.005
 4534.00    0.74667   1.27167    0.005
 4535.00    0.98000   1.24311    0.005
 4536.00    1.54062   1.23186    0.005
 4537.00    1.99166   1.24755    0.005
 4538.00    2.14661   1.26979    0.005
 4539.00    2.06267   1.28119    0.005
 4540.00    1.42523   1.28801    0.005
 4541.00    1.06741   1.29503    0.005
 4542.00    1.27012   1.29448    0.005
 4543.00    1.45557   1.28259    0.005
 4544.00    1.61091   1.27423    0.005
 4545.00    1.71562   1.28259    0.005
 4546.00    1.74296   1.29191    0.005
 4547.00    1.81886   1.28900    0.005
 4548.00    1.95995   1.28282    0.005
 4549.00    2.07568   1.27940    0.005
 4550.00    2.16145   1.28209    0.000
 4551.00    2.31046   1.29414    0.000
 4552.00    2.52539   1.30584    0.000
 4553.00    2.44994   1.30965    0.000
 4554.00    2.10750   1.31210    0.000
 4555.00    1.54901   1.31668    0.000
 4556.00    0.81541   1.31833    0.000
 4557.00    1.40812   1.31107    0.000
 4558.00    2.94674   1.29832    0.000
 4559.00    3.25795   1.29234    0.000
 4560.00    2.80103   1.29719    0.000
 4561.00    2.26274   1.30619    0.000
 4562.00    1.67995   1.31313    0.000
 4563.00    1.60917   1.31662    0.000
 4564.00    1.78178   1.31577    0.000
 4565.00    1.92208   1.30672    0.000
 4566.00    2.04911   1.29688    0.000
 4567.00    1.80524   1.30077    0.000
 4568.00    1.43141   1.31126    0.000
 4569.00    1.85772   1.31376    0.000
 4570.00    2.52053   1.31210    0.000
 4571.00    2.24483   1.31323    0.000
 4572.00    1.73924   1.31370    0.000
 4573.00    1.28872   1.30863    0.000
 4574.00    0.84912   1.30046    0.000
 4575.00    1.26502   1.29594    0.000
 4576.00    1.81334   1.29639    0.000
 4577.00    1.39491   1.29553    0.000
 4578.00    0.86585   1.29223    0.000
 4579.00    1.39529   1.29324    0.000
 4580.00    2.00603   1.29857    0.000
 4581.00    2.31278   1.30376    0.000
 4582.00    2.60689   1.30756    0.000
 4583.00    2.40400   1.31002    0.000
 4584.00    2.19859   1.30940    0.000
 4585.00    2.06984   1.30407    0.000
 4586.00    1.95016   1.29856    0.000
 4587.00    1.98911   1.29876    0.000
 4588.00    2.01945   1.30253    0.000
 4589.00    1.95755   1.30278    0.000
 4590.00    1.90607   1.30040    0.000
 4591.00    1.93332   1.30180    0.000
 4592.00    1.91672   1.30680    0.000
 4593.00    1.64804   1.31072    0.000
 4594.00    1.40357   1.30919    0.000
 4595.00    1.26974   1.30423    0.000
 4596.00    1.23829   1.30279    0.000
 4597.00    1.58991   1.30549    0.000
 4598.00    1.88430   1.30842    0.000
 4599.00    1.99974   1.30884    0.000
 4600.00    2.00171   1.30841    0.000
 4601.00    1.70249   1.31149    0.000
 4602.00    1.51310   1.31863    0.000
 4603.00    1.57399   1.32548    0.000
 4604.00    1.56915   1.32707    0.000
 4605.00    1.43462   1.32349    0.000
 4606.00    1.49050   1.31936    0.000
 4607.00    1.87378   1.31668    0.000
 4608.00    2.21044   1.31638    0.000
 4609.00    2.47692   1.31894    0.000
 4610.00    2.44198   1.31956    0.000
 4611.00    2.00823   1.31842    0.000
 4612.00    1.77109   1.31545    0.000
 4613.00    1.76308   1.30780    0.000
 4614.00    1.87869   1.30475    0.000
 4615.00    2.12136   1.31193    0.000
 4616.00    1.83386   1.31948    0.000
 4617.00    1.06577   1.32305    0.000
 4618.00    1.10721   1.32513    0.000
 4619.00    1.79539   1.32374    0.000
 4620.00    1.91532   1.32054    0.000
 4621.00    1.63585   1.31992    0.000
 4622.00    1.62143   1.31809    0.000
 4623.00    1.77044   1.31077    0.000
 4624.00    1.59889   1.30702    0.000
 4625.00    1.25471   1.31361    0.000
 4626.00    1.47801   1.32022    0.000
 4627.00    1.96673   1.31733    0.000
 4628.00    2.07596   1.31047    0.000
 4629.00    2.03221   1.30845    0.000
 4630.00    1.84591   1.31107    0.000
 4631.00    1.61057   1.31101    0.000
 4632.00    1.81632   1.30653    0.000
 4633.00    2.14983   1.30293    0.000
 4634.00    2.08835   1.30262    0.000
 4635.00    1.93226   1.30562    0.000
 4636.00    1.91584   1.30983    0.000
 4637.00    1.92638   1.31205    0.000
 4638.00    1.81282   1.31305    0.000
 4639.00    1.68062   1.31084    0.000
 4640.00    1.75944   1.30007    0.000
 4641.00    1.86148   1.28766    0.000
 4642.00    2.25145   1.28344    0.000
 4643.00    2.66235   1.28654    0.000
 4644.00    2.44132   1.29344    0.000
 4645.00    2.19641   1.30195    0.000
 4646.00    2.14606   1.31035    0.000
 4647.00    2.08572   1.31679    0.000
 4648.00    1.61834   1.31561    0.000
 4649.00    1.19473   1.30838    0.000
 4650.00    1.48644   1.30345    0.000
 4651.00    1.75831   1.30560    0.000
 4652.00    1.82706   1.31572    0.000
 4653.00    1.85973   1.32858    0.000
 4654.00    1.62874   1.33500    0.000
 4655.00    1.49004   1.33041    0.000
 4656.00    1.86740   1.32023    0.000
 4657.00    2.18803   1.31211    0.000
 4658.00    2.25559   1.30956    0.000
 4659.00    2.24884   1.30947    0.000
 4660.00    1.96989   1.30179    0.000
 4661.00    1.71615   1.28652    0.000
 4662.00    1.53974   1.27899    0.000
 4663.00    1.43059   1.28567    0.000
 4664.00    1.49679   1.29842    0.000
 4665.00    1.51368   1.31014    0.000
 4666.00    1.42003   1.31527    0.000
 4667.00    1.46368   1.31293    0.000
 4668.00    1.77401   1.31004    0.000
 4669.00    1.91423   1.31188    0.000
 4670.00    1.76636   1.31704    0.000
 4671.00    1.66306   1.31988    0.000
 4672.00    1.62587   1.31637    0.000
 4673.00    1.72541   1.30933    0.000
 4674.00    2.00329   1.30376    0.000
 4675.00    1.98717   1.29950    0.000
 4676.00    1.63322   1.29636    0.000
 4677.00    1.56671   1.29341    0.000
 4678.00    1.79145   1.27660    0.000
 4679.00    1.74598   1.23921    0.000
 4680.00    1.45904   1.21543    0.000
 4681.00    1.57921   1.23410    0.000
 4682.00    2.02003   1.27153    0.000
 4683.00    2.17738   1.29611    0.000
 4684.00    2.13839   1.30556    0.000
 4685.00    2.19904   1.30702    0.000
 4686.00    2.32023   1.30885    0.000
 4687.00    2.29792   1.31295    0.000
 4688.00    2.19954   1.31706    0.000
 4689.00    1.88442   1.32201    0.000
 4690.00    1.46957   1.32648    0.000
 4691.00    1.19679   1.32449    0.000
 4692.00    0.98031   1.31339    0.000
 4693.00    1.24845   1.30321    0.000
 4694.00    1.68022   1.30305    0.000
 4695.00    1.84048   1.30603    0.000
 4696.00    1.92369   1.30316    0.000
 4697.00    2.12160   1.29816    0.000
 4698.00    2.34635   1.30051    0.000
 4699.00    1.91394   1.30835    0.000
 4700.00    1.35789   1.31142    0.000
 4701.00    1.50375   1.30746    0.000
 4702.00    1.75171   1.30257    0.000
 4703.00    2.03468   1.30068    0.000
 4704.00    2.32136   1.30449    0.000
 4705.00    2.06383   1.31181    0.000
 4706.00    1.76893   1.29974    0.000
 4707.00    1.67709   1.27263    0.000
 4708.00    1.59215   1.26492    0.000
 4709.00    1.77303   1.28555    0.000
 4710.00    1.94134   1.30740    0.000
 4711.00    1.68727   1.32005    0.000
 4712.00    1.45420   1.32485    0.000
 4713.00    1.54321   1.32745    0.000
 4714.00    1.64513   1.33081    0.000
 4715.00    1.87359   1.33096    0.000
 4716.00    2.07163   1.32706    0.000
 4717.00    2.05452   1.32521    0.000
 4718.00    2.03206   1.32919    0.000
 4719.00    1.98044   1.33369    0.000
 4720.00    1.94580   1.33101    0.000
 4721.00    1.98514   1.31853    0.000
 4722.00    2.00259   1.30534    0.000
 4723.00    1.94156   1.30157    0.000
 4724.00    1.88894   1.30329    0.000
 4725.00    1.86169   1.30442    0.000
 4726.00    1.92985   1.30813    0.000
 4727.00    2.24248   1.31440    0.000
 4728.00    2.63025   1.31974    0.000
 4729.00    3.18365   1.32306    0.000
 4730.00    3.30352   1.31868    0.000
 4731.00    2.59457   1.31251    0.000
 4732.00    2.12679   1.31667    0.000
 4733.00    2.06132   1.32355    0.000
 4734.00    1.95901   1.32280    0.000
 4735.00    1.80285   1.31871    0.000
 4736.00    1.69641   1.31876    0.000
 4737.00    1.65392   1.32341    0.000
 4738.00    1.66215   1.32552    0.000
 4739.00    1.72785   1.32390    0.000
 4740.00    1.73706   1.32539    0.000
 4741.00    1.68983   1.32842    0.000
 4742.00    1.87331   1.32814    0.000
 4743.00    2.26010   1.32736    0.000
 4744.00    2.50090   1.32911    0.000
 4745.00    2.62837   1.32940    0.000
 4746.00    2.55793   1.32556    0.000
 4747.00    2.35238   1.32129    0.000
 4748.00    2.26875   1.31829    0.000
 4749.00    2.25806   1.31683    0.000
 4750.00    2.14273   1.31522    0.000
 4751.00    1.97278   1.31467    0.000
 4752.00    1.87544   1.31788    0.000
 4753.00    1.81098   1.32220    0.000
 4754.00    1.89404   1.32428    0.000
 4755.00    2.03454   1.32026    0.000
 4756.00    2.23553   1.31011    0.000
 4757.00    2.45655   1.30256    0.000
 4758.00    2.35005   1.30005    0.000
 4759.00    2.15251   1.29816    0.000
 4760.00    2.01543   1.29813    0.000
 4761.00    1.89218   1.30236    0.004
 4762.00    1.76192   1.30917    0.004
 4763.00    1.63039   1.31695    0.005
 4764.00    1.57596   1.32101    0.004
 4765.00    1.53238   1.31674    0.004
 4766.00    1.64502   1.31085    0.004
 4767.00    1.77350   1.31235    0.005
 4768.00    1.82834   1.31973    0.004
 4769.00    1.87841   1.32464    0.004
 4770.00    1.77009   1.32466    0.004
 4771.00    1.65709   1.32504    0.005
 4772.00    1.60522   1.32483    0.005
 4773.00    1.55874   1.32041    0.004
 4774.00    1.66865   1.31707    0.004
 4775.00    1.75658   1.31794    0.004
 4776.00    1.52668   1.31745    0.004
 4777.00    1.32918   1.31275    0.004
 4778.00    1.43644   1.31150    0.004
 4779.00    1.56556   1.31365    0.004
 4780.00    1.84431   1.31051    0.004
 4781.00    2.07386   1.30801    0.004
 4782.00    2.04274   1.31034    0.004
 4783.00    1.98592   1.31061    0.004
 4784.00    1.81964   1.31093    0.004
 4785.00    1.72059   1.31397    0.004
 4786.00    1.85779   1.31707    0.004
 4787.00    1.98012   1.32262    0.004
 4788.00    2.05856   1.33053    0.004
 4789.00    2.09145   1.33511    0.004
 4790.00    2.00962   1.33385    0.004
 4791.00    1.98507   1.32837    0.004
 4792.00    2.08471   1.32099    0.004
 4793.00    2.05010   1.31395    0.004
 4794.00    1.76280   1.31159    0.004
 4795.00    1.61301   1.31672    0.004
 4796.00    1.68920   1.32446    0.004
 4797.00    1.78755   1.32692    0.004
 4798.00    1.91784   1.32192    0.005
 4799.00    2.06967   1.31417    0.005
 4800.00    2.24879   1.31164    0.005
 4801.00    2.15853   1.31300    0.005
 4802.00    1.76742   1.31288    0.005
 4803.00    1.60608   1.31328    0.005
 4804.00    1.67107   1.31509    0.005
 4805.00    1.61241   1.31549    0.005
 4806.00    1.44634   1.31386    0.005
 4807.00    1.60036   1.31380    0.005
 4808.00    1.99934   1.31515    0.004
 4809.00    2.11820   1.31629    0.004
 4810.00    2.04864   1.31833    0.005
 4811.00    2.03660   1.32206    0.005
 4812.00    2.05846   1.32437    0.005
 4813.00    1.86367   1.32332    0.005
 4814.00    1.55756   1.32095    0.004
 4815.00    1.53752   1.32037    0.004
 4816.00    1.64485   1.31569    0.005
 4817.00    1.80450   1.30027    0.005
 4818.00    1.98416   1.28999    0.005
 4819.00    2.42193   1.29717    0.005
 4820.00    2.94362   1.30807    0.005
 4821.00    2.64728   1.31062    0.005
 4822.00    2.12823   1.30564    0.005
 4823.00    2.01848   1.30072    0.005
 4824.00    2.00019   1.30154    0.005
 4825.00    1.93968   1.30026    0.005
 4826.00    1.87163   1.29407    0.005
 4827.00    2.06406   1.29454    0.005
 4828.00    2.29198   1.29985    0.005
 4829.00    1.96904   1.30019    0.005
 4830.00    1.59257   1.29659    0.005
 4831.00    1.65853   1.29422    0.005
 4832.00    1.75132   1.29115    0.005
 4833.00    1.50412   1.28306    0.005
 4834.00    1.25013   1.27537    0.005
 4835.00    1.39543   1.27422    0.005
 4836.00    1.54440   1.27333    0.005
 4837.00    1.78876   1.26773    0.005
 4838.00    2.00458   1.26449    0.005
 4839.00    1.83062   1.26625    0.005
 4840.00    1.70582   1.26397    0.004
 4841.00    2.02544   1.25164    0.004
 4842.00    2.24215   1.23383    0.004
 4843.00    1.77606   1.22205    0.004
 4844.00    1.41804   1.21876    0.004
 4845.00    1.61771   1.21131    0.004
 4846.00    1.77095   1.19646    0.004
 4847.00    1.73093   1.17812    0.005
 4848.00    1.65765   1.15071    0.000
 4849.00    1.46984   1.11256    0.000
 4850.00    1.41613   1.07921    0.000
 4851.00    1.75131   1.05002    0.000
 4852.00    1.88212   1.00276    0.000
 4853.00    1.50712   0.92966    0.000
 4854.00    1.34105   0.83261    0.000
 4855.00    1.62071   0.75308    0.000
 4856.00    1.77276   0.76172    0.000
 4857.00    1.68833   0.85162    0.000
 4858.00    1.60095   0.94406    0.000
 4859.00    1.50881   1.01138    0.000
 4860.00    1.48673   1.06393    0.000
 4861.00    1.56415   1.10320    0.000
 4862.00    1.63644   1.13266    0.000
 4863.00    1.70229   1.15730    0.000
 4864.00    1.71607   1.16953    0.000
 4865.00    1.67251   1.16920    0.000
 4866.00    1.71007   1.17787    0.000
 4867.00    1.82642   1.20139    0.000
 4868.00    1.78546   1.22253    0.000
 4869.00    1.60975   1.23231    0.000
 4870.00    1.53415   1.23980    0.000
 4871.00    1.53406   1.24962    0.000
 4872.00    1.68339   1.25925    0.000
 4873.00    1.93177   1.27251    0.000
 4874.00    1.91500   1.27980    0.000
 4875.00    1.74433   1.27614    0.004
 4876.00    1.55706   1.27405    0.004
 4877.00    1.36139   1.27778    0.004
 4878.00    1.49911   1.27925    0.004
 4879.00    1.78280   1.27550    0.004
 4880.00    2.11408   1.27450    0.004
 4881.00    2.46325   1.27978    0.004
 4882.00    2.38015   1.28624    0.004
 4883.00    2.15917   1.28715    0.004
 4884.00    1.67035   1.27728    0.004
 4885.00    1.11013   1.26611    0.004
 4886.00    0.84383   1.27686    0.004
 4887.00    0.64166   1.30014    0.004
 4888.00    1.28913   1.31667    0.004
 4889.00    2.08389   1.32695    0.004
 4890.00    2.09600   1.33083    0.004
 4891.00    2.00503   1.33015    0.004
 4892.00    1.84106   1.32768    0.004
 4893.00    1.67030   1.31857    0.004
 4894.00    1.79756   1.30980    0.004
 4895.00    1.94172   1.31261    0.004
 4896.00    1.84280   1.31565    0.004
 4897.00    1.73818   1.31080    0.004
 4898.00    1.61618   1.31002    0.004
 4899.00    1.49853   1.31993    0.004
 4900.00    1.48445   1.32969    0.004
 4901.00    1.50636   1.33020    0.004
 4902.00    1.99366   1.32244    0.004
 4903.00    2.40464   1.31126    0.004
 4904.00    2.15203   1.30169    0.004
 4905.00    1.91242   1.30080    0.004
 4906.00    1.75640   1.30944    0.004
 4907.00    1.66150   1.31720    0.004
 4908.00    1.87400   1.32152    0.004
 4909.00    2.02932   1.32787    0.004
 4910.00    1.95190   1.32919    0.004
 4911.00    1.85911   1.31938    0.004
 4912.00    1.71441   1.29716    0.004
 4913.00    1.67761   1.26863    0.004
 4914.00    1.94796   1.24158    0.004
 4915.00    2.12566   1.21257    0.004
 4916.00    2.07800   1.21076    0.004
 4917.00    2.00255   1.23426    0.004
 4918.00    1.86879   1.26398    0.004
 4919.00    1.81730   1.28428    0.004
 4920.00    1.91592   1.30814    0.004
 4921.00    1.80368   1.32367    0.004
 4922.00    1.35517   1.32981    0.004
 4923.00    1.22817   1.33507    0.004
 4924.00    1.55114   1.33704    0.004
 4925.00    1.67360   1.33589    0.004
 4926.00    1.54910   1.32808    0.004
 4927.00    1.50043   1.30966    0.004
 4928.00    1.53406   1.30029    0.004
 4929.00    1.62821   1.31160    0.004
 4930.00    1.78032   1.32119    0.004
 4931.00    1.83347   1.31229    0.004
 4932.00    1.80307   1.29634    0.004
 4933.00    1.61230   1.29132    0.004
 4934.00    1.30229   1.30466    0.004
 4935.00    1.33058   1.32220    0.004
 4936.00    1.57983   1.32766    0.004
 4937.00    1.78951   1.33064    0.004
 4938.00    1.97657   1.33481    0.004
 4939.00    1.94940   1.33122    0.004
 4940.00    1.81558   1.32716    0.000
 4941.00    1.76333   1.33076    0.000
 4942.00    1.74620   1.33556    0.000
 4943.00    1.83929   1.33724    0.000
 4944.00    1.97308   1.33830    0.000
 4945.00    1.97718   1.33998    0.000
 4946.00    1.94071   1.33552    0.000
 4947.00    1.59688   1.32883    0.000
 4948.00    1.17285   1.32785    0.000
 4949.00    1.38916   1.32615    0.000
 4950.00    1.74183   1.31078    0.000
 4951.00    1.62519   1.28081    0.000
 4952.00    1.42947   1.27407    0.000
 4953.00    1.33485   1.30438    0.000
 4954.00    1.25310   1.32890    0.000
 4955.00    1.41779   1.33082    0.000
 4956.00    1.60435   1.32791    0.000
 4957.00    1.48876   1.32890    0.000
 4958.00    1.35722   1.32656    0.000
 4959.00    1.29392   1.31551    0.000
 4960.00    1.23784   1.30817    0.000
 4961.00    1.64533   1.30852    0.000
 4962.00    2.03549   1.30933    0.000
 4963.00    2.04865   1.31178    0.000
 4964.00    2.06553   1.31577    0.000
 4965.00    2.12817   1.31991    0.000
 4966.00    2.17558   1.32489    0.000
 4967.00    2.09550   1.32818    0.000
 4968.00    1.97326   1.33185    0.000
 4969.00    1.58780   1.33252    0.000
 4970.00    1.30468   1.32938    0.000
 4971.00    1.52335   1.32425    0.000
 4972.00    1.66920   1.31626    0.000
 4973.00    1.52518   1.31213    0.000
 4974.00    1.49423   1.31106    0.000
 4975.00    1.83735   1.30087    0.000
 4976.00    2.00653   1.28161    0.000
 4977.00    1.68951   1.27192    0.000
 4978.00    1.53209   1.27856    0.000
 4979.00    1.75638   1.29002    0.000
 4980.00    1.79239   1.30230    0.000
 4981.00    1.43949   1.31647    0.000
 4982.00    1.34902   1.32182    0.000
 4983.00    1.73007   1.31778    0.000
 4984.00    1.98815   1.31090    0.000
 4985.00    2.05302   1.30602    0.000
 4986.00    2.06474   1.30985    0.000
 4987.00    2.00314   1.31169    0.000
 4988.00    1.92658   1.31070    0.000
 4989.00    1.83184   1.31663    0.000
 4990.00    1.72898   1.32161    0.000
 4991.00    1.61742   1.32151    0.000
 4992.00    1.61136   1.31752    0.000
 4993.00    1.70491   1.30618    0.000
 4994.00    1.94474   1.29310    0.000
 4995.00    2.30635   1.28709    0.000
 4996.00    2.28243   1.28924    0.000
 4997.00    1.97597   1.29770    0.000
 4998.00    1.70141   1.29797    0.000
 4999.00    1.44737   1.28509    0.000
 5000.00    1.56142   1.27415    0.000
 5001.00    1.88270   1.28235    0.000
 5002.00    2.04010   1.30083    0.000
 5003.00    2.11722   1.31062    0.000
 5004.00    1.89039   1.30880    0.000
 5005.00    1.53486   1.30113    0.000
 5006.00    1.48284   1.28886    0.000
 5007.00    1.54087   1.27581    0.000
 5008.00    1.63929   1.25842    0.000
 5009.00    1.75010   1.23619    0.000
 5010.00    1.73589   1.24126    0.000
 5011.00    1.68975   1.26102    0.000
 5012.00    1.59292   1.26990    0.000
 5013.00    1.48556   1.27524    0.000
 5014.00    1.52061   1.28994    0.000
 5015.00    1.57899   1.29495    0.000
 5016.00    1.39832   1.29101    0.000
 5017.00    1.18831   1.29498    0.000
 5018.00    1.06258   1.30614    0.000
 5019.00    0.94399   1.31069    0.000
 5020.00    1.26670   1.30738    0.000
 5021.00    1.61098   1.29708    0.000
 5022.00    1.80346   1.29503    0.000
 5023.00    1.98094   1.30553    0.000
 5024.00    1.38680   1.31234    0.000
 5025.00    0.83608   1.31325    0.000
 5026.00    1.15611   1.31768    0.000
 5027.00    1.44438   1.32400    0.000
 5028.00    1.36168   1.32066    0.000
 5029.00    1.32098   1.30431    0.004
 5030.00    1.61938   1.29259    0.004
 5031.00    1.84912   1.29832    0.004
 5032.00    1.66255   1.30091    0.004
 5033.00    1.46083   1.28722    0.004
 5034.00    1.18669   1.26294    0.004
 5035.00    0.97701   1.24925    0.004
 5036.00    1.01841   1.26614    0.004
 5037.00    1.12127   1.29753    0.004
 5038.00    1.42344   1.31379    0.004
 5039.00    1.56246   1.32211    0.004
 5040.00    1.25359   1.32111    0.004
 5041.00    1.10221   1.30265    0.004
 5042.00    1.32115   1.28553    0.004
 5043.00    1.53139   1.28339    0.004
 5044.00    1.72397   1.29177    0.004
 5045.00    1.71953   1.29371    0.004
 5046.00    1.36649   1.29729    0.004
 5047.00    1.28769   1.30657    0.004
 5048.00    1.63342   1.31273    0.004
 5049.00    1.77776   1.30573    0.004
 5050.00    1.64830   1.30100    0.004
 5051.00    1.47664   1.30804    0.004
 5052.00    1.25447   1.32016    0.004
 5053.00    1.35176   1.32192    0.004
 5054.00    1.78620   1.32317    0.004
 5055.00    1.97776   1.32706    0.004
 5056.00    1.94323   1.32745    0.004
 5057.00    1.85014   1.31836    0.004
 5058.00    1.70899   1.30091    0.004
 5059.00    1.63372   1.29087    0.004
 5060.00    1.60602   1.29722    0.004
 5061.00    1.55204   1.30252    0.004
 5062.00    1.48140   1.29974    0.004
 5063.00    1.49297   1.30087    0.004
 5064.00    1.55012   1.30719    0.004
 5065.00    1.63920   1.30542    0.004
 5066.00    1.74368   1.29771    0.004
 5067.00    1.79057   1.29962    0.004
 5068.00    1.81349   1.30451    0.004
 5069.00    1.71146   1.30229    0.004
 5070.00    1.56494   1.30105    0.004
 5071.00    1.37478   1.30487    0.004
 5072.00    1.17149   1.30028    0.004
 5073.00    1.04934   1.28100    0.004
 5074.00    0.94746   1.27037    0.004
 5075.00    1.10262   1.27785    0.004
 5076.00    1.30987   1.28703    0.004
 5077.00    1.49723   1.29019    0.004
 5078.00    1.68142   1.29562    0.004
 5079.00    1.62496   1.30361    0.004
 5080.00    1.54003   1.30661    0.004
 5081.00    1.51631   1.30480    0.004
 5082.00    1.49751   1.30509    0.004
 5083.00    1.26776   1.30853    0.004
 5084.00    1.02851   1.30969    0.004
 5085.00    1.12621   1.30990    0.004
 5086.00    1.22892   1.31437    0.004
 5087.00    1.38245   1.31978    0.004
 5088.00    1.51452   1.31894    0.004
 5089.00    1.24727   1.31146    0.004
 5090.00    1.03129   1.30254    0.004
 5091.00    1.38625   1.29362    0.004
 5092.00    1.68067   1.28296    0.004
 5093.00    1.50339   1.27640    0.004
 5094.00    1.34552   1.28281    0.004
 5095.00    1.30199   1.29597    0.004
 5096.00    1.28502   1.30380    0.004
 5097.00    1.39199   1.30374    0.004
 5098.00    1.47874   1.30120    0.004
 5099.00    1.48837   1.30049    0.004
 5100.00    1.42283   1.29687    0.004
 5101.00    1.11819   1.28968    0.004
 5102.00    0.92752   1.28814    0.004
 5103.00    1.04410   1.28970    0.004
 5104.00    1.11788   1.28946    0.004
 5105.00    1.09267   1.29519    0.004
 5106.00    1.07915   1.30297    0.004
 5107.00    1.08903   1.30509    0.004
 5108.00    1.05414   1.30680    0.004
 5109.00    0.94126   1.30949    0.004
 5110.00    0.96707   1.31281    0.004
 5111.00    1.20441   1.31801    0.004
 5112.00    1.46777   1.31899    0.004
 5113.00    1.76599   1.31432    0.004
 5114.00    1.77761   1.30770    0.004
 5115.00    1.45104   1.30041    0.004
 5116.00    1.32034   1.29225    0.004
 5117.00    1.39346   1.28205    0.004
 5118.00    1.50381   1.27701    0.004
 5119.00    1.64833   1.28073    0.004
 5120.00    1.75885   1.28411    0.004
 5121.00    1.84186   1.28336    0.004
 5122.00    1.83790   1.28160    0.004
 5123.00    1.77202   1.28134    0.004
 5124.00    1.60609   1.28526    0.004
 5125.00    1.37765   1.29278    0.004
 5126.00    1.44847   1.29478    0.004
 5127.00    1.68265   1.29269    0.004
 5128.00    1.71556   1.29651    0.004
 5129.00    1.65300   1.30500    0.004
 5130.00    1.63259   1.30271    0.004
 5131.00    1.62944   1.29248    0.004
 5132.00    1.72589   1.28290    0.004
 5133.00    1.85716   1.27757    0.004
 5134.00    1.95892   1.28515    0.004
 5135.00    2.05198   1.29118    0.004
 5136.00    1.90292   1.28160    0.004
 5137.00    1.69472   1.27753    0.004
 5138.00    1.80850   1.28492    0.004
 5139.00    1.98590   1.28594    0.004
 5140.00    1.82401   1.28132    0.004
 5141.00    1.60980   1.28023    0.004
 5142.00    1.65481   1.28277    0.004
 5143.00    1.72934   1.28775    0.004
 5144.00    1.55691   1.28698    0.004
 5145.00    1.36564   1.28148    0.004
 5146.00    1.34906   1.27764    0.004
 5147.00    1.33967   1.27529    0.004
 5148.00    1.49044   1.27595    0.004
 5149.00    1.64040   1.28400    0.004
 5150.00    1.70068   1.29637    0.004
 5151.00    1.76366   1.30629    0.004
 5152.00    1.87350   1.31055    0.004
 5153.00    1.95060   1.30888    0.004
 5154.00    1.67954   1.30810    0.004
 5155.00    1.43033   1.30494    0.004
 5156.00    1.34555   1.29827    0.004
 5157.00    1.31461   1.29619    0.004
 5158.00    1.59202   1.29164    0.004
 5159.00    1.80555   1.27094    0.004
 5160.00    1.72813   1.23763    0.004
 5161.00    1.67521   1.20945    0.004
 5162.00    1.71375   1.20518    0.004
 5163.00    1.71339   1.22604    0.004
 5164.00    1.59171   1.24469    0.004
 5165.00    1.55131   1.23413    0.004
 5166.00    1.72616   1.21060    0.004
 5167.00    1.89371   1.21667    0.004
 5168.00    2.04466   1.25232    0.004
 5169.00    2.02454   1.28039    0.004
 5170.00    1.66760   1.28755    0.004
 5171.00    1.35520   1.28980    0.004
 5172.00    1.11924   1.29224    0.004
 5173.00    1.11928   1.28964    0.004
 5174.00    1.47400   1.28268    0.004
 5175.00    1.60396   1.26889    0.004
 5176.00    1.43706   1.24011    0.004
 5177.00    1.33908   1.20951    0.004
 5178.00    1.32127   1.21223    0.004
 5179.00    1.35033   1.24779    0.004
 5180.00    1.42749   1.27903    0.004
 5181.00    1.36021   1.28884    0.004
 5182.00    1.16222   1.28754    0.004
 5183.00    1.22456   1.29076    0.004
 5184.00    1.49451   1.29173    0.004
 5185.00    1.48585   1.27488    0.004
 5186.00    1.28172   1.25970    0.004
 5187.00    1.32686   1.26481    0.004
 5188.00    1.52540   1.27453    0.004
 5189.00    1.54677   1.27610    0.004
 5190.00    1.47293   1.27849    0.000
 5191.00    1.20436   1.28416    0.000
 5192.00    0.84489   1.28971    0.000
 5193.00    1.10882   1.29537    0.000
 5194.00    1.62352   1.29697    0.000
 5195.00    1.57964   1.29480    0.000
 5196.00    1.34406   1.29065    0.000
 5197.00    1.20033   1.28299    0.000
 5198.00    1.08313   1.26674    0.000
 5199.00    1.29429   1.25159    0.000
 5200.00    1.58387   1.24934    0.000
 5201.00    1.21032   1.25138    0.000
 5202.00    0.70911   1.24882    0.000
 5203.00    1.05668   1.25346    0.000
 5204.00    1.53116   1.26774    0.000
 5205.00    1.37674   1.28268    0.000
 5206.00    1.15345   1.29559    0.000
 5207.00    1.28358   1.30293    0.000
 5208.00    1.43922   1.29945    0.000
 5209.00    1.70678   1.28698    0.000
 5210.00    1.97852   1.27986    0.000
 5211.00    1.80592   1.28638    0.004
 5212.00    1.63370   1.29890    0.004
 5213.00    1.55090   1.30788    0.004
 5214.00    1.47817   1.31268    0.004
 5215.00    1.56874   1.31482    0.004
 5216.00    1.65278   1.31062    0.004
 5217.00    1.67026   1.29944    0.004
 5218.00    1.66222   1.28299    0.004
 5219.00    1.46840   1.26156    0.004
 5220.00    1.32461   1.24181    0.004
 5221.00    1.45962   1.24283    0.004
 5222.00    1.55642   1.26848    0.004
 5223.00    1.48318   1.29311    0.004
 5224.00    1.43559   1.30303    0.004
 5225.00    1.48168   1.30273    0.004
 5226.00    1.56090   1.29006    0.004
 5227.00    1.74154   1.27530    0.004
 5228.00    1.82314   1.27364    0.004
 5229.00    1.64702   1.28453    0.004
 5230.00    1.51225   1.29912    0.004
 5231.00    1.47000   1.30758    0.004
 5232.00    1.41785   1.30941    0.004
 5233.00    1.34650   1.30893    0.004
 5234.00    1.47063   1.30937    0.004
 5235.00    1.92517   1.30999    0.004
 5236.00    2.08474   1.30823    0.004
 5237.00    1.80743   1.30834    0.004
 5238.00    1.51401   1.31378    0.004
 5239.00    1.19962   1.31269    0.004
 5240.00    1.03091   1.29707    0.004
 5241.00    1.02926   1.28467    0.004
 5242.00    1.23484   1.28711    0.004
 5243.00    1.65001   1.28859    0.004
 5244.00    1.87487   1.28283    0.004
 5245.00    1.92992   1.28440    0.004
 5246.00    1.77979   1.29308    0.004
 5247.00    1.46835   1.29578    0.004
 5248.00    1.22171   1.29000    0.004
 5249.00    1.01987   1.28850    0.004
 5250.00    1.19429   1.29990    0.004
 5251.00    1.59682   1.31394    0.004
 5252.00    1.65394   1.31984    0.004
 5253.00    1.52828   1.31573    0.004
 5254.00    1.54471   1.30430    0.004
 5255.00    1.62639   1.28886    0.004
 5256.00    1.51982   1.27129    0.004
 5257.00    1.33882   1.25490    0.004
 5258.00    1.43947   1.24287    0.004
 5259.00    1.63499   1.23796    0.004
 5260.00    1.62471   1.24691    0.004
 5261.00    1.55618   1.26214    0.004
 5262.00    1.53642   1.25508    0.004
 5263.00    1.52806   1.22945    0.004
 5264.00    1.57258   1.22844    0.004
 5265.00    1.62703   1.25755    0.004
 5266.00    1.63954   1.28007    0.004
 5267.00    1.64598   1.28257    0.004
 5268.00    1.68001   1.27600    0.004
 5269.00    1.71693   1.27021    0.004
 5270.00    1.91517   1.27966    0.004
 5271.00    2.12441   1.30148    0.004
 5272.00    2.08246   1.31378    0.004
 5273.00    2.03210   1.30981    0.004
 5274.00    1.82284   1.29924    0.004
 5275.00    1.62764   1.28966    0.004
 5276.00    1.88847   1.28160    0.004
 5277.00    2.12807   1.27583    0.004
 5278.00    2.04451   1.28259    0.004
 5279.00    1.95846   1.30379    0.004
 5280.00    1.84802   1.32072    0.004
 5281.00    1.77932   1.32258    0.004
 5282.00    2.00459   1.31831    0.004
 5283.00    2.16817   1.31807    0.004
 5284.00    1.99731   1.32104    0.004
 5285.00    1.81000   1.32052    0.004
 5286.00    1.55117   1.31628    0.004
 5287.00    1.36864   1.31373    0.004
 5288.00    1.45912   1.31269    0.004
 5289.00    1.51069   1.30478    0.004
 5290.00    1.44537   1.28697    0.004
 5291.00    1.51414   1.27037    0.004
 5292.00    1.92572   1.27065    0.004
 5293.00    2.22159   1.28458    0.004
 5294.00    2.26290   1.29303    0.004
 5295.00    2.20525   1.29198    0.004
 5296.00    1.95880   1.29507    0.004
 5297.00    1.71419   1.30675    0.004
 5298.00    1.47266   1.31788    0.004
 5299.00    1.24079   1.31950    0.004
 5300.00    1.02300   1.31281    0.004
 5301.00    1.03696   1.30754    0.004
 5302.00    1.34835   1.31061    0.004
 5303.00    1.49115   1.31745    0.004
 5304.00    1.44333   1.31977    0.004
 5305.00    1.36834   1.31685    0.004
 5306.00    1.26627   1.31270    0.004
 5307.00    1.30826   1.30953    0.004
 5308.00    1.47697   1.30616    0.004
 5309.00    1.61685   1.29732    0.004
 5310.00    1.73438   1.28798    0.004
 5311.00    1.67088   1.29057    0.004
 5312.00    1.48403   1.30082    0.004
 5313.00    1.37011   1.30549    0.004
 5314.00    1.29975   1.30487    0.004
 5315.00    1.24653   1.30426    0.004
 5316.00    1.20224   1.29962    0.004
 5317.00    1.32487   1.28873    0.004
 5318.00    1.52291   1.28201    0.004
 5319.00    1.64383   1.28419    0.004
 5320.00    1.73480   1.27580    0.004
 5321.00    1.62349   1.24715    0.004
 5322.00    1.44533   1.22866    0.004
 5323.00    1.29765   1.24661    0.004
 5324.00    1.15843   1.27858    0.004
 5325.00    1.36062   1.29470    0.004
 5326.00    1.64069   1.29576    0.004
 5327.00    1.53058   1.29716    0.004
 5328.00    1.34926   1.30358    0.004
 5329.00    1.68361   1.30643    0.004
 5330.00    2.09029   1.30262    0.004
 5331.00    1.94771   1.29853    0.004
 5332.00    1.74973   1.29350    0.004
 5333.00    1.47636   1.28107    0.004
 5334.00    1.19814   1.27054    0.004
 5335.00    1.47619   1.27737    0.004
 5336.00    1.76942   1.29346    0.004
 5337.00    1.49905   1.30192    0.004
 5338.00    1.23848   1.29884    0.004
 5339.00    1.25776   1.29167    0.004
 5340.00    1.27328   1.29078    0.004
 5341.00    1.23476   1.29244    0.004
 5342.00    1.20218   1.28920    0.004
 5343.00    1.22515   1.28870    0.004
 5344.00    1.26601   1.29827    0.004
 5345.00    1.42886   1.30885    0.004
 5346.00    1.55022   1.31148    0.004
 5347.00    1.45257   1.31231    0.004
 5348.00    1.39021   1.31799    0.004
 5349.00    1.47776   1.32324    0.004
 5350.00    1.52079   1.32447    0.004
 5351.00    1.40780   1.32436    0.004
 5352.00    1.24421   1.32429    0.004
 5353.00    0.93150   1.32267    0.004
 5354.00    0.80317   1.31573    0.004
 5355.00    1.13809   1.30473    0.004
 5356.00    1.38252   1.29736    0.004
 5357.00    1.43111   1.29547    0.004
 5358.00    1.44150   1.29359    0.004
 5359.00    1.38011   1.29162    0.004
 5360.00    1.30290   1.29191    0.004
 5361.00    1.19972   1.29233    0.004
 5362.00    1.18459   1.28771    0.004
 5363.00    1.29608   1.27359    0.004
 5364.00    1.21956   1.25685    0.004
 5365.00    0.90516   1.25578    0.004
 5366.00    0.88265   1.27577    0.004
 5367.00    1.18554   1.29947    0.004
 5368.00    1.36231   1.31263   -2.000
 5369.00    1.41509   1.31489   -2.000
 5370.00    1.45870   1.31114   -2.000
 5371.00    1.49435   1.30955   -2.000
 5372.00    1.74484   1.31052   -2.000
 5373.00    2.15942   1.30738   -2.000
 5374.00    2.43609   1.30143   -2.000
 5375.00    2.62015   1.29712   -2.000
 5376.00    2.65964   1.29395   -2.000
 5377.00    2.61409   1.29397   -2.000
 5378.00    2.28895   1.30006   -2.000
 5379.00    1.82042   1.30608   -2.000
 5380.00    1.47366   1.30646   -2.000
 5381.00    1.18099   1.30349   -2.000
 5382.00    1.28978   1.29835   -2.000
 5383.00    1.55180   1.29148    0.004
 5384.00    1.50827   1.28711    0.004
 5385.00    1.36564   1.28565    0.004
 5386.00    1.42918   1.28455    0.004
 5387.00    1.54872   1.28401    0.004
 5388.00    1.68153   1.28343    0.004
 5389.00    1.81730   1.27620    0.004
 5390.00    1.51024   1.26237    0.004
 5391.00    1.12453   1.26098    0.004
 5392.00    0.91354   1.27660    0.004
 5393.00    0.72625   1.28758    0.004
 5394.00    0.74101   1.28755    0.004
 5395.00    0.77529   1.28755    0.004
 5396.00    1.00251   1.28454    0.004
 5397.00    1.24135   1.26968    0.004
 5398.00    1.33830   1.24967    0.004
 5399.00    1.43039   1.24041    0.004
 5400.00    1.32697   1.24801    0.004
 5401.00    1.22464   1.25756    0.004
 5402.00    1.15053   1.24920    0.004
 5403.00    1.09138   1.22420    0.004
 5404.00    1.23513   1.20607    0.004
 5405.00    1.34646   1.21272    0.004
 5406.00    1.16621   1.23651    0.004
 5407.00    1.02722   1.25742    0.004
 5408.00    1.16104   1.26905    0.004
 5409.00    1.22081   1.28069    0.004
 5410.00    0.89974   1.29423    0.004
 5411.00    0.68449   1.30106    0.004
 5412.00    0.90856   1.29908    0.004
 5413.00    1.12524   1.29367    0.004
 5414.00    1.31653   1.29160    0.004
 5415.00    1.41958   1.29496    0.004
 5416.00    1.26729   1.29418    0.004
 5417.00    1.18693   1.28437    0.004
 5418.00    1.28418   1.27985    0.004
 5419.00    1.33147   1.28989    0.004
 5420.00    1.27234   1.30311    0.004
 5421.00    1.26646   1.30074    0.004
 5422.00    1.35903   1.27875    0.004
 5423.00    1.33741   1.26218    0.004
 5424.00    1.13130   1.26955    0.004
 5425.00    1.05009   1.28043    0.004
 5426.00    1.14590   1.27656    0.004
 5427.00    1.29607   1.26664    0.004
 5428.00    1.51403   1.26344    0.004
 5429.00    1.58351   1.26910    0.004
 5430.00    1.48976   1.28004    0.004
 5431.00    1.47189   1.29316    0.004
 5432.00    1.52756   1.30426    0.004
 5433.00    1.39741   1.31033    0.003
 5434.00    1.10840   1.31220    0.003
 5435.00    1.06193   1.31227    0.003
 5436.00    1.19810   1.31143    0.003
 5437.00    1.12956   1.30604    0.003
 5438.00    0.92558   1.29105    0.003
 5439.00    0.97448   1.26862    0.003
 5440.00    1.16987   1.25381    0.003
 5441.00    1.14381   1.26163    0.003
 5442.00    1.00596   1.28152    0.003
 5443.00    0.91046   1.29417    0.003
 5444.00    0.83346   1.29658    0.003
 5445.00    1.05230   1.29404    0.003
 5446.00    1.38209   1.28841    0.004
 5447.00    1.44296   1.27669    0.004
 5448.00    1.41828   1.25900    0.003
 5449.00    1.39269   1.25148    0.003
 5450.00    1.36685   1.26527    0.003
 5451.00    1.38600   1.28626    0.004
 5452.00    1.41493   1.29670    0.004
 5453.00    1.32207   1.29495    0.004
 5454.00    1.20817   1.28807    0.004
 5455.00    1.20147   1.27930    0.004
 5456.00    1.20882   1.27047    0.004
 5457.00    1.30801   1.27054    0.004
 5458.00    1.41568   1.27939    0.004
 5459.00    1.40735   1.28403    0.004
 5460.00    1.39249   1.28417    0.004
 5461.00    1.49878   1.28741    0.004
 5462.00    1.60589   1.28977    0.004
 5463.00    1.51756   1.28633    0.004
 5464.00    1.43102   1.28329    0.004
 5465.00    1.38646   1.28242    0.004
 5466.00    1.32849   1.27695    0.004
 5467.00    1.09817   1.27147    0.004
 5468.00    0.90215   1.26875    0.004
 5469.00    1.00291   1.25753    0.004
 5470.00    1.08358   1.24549    0.004
 5471.00    1.03554   1.25320    0.004
 5472.00    1.01968   1.27252    0.004
 5473.00    1.16519   1.27949    0.004
 5474.00    1.27340   1.27075    0.004
 5475.00    1.23020   1.26425    0.003
 5476.00    1.19092   1.26992    0.003
 5477.00    1.16484   1.28159    0.003
 5478.00    1.12626   1.29164   -2.000
 5479.00    1.05218   1.29211   -2.000
 5480.00    1.07255   1.28152   -2.000
 5481.00    1.32218   1.27364   -2.000
 5482.00    1.62119   1.27608   -2.000
 5483.00    2.02366   1.28047   -2.000
 5484.00    2.39892   1.28350   -2.000
 5485.00    2.72461   1.28645   -2.000
 5486.00    3.34234   1.28488   -2.000
 5487.00    4.42496   1.28188   -2.000
 5488.00    4.92073   1.28399   -2.000
 5489.00    4.59667   1.28414   -2.000
 5490.00    4.34386   1.27637   -2.000
 5491.00    4.17865   1.27390   -2.000
 5492.00    3.58855   1.28366   -2.000
 5493.00    2.53801   1.28859   -2.000
 5494.00    1.84541   1.27958   -2.000
 5495.00    1.49495   1.27039   -2.000
 5496.00    1.31636   1.27052   -2.000
 5497.00    1.28262   1.27554   -2.000
 5498.00    1.23498   1.27517   -2.000
 5499.00    1.17703   1.26612   -2.000
 5500.00    1.26200   1.26176   -2.000
 5501.00    1.44013   1.27007   -2.000
 5502.00    1.52653   1.27756    0.004
 5503.00    1.56060   1.27682    0.003
 5504.00    1.55191   1.27121    0.004
 5505.00    1.52199   1.26356    0.004
 5506.00    1.55327   1.25855    0.004
 5507.00    1.61085   1.25972    0.003
 5508.00    1.53579   1.26572    0.003
 5509.00    1.41188   1.27238    0.004
 5510.00    1.32694   1.27840    0.004
 5511.00    1.25418   1.28647    0.003
 5512.00    1.22302   1.29274    0.003
 5513.00    1.20268   1.29258    0.003
 5514.00    1.28337   1.28983    0.003
 5515.00    1.38551   1.28870    0.003
 5516.00    1.37141   1.28892    0.003
 5517.00    1.33780   1.28801    0.004
 5518.00    1.41745   1.28364    0.003
 5519.00    1.51143   1.27637    0.003
 5520.00    1.56190   1.26527    0.003
 5521.00    1.60853   1.25381    0.003
 5522.00    1.41132   1.25567    0.003
 5523.00    1.20135   1.27019    0.003
 5524.00    1.14265   1.28125    0.003
 5525.00    1.08490   1.28276    0.003
 5526.00    0.88480   1.27942    0.003
 5527.00    0.69965   1.27394    0.003
 5528.00    0.83619   1.26859    0.003
 5529.00    0.96664   1.26996    0.003
 5530.00    1.02287   1.27605    0.003
 5531.00    1.07912   1.27935    0.003
 5532.00    1.13546   1.28277    0.003
 5533.00    1.18424   1.28889    0.003
 5534.00    1.18597   1.29239    0.003
 5535.00    1.20377   1.28904    0.003
 5536.00    1.30014   1.28143    0.003
 5537.00    1.33890   1.27724    0.003
 5538.00    1.14897   1.27725    0.003
 5539.00    1.06513   1.27715    0.003
 5540.00    1.33137   1.27993    0.003
 5541.00    1.51077   1.28626    0.003
 5542.00    1.44800   1.29105    0.003
 5543.00    1.37104   1.29270    0.003
 5544.00    1.26025   1.29290    0.003
 5545.00    1.20447   1.29077    0.003
 5546.00    1.26211   1.28515    0.003
 5547.00    1.34096   1.27906    0.003
 5548.00    1.45786   1.27786    0.003
 5549.00    1.45547   1.28051    0.003
 5550.00    1.26602   1.28131    0.003
 5551.00    1.22038   1.28076    0.003
 5552.00    1.37273   1.28195    0.003
 5553.00    1.43291   1.28252    0.003
 5554.00    1.38138   1.28070    0.003
 5555.00    1.31459   1.27638    0.003
 5556.00    1.23151   1.27175    0.003
 5557.00    1.18377   1.27042    0.003
 5558.00    1.16936   1.26953    0.003
 5559.00    1.19105   1.26680    0.003
 5560.00    1.24272   1.26693    0.003
 5561.00    1.19218   1.26866    0.003
 5562.00    1.06684   1.26634    0.003
 5563.00    0.90698   1.26637    0.003
 5564.00    0.72492   1.27205    0.003
 5565.00    0.79198   1.27008    0.003
 5566.00    0.99902   1.26330    0.003
 5567.00    1.12772   1.26732    0.003
 5568.00    1.21810   1.27421    0.003
 5569.00    1.28217   1.27470    0.003
 5570.00    1.33511   1.27568    0.003
 5571.00    1.32991   1.27718    0.003
 5572.00    1.30369   1.27758    0.003
 5573.00    1.20337   1.27995    0.003
 5574.00    1.08040   1.27928    0.003
 5575.00    1.07028   1.27513    0.003
 5576.00    1.08890   1.27459    0.003
 5577.00    1.08444   1.27590    0.003
 5578.00    1.07520   1.27090    0.003
 5579.00    0.97583   1.25764    0.003
 5580.00    0.86176   1.24232    0.003
 5581.00    1.05959   1.23386    0.003
 5582.00    1.29552   1.23527    0.003
 5583.00    1.37512   1.24467    0.003
 5584.00    1.44158   1.25443    0.003
 5585.00    1.62561   1.25797    0.003
 5586.00    1.81533   1.25627    0.003
 5587.00    1.62114   1.25404    0.003
 5588.00    1.42179   1.25976    0.003
 5589.00    1.25823   1.27262    0.003
 5590.00    1.11566   1.27449    0.003
 5591.00    1.38970   1.26217    0.003
 5592.00    1.63418   1.25418    0.004
 5593.00    1.53547   1.25412    0.004
 5594.00    1.45163   1.25156    0.004
 5595.00    1.48737   1.24601    0.004
 5596.00    1.51913   1.24622    0.004
 5597.00    1.52685   1.25787    0.004
 5598.00    1.53516   1.27250    0.004
 5599.00    1.54625   1.28163    0.004
 5600.00    1.54444   1.28488    0.004
 5601.00    1.49254   1.28513    0.004
 5602.00    1.41532   1.28368    0.003
 5603.00    1.25621   1.28225    0.003
 5604.00    1.11861   1.28365    0.003
 5605.00    1.03998   1.28666    0.003
 5606.00    0.98104   1.28538    0.003
 5607.00    0.96828   1.27069    0.003
 5608.00    1.02626   1.24608    0.003
 5609.00    1.22771   1.23747    0.003
 5610.00    1.40975   1.25089    0.003
 5611.00    1.55749   1.26354    0.003
 5612.00    1.60906   1.26478    0.003
 5613.00    1.51204   1.26356    0.003
 5614.00    1.34027   1.26799    0.003
 5615.00    1.06709   1.27329    0.003
 5616.00    0.97106   1.26867    0.003
 5617.00    1.08671   1.25351    0.003
 5618.00    1.19694   1.24502    0.003
 5619.00    1.30147   1.25186    0.003
 5620.00    1.30976   1.26135    0.003
 5621.00    1.22863   1.26645    0.003
 5622.00    1.11882   1.27192    0.003
 5623.00    0.98552   1.27650    0.003
 5624.00    0.99392   1.27824    0.003
 5625.00    1.10449   1.27782    0.003
 5626.00    1.16846   1.27535    0.003
 5627.00    1.20293   1.27243    0.003
 5628.00    1.29241   1.26924    0.003
 5629.00    1.41232   1.26437    0.003
 5630.00    1.43765   1.25875    0.003
 5631.00    1.41748   1.25733    0.003
 5632.00    1.33020   1.25884    0.003
 5633.00    1.21504   1.25815    0.003
 5634.00    1.05091   1.25366    0.003
 5635.00    0.86938   1.25481    0.003
 5636.00    0.90209   1.25942    0.003
 5637.00    0.99909   1.26156    0.003
 5638.00    1.01821   1.26265    0.003
 5639.00    1.01794   1.26360    0.003
 5640.00    0.95014   1.26531    0.003
 5641.00    0.86869   1.26610    0.003
 5642.00    0.94856   1.26488    0.003
 5643.00    1.05398   1.26422    0.003
 5644.00    1.04864   1.26766    0.003
 5645.00    1.03026   1.27285    0.003
 5646.00    1.04668   1.27395    0.003
 5647.00    1.06588   1.26792    0.003
 5648.00    1.10666   1.26201    0.003
 5649.00    1.14841   1.26247    0.003
 5650.00    1.35815   1.25557    0.003
 5651.00    1.56232   1.23613    0.003
 5652.00    1.40231   1.22992    0.003
 5653.00    1.24712   1.24489    0.003
 5654.00    1.18072   1.25378    0.003
 5655.00    1.13934   1.24740    0.003
 5656.00    1.37502   1.24404    0.003
 5657.00    1.57112   1.25316    0.003
 5658.00    1.46015   1.26298    0.003
 5659.00    1.36559   1.26369    0.003
 5660.00    1.36743   1.25740    0.003
 5661.00    1.32296   1.25333    0.003
 5662.00    1.06307   1.25521    0.003
 5663.00    0.86322   1.25780    0.003
 5664.00    0.89156   1.25993    0.003
 5665.00    0.93525   1.26582    0.003
 5666.00    1.02767   1.27364    0.003
 5667.00    1.07079   1.27490    0.003
 5668.00    0.98127   1.27071    0.003
 5669.00    0.87236   1.26997    0.003
 5670.00    0.71871   1.27269    0.003
 5671.00    0.67161   1.27045    0.003
 5672.00    0.83725   1.26503    0.003
 5673.00    0.93168   1.26372    0.003
 5674.00    0.90226   1.26300    0.003
 5675.00    0.94337   1.25636    0.003
 5676.00    1.09184   1.25143    0.003
 5677.00    1.23122   1.25536    0.003
 5678.00    1.35843   1.25968    0.003
 5679.00    1.34431   1.25649    0.003
 5680.00    1.16372   1.24892    0.003
 5681.00    1.05826   1.24624    0.003
 5682.00    1.03085   1.25135    0.003
 5683.00    1.06073   1.26023    0.003
 5684.00    1.14310   1.26634    0.003
 5685.00    1.07665   1.27067    0.003
 5686.00    0.89001   1.27249    0.003
 5687.00    0.87274   1.26982    0.003
 5688.00    0.97583   1.26586    0.003
 5689.00    0.86880   1.26475    0.003
 5690.00    0.63076   1.26288    0.003
 5691.00    0.58867   1.25744    0.003
 5692.00    0.65333   1.25493    0.003
 5693.00    0.84813   1.25329    0.003
 5694.00    1.10456   1.24794    0.003
 5695.00    1.22371   1.24490    0.003
 5696.00    1.28682   1.24959    0.003
 5697.00    1.32348   1.25647    0.003
 5698.00    1.35092   1.25567    0.003
 5699.00    1.30923   1.24791    0.003
 5700.00    1.24720   1.24040    0.003
 5701.00    1.26753   1.23334    0.003
 5702.00    1.30791   1.22750    0.003
 5703.00    1.22108   1.22940    0.003
 5704.00    1.10920   1.23241    0.003
 5705.00    1.16791   1.23520    0.003
 5706.00    1.25282   1.24720    0.003
 5707.00    1.10257   1.25806    0.003
 5708.00    0.92566   1.26130    0.003
 5709.00    0.92553   1.26277    0.003
 5710.00    0.93880   1.26233    0.003
 5711.00    0.80198   1.26198    0.003
 5712.00    0.65906   1.26542    0.003
 5713.00    0.71819   1.26819    0.003
 5714.00    0.77979   1.26982    0.003
 5715.00    0.87812   1.27201    0.003
 5716.00    0.97702   1.27318    0.003
 5717.00    1.08561   1.27212    0.003
 5718.00    1.16654   1.27051    0.003
 5719.00    0.95466   1.26373    0.003
 5720.00    0.76815   1.25545    0.003
 5721.00    0.77176   1.25690    0.003
 5722.00    0.79336   1.26491    0.003
 5723.00    0.91764   1.26547    0.003
 5724.00    0.99556   1.25749    0.003
 5725.00    0.86292   1.25568    0.003
 5726.00    0.76003   1.26265    0.003
 5727.00    0.76782   1.26849    0.003
 5728.00    0.79601   1.27030    0.003
 5729.00    0.88765   1.26828    0.003
 5730.00    0.96444   1.26479    0.003
 5731.00    1.00195   1.26243    0.003
 5732.00    0.99291   1.26058    0.003
 5733.00    0.87824   1.25989    0.003
 5734.00    0.85192   1.26094    0.003
 5735.00    0.99924   1.26128    0.003
 5736.00    1.05719   1.25923    0.003
 5737.00    0.96205   1.26227    0.003
 5738.00    0.93732   1.26900    0.003
 5739.00    1.01823   1.27065    0.003
 5740.00    1.07570   1.26252    0.000
 5741.00    1.10228   1.25342    0.000
 5742.00    1.10320   1.25671    0.000
 5743.00    1.07432   1.26594    0.000
 5744.00    1.03762   1.26731    0.000
 5745.00    0.99291   1.25740    0.000
 5746.00    0.97352   1.24492    0.000
 5747.00    0.97700   1.23984    0.000
 5748.00    0.99941   1.24831    0.000
 5749.00    1.03687   1.26176    0.000
 5750.00    1.04309   1.26902    0.000
 5751.00    1.02742   1.27038    0.000
 5752.00    1.15477   1.26582    0.000
 5753.00    1.36997   1.25801    0.000
 5754.00    1.34072   1.24852    0.000
 5755.00    1.18034   1.23984    0.000
 5756.00    1.04484   1.23998    0.000
 5757.00    0.92094   1.25304    0.000
 5758.00    1.03879   1.26454    0.000
 5759.00    1.25370   1.26754    0.000
 5760.00    1.33756   1.26731    0.000
 5761.00    1.37656   1.26635    0.000
 5762.00    1.33549   1.26483    0.000
 5763.00    1.27134   1.26337    0.000
 5764.00    1.31762   1.26088    0.000
 5765.00    1.39020   1.25770    0.000
 5766.00    1.40539   1.25733    0.000
 5767.00    1.40957   1.25604    0.000
 5768.00    1.38126   1.25467    0.000
 5769.00    1.34811   1.25713    0.000
 5770.00    1.37401   1.26050    0.000
 5771.00    1.40633   1.26027    0.000
 5772.00    1.31158   1.25491    0.000
 5773.00    1.20771   1.24200    0.000
 5774.00    1.15928   1.22738    0.000
 5775.00    1.11288   1.22509    0.000
 5776.00    1.29252   1.23122    0.000
 5777.00    1.46967   1.23116    0.000
 5778.00    1.52380   1.22649    0.000
 5779.00    1.57623   1.23108    0.000
 5780.00    1.60139   1.24342    0.000
 5781.00    1.62052   1.25071    0.000
 5782.00    1.57861   1.25327    0.000
 5783.00    1.50786   1.24862    0.000
 5784.00    1.22806   1.24271    0.000
 5785.00    0.97733   1.24654    0.000
 5786.00    0.88804   1.25401    0.000
 5787.00    0.83786   1.25944    0.000
 5788.00    0.96113   1.26292    0.000
 5789.00    1.09209   1.25993    0.000
 5790.00    1.25105   1.24967    0.000
 5791.00    1.39017   1.24439   -2.000
 5792.00    1.46871   1.25296   -2.000
 5793.00    1.51907   1.26423   -2.000
 5794.00    1.49624   1.26822   -2.000
 5795.00    1.46715   1.26908   -2.000
 5796.00    1.42408   1.26521   -2.000
 5797.00    1.42060   1.25563   -2.000
 5798.00    1.49373   1.25071   -2.000
 5799.00    1.49947   1.25181   -2.000
 5800.00    1.39151   1.25508   -2.000
 5801.00    1.31248   1.25695   -2.000
 5802.00    1.27623   1.25786   -2.000
 5803.00    1.30737   1.25980   -2.000
 5804.00    1.42610   1.26128   -2.000
 5805.00    1.46258   1.26042   -2.000
 5806.00    1.40487   1.25785   -2.000
 5807.00    1.38809   1.25468   -2.000
 5808.00    1.41264   1.24882   -2.000
 5809.00    1.39437   1.24510   -2.000
 5810.00    1.33798   1.24903   -2.000
 5811.00    1.26538   1.25825    0.000
 5812.00    1.18006   1.26349    0.000
 5813.00    1.17724   1.26488    0.000
 5814.00    1.23135   1.26434    0.000
 5815.00    1.26031   1.26156    0.000
 5816.00    1.27405   1.25826    0.000
 5817.00    1.33475   1.25804    0.000
 5818.00    1.42025   1.26123    0.000
 5819.00    1.52613   1.26274    0.000
 5820.00    1.64136   1.26187    0.000
 5821.00    1.70843   1.26142    0.000
 5822.00    1.75649   1.26263    0.000
 5823.00    1.75475   1.26313    0.000
 5824.00    1.73628   1.26200    0.000
 5825.00    1.73118   1.26181    0.000
 5826.00    1.72986   1.25962    0.000
 5827.00    1.64789   1.25506    0.000
 5828.00    1.54715   1.25382    0.000
 5829.00    1.48645   1.25800    0.000
 5830.00    1.43324   1.25898    0.000
 5831.00    1.43519   1.25519    0.000
 5832.00    1.44510   1.25457    0.000
 5833.00    1.39056   1.25932    0.000
 5834.00    1.32928   1.26353    0.000
 5835.00    1.26372   1.26466    0.000
 5836.00    1.19788   1.26355    0.000
 5837.00    1.18552   1.26070    0.000
 5838.00    1.17494   1.25683    0.000
 5839.00    1.26458   1.25215    0.000
 5840.00    1.34908   1.24794    0.000
 5841.00    1.26890   1.24827    0.000
 5842.00    1.18299   1.25034    0.000
 5843.00    1.01049   1.25092    0.000
 5844.00    0.86232   1.24790    0.000
 5845.00    0.95033   1.23917    0.000
 5846.00    1.04167   1.23013    0.000
 5847.00    1.15638   1.23151    0.000
 5848.00    1.26761   1.23841    0.000
 5849.00    1.36003   1.23492    0.000
 5850.00    1.44494   1.22233    0.000
 5851.00    1.49724   1.21836    0.000
 5852.00    1.49280   1.22842    0.000
 5853.00    1.28588   1.23849    0.000
 5854.00    1.11900   1.24217    0.000
 5855.00    1.07212   1.23925    0.000
 5856.00    1.04555   1.23818    0.000
 5857.00    1.07075   1.24220    0.000
 5858.00    1.09122   1.24305    0.000
 5859.00    1.10125   1.23770    0.000
 5860.00    1.06815   1.23476    0.000
 5861.00    0.95290   1.24054    0.000
 5862.00    0.90928   1.24758    0.000
 5863.00    0.98471   1.25018    0.000
 5864.00    1.04674   1.24862    0.000
 5865.00    1.08928   1.24252    0.000
 5866.00    1.08765   1.23381    0.000
 5867.00    1.02944   1.19559    0.000
 5868.00    1.06822   1.14927    0.000
 5869.00    1.21645   1.14148    0.000
 5870.00    1.29707   1.17621    0.000
 5871.00    1.31037   1.22352    0.000
 5872.00    1.24155   1.22866    0.000
 5873.00    1.10061   1.22578    0.000
 5874.00    1.07739   1.22783    0.000
 5875.00    1.14523   1.23298    0.000
 5876.00    1.12795   1.23140    0.000
 5877.00    1.05276   1.22757    0.000
 5878.00    0.96869   1.22828    0.000
 5879.00    0.87932   1.22954    0.000
 5880.00    0.91036   1.22009    0.000
 5881.00    1.00400   1.18689    0.000
 5882.00    1.10909   1.13124    0.000
 5883.00    1.21934   1.10001    0.000
 5884.00    1.18862   1.12808    0.000
 5885.00    1.10325   1.17270    0.000
 5886.00    0.97293   1.19245    0.000
 5887.00    0.82779   1.18474    0.000
 5888.00    0.86299   1.14870    0.000
 5889.00    0.94806   1.12651    0.000
 5890.00    0.93212   1.15427    0.000
 5891.00    0.89321   1.19264    0.000
 5892.00    0.83293   1.20833    0.000
 5893.00    0.76877   1.21552    0.000
 5894.00    0.78198   1.22270    0.000
 5895.00    0.80600   1.22561    0.000
 5896.00    0.75544   1.22723    0.000
 5897.00    0.69739   1.22862    0.000
 5898.00    0.72358   1.22717    0.000
 5899.00    0.75514   1.22602    0.000
 5900.00    0.84404   1.22923    0.000
 5901.00    0.93439   1.23281    0.003
 5902.00    0.94071   1.23227    0.003
 5903.00    0.94895   1.23171    0.003
 5904.00    1.01109   1.23434    0.003
 5905.00    1.06549   1.23332    0.003
 5906.00    1.00959   1.22391    0.003
 5907.00    0.95416   1.21438    0.003
 5908.00    0.90313   1.21402    0.003
 5909.00    0.86880   1.21840    0.003
 5910.00    0.94781   1.22403    0.003
 5911.00    1.03919   1.22702    0.003
 5912.00    1.19559   1.22836    0.003
 5913.00    1.31517   1.23060    0.003
 5914.00    1.27882   1.22944    0.003
 5915.00    1.24063   1.22645    0.003
 5916.00    1.19597   1.22744    0.003
 5917.00    1.14148   1.23059    0.003
 5918.00    1.05807   1.23300    0.003
 5919.00    0.99449   1.23393    0.003
 5920.00    0.98065   1.23187    0.003
 5921.00    1.00096   1.22678    0.003
 5922.00    1.09505   1.22069    0.003
 5923.00    1.12834   1.21841    0.003
 5924.00    1.04768   1.22516    0.003
 5925.00    0.93188   1.23261    0.003
 5926.00    0.75858   1.23116    0.003
 5927.00    0.68056   1.22362    0.003
 5928.00    0.73932   1.22176    0.003
 5929.00    0.78882   1.22815    0.003
 5930.00    0.82661   1.23265    0.003
 5931.00    0.88635   1.23421    0.003
 5932.00    0.97051   1.23376    0.003
 5933.00    1.05556   1.22743    0.003
 5934.00    1.14148   1.21938    0.003
 5935.00    1.22160   1.21971    0.003
 5936.00    1.29670   1.22525    0.003
 5937.00    1.28746   1.22940    0.003
 5938.00    1.21393   1.23291    0.003
 5939.00    1.18785   1.23409    0.003
 5940.00    1.19359   1.23008    0.003
 5941.00    1.22805   1.22145    0.003
 5942.00    1.27937   1.21760    0.003
 5943.00    1.19836   1.22291    0.003
 5944.00    1.04961   1.22661    0.003
 5945.00    0.97931   1.22109    0.003
 5946.00    0.94380   1.21703    0.003
 5947.00    1.10244   1.22245    0.003
 5948.00    1.33503   1.22522    0.003
 5949.00    1.41087   1.21868    0.003
 5950.00    1.43599   1.21403    0.003
 5951.00    1.30496   1.21708    0.003
 5952.00    1.13165   1.22420    0.003
 5953.00    1.08087   1.23105    0.003
 5954.00    1.05731   1.23399    0.003
 5955.00    1.14124   1.23485    0.003
 5956.00    1.24419   1.23452    0.003
 5957.00    1.32199   1.23234    0.003
 5958.00    1.39639   1.22769    0.003
 5959.00    1.21566   1.22566    0.003
 5960.00    1.01042   1.22935    0.003
 5961.00    0.84426   1.23284    0.003
 5962.00    0.68043   1.23502    0.003
 5963.00    0.87791   1.23704    0.003
 5964.00    1.08265   1.23777    0.003
 5965.00    0.98046   1.23692    0.003
 5966.00    0.88054   1.23571    0.003
 5967.00    0.83837   1.23192    0.003
 5968.00    0.80424   1.22514    0.003
 5969.00    0.87849   1.21849    0.003
 5970.00    0.93992   1.21418    0.003
 5971.00    0.88662   1.21303    0.003
 5972.00    0.83107   1.21783    0.003
 5973.00    0.76063   1.22592    0.003
 5974.00    0.70849   1.22957    0.003
 5975.00    0.75008   1.22531    0.003
 5976.00    0.79177   1.21516    0.003
 5977.00    0.83391   1.20704    0.003
 5978.00    0.87858   1.21034    0.003
 5979.00    0.93195   1.21880    0.003
 5980.00    0.96414   1.22205    0.003
 5981.00    0.93523   1.22334    0.003
 5982.00    0.90720   1.22567    0.003
 5983.00    0.88134   1.22495    0.003
 5984.00    0.88163   1.22127    0.003
 5985.00    0.93750   1.22257    0.003
 5986.00    0.98142   1.22988    0.003
 5987.00    1.00326   1.23409    0.003
 5988.00    0.96772   1.23172    0.003
 5989.00    0.83963   1.22581    0.003
 5990.00    0.75087   1.21967    0.003
 5991.00    0.71775   1.21721    0.003
 5992.00    0.77261   1.21903    0.003
 5993.00    0.93701   1.22229    0.003
 5994.00    1.01162   1.22224    0.003
 5995.00    0.98771   1.21740    0.003
 5996.00    0.92939   1.21545    0.003
 5997.00    0.83779   1.22014    0.003
 5998.00    0.78405   1.22199    0.003
 5999.00    0.76262   1.21658    0.003
 6000.00    0.77034   1.20788    0.003
 6001.00    0.79998   1.20402    0.003
 6002.00    0.80093   1.21217    0.003
 6003.00    0.78295   1.22388    0.003
 6004.00    0.75459   1.22526    0.003
 6005.00    0.72022   1.21737    0.003
 6006.00    0.78589   1.21155    0.003
 6007.00    0.90196   1.21421    0.003
 6008.00    1.01256   1.21741    0.003
 6009.00    1.12078   1.21445    0.003
 6010.00    1.24736   1.21304    0.003
 6011.00    1.38080   1.21516    0.003
 6012.00    1.35897   1.21328    0.003
 6013.00    1.28787   1.20884    0.003
 6014.00    1.10797   1.20901    0.003
 6015.00    0.89924   1.21206    0.003
 6016.00    0.86399   1.21375    0.003
 6017.00    0.86637   1.21508    0.003
 6018.00    0.92300   1.21960    0.003
 6019.00    0.98896   1.22179    0.003
 6020.00    1.04130   1.22151    0.003
 6021.00    1.09186   1.22472    0.003
 6022.00    1.05203   1.22802    0.003
 6023.00    1.00389   1.22710    0.003
 6024.00    0.98700   1.22542    0.003
 6025.00    0.97186   1.22742    0.003
 6026.00    0.91953   1.23032    0.003
 6027.00    0.86650   1.23064    0.003
 6028.00    0.82392   1.23011    0.003
 6029.00    0.78344   1.23006    0.003
 6030.00    0.79156   1.23002    0.003
 6031.00    0.80148   1.22878    0.003
 6032.00    0.83438   1.22589    0.003
 6033.00    0.87091   1.22350    0.003
 6034.00    0.93867   1.22323    0.003
 6035.00    0.99754   1.22469    0.003
 6036.00    0.99962   1.22855    0.003
 6037.00    1.01825   1.23162    0.003
 6038.00    1.11954   1.23199    0.003
 6039.00    1.20465   1.23169    0.003
 6040.00    1.22430   1.23191    0.003
 6041.00    1.22922   1.23138    0.003
 6042.00    1.18469   1.23111    0.003
 6043.00    1.14339   1.23252    0.003
 6044.00    1.11124   1.23209    0.003
 6045.00    1.09366   1.22823    0.003
 6046.00    1.11138   1.22415    0.003
 6047.00    1.09334   1.22204    0.003
 6048.00    1.00054   1.21956    0.003
 6049.00    0.96930   1.21715    0.003
 6050.00    1.04994   1.21773    0.003
 6051.00    1.09631   1.22151    0.003
 6052.00    1.08821   1.22600    0.003
 6053.00    1.05892   1.22782    0.003
 6054.00    1.00009   1.22623    0.003
 6055.00    1.02654   1.22224    0.003
 6056.00    1.15766   1.21626    0.003
 6057.00    1.28065   1.20731    0.003
 6058.00    1.39486   1.20138    0.003
 6059.00    1.45284   1.20911    0.003
 6060.00    1.45716   1.22338    0.003
 6061.00    1.44954   1.23013    0.003
 6062.00    1.43188   1.23106    0.003
 6063.00    1.43128   1.23102    0.003
 6064.00    1.44333   1.23158    0.003
 6065.00    1.42299   1.23241    0.003
 6066.00    1.38158   1.23241    0.003
 6067.00    1.30789   1.23187    0.003
 6068.00    1.21582   1.23054    0.003
 6069.00    1.18138   1.22719    0.003
 6070.00    1.17551   1.22087    0.003
 6071.00    1.14474   1.21424    0.003
 6072.00    1.10328   1.21319    0.003
 6073.00    1.05093   1.21476    0.003
 6074.00    0.99457   1.21144    0.003
 6075.00    1.06142   1.20791    0.003
 6076.00    1.16664   1.20995    0.003
 6077.00    1.27284   1.21250    0.003
 6078.00    1.37930   1.21221    0.003
 6079.00    1.30565   1.21384    0.003
 6080.00    1.19387   1.21757    0.003
 6081.00    1.14997   1.21833    0.003
 6082.00    1.11742   1.21274    0.003
 6083.00    1.13986   1.20693    0.003
 6084.00    1.16923   1.20702    0.003
 6085.00    1.18555   1.20934    0.003
 6086.00    1.20072   1.21179    0.003
 6087.00    1.14690   1.21745    0.003
 6088.00    1.08950   1.22204    0.003
 6089.00    0.95401   1.22021    0.003
 6090.00    0.81843   1.21744    0.003
 6091.00    0.78077   1.21922    0.003
 6092.00    0.75377   1.22282    0.003
 6093.00    0.95369   1.22018    0.003
 6094.00    1.14460   1.20413    0.003
 6095.00    1.22648   1.18373    0.003
 6096.00    1.29194   1.18311    0.003
 6097.00    1.22119   1.20211    0.003
 6098.00    1.14612   1.21653    0.003
 6099.00    1.04433   1.21757    0.003
 6100.00    0.93752   1.21336    0.003
 6101.00    0.80632   1.21334    0.003
 6102.00    0.71752   1.21794    0.003
 6103.00    0.79666   1.21793    0.003
 6104.00    0.88554   1.21318    0.003
 6105.00    1.00649   1.21373    0.003
 6106.00    1.07625   1.21988    0.003
 6107.00    1.00357   1.22288    0.003
 6108.00    0.96195   1.21900    0.003
 6109.00    0.99435   1.21354    0.003
 6110.00    1.02889   1.21420    0.003
 6111.00    1.06785   1.21559    0.003
 6112.00    1.04940   1.20967    0.003
 6113.00    0.92822   1.19790    0.003
 6114.00    0.80749   1.18471    0.003
 6115.00    0.68747   1.18111    0.003
 6116.00    0.61784   1.19493    0.003
 6117.00    0.61749   1.20959    0.003
 6118.00    0.63347   1.21124    0.003
 6119.00    0.66920   1.20708    0.003
 6120.00    0.72078   1.20361    0.003
 6121.00    0.78924   1.20302    0.003
 6122.00    0.87623   1.20786    0.003
 6123.00    0.98064   1.21509    0.003
 6124.00    1.04089   1.21917    0.003
 6125.00    1.06452   1.21961    0.003
 6126.00    1.08594   1.21646    0.003
 6127.00    1.10575   1.20610    0.003
 6128.00    1.10581   1.18607    0.003
 6129.00    1.09320   1.16343    0.003
 6130.00    1.05024   1.15836    0.003
 6131.00    0.99026   1.18002    0.003
 6132.00    0.97205   1.20438    0.003
 6133.00    0.97422   1.20640    0.003
 6134.00    0.95373   1.19497    0.003
 6135.00    0.92367   1.19457    0.003
 6136.00    0.92456   1.20768    0.003
 6137.00    0.93661   1.21788    0.003
 6138.00    0.91589   1.21877    0.003
 6139.00    0.88518   1.21506    0.003
 6140.00    0.85462   1.20918    0.003
 6141.00    0.82409   1.20161    0.003
 6142.00    0.86898   1.19585    0.003
 6143.00    0.92944   1.19635    0.003
 6144.00    1.01811   1.20258    0.003
 6145.00    1.11136   1.20873    0.003
 6146.00    1.12055   1.20889    0.003
 6147.00    1.11952   1.20340    0.003
 6148.00    1.03501   1.19994    0.003
 6149.00    0.94353   1.19993    0.003
 6150.00    0.88602   1.19905    0.003
 6151.00    0.83014   1.19744    0.003
 6152.00    0.91680   1.19136    0.003
 6153.00    1.00698   1.17299    0.003
 6154.00    1.18039   1.14873    0.003
 6155.00    1.34590   1.13922    0.003
 6156.00    1.35587   1.15047    0.003
 6157.00    1.35874   1.16810    0.003
 6158.00    1.27959   1.17914    0.003
 6159.00    1.20416   1.18423    0.003
 6160.00    1.15847   1.18455    0.003
 6161.00    1.10988   1.17275    0.003
 6162.00    1.04379   1.15771    0.003
 6163.00    0.98766   1.16105    0.003
 6164.00    0.97894   1.17831    0.003
 6165.00    1.00313   1.18779    0.003
 6166.00    1.15481   1.18705    0.003
 6167.00    1.24175   1.18644    0.003
 6168.00    1.11974   1.18654    0.003
 6169.00    0.99441   1.18575    0.003
 6170.00    0.86000   1.18804    0.003
 6171.00    0.79086   1.19249    0.003
 6172.00    0.87458   1.19301    0.003
 6173.00    0.98481   1.19280    0.003
 6174.00    1.14872   1.19637    0.003
 6175.00    1.26724   1.19909    0.003
 6176.00    1.30574   1.19862    0.003
 6177.00    1.31758   1.19676    0.003
 6178.00    1.28829   1.19170    0.003
 6179.00    1.20989   1.18435    0.003
 6180.00    1.06498   1.17999    0.003
 6181.00    0.98616   1.17910    0.003
 6182.00    0.98617   1.17580    0.003
 6183.00    0.97954   1.16429    0.003
 6184.00    0.96594   1.15545    0.003
 6185.00    0.96473   1.16433    0.003
 6186.00    0.97501   1.18092    0.003
 6187.00    0.95120   1.18960    0.003
 6188.00    0.89953   1.19231    0.003
 6189.00    0.87737   1.19460    0.003
 6190.00    0.87645   1.19363    0.003
 6191.00    0.96782   1.18510    0.003
 6192.00    1.11748   1.17548    0.003
 6193.00    1.19097   1.17591    0.003
 6194.00    1.22240   1.18536    0.003
 6195.00    1.79285   1.19313    0.003
 6196.00    2.62213   1.19478   -2.000
 6197.00    3.82105   1.19361   -2.000
 6198.00    5.17319   1.19364   -2.000
 6199.00    5.41157   1.19515   -2.000
 6200.00    5.25518   1.19599   -2.000
 6201.00    4.33841   1.19524   -2.000
 6202.00    3.19409   1.19271   -2.000
 6203.00    2.09175   1.18911   -2.000
 6204.00    0.99984   1.18507   -2.000
 6205.00    0.67324   1.17647   -2.000
 6206.00    0.50073   1.16428   -2.000
 6207.00    0.71918   1.15723   -2.000
 6208.00    0.99930   1.15807    0.003
 6209.00    1.04819   1.16532    0.003
 6210.00    1.06998   1.17288    0.003
 6211.00    0.99825   1.17179    0.003
 6212.00    0.91909   1.16480    0.003
 6213.00    0.97009   1.16263    0.003
 6214.00    1.02681   1.16746    0.003
 6215.00    0.96795   1.17268    0.003
 6216.00    0.90759   1.17297    0.003
 6217.00    0.83636   1.17183    0.003
 6218.00    0.76955   1.17383    0.003
 6219.00    0.78371   1.17632    0.003
 6220.00    0.80205   1.17652    0.003
 6221.00    0.86649   1.17124    0.003
 6222.00    0.93245   1.15707    0.003
 6223.00    1.01019   1.14355    0.003
 6224.00    1.07251   1.14385    0.003
 6225.00    1.04465   1.15396    0.003
 6226.00    1.02756   1.16658    0.003
 6227.00    1.06043   1.17873    0.003
 6228.00    1.09082   1.18378    0.003
 6229.00    1.11180   1.17989    0.003
 6230.00    1.11776   1.17150    0.003
 6231.00    1.07620   1.16215    0.003
 6232.00    1.03219   1.15532    0.003
 6233.00    0.98161   1.15649    0.003
 6234.00    0.92093   1.16042    0.003
 6235.00    0.83701   1.15657    0.003
 6236.00    0.77593   1.15236    0.003
 6237.00    0.76039   1.15435    0.003
 6238.00    0.74919   1.15506    0.003
 6239.00    0.74555   1.15670    0.003
 6240.00    0.72440   1.16505    0.003
 6241.00    0.67667   1.17381    0.003
 6242.00    0.70184   1.17721    0.003
 6243.00    0.82434   1.17345    0.003
 6244.00    0.88364   1.16147    0.003
 6245.00    0.86864   1.15092    0.003
 6246.00    0.84301   1.15053    0.003
 6247.00    0.80636   1.15450    0.003
 6248.00    0.78241   1.15401    0.003
 6249.00    0.77007   1.14753    0.003
 6250.00    0.79785   1.13958    0.003
 6251.00    0.85796   1.13931    0.003
 6252.00    0.92123   1.15000    0.003
 6253.00    0.98674   1.16027    0.003
 6254.00    0.98381   1.16688    0.003
 6255.00    0.93829   1.17552    0.003
 6256.00    0.87367   1.17889    0.003
 6257.00    0.79869   1.17178    0.003
 6258.00    1.02567   1.16644    0.003
 6259.00    1.39534   1.17027    0.003
 6260.00    1.77948   1.17376    0.003
 6261.00    2.16951   1.17129    0.003
 6262.00    2.09859   1.16870    0.003
 6263.00    1.86726   1.17066    0.004
 6264.00    1.41571   1.17530    0.003
 6265.00    0.89956   1.17824    0.003
 6266.00    0.64862   1.17760    0.003
 6267.00    0.46212   1.17615    0.003
 6268.00    0.50345   1.17663    0.003
 6269.00    0.58951   1.17758    0.003
 6270.00    0.75690   1.17730    0.003
 6271.00    0.93672   1.17437    0.003
 6272.00    0.96656   1.16795    0.003
 6273.00    0.97949   1.16387    0.003
 6274.00    0.98582   1.16639    0.003
 6275.00    0.99166   1.17220    0.003
 6276.00    1.00390   1.17658    0.003
 6277.00    1.01639   1.17650    0.003
 6278.00    0.98756   1.17647    0.003
 6279.00    0.95973   1.18109    0.003
 6280.00    0.98504   1.18672    0.000
 6281.00    1.01333   1.18914    0.000
 6282.00    1.09239   1.18629    0.000
 6283.00    1.15880   1.18036    0.000
 6284.00    1.09212   1.17573    0.000
 6285.00    1.03014   1.17398    0.000
 6286.00    1.00326   1.17634    0.000
 6287.00    0.97483   1.17795    0.000
 6288.00    0.93760   1.17176    0.000
 6289.00    0.89964   1.16280    0.000
 6290.00    0.85835   1.16124    0.000
 6291.00    0.83190   1.16690    0.000
 6292.00    0.86056   1.16966    0.000
 6293.00    0.88787   1.16450    0.000
 6294.00    0.91103   1.15858    0.000
 6295.00    0.91759   1.16071    0.000
 6296.00    0.88042   1.16779    0.000
 6297.00    0.84435   1.17066    0.000
 6298.00    0.81082   1.17116    0.000
 6299.00    0.79450   1.17717    0.000
 6300.00    0.81192   1.18454    0.000
 6301.00    0.82739   1.18574    0.000
 6302.00    0.83951   1.18091    0.000
 6303.00    0.84150   1.17440    0.000
 6304.00    0.82835   1.17106    0.000
 6305.00    0.83663   1.17285    0.000
 6306.00    0.87314   1.17174    0.000
 6307.00    0.90466   1.16506    0.000
 6308.00    0.93039   1.16268    0.000
 6309.00    0.91983   1.16342    0.000
 6310.00    0.87219   1.15825    0.000
 6311.00    0.79606   1.15584    0.000
 6312.00    0.69423   1.16342    0.000
 6313.00    0.62182   1.17154    0.000
 6314.00    0.57279   1.17349    0.000
 6315.00    0.54533   1.17426    0.000
 6316.00    0.53296   1.17829    0.000
 6317.00    0.57555   1.18175    0.000
 6318.00    0.65184   1.18238    0.000
 6319.00    0.71209   1.18063    0.000
 6320.00    0.76375   1.18033    0.000
 6321.00    0.69176   1.18192    0.003
 6322.00    0.56228   1.17994    0.003
 6323.00    0.52541   1.17789    0.003
 6324.00    0.52562   1.18129    0.003
 6325.00    0.69156   1.18618    0.003
 6326.00    0.91410   1.18322    0.003
 6327.00    1.02956   1.16887    0.003
 6328.00    1.11423   1.15576    0.003
 6329.00    1.13558   1.15682    0.003
 6330.00    1.14188   1.16624    0.003
 6331.00    1.15014   1.17238    0.003
 6332.00    1.15877   1.17712    0.003
 6333.00    1.03061   1.18219    0.003
 6334.00    0.88217   1.18153    0.003
 6335.00    0.77149   1.17378    0.003
 6336.00    0.66491   1.16483    0.003
 6337.00    0.75090   1.16188    0.003
 6338.00    0.85059   1.15999    0.003
 6339.00    0.99728   1.15864    0.003
 6340.00    1.14568   1.16265    0.003
 6341.00    1.10760   1.17271    0.003
 6342.00    1.06487   1.18020    0.003
 6343.00    0.88312   1.18259    0.003
 6344.00    0.71016   1.18307    0.003
 6345.00    0.67767   1.18019    0.003
 6346.00    0.66177   1.17231    0.003
 6347.00    0.81301   1.16544    0.003
 6348.00    0.95634   1.16654    0.003
 6349.00    1.04262   1.16851    0.003
 6350.00    1.10904   1.16186    0.003
 6351.00    1.06558   1.15352    0.003
 6352.00    1.02572   1.15221    0.003
 6353.00    1.00184   1.15240    0.003
 6354.00    0.96332   1.14887    0.003
 6355.00    0.87159   1.14745    0.003
 6356.00    0.78849   1.15184    0.003
 6357.00    0.73165   1.15839    0.003
 6358.00    0.71238   1.16352    0.003
 6359.00    0.79045   1.16956    0.003
 6360.00    0.86474   1.17548    0.003
 6361.00    0.93061   1.17653    0.003
 6362.00    0.97136   1.16898    0.003
 6363.00    0.96362   1.16271    0.003
 6364.00    0.96263   1.16656    0.003
 6365.00    0.97299   1.17620    0.003
 6366.00    0.97806   1.18242    0.003
 6367.00    0.97533   1.18271    0.003
 6368.00    0.92833   1.18258    0.003
 6369.00    0.82392   1.18194    0.003
 6370.00    0.75228   1.17718    0.003
 6371.00    0.71812   1.17079    0.003
 6372.00    0.73594   1.16782    0.003
 6373.00    0.80618   1.16830    0.003
 6374.00    0.82159   1.17179    0.003
 6375.00    0.78826   1.17523    0.003
 6376.00    0.72209   1.17394    0.003
 6377.00    0.63019   1.17224    0.003
 6378.00    0.57238   1.17463    0.003
 6379.00    0.53805   1.17782    0.003
 6380.00    0.59074   1.17837    0.003
 6381.00    0.69598   1.17807    0.003
 6382.00    0.76660   1.17860    0.003
 6383.00    0.81898   1.17785    0.003
 6384.00    0.80985   1.16927    0.003
 6385.00    0.77260   1.15461    0.003
 6386.00    0.77915   1.15032    0.003
 6387.00    0.80294   1.16182    0.003
 6388.00    0.82755   1.17541    0.003
 6389.00    0.85243   1.18228    0.003
 6390.00    0.91884   1.18018    0.003
 6391.00    0.99695   1.16521    0.003
 6392.00    1.08791   1.14690    0.003
 6393.00    1.18185   1.14903    0.003
 6394.00    1.26750   1.16731    0.003
 6395.00    1.35160   1.17987    0.003
 6396.00    1.35270   1.18335    0.003
 6397.00    1.34186   1.18152    0.003
 6398.00    1.18459   1.17612    0.003
 6399.00    1.01208   1.16785    0.003
 6400.00    0.92830   1.16148    0.003
 6401.00    0.85048   1.16637    0.003
 6402.00    0.86584   1.17263    0.003
 6403.00    0.88423   1.16719    0.003
 6404.00    0.86297   1.16093    0.003
 6405.00    0.84124   1.16362    0.003
 6406.00    0.80501   1.16891    0.003
 6407.00    0.76922   1.17201    0.003
 6408.00    0.74001   1.17359    0.003
 6409.00    0.71129   1.17323    0.003
 6410.00    0.68718   1.17194    0.003
 6411.00    0.65599   1.16717    0.003
 6412.00    0.57532   1.15729    0.003
 6413.00    0.51720   1.15090    0.003
 6414.00    0.58059   1.15880    0.003
 6415.00    0.65550   1.17413    0.003
 6416.00    0.78020   1.18175    0.003
 6417.00    0.86637   1.18133    0.003
 6418.00    0.81541   1.18164    0.003
 6419.00    0.75345   1.18443    0.003
 6420.00    0.65863   1.18501    0.003
 6421.00    0.64168   1.17862    0.003
 6422.00    0.82297   1.16356    0.003
 6423.00    1.00089   1.15148    0.003
 6424.00    1.17141   1.15438    0.003
 6425.00    1.28764   1.16521    0.003
 6426.00    1.30066   1.17391    0.003
 6427.00    1.27594   1.17876    0.003
 6428.00    1.18863   1.18090    0.003
 6429.00    1.10707   1.17729    0.003
 6430.00    1.03387   1.16256    0.003
 6431.00    0.98625   1.14935    0.003
 6432.00    0.97134   1.15603    0.003
 6433.00    0.94758   1.17368    0.003
 6434.00    0.91384   1.18387    0.003
 6435.00    0.84064   1.18597    0.003
 6436.00    0.72823   1.18586    0.003
 6437.00    0.69959   1.18630    0.003
 6438.00    0.74436   1.18756    0.003
 6439.00    0.81926   1.18665    0.004
 6440.00    0.91741   1.17609    0.013
 6441.00    1.06433   1.15213   -1.000
 6442.00    1.24435   1.13351   -1.000
 6443.00    1.45417   1.14081   -1.000
 6444.00    1.68171   1.16078   -1.000
 6445.00    1.74063   1.17434   -1.000
 6446.00    1.71205   1.17526   -1.000
 6447.00    1.56480   1.16371   -1.000
 6448.00    1.36415   1.15319   -1.000
 6449.00    1.13934   1.15793    0.008
 6450.00    0.90518   1.17160    0.003
 6451.00    0.74687   1.18220    0.003
 6452.00    0.61353   1.18436    0.003
 6453.00    0.54276   1.17359    0.003
 6454.00    0.48925   1.15024    0.003
 6455.00    0.47023   1.13842    0.003
 6456.00    0.45903   1.15081    0.003
 6457.00    0.52370   1.16726    0.003
 6458.00    0.60213   1.17596    0.003
 6459.00    0.65252   1.17972    0.003
 6460.00    0.69901   1.17977    0.003
 6461.00    0.79971   1.17554    0.003
 6462.00    0.90582   1.17028    0.003
 6463.00    1.00084   1.16463    0.003
 6464.00    1.09516   1.16324    0.003
 6465.00    1.00741   1.16927    0.003
 6466.00    0.91429   1.17127    0.003
 6467.00    0.78563   1.16611    0.003
 6468.00    0.66275   1.16548    0.003
 6469.00    0.70095   1.17132    0.003
 6470.00    0.74376   1.17439    0.003
 6471.00    0.85195   1.17352    0.003
 6472.00    0.95144   1.17032    0.003
 6473.00    0.97036   1.16016    0.003
 6474.00    0.98861   1.14754    0.003
 6475.00    1.00236   1.14486    0.003
 6476.00    1.01536   1.15297    0.003
 6477.00    1.02440   1.16189    0.003
 6478.00    1.00938   1.16659    0.003
 6479.00    0.89285   1.16851    0.003
 6480.00    0.77607   1.16901    0.003
 6481.00    0.65841   1.16614    0.003
 6482.00    0.58213   1.15989    0.003
 6483.00    0.62722   1.15475    0.003
 6484.00    0.68441   1.15002    0.003
 6485.00    0.77185   1.13522    0.003
 6486.00    0.83728   1.10977    0.003
 6487.00    0.85528   1.09419    0.003
 6488.00    0.85055   1.09562    0.003
 6489.00    0.80332   1.10601    0.003
 6490.00    0.77913   1.11940    0.003
 6491.00    0.79260   1.12713    0.003
 6492.00    0.83086   1.13561    0.003
 6493.00    0.90463   1.14687    0.003
 6494.00    0.97232   1.15466    0.003
 6495.00    1.03236   1.15862    0.003
 6496.00    1.02386   1.16007    0.003
 6497.00    0.93922   1.16185    0.003
 6498.00    0.86321   1.16415    0.003
 6499.00    0.79565   1.16294    0.003
 6500.00    0.79390   1.15815    0.003
 6501.00    0.84902   1.15682    0.003
 6502.00    0.90566   1.16047    0.003
 6503.00    0.96346   1.16411    0.003
 6504.00    0.99563   1.16376    0.003
 6505.00    1.01067   1.16257    0.003
 6506.00    0.98703   1.15978    0.003
 6507.00    0.94073   1.15288    0.003
 6508.00    0.87332   1.14617    0.003
 6509.00    0.79511   1.14383    0.002
 6510.00    0.72741   1.14210    0.003
 6511.00    0.66436   1.14380    0.003
 6512.00    0.64192   1.15189    0.003
 6513.00    0.63490   1.15878    0.003
 6514.00    0.67800   1.15950    0.003
 6515.00    0.73727   1.15745    0.003
 6516.00    0.74132   1.15630    0.003
 6517.00    0.73045   1.15516    0.003
 6518.00    0.68684   1.14903    0.003
 6519.00    0.63598   1.14334    0.003
 6520.00    0.63483   1.14499    0.003
 6521.00    0.64245   1.15020    0.003
 6522.00    0.63651   1.15276    0.003
 6523.00    0.62874   1.14893    0.003
 6524.00    0.64831   1.14257    0.003
 6525.00    0.67049   1.13923    0.003
 6526.00    0.63598   1.14270    0.003
 6527.00    0.59812   1.14849    0.003
 6528.00    0.49413   1.15020    0.000
 6529.00    0.38970   1.14606    0.000
 6530.00    0.46372   1.14349    0.000
 6531.00    0.53964   1.14632    0.000
 6532.00    0.66345   1.14903    0.000
 6533.00    0.77981   1.14590    0.000
 6534.00    0.79638   1.13839    0.000
 6535.00    0.80578   1.13108    0.000
 6536.00    0.75124   1.12473    0.000
 6537.00    0.69489   1.11456    0.000
 6538.00    0.62664   1.10205    0.000
 6539.00    0.57469   1.09920    0.000
 6540.00    0.60605   1.10509    0.000
 6541.00    0.65546   1.10715    0.000
 6542.00    0.77939   1.10094    0.000
 6543.00    0.86280   1.09064    0.000
 6544.00    0.80775   1.08133    0.000
 6545.00    0.73699   1.07093    0.000
 6546.00    0.62097   1.05500    0.000
 6547.00    0.55238   1.03680    0.000
 6548.00    0.60042   1.02184    0.000
 6549.00    0.65555   1.00948    0.000
 6550.00    0.72571   0.99083    0.000
 6551.00    0.76867   0.96423    0.000
 6552.00    0.76148   0.92459    0.000
 6553.00    0.73528   0.85336    0.000
 6554.00    0.67847   0.75348    0.000
 6555.00    0.63640   0.70731    0.000
 6556.00    0.61514   0.77145    0.000
 6557.00    0.65040   0.87463    0.000
 6558.00    0.75588   0.94629    0.000
 6559.00    0.87772   0.98816    0.000
 6560.00    1.01746   1.01140    0.000
 6561.00    1.09791   1.02377    0.000
 6562.00    1.12108   1.03805    0.000
 6563.00    1.09491   1.05318    0.000
 6564.00    1.02671   1.05921    0.000
 6565.00    0.94925   1.05933    0.000
 6566.00    0.86483   1.06240    0.000
 6567.00    0.76483   1.07246    0.000
 6568.00    0.65456   1.08773    0.000
 6569.00    0.61696   1.10084    0.000
 6570.00    0.62131   1.10819    0.000
 6571.00    0.67129   1.11109    0.000
 6572.00    0.74419   1.11047    0.000
 6573.00    0.78869   1.10886    0.000
 6574.00    0.82081   1.11206    0.000
 6575.00    0.78729   1.12042    0.000
 6576.00    0.72924   1.12466    0.000
 6577.00    0.76041   1.12706    0.000
 6578.00    0.81982   1.12638    0.000
 6579.00    0.84521   1.12995    0.000
 6580.00    0.86160   1.13741    0.000
 6581.00    0.84189   1.14186    0.000
 6582.00    0.81437   1.14364    0.000
 6583.00    0.78664   1.13801    0.000
 6584.00    0.75888   1.11974    0.000
 6585.00    0.73565   1.10313    0.000
 6586.00    0.71301   1.10789    0.000
 6587.00    0.73978   1.12677    0.000
 6588.00    0.77106   1.13805    0.000
 6589.00    0.84432   1.13767    0.000
 6590.00    0.91989   1.13179    0.000
 6591.00    0.85655   1.13137    0.000
 6592.00    0.78931   1.14013    0.000
 6593.00    0.63384   1.14873    0.000
 6594.00    0.48412   1.15017    0.000
 6595.00    0.46630   1.14760    0.000
 6596.00    0.45503   1.14273    0.000
 6597.00    0.52671   1.13750    0.000
 6598.00    0.59576   1.13555    0.000
 6599.00    0.64218   1.13400    0.000
 6600.00    0.68280   1.12955    0.000
 6601.00    0.68652   1.12432    0.000
 6602.00    0.69528   1.13116    0.000
 6603.00    0.72913   1.14481    0.000
 6604.00    0.76501   1.14939    0.000
 6605.00    0.80907   1.14388    0.000
 6606.00    0.83248   1.14121    0.000
 6607.00    0.78674   1.14763    0.000
 6608.00    0.73502   1.15198    0.000
 6609.00    0.66639   1.15092    0.003
 6610.00    0.61456   1.14900    0.003
 6611.00    0.60334   1.15044    0.003
 6612.00    0.60692   1.15207    0.003
 6613.00    0.64139   1.15273    0.003
 6614.00    0.66696   1.15075    0.003
 6615.00    0.67640   1.14450    0.003
 6616.00    0.70766   1.13480    0.003
 6617.00    0.77352   1.13075    0.003
 6618.00    0.81410   1.13682    0.003
 6619.00    0.81948   1.14233    0.003
 6620.00    0.78576   1.14322    0.003
 6621.00    0.70413   1.14191    0.003
 6622.00    0.66232   1.14002    0.003
 6623.00    0.66351   1.13824    0.003
 6624.00    0.68810   1.13394    0.003
 6625.00    0.73496   1.12591    0.003
 6626.00    0.75546   1.12292    0.003
 6627.00    0.75382   1.13043    0.003
 6628.00    0.74383   1.13962    0.003
 6629.00    0.72767   1.14417    0.003
 6630.00    0.67146   1.14456    0.003
 6631.00    0.58924   1.14190    0.003
 6632.00    0.50203   1.14055    0.003
 6633.00    0.41199   1.14420    0.003
 6634.00    0.43304   1.14234    0.003
 6635.00    0.50905   1.13117    0.003
 6636.00    0.57242   1.12742    0.003
 6637.00    0.63038   1.13564    0.003
 6638.00    0.65521   1.14145    0.003
 6639.00    0.66791   1.14043    0.003
 6640.00    0.67103   1.14002    0.003
 6641.00    0.67118   1.14152    0.003
 6642.00    0.65471   1.14202    0.003
 6643.00    0.63393   1.13982    0.002
 6644.00    0.60195   1.13763    0.002
 6645.00    0.56759   1.13806    0.003
 6646.00    0.56726   1.13874    0.003
 6647.00    0.57261   1.13951    0.003
 6648.00    0.62321   1.13861    0.003
 6649.00    0.67950   1.13815    0.003
 6650.00    0.80359   1.13971    0.003
 6651.00    0.93359   1.13932    0.003
 6652.00    0.90204   1.13626    0.003
 6653.00    0.86221   1.13340    0.003
 6654.00    0.89905   1.12757    0.003
 6655.00    0.93594   1.11919    0.003
 6656.00    0.88073   1.12037    0.003
 6657.00    0.82480   1.12732    0.003
 6658.00    0.75352   1.12862    0.003
 6659.00    0.68461   1.12762    0.003
 6660.00    0.64411   1.12964    0.003
 6661.00    0.59880   1.13540    0.003
 6662.00    0.51384   1.14085    0.003
 6663.00    0.44220   1.14285    0.003
 6664.00    0.45275   1.14147    0.002
 6665.00    0.47280   1.14028    0.002
 6666.00    0.53900   1.13967    0.003
 6667.00    0.59096   1.13727    0.003
 6668.00    0.58665   1.12149    0.003
 6669.00    0.60605   1.08736    0.003
 6670.00    0.70329   1.06773    0.003
 6671.00    0.75883   1.07941    0.003
 6672.00    0.69860   1.10754    0.003
 6673.00    0.62564   1.12302    0.003
 6674.00    0.52244   1.12460    0.003
 6675.00    0.43469   1.12715    0.003
 6676.00    0.37863   1.13016    0.003
 6677.00    0.34259   1.13230    0.003
 6678.00    0.34231   1.13280    0.003
 6679.00    0.36549   1.13216    0.003
 6680.00    0.42530   1.13199    0.003
 6681.00    0.51742   1.13333    0.003
 6682.00    0.65385   1.13529    0.003
 6683.00    0.75861   1.13617    0.003
 6684.00    0.82510   1.13582    0.003
 6685.00    0.85916   1.13539    0.003
 6686.00    0.85867   1.13395    0.003
 6687.00    0.82141   1.12886    0.003
 6688.00    0.74961   1.12272    0.003
 6689.00    0.67801   1.12207    0.003
 6690.00    0.60656   1.12596    0.003
 6691.00    0.61541   1.13066    0.003
 6692.00    0.68277   1.13545    0.003
 6693.00    0.72839   1.13702    0.003
 6694.00    0.76010   1.13475    0.003
 6695.00    0.70077   1.12958    0.003
 6696.00    0.59048   1.12549    0.000
 6697.00    0.57623   1.12690    0.000
 6698.00    0.60876   1.13100    0.000
 6699.00    0.64599   1.13321    0.000
 6700.00    0.68520   1.13317    0.000
 6701.00    0.68625   1.13150    0.000
 6702.00    0.67355   1.12838    0.000
 6703.00    0.63156   1.12872    0.000
 6704.00    0.58065   1.12979    0.000
 6705.00    0.63284   1.12720    0.000
 6706.00    0.71114   1.12251    0.000
 6707.00    0.75762   1.11681    0.000
 6708.00    0.79753   1.10932    0.000
 6709.00    0.73888   1.10139    0.000
 6710.00    0.66426   1.10345    0.000
 6711.00    0.65144   1.11633    0.000
 6712.00    0.64611   1.12406    0.000
 6713.00    0.78543   1.12365    0.000
 6714.00    0.93675   1.12292    0.000
 6715.00    0.98595   1.12596    0.000
 6716.00    1.03031   1.12706    0.000
 6717.00    1.00353   1.12408    0.000
 6718.00    0.97648   1.12133    0.000
 6719.00    0.99032   1.12293    0.000
 6720.00    0.99515   1.12653    0.000
 6721.00    0.82451   1.12886    0.000
 6722.00    0.64433   1.13032    0.000
 6723.00    0.35484   1.12986    0.000
 6724.00    0.11078   1.12756    0.000
 6725.00    0.22865   1.12559    0.000
 6726.00    0.37503   1.12537    0.000
 6727.00    0.69243   1.12710    0.000
 6728.00    0.95103   1.12841    0.000
 6729.00    0.93100   1.12610    0.000
 6730.00    0.87767   1.12055    0.000
 6731.00    0.69565   1.11764    0.000
 6732.00    0.55339   1.12049    0.000
 6733.00    0.53917   1.12308    0.000
 6734.00    0.54497   1.11964    0.000
 6735.00    0.60534   1.11566    0.000
 6736.00    0.66258   1.11852    0.000
 6737.00    0.71252   1.12173    0.000
 6738.00    0.73557   1.12047    0.000
 6739.00    0.70426   1.11852    0.000
 6740.00    0.67975   1.11604    0.000
 6741.00    0.66719   1.11292    0.000
 6742.00    0.69417   1.11209    0.000
 6743.00    0.78202   1.11481    0.000
 6744.00    0.82742   1.11419    0.000
 6745.00    0.81544   1.11286    0.000
 6746.00    0.77892   1.11804    0.000
 6747.00    0.71320   1.12218    0.000
 6748.00    0.69225   1.12376    0.000
 6749.00    0.71830   1.12639    0.000
 6750.00    0.74157   1.12964    0.000
 6751.00    0.76225   1.13151    0.000
 6752.00    0.82024   1.13180    0.000
 6753.00    0.90867   1.12995    0.003
 6754.00    0.97873   1.12813    0.003
 6755.00    1.03560   1.12916    0.003
 6756.00    0.95155   1.12959    0.003
 6757.00    0.77865   1.12666    0.003
 6758.00    0.62057   1.12004    0.003
 6759.00    0.47067   1.11407    0.003
 6760.00    0.57436   1.11510    0.003
 6761.00    0.79959   1.11981    0.003
 6762.00    0.83221   1.11965    0.003
 6763.00    0.78516   1.11652    0.003
 6764.00    0.65092   1.11872    0.003
 6765.00    0.48585   1.12553    0.003
 6766.00    0.49264   1.13079    0.003
 6767.00    0.55074   1.13343    0.003
 6768.00    0.64929   1.13373    0.003
 6769.00    0.75785   1.13258    0.003
 6770.00    0.86898   1.13267    0.003
 6771.00    0.98061   1.13379    0.003
 6772.00    0.96827   1.13273    0.003
 6773.00    0.93645   1.12820    0.003
 6774.00    0.84640   1.12060    0.003
 6775.00    0.74957   1.11221    0.003
 6776.00    0.62417   1.10755    0.003
 6777.00    0.49652   1.10875    0.003
 6778.00    0.45861   1.11311    0.003
 6779.00    0.42460   1.11844    0.003
 6780.00    0.49663   1.12262    0.003
 6781.00    0.56628   1.12267    0.003
 6782.00    0.47324   1.12159    0.003
 6783.00    0.38522   1.12233    0.003
 6784.00    0.38822   1.12138    0.003
 6785.00    0.39818   1.11745    0.003
 6786.00    0.48437   1.11613    0.003
 6787.00    0.56165   1.11807    0.003
 6788.00    0.57041   1.12003    0.003
 6789.00    0.56619   1.12140    0.003
 6790.00    0.48632   1.12219    0.003
 6791.00    0.43487   1.12294    0.003
 6792.00    0.51491   1.12506    0.003
 6793.00    0.59751   1.12656    0.003
 6794.00    0.68981   1.12610    0.003
 6795.00    0.72605   1.12413    0.003
 6796.00    0.58526   1.12287    0.003
 6797.00    0.45139   1.12317    0.003
 6798.00    0.33606   1.12168    0.003
 6799.00    0.30913   1.12038    0.003
 6800.00    0.48534   1.12264    0.003
 6801.00    0.62384   1.12231    0.003
 6802.00    0.68736   1.12047    0.003
 6803.00    0.74453   1.12164    0.003
 6804.00    0.79071   1.12315    0.003
 6805.00    0.76465   1.12197    0.003
 6806.00    0.62901   1.11742    0.003
 6807.00    0.55381   1.11512    0.003
 6808.00    0.55916   1.11944    0.003
 6809.00    0.64876   1.12505    0.003
 6810.00    0.83725   1.12480    0.003
 6811.00    0.99126   1.12094    0.003
 6812.00    1.10958   1.11870    0.003
 6813.00    1.14178   1.12154    0.003
 6814.00    1.09536   1.12632    0.003
 6815.00    0.94553   1.12839    0.003
 6816.00    0.71249   1.12919    0.003
 6817.00    0.60784   1.12954    0.003
 6818.00    0.59408   1.12717    0.003
 6819.00    0.59537   1.12105    0.003
 6820.00    0.60603   1.11579    0.003
 6821.00    0.53652   1.11722    0.003
 6822.00    0.42351   1.12271    0.003
 6823.00    0.47292   1.12549    0.003
 6824.00    0.59893   1.12378    0.003
 6825.00    0.65063   1.12299    0.003
 6826.00    0.67212   1.12570    0.003
 6827.00    0.66302   1.12793    0.003
 6828.00    0.64329   1.12690    0.003
 6829.00    0.67955   1.12336    0.003
 6830.00    0.73219   1.11895    0.003
 6831.00    0.80247   1.11338    0.003
 6832.00    0.87702   1.10720    0.003
 6833.00    0.94859   1.10174    0.003
 6834.00    1.01959   1.10156    0.003
 6835.00    1.02829   1.10797    0.003
 6836.00    1.02750   1.11682    0.003
 6837.00    1.08830   1.12225    0.003
 6838.00    1.15601   1.12341    0.003
 6839.00    1.11811   1.12311    0.003
 6840.00    1.07231   1.12328    0.003
 6841.00    0.88536   1.12265    0.003
 6842.00    0.69280   1.12169    0.003
 6843.00    0.57767   1.12144    0.003
 6844.00    0.47170   1.12210    0.003
 6845.00    0.70879   1.12043    0.003
 6846.00    0.92161   1.11326    0.003
 6847.00    0.72432   1.10699    0.003
 6848.00    0.54084   1.10788    0.003
 6849.00    0.50175   1.11160    0.003
 6850.00    0.47963   1.11411    0.003
 6851.00    0.58359   1.11473    0.003
 6852.00    0.67079   1.11061    0.003
 6853.00    0.66296   1.10519    0.003
 6854.00    0.65498   1.10793    0.003
 6855.00    0.64630   1.11768    0.003
 6856.00    0.65138   1.12454    0.003
 6857.00    0.70739   1.12347    0.003
 6858.00    0.73493   1.11771    0.003
 6859.00    0.67428   1.11155    0.003
 6860.00    0.64524   1.10888    0.003
 6861.00    0.69937   1.11214    0.003
 6862.00    0.74190   1.11569    0.003
 6863.00    0.75824   1.11336    0.003
 6864.00    0.77352   1.11005    0.003
 6865.00    0.78674   1.11228    0.003
 6866.00    0.72636   1.11599    0.003
 6867.00    0.54040   1.11745    0.003
 6868.00    0.41391   1.11960    0.003
 6869.00    0.37634   1.12340    0.003
 6870.00    0.35073   1.12590    0.003
 6871.00    0.34084   1.12472    0.003
 6872.00    0.34370   1.12040    0.003
 6873.00    0.36131   1.11322    0.003
 6874.00    0.35706   1.10727    0.003
 6875.00    0.33051   1.10826    0.003
 6876.00    0.42181   1.11367    0.003
 6877.00    0.61920   1.11603    0.003
 6878.00    0.65857   1.11560    0.003
 6879.00    0.57260   1.11782    0.003
 6880.00    0.52454   1.12089    0.003
 6881.00    0.50291   1.12111    0.003
 6882.00    0.54201   1.12144    0.003
 6883.00    0.61826   1.12236    0.003
 6884.00    0.62588   1.12173    0.003
 6885.00    0.59683   1.12119    0.003
 6886.00    0.54321   1.12147    0.003
 6887.00    0.47817   1.12038    0.003
 6888.00    0.50723   1.12040    0.003
 6889.00    0.57389   1.12279    0.003
 6890.00    0.68835   1.12418    0.003
 6891.00    0.81911   1.12228    0.003
 6892.00    0.77263   1.11995    0.003
 6893.00    0.67534   1.12235    0.003
 6894.00    0.62172   1.12651    0.003
 6895.00    0.57844   1.12762    0.003
 6896.00    0.56902   1.12584    0.003
 6897.00    0.56606   1.12496    0.003
 6898.00    0.64364   1.12754    0.003
 6899.00    0.73311   1.13069    0.003
 6900.00    0.80041   1.13126    0.003
 6901.00    0.86530   1.13043    0.003
 6902.00    0.82236   1.12844    0.003
 6903.00    0.77180   1.12538    0.003
 6904.00    0.62735   1.12233    0.003
 6905.00    0.47953   1.11792    0.003
 6906.00    0.44685   1.11463    0.003
 6907.00    0.41752   1.11610    0.003
 6908.00    0.49113   1.11835    0.003
 6909.00    0.56155   1.11983    0.003
 6910.00    0.58171   1.12242    0.003
 6911.00    0.60166   1.12485    0.003
 6912.00    0.61960   1.12806    0.003
 6913.00    0.64646   1.13060    0.003
 6914.00    0.73750   1.12918    0.003
 6915.00    0.81391   1.12276    0.003
 6916.00    0.80972   1.11435    0.003
 6917.00    0.77196   1.11098    0.003
 6918.00    0.58626   1.11553    0.003
 6919.00    0.43040   1.12299    0.003
 6920.00    0.38274   1.12705    0.003
 6921.00    0.38107   1.12763    0.003
 6922.00    0.51913   1.12728    0.003
 6923.00    0.60966   1.12570    0.003
 6924.00    0.57730   1.12114    0.003
 6925.00    0.55562   1.11856    0.003
 6926.00    0.55763   1.12241    0.003
 6927.00    0.60112   1.12659    0.003
 6928.00    0.72455   1.12675    0.003
 6929.00    0.77677   1.12566    0.003
 6930.00    0.70934   1.12621    0.003
 6931.00    0.66821   1.12859    0.003
 6932.00    0.66584   1.13160    0.003
 6933.00    0.64085   1.13248    0.003
 6934.00    0.58655   1.12937    0.003
 6935.00    0.57863   1.12309    0.003
 6936.00    0.62360   1.11571    0.003
 6937.00    0.65944   1.11348    0.003
 6938.00    0.68609   1.12009    0.003
 6939.00    0.67941   1.12826    0.003
 6940.00    0.64313   1.13215    0.003
 6941.00    0.67595   1.13178    0.003
 6942.00    0.76281   1.12732    0.003
 6943.00    0.75530   1.12196    0.003
 6944.00    0.68289   1.12021    0.003
 6945.00    0.61290   1.12009    0.003
 6946.00    0.54436   1.12090    0.003
 6947.00    0.54949   1.12427    0.003
 6948.00    0.59339   1.12823    0.003
 6949.00    0.57237   1.13025    0.003
 6950.00    0.52173   1.13043    0.003
 6951.00    0.53638   1.13027    0.003
 6952.00    0.57669   1.13071    0.003
 6953.00    0.64689   1.13163    0.003
 6954.00    0.72709   1.13249    0.003
 6955.00    0.72689   1.13346    0.003
 6956.00    0.70411   1.13306    0.003
 6957.00    0.59215   1.13044    0.003
 6958.00    0.45955   1.12961    0.003
 6959.00    0.50420   1.13311    0.003
 6960.00    0.58175   1.13645    0.003
 6961.00    0.58304   1.13521    0.003
 6962.00    0.57341   1.13123    0.003
 6963.00    0.53576   1.12941    0.003
 6964.00    0.49520   1.13181    0.003
 6965.00    0.62368   1.13347    0.003
 6966.00    0.76344   1.12993    0.003
 6967.00    0.68643   1.12396    0.003
 6968.00    0.60248   1.11642    0.003
 6969.00    0.56844   1.10448    0.003
 6970.00    0.53589   1.09400    0.003
 6971.00    0.54889   1.09803    0.003
 6972.00    0.56307   1.11356    0.003
 6973.00    0.59479   1.12605    0.003
 6974.00    0.62268   1.13249    0.003
 6975.00    0.61369   1.13577    0.003
 6976.00    0.60153   1.13648    0.003
 6977.00    0.56731   1.13599    0.003
 6978.00    0.54538   1.13510    0.003
 6979.00    0.58946   1.13229    0.003
 6980.00    0.64021   1.12739    0.003
 6981.00    0.71970   1.12440    0.003
 6982.00    0.74843   1.12667    0.003
 6983.00    0.59693   1.13181    0.003
 6984.00    0.48032   1.13490    0.003
 6985.00    0.46778   1.13361    0.003
 6986.00    0.49209   1.13127    0.003
 6987.00    0.61002   1.13203    0.003
 6988.00    0.67281   1.13411    0.003
 6989.00    0.61506   1.13326    0.003
 6990.00    0.51871   1.12799    0.003
 6991.00    0.34913   1.12134    0.003
 6992.00    0.30429   1.12069    0.003
 6993.00    0.46597   1.12656    0.003
 6994.00    0.57686   1.13024    0.003
 6995.00    0.61405   1.12672    0.003
 6996.00    0.69223   1.12135    0.003
 6997.00    0.82274   1.12022    0.003
 6998.00    0.87505   1.12265    0.003
 6999.00    0.83942   1.12587    0.003
 7000.00    0.78395   1.12898    0.003
 7001.00    0.70882   1.13092    0.003
 7002.00    0.68597   1.12968    0.003
 7003.00    0.70888   1.12846    0.003
 7004.00    0.70076   1.13114    0.003
 7005.00    0.66873   1.13251    0.003
 7006.00    0.65101   1.12468    0.003
 7007.00    0.64298   1.10971    0.003
 7008.00    0.53181   1.10237    0.003
 7009.00    0.35939   1.11244    0.003
 7010.00    0.29417   1.12823    0.003
 7011.00    0.28446   1.13658    0.003
 7012.00    0.43895   1.13844    0.003
 7013.00    0.66715   1.13568    0.003
 7014.00    0.71167   1.12740    0.003
 7015.00    0.68529   1.11840    0.003
 7016.00    0.53082   1.11654    0.003
 7017.00    0.33430   1.12220    0.003
 7018.00    0.36699   1.12775    0.003
 7019.00    0.46273   1.12971    0.003
 7020.00    0.69867   1.13132    0.003
 7021.00    0.96630   1.13402    0.003
 7022.00    0.97395   1.13599    0.003
 7023.00    0.93463   1.13535    0.003
 7024.00    0.97669   1.13288    0.003
 7025.00    1.03002   1.13110    0.003
 7026.00    0.87396   1.13208    0.003
 7027.00    0.69711   1.13519    0.003
 7028.00    0.55478   1.13398    0.003
 7029.00    0.41462   1.12407    0.003
 7030.00    0.60599   1.11732    0.003
 7031.00    0.80563   1.12656    0.003
 7032.00    0.70738   1.14276    0.003
 7033.00    0.61388   1.15285    0.003
 7034.00    0.65095   1.15524    0.003
 7035.00    0.67362   1.15135    0.003
 7036.00    0.49403   1.14471    0.003
 7037.00    0.34770   1.14204    0.003
 7038.00    0.50792   1.14590    0.003
 7039.00    0.64250   1.15177    0.003
 7040.00    0.60425   1.15466    0.003
 7041.00    0.57218   1.15333    0.003
 7042.00    0.57245   1.14830    0.003
 7043.00    0.60475   1.13860    0.003
 7044.00    0.77190   1.12537    0.003
 7045.00    0.88319   1.11443    0.003
 7046.00    0.80019   1.10987    0.003
 7047.00    0.74426   1.11259    0.003
 7048.00    0.76757   1.11917    0.003
 7049.00    0.74898   1.12285    0.003
 7050.00    0.62579   1.11928   -2.000
 7051.00    0.58477   1.11116   -2.000
 7052.00    0.72047   1.10661   -2.000
 7053.00    0.76023   1.10831   -2.000
 7054.00    0.62081   1.11205   -2.000
 7055.00    0.57034   1.11598   -2.000
 7056.00    0.66497   1.11784   -2.000
 7057.00    0.68498   1.11425   -2.000
 7058.00    0.59828   1.10747   -2.000
 7059.00    0.58486   1.10075   -2.000
 7060.00    0.66365   1.09910   -2.000
 7061.00    0.71679   1.10639   -2.000
 7062.00    0.74147   1.11656   -2.000
 7063.00    0.78119   1.12219   -2.000
 7064.00    0.83562   1.12398   -2.000
 7065.00    0.82377   1.12451   -2.000
 7066.00    0.75475   1.12413   -2.000
 7067.00    0.74602   1.12288   -2.000
 7068.00    0.78308   1.12189   -2.000
 7069.00    0.81310   1.12228   -2.000
 7070.00    0.83842   1.12341   -2.000
 7071.00    0.88515   1.12508   -2.000
 7072.00    0.94441   1.12669   -2.000
 7073.00    0.92477   1.12439   -2.000
 7074.00    0.86491   1.11543   -2.000
 7075.00    0.70650   1.10201   -2.000
 7076.00    0.50459   1.09196   -2.000
 7077.00    0.54136   1.09138   -2.000
 7078.00    0.66864   1.09299   -2.000
 7079.00    0.74607   1.08921   -2.000
 7080.00    0.80744   1.08421   -2.000
 7081.00    0.71698   1.08160   -2.000
 7082.00    0.58562   1.08217   -2.000
 7083.00    0.75119   1.08493   -2.000
 7084.00    0.98231   1.08548   -2.000
 7085.00    0.70376   1.08460   -2.000
 7086.00    0.33563   1.08420   -2.000
 7087.00    0.51485   1.08417   -2.000
 7088.00    0.76740   1.08462   -2.000
 7089.00    0.69310   1.08709   -2.000
 7090.00    0.58775   1.09509   -2.000
 7091.00    0.59111   1.10239   -2.000
 7092.00    0.60084   1.10320   -2.000
 7093.00    0.74735   1.09930   -2.000
 7094.00    0.89614   1.09579   -2.000
 7095.00    0.89870   1.09784   -2.000
 7096.00    0.89060   1.10326   -2.000
 7097.00    0.61757   1.10534   -2.000
 7098.00    0.37587   1.10238   -2.000
 7099.00    0.55033   1.10048   -2.000
 7100.00    0.70581   1.10128   -2.000
 7101.00    0.69318   1.09880   -2.000
 7102.00    0.69280   1.09250   -2.000
 7103.00    0.77239   1.08992   -2.000
 7104.00    0.83485   1.09359   -2.000
 7105.00    0.81005   1.09888   -2.000
 7106.00    0.80447   1.10160   -2.000
 7107.00    0.87801   1.10337   -2.000
 7108.00    0.91674   1.10537   -2.000
 7109.00    0.83682   1.10625   -2.000
 7110.00    0.83896   1.10575   -2.000
 7111.00    1.07688   1.10478   -2.000
 7112.00    1.14304   1.10306   -2.000
 7113.00    0.78779   1.09951   -2.000
 7114.00    0.57367   1.09952   -2.000
 7115.00    0.65821   1.10279   -2.000
 7116.00    0.69617   1.09996   -2.000
 7117.00    0.64847   1.09100   -2.000
 7118.00    0.62034   1.08593   -2.000
 7119.00    0.62366   1.08821   -2.000
 7120.00    0.64010   1.08947   -2.000
 7121.00    0.67507   1.08324   -2.000
 7122.00    0.86691   1.07595   -2.000
 7123.00    1.25333   1.07727   -2.000
 7124.00    1.56441   1.08516   -2.000
 7125.00    1.79313   1.09297   -2.000
 7126.00    1.54707   1.09689   -2.000
 7127.00    0.84315   1.09743   -2.000
 7128.00    0.42181   1.09854   -2.000
 7129.00    0.24078   1.09780   -2.000
 7130.00    0.54217   1.09327   -2.000
 7131.00    1.20485   1.09180   -2.000
 7132.00    1.26585   1.09593   -2.000
 7133.00    0.93098   1.09947   -2.000
 7134.00    0.62534   1.10006   -2.000
 7135.00    0.33653   1.09993   -2.000
 7136.00    0.41462   1.09941   -2.000
 7137.00    0.67682   1.09804   -2.000
 7138.00    1.04398   1.09212   -2.000
 7139.00    1.45672   1.08158   -2.000
 7140.00    1.22989   1.07898   -2.000
 7141.00    0.76481   1.08701   -2.000
 7142.00    0.82611   1.09549   -2.000
 7143.00    1.05369   1.10215   -2.000
 7144.00    0.96338   1.10798   -2.000
 7145.00    0.78925   1.10889   -2.000
 7146.00    0.81870   1.10452   -2.000
 7147.00    0.89204   1.10386   -2.000
 7148.00    0.68802   1.10958   -2.000
 7149.00    0.43660   1.11154   -2.000
 7150.00    0.52597   1.10595   -2.000
 7151.00    0.65946   1.10013   -2.000
 7152.00    0.69762   1.10008   -2.000
 7153.00    0.72713   1.10478   -2.000
 7154.00    0.65785   1.10362   -2.000
 7155.00    0.58317   1.09225   -2.000
 7156.00    0.78993   1.08169   -2.000
 7157.00    1.00302   1.08477   -2.000
 7158.00    1.25617   1.09730   -2.000
 7159.00    1.51414   1.10644   -2.000
 7160.00    1.88151   1.10813   -2.000
 7161.00    2.19872   1.10692   -2.000
 7162.00    1.88416   1.10843   -2.000
 7163.00    1.55467   1.11288   -2.000
 7164.00    1.09786   1.11596   -2.000
 7165.00    0.64736   1.11540   -2.000
 7166.00    0.23686   1.11118   -2.000
 7167.00    0.03384   1.10546   -2.000
 7168.00    0.86098   1.10483   -2.000
 7169.00    1.56431   1.11010   -2.000
 7170.00    1.76923   1.11086   -2.000
 7171.00    1.82614   1.10127   -2.000
 7172.00    1.38849   1.09100   -2.000
 7173.00    0.97241   1.09214   -2.000
 7174.00    0.61716   1.10388   -2.000
 7175.00    0.40798   1.11396   -2.000
 7176.00    0.55111   1.11531   -2.000
 7177.00    0.66027   1.10849   -2.000
 7178.00    0.69867   1.09573   -2.000
 7179.00    0.78542   1.08579   -2.000
 7180.00    0.95970   1.08528   -2.000
 7181.00    0.99919   1.09201   -2.000
 7182.00    0.82531   1.10114   -2.000
 7183.00    0.65775   1.10502   -2.000
 7184.00    0.49896   1.10304   -2.000
 7185.00    0.45242   1.10369   -2.000
 7186.00    0.54313   1.10853   -2.000
 7187.00    0.74774   1.10900   -2.000
 7188.00    1.07512   1.10260   -2.000
 7189.00    1.20215   1.10058   -2.000
 7190.00    1.13869   1.10543   -2.000
 7191.00    1.02383   1.10905   -2.000
 7192.00    0.86589   1.10573   -2.000
 7193.00    0.82587   1.09984   -2.000
 7194.00    0.87290   1.10114   -2.000
 7195.00    0.83334   1.11031   -2.000
 7196.00    0.73765   1.11542   -2.000
 7197.00    0.71688   1.10728   -2.000
 7198.00    0.73860   1.09027   -2.000
 7199.00    1.17631   1.08223   -2.000
 7200.00    1.81946   1.08758   -2.000
 7201.00    2.07809   1.09881   -2.000
 7202.00    2.17253   1.11075   -2.000
 7203.00    1.70043   1.11499   -2.000
 7204.00    1.02106   1.11084   -2.000
 7205.00    0.62096   1.10556   -2.000
 7206.00    0.30738   1.10331   -2.000
 7207.00    0.19420   1.10393   -2.000
 7208.00    0.13274   1.10881   -2.000
 7209.00    0.17093   1.11625   -2.000
 7210.00    0.23008   1.11873   -2.000
 7211.00    0.61621   1.11620   -2.000
 7212.00    1.05665   1.11333   -2.000
 7213.00    1.28641   1.11155   -2.000
 7214.00    1.48984   1.10898   -2.000
 7215.00    1.40518   1.10966   -2.000
 7216.00    1.29558   1.11602   -2.000
 7217.00    0.91395   1.12242   -2.000
 7218.00    0.51851   1.12505   -2.000
