###################################################################
## OUTPUT of StarlightChains_v04.for    [Cid@UFSC - 01/Apr/2007] ##
###################################################################

## Some input info
KUG0210-078._45_26.txt                   [arq_obs]
Base.CB07.vall.4m                        [arq_base]
Masks.EmLines.NEW.gm                     [arq_masks]
StCv04.C11.config                        [arq_config]
   66                                    [N_base]
    0                                    [N_YAV_components = # of components with extra extinction!]
    0                                    [i_FitPowerLaw (1/0 = Yes/No)]
-9.99                                    [alpha_PowerLaw]
CCM                                      [red_law_option]
 1.458241                                [q_norm = A(l_norm)/A(V)]

## (Re)Sampling Parameters
 3741.00                                 [l_ini (A)]
 7218.00                                 [l_fin (A)]
    1.00                                 [dl    (A)]     (OBS: dl_cushion =    50.00 A)

## Normalization info
 4020.00                                 [l_norm (A) - for base]
 4010.00                                 [llow_norm (A) - window for f_obs]
 4060.00                                 [lupp_norm (A) - window for f_obs]
6.229264E-18                             [fobs_norm (in input units)]

## S/N
 3691.00                                 [llow_SN (A) - window for S/N]
 7268.00                                 [lupp_SN (A) - window for S/N]
   2.545                                 [S/N in S/N window]
   3.156                                 [S/N in norm. window]
   0.006                                 [S/N_err in S/N window]
   0.007                                 [S/N_err in norm. window]
  1.0000                                 [fscale_chi2]

## etc...
    -2007856                             [idum_orig]
  2315                                   [NOl_eff]
  2285                                   [Nl_eff]
    30    NSIGMA                         [Ntot_cliped & clip_method]
  1305710                                [Nglobal_steps]
   7                                     [N_chains]
  43                                     [NEX0s_base = N_base in EX0s-fits]
 0   0   1       30   2.0   1.467E+03    [Clip-Bug, RC-Crash & Burn-In warning-flags, n_censored_weights, wei_nsig_threshold & wei_limit]
    26     25.823     25.278      0.544  [idt_all, wdt_TotTime, wdt_UsrTime & wdt_SysTime (sec)]

## Synthesis Results - Best model ##

 1.56878E-05                             [chi2/Nl_eff]
    50.70217                             [adev (%)]

   113.78770                             [sum-of-x (%)]
 1.85027E-18                             [Flux_tot (units of input spectrum!)]
 4.62924E-14                             [Mini_tot (???)]
 2.37084E-14                             [Mcor_tot (???)]

  -1.54                                  [v0_min  (km/s)]
   1.92                                  [vd_min  (km/s)]
-1.0000                                  [AV_min  (mag)]
 0.0000                                  [YAV_min (mag)]

# j     x_j(%)      Mini_j(%)     Mcor_j(%)     age_j(yr)     Z_j      (L/M)_j    YAV?  Mstars   component_j        a/Fe...       SSP_chi2r SSP_adev(%)   SSP_AV   SSP_x(%)
  1      0.0000     0.0000E+00    0.0000E+00    1.000000E+06  0.00400  1.094E-02    0   1.0000   age020_m42            0.0000     1.6002E-05    50.3916   1.9645   100.9526
  2      0.0000     0.0000E+00    0.0000E+00    3.160000E+06  0.00400  4.007E-02    0   0.9999   age045_m42            0.0000     1.5996E-05    51.0533   1.2204   107.6813
  3      0.0000     0.0000E+00    0.0000E+00    5.010000E+06  0.00400  2.539E-02    0   0.9488   age055_m42            0.0000     1.6097E-05    50.9416   1.5448   105.1199
  4      0.7275     9.7533E-04    1.7559E-03    6.610000E+06  0.00400  2.620E-02    0   0.9220   age061_m42            0.0000     1.6146E-05    51.3708   1.1396   107.7920
  5      0.2860     7.5998E-04    1.3150E-03    1.000000E+07  0.00400  1.322E-02    0   0.8862   age070_m42            0.0000     1.6280E-05    52.0112   0.8700   108.5484
  6      0.1957     8.7216E-04    1.4596E-03    1.445000E+07  0.00400  7.883E-03    0   0.8571   age078_m42            0.0000     1.6271E-05    51.7886   1.2031   106.1157
  7      2.6475     1.7711E-02    2.8267E-02    2.512000E+07  0.00400  5.251E-03    0   0.8174   age090_m42            0.0000     1.6322E-05    52.1943   0.7436   108.8610
  8      0.0000     0.0000E+00    0.0000E+00    4.000000E+07  0.00400  3.649E-03    0   0.7851   age104_m42            0.0000     1.6291E-05    52.1795   0.5078   109.9481
  9      0.0000     0.0000E+00    0.0000E+00    5.500000E+07  0.00400  3.098E-03    0   0.7629   age110_m42            0.0000     1.6304E-05    51.9515   0.6523   110.6948
 10      0.0520     8.1973E-04    1.1535E-03    1.015200E+08  0.00400  2.228E-03    0   0.7207   age116_m42            0.0000     1.6381E-05    51.7947   0.6730   111.1045
 11      0.0000     0.0000E+00    0.0000E+00    2.861200E+08  0.00400  1.093E-03    0   0.6648   age125_m42            0.0000     1.6530E-05    52.3639   0.1013   113.4917
 12      0.5404     2.8772E-02    3.5759E-02    5.088000E+08  0.00400  6.597E-04    0   0.6365   age130_m42            0.0000     1.6630E-05    51.8855   0.0798   115.1312
 13      9.8341     1.6202E+00    1.8343E+00    1.434000E+09  0.00400  2.132E-04    0   0.5798   age139_m42            0.0000     1.6214E-05    51.4386  -0.9230   118.1039
 14      0.0000     0.0000E+00    0.0000E+00    4.250000E+09  0.00400  5.895E-05    0   0.5377   age158_m42            0.0000     1.6324E-05    46.0316  -1.0000   105.2483
 15     31.5876     3.1611E+01    3.2170E+01    7.500000E+09  0.00400  3.510E-05    0   0.5212   age171_m42            0.0000     1.7201E-05    44.0865  -1.0000    99.2547
 16     20.9816     3.6758E+01    3.6131E+01    1.300000E+10  0.00400  2.005E-05    0   0.5034   age193_m42            0.0000     1.8292E-05    42.8222  -1.0000    93.8276
 17      0.0000     0.0000E+00    0.0000E+00    1.800000E+10  0.00400  1.525E-05    0   0.4967   age213_m42            0.0000     1.8451E-05    42.8183  -1.0000    92.6991
 18      0.0000     0.0000E+00    0.0000E+00    1.000000E+06  0.00800  1.238E-02    0   1.0000   age020_m52            0.0000     1.6046E-05    50.4057   1.9600   101.1607
 19      0.0000     0.0000E+00    0.0000E+00    3.160000E+06  0.00800  3.074E-02    0   0.9966   age045_m52            0.0000     1.6060E-05    50.4369   1.8818   102.1292
 20      0.0997     1.3132E-04    2.4213E-04    5.010000E+06  0.00800  2.668E-02    0   0.9443   age055_m52            0.0000     1.6118E-05    50.9864   1.6247   104.2547
 21      0.0000     0.0000E+00    0.0000E+00    6.610000E+06  0.00800  2.136E-02    0   0.9177   age061_m52            0.0000     1.5972E-05    51.5980   0.3599   110.2117
 22      0.0000     0.0000E+00    0.0000E+00    1.000000E+07  0.00800  1.215E-02    0   0.8827   age070_m52            0.0000     1.6367E-05    52.4068   1.0445   108.1014
 23      0.0180     7.2551E-05    1.2115E-04    1.445000E+07  0.00800  8.717E-03    0   0.8552   age078_m52            0.0000     1.6282E-05    51.9940   1.1565   107.6385
 24      0.0000     0.0000E+00    0.0000E+00    2.512000E+07  0.00800  5.592E-03    0   0.8162   age090_m52            0.0000     1.6369E-05    52.5139   0.7929   110.2062
 25      0.0092     8.2813E-05    1.2679E-04    4.000000E+07  0.00800  3.896E-03    0   0.7841   age104_m52            0.0000     1.6353E-05    52.5016   0.6992   111.3183
 26      0.0000     0.0000E+00    0.0000E+00    1.015200E+08  0.00800  2.148E-03    0   0.7226   age116_m52            0.0000     1.6354E-05    52.2469   0.6317   111.6230
 27      0.0183     6.4820E-04    8.4584E-04    2.861200E+08  0.00800  9.925E-04    0   0.6683   age125_m52            0.0000     1.6586E-05    52.0650   0.1374   116.1653
 28      0.0000     0.0000E+00    0.0000E+00    9.047900E+08  0.00800  3.141E-04    0   0.6138   age135_m52            0.0000     1.6270E-05    51.4166  -0.7129   122.7305
 29      5.9891     1.2238E+00    1.3986E+00    1.434000E+09  0.00800  1.719E-04    0   0.5853   age139_m52            0.0000     1.6357E-05    47.7609  -1.0000   112.3581
 30      0.0090     4.0022E-03    4.3762E-03    2.500000E+09  0.00800  7.872E-05    0   0.5600   age150_m52            0.0000     1.7344E-05    44.0800  -1.0000   102.4062
 31      0.0000     0.0000E+00    0.0000E+00    4.250000E+09  0.00800  4.336E-05    0   0.5426   age158_m52            0.0000     1.7437E-05    43.9063  -1.0000   101.0851
 32      0.0000     0.0000E+00    0.0000E+00    6.250000E+09  0.00800  3.159E-05    0   0.5319   age166_m52            0.0000     1.8946E-05    42.1763  -1.0000    94.8102
 33      0.0000     0.0000E+00    0.0000E+00    1.300000E+10  0.00800  1.361E-05    0   0.5073   age193_m52            0.0000     2.3650E-05    40.0434  -1.0000    78.7306
 34      0.0000     0.0000E+00    0.0000E+00    1.800000E+10  0.00800  9.886E-06    0   0.4990   age213_m52            0.0000     2.5140E-05    39.3635  -1.0000    74.8556
 35      0.0000     0.0000E+00    0.0000E+00    1.000000E+06  0.02000  1.544E-02    0   1.0000   age020_m62            0.0000     1.6059E-05    50.3489   1.9586   101.3885
 36      0.0000     0.0000E+00    0.0000E+00    3.160000E+06  0.02000  3.762E-02    0   0.9858   age045_m62            0.0000     1.6132E-05    50.4541   1.8869   102.5240
 37      0.0000     0.0000E+00    0.0000E+00    5.010000E+06  0.02000  3.296E-02    0   0.9342   age055_m62            0.0000     1.6103E-05    51.0757   1.4945   106.7144
 38      0.0000     0.0000E+00    0.0000E+00    8.710000E+06  0.02000  1.154E-02    0   0.8861   age067_m62            0.0000     1.6915E-05    54.0562   0.5169   108.3135
 39      0.0000     0.0000E+00    0.0000E+00    1.445000E+07  0.02000  7.663E-03    0   0.8472   age078_m62            0.0000     1.6425E-05    53.0036   0.6840   109.8531
 40      0.0000     0.0000E+00    0.0000E+00    2.512000E+07  0.02000  4.532E-03    0   0.8099   age090_m62            0.0000     1.6544E-05    53.3110   0.6780   109.2268
 41      0.1592     2.0466E-03    3.0350E-03    5.500000E+07  0.02000  2.733E-03    0   0.7595   age110_m62            0.0000     1.6336E-05    52.3977   0.6828   110.5505
 42      1.1792     3.0255E-02    4.1264E-02    1.609000E+08  0.02000  1.369E-03    0   0.6985   age120_m62            0.0000     1.6548E-05    52.0831   0.5197   113.9406
 43      0.1641     6.3962E-03    8.3851E-03    2.861200E+08  0.02000  9.013E-04    0   0.6714   age125_m62            0.0000     1.6791E-05    51.8909   0.2527   117.5066
 44      1.5939     1.1135E-01    1.4021E-01    5.088000E+08  0.02000  5.028E-04    0   0.6449   age130_m62            0.0000     1.6705E-05    51.3753  -0.1603   122.1016
 45      0.0000     0.0000E+00    0.0000E+00    9.047900E+08  0.02000  2.428E-04    0   0.6179   age135_m62            0.0000     1.6020E-05    50.9319  -0.7833   122.9877
 46      0.0000     0.0000E+00    0.0000E+00    1.434000E+09  0.02000  1.263E-04    0   0.5908   age139_m62            0.0000     1.5973E-05    47.3480  -1.0000   115.6083
 47      0.7168     4.2072E-01    4.6603E-01    2.500000E+09  0.02000  5.985E-05    0   0.5673   age150_m62            0.0000     1.7510E-05    43.2478  -1.0000   103.5792
 48      0.0000     0.0000E+00    0.0000E+00    4.250000E+09  0.02000  3.271E-05    0   0.5468   age158_m62            0.0000     2.0058E-05    40.9661  -1.0000    92.9780
 49      0.0000     0.0000E+00    0.0000E+00    1.000000E+10  0.02000  1.360E-05    0   0.5167   age181_m62            0.0000     2.3957E-05    39.2574  -1.0000    80.8650
 50      5.5826     2.7526E+01    2.6943E+01    1.800000E+10  0.02000  7.124E-06    0   0.5013   age213_m62            0.0000     2.6785E-05    38.4106  -1.0000    73.1968
 51     10.2249     1.3857E-02    2.7050E-02    1.000000E+06  0.05000  2.592E-02    0   0.9998   age020_m72            0.0000     1.6087E-05    50.1535   1.9645   101.1574
 52      0.0000     0.0000E+00    0.0000E+00    3.160000E+06  0.05000  4.845E-02    0   0.9577   age045_m72            0.0000     1.6107E-05    50.7340   1.7553   104.1404
 53      0.2480     2.8354E-04    5.0640E-04    5.010000E+06  0.05000  3.072E-02    0   0.9147   age055_m72            0.0000     1.6379E-05    52.4350   1.2638   106.8521
 54      2.2757     5.4938E-03    9.5224E-03    6.610000E+06  0.05000  1.455E-02    0   0.8877   age061_m72            0.0000     1.7459E-05    56.4610   0.5326   108.1818
 55     15.0231     5.8156E-02    9.6793E-02    1.000000E+07  0.05000  9.074E-03    0   0.8524   age070_m72            0.0000     1.6466E-05    53.0707   1.4479   106.4955
 56      0.0000     0.0000E+00    0.0000E+00    2.512000E+07  0.05000  4.250E-03    0   0.7902   age090_m72            0.0000     1.6489E-05    53.1601   1.1382   108.2469
 57      0.0000     0.0000E+00    0.0000E+00    4.000000E+07  0.05000  3.087E-03    0   0.7618   age104_m72            0.0000     1.6570E-05    53.5602   0.9048   109.6604
 58      0.0000     0.0000E+00    0.0000E+00    1.015200E+08  0.05000  1.700E-03    0   0.7096   age116_m72            0.0000     1.6594E-05    52.5915   0.6566   113.0646
 59      0.0000     0.0000E+00    0.0000E+00    2.861200E+08  0.05000  7.384E-04    0   0.6633   age125_m72            0.0000     1.6839E-05    51.8840   0.1020   119.8353
 60      3.3210     3.0546E-01    3.8004E-01    5.088000E+08  0.05000  3.819E-04    0   0.6372   age130_m72            0.0000     1.6383E-05    51.3574  -0.4276   123.7106
 61      0.0000     0.0000E+00    0.0000E+00    9.047900E+08  0.05000  1.676E-04    0   0.6110   age135_m72            0.0000     1.6003E-05    48.0730  -1.0000   119.4931
 62      0.0000     0.0000E+00    0.0000E+00    1.434000E+09  0.05000  8.837E-05    0   0.5874   age139_m72            0.0000     1.7695E-05    43.2239  -1.0000   104.9938
 63      0.3034     2.5180E-01    2.7522E-01    2.500000E+09  0.05000  4.233E-05    0   0.5598   age150_m72            0.0000     2.0255E-05    40.7970  -1.0000    93.8357
 64      0.0000     0.0000E+00    0.0000E+00    6.250000E+09  0.05000  1.435E-05    0   0.5249   age166_m72            0.0000     2.5261E-05    38.9568  -1.0000    77.1380
 65      0.0000     0.0000E+00    0.0000E+00    1.300000E+10  0.05000  6.513E-06    0   0.5036   age193_m72            0.0000     2.9231E-05    38.2249  -1.0000    68.4061
 66      0.0000     0.0000E+00    0.0000E+00    1.800000E+10  0.05000  4.527E-06    0   0.4945   age213_m72            0.0000     3.1579E-05    37.9123  -1.0000    63.0600


## Synthesis Results - Average & Chains ##

# j      x_j: min, <> & last-chain-values for 1 ...  7 chains
  1      0.0000      1.3669      1.3265      2.1933      0.0000      0.0000      4.3852      1.1216      0.3263
  2      0.0000      1.3444      4.6771      0.0000      0.0000      0.0000      1.6280      1.0656      0.0000
  3      0.0000      1.1769      0.0000      0.0000      0.5946      0.5034      3.2122      1.0990      1.5721
  4      0.7275      1.5491      2.7166      0.0410      1.3997      0.3562      0.0000      0.5200      2.1941
  5      0.2860      1.3847      0.2745      0.0000      1.5031      0.0000      1.1280      0.0000      2.4038
  6      0.1957      1.1953      0.5173      0.0000      1.9170      2.4064      1.9097      0.0000      1.2031
  7      2.6475      1.2579      0.9609      0.0000      0.5286      0.3625      2.9407      0.2974      7.3571
  8      0.0000      1.2652      0.9987      1.9251      0.3378      0.0000      4.7561      0.4935      0.0000
  9      0.0000      1.6793      0.0000      2.3041      3.2456      1.8119      2.4186      0.0000      0.0000
 10      0.0520      1.5080      1.9783      0.8136      2.4113      5.1758      2.1974      0.4140      2.2714
 11      0.0000      3.3143      4.5972      2.2704      3.4314      1.8742      4.4708      0.0000      0.5301
 12      0.5404     14.6165      8.0096     13.4429      5.7828      1.9380      4.4861      9.6014      1.0515
 13      9.8341      1.5184      1.4944      1.1169      1.3031      9.6108      0.0000      5.0679      4.0975
 14      0.0000      8.6496      4.0750      8.8675      7.3610      3.2026      9.0706      0.7247      2.5054
 15     31.5876      5.9882      0.1008      7.3354      0.4265      0.0000      6.6001      0.0000      2.7774
 16     20.9816      6.0858      6.3205      4.1929      1.3967      4.2533      2.1457      6.1479      1.6794
 17      0.0000      3.0926      4.5223      4.7160      5.1156      0.9646      4.3986      3.8067      0.6473
 18      0.0000      1.2054      1.8343      0.0000      0.0000      0.0000      0.6701      1.0011      0.0000
 19      0.0000      1.6147      0.0000      0.0000      0.8681      8.6241      1.3670      1.4213      0.2396
 20      0.0997      0.9792      1.8703      2.8134      0.3944      0.5578      0.0000      1.9015      1.2450
 21      0.0000      0.9648      1.2342      2.7525      3.5971      0.0000      0.0644      0.5285      1.9797
 22      0.0000      1.4604      0.9248      0.0925      0.6337      1.3894      0.6754      1.1508      0.5978
 23      0.0180      1.8938      1.5470      1.8507      4.1892      2.4832      0.0000      0.3508      5.9761
 24      0.0000      1.4248      0.7298      1.4183      3.1717      0.0000      1.7039      1.1696      0.0000
 25      0.0092      1.2204      2.8472      1.2176      0.0000      0.5728      3.9394      0.2459      1.4838
 26      0.0000      1.3701      0.0029      2.4334      2.9037      0.5329      1.3937      0.0000      0.7067
 27      0.0183      1.0577      1.0170      0.3571      0.5612      0.0000      0.0000      0.0000      0.9707
 28      0.0000      1.6134      0.8950      0.0000      4.3023      7.3448      0.3465      6.1369      6.2885
 29      5.9891      1.3617      2.0803      2.6886      1.3739      2.6945      0.8999      0.7818      1.6668
 30      0.0090      1.2907      2.5722      0.1306      3.8594      0.0000      0.0000      0.0000      5.8026
 31      0.0000      1.6633      1.7424      0.0000      1.3071      2.0892      1.4742      6.1065      1.5157
 32      0.0000      1.4994      0.2401      0.0000      2.0411      0.0000      1.4083      3.2974      7.0039
 33      0.0000      1.4688      1.8133      2.1616      5.5413      0.0000      1.1686      2.1567      0.0000
 34      0.0000      1.9075      1.8740      1.5777      0.8168      2.5392      0.0000      1.8431      1.5620
 35      0.0000      1.3067      3.5290      1.8625      0.6321      0.5184      0.4253      2.8917      0.0000
 36      0.0000      1.5339      0.0263      1.2423      2.1318      0.9523      0.9000      0.0000      0.0000
 37      0.0000      1.3846      0.9333      1.4508      7.4542      3.3802      2.8349      0.6254      0.0000
 38      0.0000      1.4217      0.4780      1.6907      3.1312      1.4714      0.0000      0.0000      0.2980
 39      0.0000      1.5274      1.4927      1.7798      0.9822      1.7120      0.0000      2.6124      0.0000
 40      0.0000      1.4869      0.0000      0.0303      0.2459      0.0000      2.6892      1.2537      2.0946
 41      0.1592      1.2343      0.0000      2.0859      0.3694      1.0575      0.2047      7.8585      0.8744
 42      1.1792      1.2926      0.0000      1.2331      2.1123      0.6827      0.0000      3.0035      4.9483
 43      0.1641      1.5350      2.8307      0.7218      0.0000      3.3797      0.0000      0.7261      1.0146
 44      1.5939      1.8412      1.7886      1.0989      0.2308      6.0588      1.9143     10.1749      2.8635
 45      0.0000      1.7053      1.0335      3.2084      0.9968      1.0091      0.0000      2.5177      0.0000
 46      0.0000      1.3537      1.6047      4.6930      5.8961      1.2424      0.0000      4.2870      0.0000
 47      0.7168      1.4013      0.7418      3.6760      0.0000      3.8777      3.8732      2.8878      2.9521
 48      0.0000      1.5084      2.1647      5.1062      2.9502      1.1830      9.1846      0.2971      0.0000
 49      0.0000      1.5821      5.5999      2.2417      0.0000      1.2990      5.6965      7.2389      1.7484
 50      5.5826      1.1098      0.0000      0.0000      4.5160      5.6772      0.3381      2.6121      9.2686
 51     10.2249      1.3015      2.2965      0.9855      0.6025      1.9029      0.0000      0.0000      5.3825
 52      0.0000      1.1839      1.2688      2.7593      2.4491      3.0045      0.0000      3.0925      0.0000
 53      0.2480      2.2497      1.2206      5.2078      2.1996      1.1888      3.8673      1.1365      2.6649
 54      2.2757      1.7968      2.2843      0.2847      0.9912      2.0357      0.0000      1.1687      1.2232
 55     15.0231      1.6702      4.8177      1.8288      0.9155      0.0000      0.0000      1.2903      2.9872
 56      0.0000      0.8966      2.8069      0.3416      0.0000      1.1751      0.9050      1.1111      0.5026
 57      0.0000      1.2067      0.0000      0.0000      0.0000      0.2238      0.5076      0.0000      0.0000
 58      0.0000      1.5365      2.0722      0.0000      0.0000      0.0000      0.2658      1.4301      0.8225
 59      0.0000      1.5431      0.1353      2.0167      1.4179      3.9938      8.3797      0.0000      1.7308
 60      3.3210      1.9720      0.8931      2.5520      6.9729      1.5877      1.6064      2.1815      8.5100
 61      0.0000      1.4240      6.5035      0.0000      0.0000      3.3901      2.1004      3.2467      0.4969
 62      0.0000      1.2344      0.1035      1.2519      0.0000      5.5287      0.1332      3.0433      0.0000
 63      0.3034      1.2422      4.6684      0.6880      0.6895      0.2492      3.3593      1.2950      2.2447
 64      0.0000      1.6416      0.9994      4.4462      2.8196      1.4570      1.4274      1.3672      1.8263
 65      0.0000      1.4451      2.3226      0.8866      1.8371      4.9296      3.6234      0.0000      0.0000
 66      0.0000      1.5210      5.1542      2.0120      1.4298      0.6333      0.4001      0.0000      3.1514

# j      m_j: min, <> & last-chain-values for 1 ...  7 chains
  1  0.0000E+00  1.0190E-02  7.0593E-03  1.4808E-02  0.0000E+00  0.0000E+00  2.9625E-02  8.0817E-03  1.8267E-03
  2  0.0000E+00  2.7359E-03  6.7947E-03  0.0000E+00  0.0000E+00  0.0000E+00  3.0025E-03  2.0960E-03  0.0000E+00
  3  0.0000E+00  3.5866E-03  0.0000E+00  0.0000E+00  1.5291E-03  1.2833E-03  8.8715E-03  3.2373E-03  3.5983E-03
  4  1.7559E-03  4.4459E-03  5.5657E-03  1.0661E-04  3.3899E-03  8.5517E-04  0.0000E+00  1.4425E-03  4.7291E-03
  5  1.3150E-03  7.5700E-03  1.0712E-03  0.0000E+00  6.9341E-03  0.0000E+00  5.5884E-03  0.0000E+00  9.8694E-03
  6  1.4596E-03  1.0599E-02  3.2746E-03  0.0000E+00  1.4344E-02  1.7850E-02  1.5346E-02  0.0000E+00  8.0118E-03
  7  2.8267E-02  1.5969E-02  8.7082E-03  0.0000E+00  5.6625E-03  3.8502E-03  3.3832E-02  3.6489E-03  7.0145E-02
  8  0.0000E+00  2.2201E-02  1.2509E-02  3.0593E-02  5.0016E-03  0.0000E+00  7.5630E-02  8.3703E-03  0.0000E+00
  9  0.0000E+00  3.3727E-02  0.0000E+00  4.1910E-02  5.5005E-02  3.0440E-02  4.4019E-02  0.0000E+00  0.0000E+00
 10  1.1535E-03  3.9781E-02  3.7256E-02  1.9440E-02  5.3680E-02  1.1422E-01  5.2534E-02  1.0555E-02  4.5002E-02
 11  0.0000E+00  1.6440E-01  1.6279E-01  1.0200E-01  1.4363E-01  7.7768E-02  2.0098E-01  0.0000E+00  1.9746E-02
 12  3.5759E-02  1.1501E+00  4.4991E-01  9.5801E-01  3.8398E-01  1.2756E-01  3.1990E-01  7.3022E-01  6.2137E-02
 13  1.8343E+00  3.3676E-01  2.3660E-01  2.2435E-01  2.4389E-01  1.7831E+00  0.0000E+00  1.0864E+00  6.8252E-01
 14  0.0000E+00  6.4343E+00  2.1639E+00  5.9743E+00  4.6207E+00  1.9929E+00  6.1147E+00  5.2105E-01  1.3997E+00
 15  3.2170E+01  7.2517E+00  8.7160E-02  8.0454E+00  4.3582E-01  0.0000E+00  7.2432E+00  0.0000E+00  2.5260E+00
 16  3.6131E+01  1.2461E+01  9.2387E+00  7.7757E+00  2.4134E+00  7.2853E+00  3.9817E+00  1.2167E+01  2.5826E+00
 17  0.0000E+00  8.2148E+00  8.5752E+00  1.1346E+01  1.1467E+01  2.1435E+00  1.0588E+01  9.7733E+00  1.2912E+00
 18  0.0000E+00  7.9404E-03  8.6262E-03  0.0000E+00  0.0000E+00  0.0000E+00  4.0006E-03  6.3739E-03  0.0000E+00
 19  0.0000E+00  4.2692E-03  0.0000E+00  0.0000E+00  1.9370E-03  1.9075E-02  3.2755E-03  3.6322E-03  4.7582E-04
 20  2.4213E-04  2.8264E-03  3.8538E-03  7.3549E-03  9.6077E-04  1.3469E-03  0.0000E+00  5.3051E-03  2.6990E-03
 21  0.0000E+00  3.3807E-03  3.0871E-03  8.7349E-03  1.0636E-02  0.0000E+00  2.0451E-04  1.7897E-03  5.2095E-03
 22  0.0000E+00  8.6526E-03  3.9115E-03  4.9642E-04  3.1684E-03  6.8862E-03  3.6262E-03  6.5901E-03  2.6599E-03
 23  1.2115E-04  1.5153E-02  8.8358E-03  1.3411E-02  2.8284E-02  1.6620E-02  0.0000E+00  2.7127E-03  3.5910E-02
 24  0.0000E+00  1.6960E-02  6.2019E-03  1.5290E-02  3.1859E-02  0.0000E+00  1.8380E-02  1.3457E-02  0.0000E+00
 25  1.2679E-04  2.0031E-02  3.3360E-02  1.8100E-02  0.0000E+00  7.8640E-03  5.8596E-02  3.9018E-03  1.8290E-02
 26  0.0000E+00  3.7590E-02  5.5888E-05  6.0466E-02  6.7225E-02  1.2229E-02  3.4652E-02  0.0000E+00  1.4560E-02
 27  8.4584E-04  5.8083E-02  3.9867E-02  1.7759E-02  2.6007E-02  0.0000E+00  0.0000E+00  0.0000E+00  4.0033E-02
 28  0.0000E+00  2.5713E-01  1.0182E-01  0.0000E+00  5.7860E-01  9.7919E-01  5.0040E-02  9.4531E-01  7.5267E-01
 29  1.3986E+00  3.7811E-01  4.1237E-01  6.7616E-01  3.2193E-01  6.2591E-01  2.2647E-01  2.0983E-01  3.4761E-01
 30  4.3762E-03  7.4882E-01  1.0653E+00  6.8622E-02  1.8895E+00  0.0000E+00  0.0000E+00  0.0000E+00  2.5283E+00
 31  0.0000E+00  1.6974E+00  1.2694E+00  0.0000E+00  1.1256E+00  1.7836E+00  1.3634E+00  6.0234E+00  1.1617E+00
 32  0.0000E+00  2.0590E+00  2.3538E-01  0.0000E+00  2.3651E+00  0.0000E+00  1.7526E+00  4.3764E+00  7.2230E+00
 33  0.0000E+00  4.4649E+00  3.9350E+00  5.9512E+00  1.4215E+01  0.0000E+00  3.2193E+00  6.3366E+00  0.0000E+00
 34  0.0000E+00  7.8524E+00  5.5070E+00  5.8821E+00  2.8372E+00  8.7437E+00  0.0000E+00  7.3331E+00  4.8290E+00
 35  0.0000E+00  6.9019E-03  1.3307E-02  8.9100E-03  2.8175E-03  2.2905E-03  2.0360E-03  1.4763E-02  0.0000E+00
 36  0.0000E+00  3.2780E-03  4.0182E-05  2.4044E-03  3.8444E-03  1.7024E-03  1.7430E-03  0.0000E+00  0.0000E+00
 37  0.0000E+00  3.2004E-03  1.5400E-03  3.0373E-03  1.4540E-02  6.5362E-03  5.9386E-03  1.3972E-03  0.0000E+00
 38  0.0000E+00  8.9028E-03  2.1368E-03  9.5892E-03  1.6546E-02  7.7081E-03  0.0000E+00  0.0000E+00  1.4014E-03
 39  0.0000E+00  1.3772E-02  9.6077E-03  1.4534E-02  7.4731E-03  1.2912E-02  0.0000E+00  2.2766E-02  0.0000E+00
 40  0.0000E+00  2.1670E-02  0.0000E+00  4.0038E-04  3.0241E-03  0.0000E+00  3.5518E-02  1.7660E-02  2.2927E-02
 41  3.0350E-03  2.7973E-02  0.0000E+00  4.2817E-02  7.0643E-03  2.0049E-02  4.2045E-03  1.7215E-01  1.4882E-02
 42  4.1264E-02  5.3788E-02  0.0000E+00  4.6473E-02  7.4169E-02  2.3764E-02  0.0000E+00  1.2080E-01  1.5464E-01
 43  8.3851E-03  9.3253E-02  1.2276E-01  3.9714E-02  0.0000E+00  1.7176E-01  0.0000E+00  4.2636E-02  4.6294E-02
 44  1.4021E-01  1.9259E-01  1.3356E-01  1.0411E-01  2.0368E-02  5.3016E-01  1.8147E-01  1.0287E+00  2.2495E-01
 45  0.0000E+00  3.5393E-01  1.5312E-01  6.0310E-01  1.7457E-01  1.7520E-01  0.0000E+00  5.0505E-01  0.0000E+00
 46  0.0000E+00  5.1644E-01  4.3701E-01  1.6215E+00  1.8981E+00  3.9648E-01  0.0000E+00  1.5807E+00  0.0000E+00
 47  4.6603E-01  1.0833E+00  4.0937E-01  2.5737E+00  0.0000E+00  2.5076E+00  2.7134E+00  2.1576E+00  1.7139E+00
 48  0.0000E+00  2.0564E+00  2.1068E+00  6.3048E+00  3.3940E+00  1.3492E+00  1.1347E+01  3.9149E-01  0.0000E+00
 49  0.0000E+00  4.9022E+00  1.2386E+01  6.2909E+00  0.0000E+00  3.3669E+00  1.5995E+01  2.1679E+01  4.0686E+00
 50  2.6943E+01  6.3688E+00  0.0000E+00  0.0000E+00  2.1870E+01  2.7254E+01  1.7584E+00  1.4489E+01  3.9947E+01
 51  2.7050E-02  4.0943E-03  5.1572E-03  2.8077E-03  1.5995E-03  5.0075E-03  0.0000E+00  0.0000E+00  1.2716E-02
 52  0.0000E+00  1.9085E-03  1.4602E-03  4.0287E-03  3.3316E-03  4.0517E-03  0.0000E+00  4.8185E-03  0.0000E+00
 53  5.0640E-04  5.4630E-03  2.1159E-03  1.1454E-02  4.5074E-03  2.4148E-03  8.5103E-03  2.6675E-03  4.8600E-03
 54  9.5224E-03  8.9401E-03  8.1135E-03  1.2828E-03  4.1616E-03  8.4730E-03  0.0000E+00  5.6203E-03  4.5710E-03
 55  9.6793E-02  1.2796E-02  2.6348E-02  1.2689E-02  5.9185E-03  0.0000E+00  0.0000E+00  9.5544E-03  1.7187E-02
 56  0.0000E+00  1.3595E-02  3.0383E-02  4.6914E-03  0.0000E+00  1.4905E-02  1.2436E-02  1.6284E-02  5.7231E-03
 57  0.0000E+00  2.4286E-02  0.0000E+00  0.0000E+00  0.0000E+00  3.7678E-03  9.2581E-03  0.0000E+00  0.0000E+00
 58  0.0000E+00  5.2305E-02  5.0356E-02  0.0000E+00  0.0000E+00  0.0000E+00  8.1986E-03  4.7053E-02  2.1029E-02
 59  0.0000E+00  1.1305E-01  7.0773E-03  1.3381E-01  8.7655E-02  2.4475E-01  5.5633E-01  0.0000E+00  9.5229E-02
 60  3.8004E-01  2.6834E-01  8.6758E-02  3.1450E-01  8.0066E-01  1.8072E-01  1.9810E-01  2.8691E-01  8.6967E-01
 61  0.0000E+00  4.2336E-01  1.3803E+00  0.0000E+00  0.0000E+00  8.4316E-01  5.6592E-01  9.3298E-01  1.1096E-01
 62  0.0000E+00  6.6916E-01  4.0050E-02  6.1465E-01  0.0000E+00  2.5071E+00  6.5416E-02  1.5946E+00  0.0000E+00
 63  2.7522E-01  1.3398E+00  3.5943E+00  6.7203E-01  6.2754E-01  2.2480E-01  3.2834E+00  1.3499E+00  1.8182E+00
 64  0.0000E+00  4.8972E+00  2.1283E+00  1.2013E+01  7.0977E+00  3.6359E+00  3.8590E+00  3.9421E+00  4.0917E+00
 65  0.0000E+00  9.1127E+00  1.0456E+01  5.0637E+00  9.7759E+00  2.6004E+01  2.0706E+01  0.0000E+00  0.0000E+00
 66  0.0000E+00  1.3550E+01  3.2778E+01  1.6234E+01  1.0749E+01  4.7194E+00  3.2299E+00  0.0000E+00  2.1084E+01

# AV, chi2 & Mass for <> & i_chain = 1 ...  7 solutions
AV      -1.0000     -0.9774     -1.0000     -1.0000     -0.9918     -0.9812     -1.0000     -1.0000     -1.0000
chi2 1.5688E-05  1.6434E-05  1.6101E-05  1.6139E-05  1.6171E-05  1.6088E-05  1.6097E-05  1.6183E-05  1.6053E-05
Mass 2.3708E-14  2.0554E-14  2.7931E-14  2.2015E-14  2.3888E-14  2.4443E-14  2.2002E-14  2.0629E-14  2.6549E-14
  -1.54                                  [v0_min (km/s) before EX0s...]
   1.92                                  [vd_min (km/s) before EX0s...]


## Synthetic spectrum (Best Model) ##l_obs f_obs f_syn wei
 3478    [Nl_obs]
 3741.00   -0.30871   0.94556    0.000
 3742.00    0.10509   0.91741    0.000
 3743.00   -0.94474   0.87266    0.000
 3744.00   -1.85749   0.83520    0.000
 3745.00   -2.69036   0.79543    0.000
 3746.00   -2.19279   0.75549    0.000
 3747.00   -1.01961   0.72608    0.000
 3748.00   -0.37209   0.65429    0.000
 3749.00    0.04427   0.57565   -1.000
 3750.00   -0.76428   0.58300    0.000
 3751.00   -2.03528   0.68304    0.000
 3752.00   -2.83198   0.78737    0.000
 3753.00   -3.47667   0.85655    0.000
 3754.00   -2.74942   0.92225    0.000
 3755.00   -1.65453   0.97393    0.000
 3756.00   -1.72699   0.96889    0.000
 3757.00   -2.05567   0.89428    0.000
 3758.00   -2.38874   0.81923    0.000
 3759.00   -2.72259   0.82089    0.000
 3760.00   -0.89113   0.86660    0.000
 3761.00    1.22797   0.90388    0.029
 3762.00   -0.46572   0.91852    0.000
 3763.00   -2.51771   0.90636    0.000
 3764.00   -1.81261   0.90115    0.000
 3765.00   -0.94846   0.90955    0.000
 3766.00    0.58355   0.87188    0.023
 3767.00    2.11210   0.81402    0.023
 3768.00    1.29910   0.79777    0.023
 3769.00    0.46279   0.77264    0.022
 3770.00   -0.93961   0.71386    0.000
 3771.00   -2.17586   0.71412    0.000
 3772.00   -1.23480   0.79788    0.000
 3773.00   -0.48799   0.87236    0.000
 3774.00   -1.44652   0.90237    0.000
 3775.00   -2.13762   0.91635    0.000
 3776.00   -1.09482   0.94496    0.000
 3777.00   -0.23549   0.97552    0.000
 3778.00   -0.30473   0.99401    0.000
 3779.00   -0.31387   1.02162    0.000
 3780.00   -0.07704   1.05713    0.000
 3781.00   -0.03530   1.06909    0.000
 3782.00   -0.65526   1.06300    0.000
 3783.00   -1.39554   1.06776    0.000
 3784.00   -2.47994   1.07723    0.000
 3785.00   -3.03318   1.04542    0.000
 3786.00   -2.28863   0.97679    0.000
 3787.00   -1.68646   0.93697    0.000
 3788.00   -1.38436   0.92616    0.000
 3789.00   -1.32031   0.91473    0.000
 3790.00   -1.69229   0.90895    0.000
 3791.00   -1.31227   0.92067    0.000
 3792.00    0.27151   0.91636    0.022
 3793.00    1.15585   0.87364    0.022
 3794.00    1.05773   0.81439    0.022
 3795.00    0.79038   0.76705    0.022
 3796.00    0.31385   0.71805    0.022
 3797.00    0.19932   0.64126    0.022
 3798.00    0.47917   0.59197    0.022
 3799.00    0.68077   0.63824    0.022
 3800.00    0.80718   0.74933    0.022
 3801.00    0.40599   0.84449    0.022
 3802.00   -0.44229   0.90695    0.000
 3803.00   -0.93419   0.96453    0.000
 3804.00   -1.16014   0.99813    0.000
 3805.00   -1.22207   0.99173    0.000
 3806.00   -1.17648   0.95970    0.000
 3807.00   -0.48299   0.94453    0.000
 3808.00    0.58229   0.98065    0.021
 3809.00   -0.19214   1.03409    0.000
 3810.00   -1.88609   1.06232    0.000
 3811.00   -1.49905   1.05958    0.000
 3812.00   -0.21211   1.02321    0.000
 3813.00    0.71208   0.96668    0.020
 3814.00    1.50174   0.92698    0.020
 3815.00    0.26234   0.90433    0.020
 3816.00   -1.61490   0.90914    0.000
 3817.00   -1.49778   0.95125    0.000
 3818.00   -0.85748   0.95989    0.000
 3819.00   -0.14470   0.88553    0.000
 3820.00    0.58362   0.81264    0.020
 3821.00    0.03597   0.83623    0.020
 3822.00   -0.72823   0.91185    0.000
 3823.00   -0.61652   0.93326    0.000
 3824.00   -0.39241   0.87652    0.000
 3825.00    0.39334   0.82179    0.020
 3826.00    1.22950   0.80811    0.020
 3827.00    1.49529   0.81040    0.020
 3828.00    1.73042   0.80107    0.021
 3829.00    0.32089   0.79279    0.021
 3830.00   -1.09075   0.79147    0.000
 3831.00    0.10101   0.75507    0.021
 3832.00    1.14205   0.67879    0.021
 3833.00   -1.16529   0.61193    0.000
 3834.00   -3.21387   0.56657    0.000
 3835.00   -2.04483   0.54901    0.000
 3836.00   -0.89276   0.58152    0.000
 3837.00    0.11580   0.62208    0.021
 3838.00    1.03191   0.64434    0.021
 3839.00    1.36640   0.67961    0.021
 3840.00    1.70097   0.72379    0.020
 3841.00    2.03595   0.77868    0.021
 3842.00    2.11926   0.85491    0.021
 3843.00    1.19504   0.91423    0.021
 3844.00    0.32024   0.94394    0.021
 3845.00   -0.39031   0.95221    0.000
 3846.00   -0.70356   0.95794    0.000
 3847.00    0.09886   0.98269    0.000
 3848.00    0.97781   0.99206    0.000
 3849.00    2.04060   0.96249    0.000
 3850.00    2.44838   0.93495    0.000
 3851.00    1.49771   0.96017    0.000
 3852.00    0.58696   1.00124    0.000
 3853.00   -0.25179   1.00657    0.000
 3854.00   -0.78458   0.98968    0.000
 3855.00   -0.83486   0.96051    0.000
 3856.00   -0.51000   0.93425    0.000
 3857.00    0.33416   0.93711    0.000
 3858.00    0.92260   0.92461    0.000
 3859.00    1.19943   0.87889    0.000
 3860.00    1.15686   0.86785    0.000
 3861.00    0.77122   0.92242    0.000
 3862.00    0.82120   0.98841    0.000
 3863.00    1.28393   1.01598    0.000
 3864.00    1.10255   1.00627    0.000
 3865.00    0.38307   0.98526    0.000
 3866.00    0.08014   0.97984    0.000
 3867.00    0.08357   0.98302    0.000
 3868.00    0.13852   0.98680    0.000
 3869.00    0.22675   0.98816    0.000
 3870.00    0.26744   0.96235    0.000
 3871.00    0.28127   0.91170    0.000
 3872.00    0.39058   0.86507    0.000
 3873.00    0.54687   0.87556    0.000
 3874.00   -0.13825   0.93372    0.000
 3875.00   -1.18116   0.97322    0.000
 3876.00   -1.22150   0.96031    0.000
 3877.00   -0.89664   0.90514    0.000
 3878.00   -0.84972   0.85200    0.000
 3879.00   -0.88849   0.86322    0.000
 3880.00   -1.40657   0.90270    0.000
 3881.00   -2.04769   0.88776    0.000
 3882.00   -1.18671   0.84890    0.000
 3883.00   -0.01169   0.84896    0.000
 3884.00    0.35687   0.85807    0.019
 3885.00    0.59245   0.80087    0.019
 3886.00    0.50900   0.70904    0.018
 3887.00    0.38605   0.65065    0.018
 3888.00    0.87304   0.60489    0.018
 3889.00    1.41223   0.58230    0.019
 3890.00    1.47290   0.64375    0.018
 3891.00    1.50971   0.74904    0.018
 3892.00    1.60306   0.82754    0.018
 3893.00    1.68584   0.86185    0.018
 3894.00    1.02675   0.86848    0.018
 3895.00    0.39006   0.86729    0.018
 3896.00    0.21136   0.89476    0.018
 3897.00    0.05009   0.93488    0.018
 3898.00    0.09495   0.93300    0.018
 3899.00    0.09405   0.91415    0.017
 3900.00   -0.27967   0.92589    0.000
 3901.00   -0.49209   0.96293    0.000
 3902.00    0.28078   0.97085    0.016
 3903.00    0.81078   0.95849    0.016
 3904.00    0.17203   0.95858    0.016
 3905.00   -0.43587   0.93344    0.000
 3906.00   -0.92292   0.91550    0.000
 3907.00   -1.23198   0.95680    0.000
 3908.00   -0.96087   1.01498    0.000
 3909.00   -0.62487   1.04327    0.000
 3910.00   -0.10995   1.04736    0.000
 3911.00    0.42581   1.05522    0.017
 3912.00    1.01078   1.06315    0.018
 3913.00    0.80662   1.04634    0.018
 3914.00   -1.00808   1.03111    0.000
 3915.00   -1.69588   1.03176    0.000
 3916.00   -0.38215   1.02111    0.000
 3917.00    0.51000   1.00909    0.019
 3918.00    0.74712   0.99168    0.018
 3919.00    0.63627   0.95754    0.018
 3920.00    0.05064   0.92206    0.018
 3921.00    0.26969   0.91131    0.018
 3922.00    1.45534   0.92767    0.018
 3923.00    1.49384   0.94419    0.018
 3924.00    0.31743   0.95303    0.018
 3925.00   -0.79776   0.93888    0.000
 3926.00   -1.85574   0.90134    0.000
 3927.00   -1.86876   0.85629    0.000
 3928.00   -1.02119   0.80668    0.000
 3929.00   -0.37758   0.75954    0.000
 3930.00    0.11819   0.71168    0.017
 3931.00   -0.02900   0.65412    0.000
 3932.00   -0.58537   0.58769    0.000
 3933.00   -0.75123   0.52714    0.000
 3934.00   -0.69976   0.51430    0.000
 3935.00   -0.61121   0.56636    0.000
 3936.00   -0.50472   0.64888    0.000
 3937.00   -0.04424   0.72680    0.000
 3938.00    0.56423   0.79029    0.018
 3939.00    0.98454   0.84637    0.018
 3940.00    1.33754   0.88797    0.018
 3941.00    0.72398   0.90045    0.018
 3942.00   -0.18174   0.90131    0.000
 3943.00   -0.30160   0.88882    0.000
 3944.00   -0.22409   0.87644    0.000
 3945.00    0.20416   0.91631    0.018
 3946.00    0.70393   0.97728    0.018
 3947.00    0.00465   0.98625    0.018
 3948.00   -0.88663   0.96280    0.000
 3949.00   -1.01030   0.96790    0.000
 3950.00   -1.04232   1.00202    0.000
 3951.00   -0.40132   1.01520    0.000
 3952.00    0.29448   0.98707    0.019
 3953.00    0.43197   0.97864    0.019
 3954.00    0.54381   1.01024    0.019
 3955.00    0.43172   1.00925    0.019
 3956.00    0.33193   0.96392    0.018
 3957.00    1.02377   0.94127    0.019
 3958.00    1.63227   0.95868    0.019
 3959.00    0.66175   0.97187    0.018
 3960.00   -0.20859   0.93016    0.000
 3961.00    0.05008   0.84003    0.000
 3962.00    0.26928   0.77482    0.000
 3963.00    0.17821   0.75423    0.000
 3964.00    0.09600   0.72286    0.000
 3965.00    0.06635   0.66164    0.000
 3966.00    0.00652   0.57925    0.000
 3967.00   -0.19501   0.48553    0.000
 3968.00   -0.27992   0.40296    0.000
 3969.00    0.08212   0.36319    0.000
 3970.00    0.31503   0.38626    0.000
 3971.00    0.13517   0.46683    0.000
 3972.00    0.05033   0.56448    0.000
 3973.00    0.22280   0.64570    0.000
 3974.00    0.48389   0.72081    0.000
 3975.00    0.95076   0.79361    0.000
 3976.00    1.27237   0.84260    0.000
 3977.00    1.30223   0.88036    0.000
 3978.00    1.28327   0.92623    0.000
 3979.00    1.17890   0.97197    0.000
 3980.00    0.96804   1.00138    0.000
 3981.00    0.59413   1.00029    0.018
 3982.00    0.08311   0.97855    0.018
 3983.00   -0.61233   0.97742    0.000
 3984.00   -0.91091   1.00423    0.000
 3985.00   -0.73951   1.02927    0.000
 3986.00   -0.12519   1.03509    0.000
 3987.00    0.95163   1.04273    0.018
 3988.00    1.09810   1.06922    0.018
 3989.00    0.38764   1.06916    0.018
 3990.00   -0.24428   1.05580    0.000
 3991.00   -0.81243   1.07052    0.000
 3992.00   -0.19178   1.09655    0.000
 3993.00    1.27823   1.10655    0.017
 3994.00    1.71776   1.08534    0.017
 3995.00    1.51117   1.06254    0.018
 3996.00    1.09330   1.04630    0.018
 3997.00    0.55964   1.02567    0.018
 3998.00    1.20742   1.02433    0.018
 3999.00    2.41796   1.06668    0.018
 4000.00    2.62654   1.10559    0.018
 4001.00    2.42330   1.10996    0.018
 4002.00    1.25016   1.11829    0.018
 4003.00   -0.26364   1.12858    0.000
 4004.00   -0.27987   1.08420    0.000
 4005.00    0.14762   1.00892    0.017
 4006.00    0.33324   0.99294    0.017
 4007.00    0.45945   1.04319    0.017
 4008.00   -0.04315   1.08053    0.000
 4009.00   -0.67077   1.08406    0.000
 4010.00    0.62408   1.08898    0.017
 4011.00    2.21764   1.10508    0.017
 4012.00    2.03070   1.10733    0.017
 4013.00    1.63902   1.10662    0.017
 4014.00    0.40138   1.10987    0.017
 4015.00   -0.90166   1.12216    0.000
 4016.00    0.43200   1.12655    0.017
 4017.00    1.87668   1.10636    0.017
 4018.00    2.34261   1.10509    0.017
 4019.00    2.76935   1.13201    0.017
 4020.00    1.87039   1.13744    0.017
 4021.00    1.00000   1.12013    0.017
 4022.00    0.63321   1.11038    0.017
 4023.00    0.36196   1.10010    0.017
 4024.00    1.11869   1.06452    0.016
 4025.00    1.79789   1.03983    0.016
 4026.00    1.88853   1.05856    0.016
 4027.00    1.87760   1.10119    0.016
 4028.00    1.28083   1.13481    0.016
 4029.00    0.90001   1.12357    0.016
 4030.00    1.50889   1.06151    0.016
 4031.00    1.84600   1.01205    0.016
 4032.00    1.16363   1.00464    0.016
 4033.00    0.57970   1.00710    0.016
 4034.00    0.30433   1.01995    0.016
 4035.00    0.33623   1.05103    0.015
 4036.00    1.18557   1.10402    0.016
 4037.00    1.76764   1.15775    0.016
 4038.00    1.73940   1.17771    0.016
 4039.00    1.60949   1.16296    0.016
 4040.00    1.27859   1.12699    0.016
 4041.00    0.82575   1.10786    0.016
 4042.00    0.16285   1.12468    0.017
 4043.00   -0.15676   1.11668    0.000
 4044.00    0.04147   1.04131    0.017
 4045.00    0.40677   0.94611    0.017
 4046.00    0.99355   0.93261    0.017
 4047.00    1.16873   1.02104    0.017
 4048.00    0.86338   1.09721    0.017
 4049.00    0.79248   1.11774    0.017
 4050.00    0.96295   1.13243    0.017
 4051.00    0.52699   1.13994    0.017
 4052.00   -0.45969   1.12278    0.000
 4053.00   -0.31741   1.09852    0.000
 4054.00    0.72845   1.07650    0.017
 4055.00    1.41924   1.06683    0.017
 4056.00    1.86001   1.07077    0.017
 4057.00    1.39471   1.05503    0.017
 4058.00    0.36972   1.03886    0.016
 4059.00    0.68063   1.06265    0.017
 4060.00    1.71237   1.10273    0.017
 4061.00    1.71947   1.11208    0.017
 4062.00    1.24635   1.05814    0.016
 4063.00    0.62099   0.97293    0.016
 4064.00   -0.06589   0.95761    0.000
 4065.00    0.37097   1.02101    0.016
 4066.00    1.19528   1.05043    0.016
 4067.00    1.33474   1.04118    0.016
 4068.00    1.27533   1.06224    0.015
 4069.00    1.92250   1.10171    0.016
 4070.00    2.73939   1.08669    0.016
 4071.00    2.52646   1.01566    0.016
 4072.00    2.11399   0.99028    0.016
 4073.00    1.40551   1.04622    0.016
 4074.00    0.65244   1.08595    0.016
 4075.00    0.89435   1.05709    0.015
 4076.00    1.24632   0.99397    0.015
 4077.00    1.49070   0.94033    0.015
 4078.00    1.72721   0.94431    0.015
 4079.00    1.52363   1.00077    0.015
 4080.00    1.30321   1.06515    0.015
 4081.00    1.28287   1.10610    0.015
 4082.00    1.26265   1.10130    0.015
 4083.00    1.20547   1.06513    0.015
 4084.00    1.14643   1.03395    0.015
 4085.00    1.05697   1.02930    0.015
 4086.00    0.98246   1.05173    0.015
 4087.00    1.06184   1.09072    0.015
 4088.00    1.11880   1.11847    0.015
 4089.00    1.01126   1.11742    0.015
 4090.00    0.95284   1.10030    0.015
 4091.00    1.17000   1.07972    0.015
 4092.00    1.27067   1.05404    0.000
 4093.00    0.85006   1.04919    0.000
 4094.00    0.72440   1.04752    0.000
 4095.00    1.68202   0.99991    0.000
 4096.00    2.23646   0.94003    0.000
 4097.00    1.55094   0.90937    0.000
 4098.00    1.00694   0.89263    0.000
 4099.00    0.83277   0.85431    0.000
 4100.00    0.76058   0.76829    0.000
 4101.00    0.91739   0.66121    0.000
 4102.00    1.13170   0.63943    0.000
 4103.00    1.45788   0.72070    0.000
 4104.00    1.63550   0.81618    0.000
 4105.00    1.56101   0.89083    0.000
 4106.00    1.41358   0.94596    0.000
 4107.00    1.15771   0.97256    0.000
 4108.00    1.00863   0.98147    0.000
 4109.00    0.99907   0.97963    0.000
 4110.00    0.63204   0.97623    0.000
 4111.00   -0.14648   0.98352    0.000
 4112.00   -0.34325   1.00330    0.000
 4113.00    0.05052   1.03172    0.015
 4114.00    0.48894   1.05339    0.015
 4115.00    0.96734   1.06008    0.015
 4116.00    1.06577   1.06878    0.015
 4117.00    0.86440   1.06727    0.015
 4118.00    1.24650   1.03031    0.015
 4119.00    2.03352   1.00209    0.015
 4120.00    1.89330   1.01437    0.022
 4121.00    1.18887   1.02708    0.086
 4122.00    1.02735   1.02787   -1.000
 4123.00    1.15425   1.03834   -1.000
 4124.00    1.88326   1.06513   -1.000
 4125.00    2.88989   1.08781   -1.000
 4126.00    2.40703   1.07961   -1.000
 4127.00    1.33272   1.05107   -1.000
 4128.00    0.74086   1.02906    0.038
 4129.00    0.31229   1.02733    0.016
 4130.00    0.95056   1.02819    0.014
 4131.00    1.89237   1.00724    0.014
 4132.00    1.77432   0.96994    0.014
 4133.00    1.40743   0.96324    0.013
 4134.00    1.07075   0.98510    0.014
 4135.00    0.73977   1.02812    0.014
 4136.00    1.51121   1.07059    0.014
 4137.00    2.44362   1.07720    0.014
 4138.00    2.37289   1.08646    0.014
 4139.00    2.19556   1.09946    0.014
 4140.00    1.09339   1.09950    0.014
 4141.00   -0.07275   1.07697    0.000
 4142.00    0.18014   1.00367    0.014
 4143.00    0.48197   0.91372    0.014
 4144.00    0.80250   0.90371    0.014
 4145.00    1.10239   0.97896    0.014
 4146.00    0.71928   1.04327    0.014
 4147.00    0.38084   1.06448    0.014
 4148.00    0.73300   1.06008    0.014
 4149.00    1.08387   1.03867    0.014
 4150.00    1.42199   1.02480    0.014
 4151.00    1.65415   1.03493    0.014
 4152.00    1.13405   1.03760    0.014
 4153.00    0.67907   1.02309    0.014
 4154.00    0.57958   1.00559    0.014
 4155.00    0.59175   1.00494    0.014
 4156.00    1.09204   1.01167    0.014
 4157.00    1.43222   1.02164    0.014
 4158.00    1.19654   1.04518    0.014
 4159.00    1.00294   1.06779    0.014
 4160.00    0.93634   1.07361    0.014
 4161.00    0.98305   1.06950    0.014
 4162.00    1.32071   1.07830    0.014
 4163.00    1.46341   1.08670    0.014
 4164.00    1.17542   1.07343    0.014
 4165.00    0.93342   1.06272    0.014
 4166.00    0.77948   1.05421    0.014
 4167.00    0.65083   1.03152    0.014
 4168.00    0.56443   1.02390    0.014
 4169.00    0.70155   1.04529    0.014
 4170.00    1.16606   1.05286    0.014
 4171.00    1.05884   1.01600    0.014
 4172.00    0.21522   0.95390    0.014
 4173.00    0.15502   0.92672    0.014
 4174.00    0.98383   0.95150    0.014
 4175.00    1.22017   0.98712    0.015
 4176.00    0.86353   1.00350    0.014
 4177.00    0.69667   0.99470    0.014
 4178.00    0.69734   0.98660    0.014
 4179.00    0.71044   1.01181    0.014
 4180.00    0.73321   1.04002    0.014
 4181.00    0.69514   1.03009    0.014
 4182.00    0.61547   1.00656    0.014
 4183.00    0.48336   1.00944    0.014
 4184.00    0.31983   1.02737    0.014
 4185.00    0.30423   1.04341    0.014
 4186.00    0.36599   1.02457    0.013
 4187.00    0.42596   0.97692    0.013
 4188.00    0.48511   0.97390    0.013
 4189.00    0.99030   1.01232    0.013
 4190.00    1.66953   1.02810    0.013
 4191.00    1.73869   1.01586    0.013
 4192.00    1.60522   1.03021    0.013
 4193.00    1.30673   1.07131    0.013
 4194.00    0.96225   1.07333    0.013
 4195.00    0.96199   1.02803    0.013
 4196.00    1.04070   0.99357    0.013
 4197.00    1.06158   0.97696    0.013
 4198.00    1.07182   0.94668    0.013
 4199.00    0.88341   0.93498    0.013
 4200.00    0.66690   0.95512    0.013
 4201.00    1.24402   0.95700    0.013
 4202.00    1.90205   0.95047    0.013
 4203.00    1.41898   0.97375    0.013
 4204.00    0.86157   0.99534    0.013
 4205.00    0.62632   1.00151    0.013
 4206.00    0.40128   1.01898    0.012
 4207.00    0.37745   1.04141    0.013
 4208.00    0.35484   1.05654    0.013
 4209.00    0.36793   1.05049    0.013
 4210.00    0.43740   1.03263    0.013
 4211.00    1.32790   1.03601    0.013
 4212.00    2.07458   1.05326    0.013
 4213.00    1.46128   1.05206    0.013
 4214.00    0.89629   1.02246    0.013
 4215.00    0.66338   0.96953    0.013
 4216.00    0.54989   0.95017    0.013
 4217.00    1.07106   0.99624    0.013
 4218.00    1.44128   1.04152    0.013
 4219.00    1.16675   1.05646    0.013
 4220.00    0.90236   1.06755    0.013
 4221.00    0.67370   1.07150    0.013
 4222.00    0.44468   1.04351    0.013
 4223.00    0.21460   0.99952    0.013
 4224.00    0.06437   0.95081    0.013
 4225.00    0.11570   0.87812    0.013
 4226.00    0.19176   0.78909    0.013
 4227.00    0.32156   0.77097    0.013
 4228.00    0.57108   0.87080    0.013
 4229.00    1.04636   0.97849    0.013
 4230.00    1.30408   1.02578    0.013
 4231.00    1.20365   1.04168    0.013
 4232.00    1.18229   1.02138    0.013
 4233.00    1.27507   0.98350    0.012
 4234.00    1.19945   0.98157    0.012
 4235.00    0.91002   0.98098    0.012
 4236.00    0.77178   0.95296    0.012
 4237.00    0.80268   0.95377    0.012
 4238.00    0.78410   0.97422    0.012
 4239.00    0.71671   0.98030    0.012
 4240.00    0.94480   0.99192    0.012
 4241.00    1.43006   1.01756    0.012
 4242.00    1.49286   1.02061    0.013
 4243.00    1.23180   1.01875    0.013
 4244.00    1.03356   1.04802    0.013
 4245.00    0.87765   1.06281    0.013
 4246.00    0.93732   1.02905    0.013
 4247.00    1.12426   0.98202    0.013
 4248.00    1.27770   0.96158    0.013
 4249.00    1.41389   0.95323    0.013
 4250.00    1.16348   0.93194    0.013
 4251.00    0.74058   0.94340    0.013
 4252.00    0.65279   0.98993    0.013
 4253.00    0.69350   0.99091    0.013
 4254.00    1.11452   0.94756    0.013
 4255.00    1.65949   0.93785    0.013
 4256.00    1.68501   0.98521    0.013
 4257.00    1.56874   1.03058    0.012
 4258.00    1.13236   1.00972    0.012
 4259.00    0.62424   0.95400    0.012
 4260.00    0.64383   0.90912    0.012
 4261.00    0.75780   0.90947    0.013
 4262.00    0.80943   0.96691    0.013
 4263.00    0.85252   1.02378    0.013
 4264.00    0.66674   1.04328    0.012
 4265.00    0.45860   1.04922    0.012
 4266.00    0.52636   1.04336    0.012
 4267.00    0.61098   1.00699    0.012
 4268.00    0.32135   0.98164    0.012
 4269.00    0.02564   0.97603    0.012
 4270.00    0.51632   0.93783    0.012
 4271.00    0.99440   0.86733    0.012
 4272.00    1.13964   0.84422    0.012
 4273.00    1.23774   0.87755    0.012
 4274.00    0.68787   0.88697    0.012
 4275.00    0.19717   0.89067    0.012
 4276.00    0.24398   0.93934    0.012
 4277.00    0.30685   0.99717    0.012
 4278.00    0.47666   1.02542    0.012
 4279.00    0.65433   1.00716    0.012
 4280.00    0.87266   0.96145    0.012
 4281.00    1.01165   0.94679    0.012
 4282.00    0.81950   0.95517   -2.000
 4283.00    0.81367   0.96820   -2.000
 4284.00    1.45108   0.97495   -2.000
 4285.00    1.95900   0.94970   -2.000
 4286.00    2.09058   0.92795   -2.000
 4287.00    2.01514   0.93506   -2.000
 4288.00    1.42625   0.92305   -2.000
 4289.00    1.02319   0.86810   -2.000
 4290.00    1.01740   0.83081   -2.000
 4291.00    1.03556   0.86117   -2.000
 4292.00    1.09821   0.92699   -2.000
 4293.00    1.29270   0.96206   -2.000
 4294.00    1.70102   0.94172   -2.000
 4295.00    1.65373   0.92474   -2.000
 4296.00    0.95826   0.92335   -2.000
 4297.00    0.62920   0.90122   -2.000
 4298.00    0.75871   0.85706    0.012
 4299.00    0.86472   0.79382    0.012
 4300.00    0.94481   0.76157    0.012
 4301.00    0.99589   0.78308    0.012
 4302.00    1.01876   0.79558    0.012
 4303.00    1.04843   0.79541    0.012
 4304.00    1.08393   0.81431    0.012
 4305.00    1.01500   0.82681    0.012
 4306.00    0.86717   0.81812    0.012
 4307.00    0.99218   0.78412    0.012
 4308.00    1.29839   0.74360    0.012
 4309.00    1.48805   0.74664    0.012
 4310.00    1.60994   0.78504    0.012
 4311.00    1.22678   0.82090    0.012
 4312.00    0.58767   0.84807    0.012
 4313.00    0.61972   0.86905    0.012
 4314.00    0.94628   0.88588    0.012
 4315.00    0.97391   0.93467    0.012
 4316.00    0.88894   1.02057    0.012
 4317.00    0.50887   1.06941    0.012
 4318.00    0.03446   1.06415    0.012
 4319.00   -0.01638   1.04711    0.000
 4320.00    0.04599   1.03009    0.012
 4321.00    0.45523   1.00805    0.012
 4322.00    0.94037   0.98919    0.012
 4323.00    0.63205   0.93692    0.012
 4324.00    0.18571   0.85900    0.012
 4325.00    0.09592   0.79683    0.012
 4326.00    0.05329   0.80047    0.012
 4327.00    0.19776   0.88594    0.012
 4328.00    0.35972   0.97601    0.012
 4329.00    0.88790   1.00479    0.012
 4330.00    1.43703   0.98399    0.000
 4331.00    1.58834   0.96839    0.000
 4332.00    1.72537   0.97601    0.000
 4333.00    1.28586   0.97776    0.000
 4334.00    0.88856   0.97482    0.000
 4335.00    1.50484   0.97358    0.000
 4336.00    2.02916   0.93478    0.000
 4337.00    1.35664   0.83636    0.000
 4338.00    0.80137   0.74241    0.000
 4339.00    1.27062   0.66959    0.000
 4340.00    1.56856   0.60131    0.000
 4341.00    0.76003   0.62077    0.000
 4342.00    0.13162   0.73285    0.000
 4343.00    0.41186   0.81421    0.000
 4344.00    0.64747   0.84857    0.000
 4345.00    0.70092   0.89192    0.000
 4346.00    0.78541   0.92145    0.000
 4347.00    0.97495   0.92849    0.000
 4348.00    1.09967   0.95306    0.000
 4349.00    1.03944   0.99029    0.000
 4350.00    1.02940   0.97277    0.000
 4351.00    1.14173   0.88691    0.012
 4352.00    1.27270   0.83444    0.012
 4353.00    1.44289   0.87580    0.012
 4354.00    1.39139   0.93303    0.012
 4355.00    0.93460   0.95285    0.012
 4356.00    0.77153   0.97558    0.015
 4357.00    1.07776   1.00033    0.040
 4358.00    1.26535   0.98729   -1.000
 4359.00    1.28660   0.95579   -1.000
 4360.00    1.20356   0.96391   -1.000
 4361.00    0.99184   1.00375   -1.000
 4362.00    0.92031   1.02242   -1.000
 4363.00    1.00124   1.01668   -1.000
 4364.00    1.10413   1.02784    0.044
 4365.00    1.22808   1.04830    0.015
 4366.00    1.11287   1.02916    0.011
 4367.00    0.79535   0.98248    0.011
 4368.00    0.76992   0.96320    0.011
 4369.00    0.96207   0.97546    0.012
 4370.00    1.23746   0.97942    0.012
 4371.00    1.56731   0.97857    0.012
 4372.00    1.45482   0.98217    0.012
 4373.00    1.08898   0.96207    0.011
 4374.00    0.93655   0.91423    0.011
 4375.00    0.89057   0.88744    0.011
 4376.00    0.94594   0.91837    0.011
 4377.00    1.04503   0.97732    0.011
 4378.00    1.00076   1.00969    0.011
 4379.00    0.90342   1.00447    0.011
 4380.00    0.76035   0.99233    0.011
 4381.00    0.60294   0.98218    0.011
 4382.00    0.62893   0.92199    0.011
 4383.00    0.70290   0.80809    0.011
 4384.00    0.96174   0.75232    0.011
 4385.00    1.26007   0.80812    0.011
 4386.00    1.48012   0.89887    0.011
 4387.00    1.68694   0.93631    0.011
 4388.00    1.55215   0.93157    0.011
 4389.00    1.37372   0.92862    0.011
 4390.00    0.97981   0.92576    0.011
 4391.00    0.56666   0.93494    0.011
 4392.00    0.66712   0.96678    0.011
 4393.00    0.79493   0.98020    0.011
 4394.00    0.73501   0.95056    0.011
 4395.00    0.67025   0.92530    0.011
 4396.00    0.50978   0.95764    0.011
 4397.00    0.35535   1.01103    0.011
 4398.00    0.33361   1.01984    0.011
 4399.00    0.30749   0.98398    0.011
 4400.00    0.22734   0.93692    0.011
 4401.00    0.15784   0.93374    0.011
 4402.00    0.17799   0.97947    0.011
 4403.00    0.21487   0.97683    0.011
 4404.00    0.35664   0.89880    0.011
 4405.00    0.51293   0.85882    0.011
 4406.00    0.74069   0.90352    0.011
 4407.00    0.91029   0.93484    0.011
 4408.00    0.84770   0.92180    0.011
 4409.00    0.84048   0.93591    0.011
 4410.00    1.01690   0.98693    0.011
 4411.00    1.07993   1.02160    0.011
 4412.00    0.82524   1.03633    0.011
 4413.00    0.65061   1.03291    0.011
 4414.00    0.66786   0.97592    0.011
 4415.00    0.76536   0.90662    0.011
 4416.00    1.02898   0.90191    0.011
 4417.00    1.20653   0.93618    0.011
 4418.00    1.22913   0.97436    0.011
 4419.00    1.19417   1.01831    0.011
 4420.00    1.06858   1.03563    0.011
 4421.00    1.06430   1.01200    0.011
 4422.00    1.22765   0.97564    0.011
 4423.00    1.23933   0.96819    0.011
 4424.00    1.06656   0.98551    0.011
 4425.00    0.92435   0.98682    0.011
 4426.00    0.81493   0.97176    0.011
 4427.00    0.78275   0.96546    0.011
 4428.00    0.82364   0.98200    0.011
 4429.00    0.75009   0.98957    0.011
 4430.00    0.58111   0.96636    0.011
 4431.00    0.46716   0.96674    0.011
 4432.00    0.39362   0.99171    0.011
 4433.00    0.55927   0.98036    0.011
 4434.00    0.87912   0.93293    0.011
 4435.00    0.84366   0.89492    0.011
 4436.00    0.60778   0.91084    0.011
 4437.00    0.62402   0.96990    0.011
 4438.00    0.76402   1.02063    0.011
 4439.00    0.76250   1.04266    0.011
 4440.00    0.70092   1.02765    0.011
 4441.00    0.72220   0.98287    0.011
 4442.00    0.77359   0.93459    0.011
 4443.00    0.81962   0.91226    0.011
 4444.00    0.86399   0.93659    0.011
 4445.00    0.95209   0.99210    0.011
 4446.00    1.05138   1.02016    0.011
 4447.00    1.00839   1.00770    0.011
 4448.00    0.93575   1.00453    0.011
 4449.00    0.96377   1.00985    0.011
 4450.00    1.00832   0.99349    0.011
 4451.00    0.85268   0.98778    0.011
 4452.00    0.67236   0.99814    0.011
 4453.00    0.82127   0.98228    0.011
 4454.00    0.99819   0.93240    0.011
 4455.00    0.88548   0.89062    0.011
 4456.00    0.75847   0.90015    0.011
 4457.00    0.54590   0.92905    0.011
 4458.00    0.33989   0.93386    0.011
 4459.00    0.63132   0.92370    0.011
 4460.00    0.89634   0.92063    0.011
 4461.00    0.62647   0.90786    0.000
 4462.00    0.38534   0.90541    0.000
 4463.00    0.48194   0.94657    0.000
 4464.00    0.55009   0.97933    0.000
 4465.00    0.38746   0.97707    0.000
 4466.00    0.27361   0.97016    0.000
 4467.00    0.45671   0.96638    0.000
 4468.00    0.62298   0.95201    0.000
 4469.00    0.70847   0.92991    0.000
 4470.00    0.78840   0.92577    0.000
 4471.00    0.84660   0.93709    0.000
 4472.00    0.84986   0.96309    0.000
 4473.00    0.67444   1.00363    0.000
 4474.00    0.55140   1.02839    0.000
 4475.00    0.57248   1.02214    0.000
 4476.00    0.54381   1.02050    0.000
 4477.00    0.39793   1.04142    0.000
 4478.00    0.38036   1.04911    0.000
 4479.00    0.62412   1.01700    0.000
 4480.00    0.70687   0.95919    0.000
 4481.00    0.50420   0.91511    0.000
 4482.00    0.44213   0.91452    0.011
 4483.00    0.59811   0.96046    0.011
 4484.00    0.91686   1.01092    0.011
 4485.00    1.45729   1.03629    0.011
 4486.00    1.47725   1.04445    0.011
 4487.00    0.87312   1.03337    0.011
 4488.00    0.63270   0.99671    0.011
 4489.00    0.77678   0.95625    0.011
 4490.00    0.81068   0.94862    0.011
 4491.00    0.74182   0.97841    0.011
 4492.00    0.85187   1.01102    0.011
 4493.00    1.10899   1.00966    0.011
 4494.00    0.96133   0.97430    0.011
 4495.00    0.52075   0.94888    0.011
 4496.00    0.57368   0.95101    0.011
 4497.00    0.94009   0.97403    0.011
 4498.00    0.96330   1.00666    0.011
 4499.00    0.79587   1.02509    0.010
 4500.00    0.86513   1.01431    0.010
 4501.00    1.04874   0.98727    0.011
 4502.00    1.04014   0.99396    0.011
 4503.00    0.95135   1.03980    0.011
 4504.00    0.88952   1.06870    0.011
 4505.00    0.83732   1.06701    0.010
 4506.00    0.77221   1.05171    0.010
 4507.00    0.70321   1.03441    0.010
 4508.00    0.92812   1.02612    0.010
 4509.00    1.22665   1.03235    0.011
 4510.00    1.28913   1.04472    0.010
 4511.00    1.30362   1.04300    0.010
 4512.00    1.19362   1.02228    0.010
 4513.00    1.06377   1.00287    0.011
 4514.00    1.06720   0.99189    0.010
 4515.00    1.08646   0.99062    0.010
 4516.00    0.81404   1.00020    0.010
 4517.00    0.51803   0.99548    0.010
 4518.00    0.39968   0.98054    0.010
 4519.00    0.28941   0.98997    0.010
 4520.00    0.63657   1.01304    0.010
 4521.00    0.97841   1.02272    0.010
 4522.00    0.76179   0.99753    0.010
 4523.00    0.56378   0.96856    0.010
 4524.00    0.71522   0.96916    0.010
 4525.00    0.87579   0.96477    0.010
 4526.00    1.13864   0.94075    0.010
 4527.00    1.36734   0.91323    0.010
 4528.00    1.32878   0.89116    0.010
 4529.00    1.29378   0.88640    0.010
 4530.00    1.27979   0.90151    0.010
 4531.00    1.23587   0.92337    0.010
 4532.00    1.05185   0.94452    0.010
 4533.00    0.90724   0.93014    0.010
 4534.00    0.91324   0.89027    0.010
 4535.00    0.91417   0.87324    0.010
 4536.00    0.89897   0.90975    0.010
 4537.00    0.87198   0.98277    0.010
 4538.00    0.81313   1.02057    0.010
 4539.00    0.79573   1.00899    0.010
 4540.00    0.87440   0.98039    0.010
 4541.00    0.80488   0.96281    0.010
 4542.00    0.43833   0.97558    0.010
 4543.00    0.27327   0.99215    0.010
 4544.00    0.45996   0.97726    0.010
 4545.00    0.60674   0.95684    0.010
 4546.00    0.69253   0.96326    0.010
 4547.00    0.69883   0.97296    0.010
 4548.00    0.59843   0.95535    0.010
 4549.00    0.59866   0.91869    0.010
 4550.00    0.71786   0.91909    0.000
 4551.00    0.73586   0.95513    0.000
 4552.00    0.64838   0.96092    0.000
 4553.00    0.59213   0.94000    0.000
 4554.00    0.56462   0.91964    0.000
 4555.00    0.54429   0.91538    0.000
 4556.00    0.52979   0.94058    0.000
 4557.00    0.55102   0.98356    0.000
 4558.00    0.59773   1.00800    0.000
 4559.00    0.71513   1.01081    0.000
 4560.00    0.87678   1.00930    0.000
 4561.00    0.87440   1.01290    0.000
 4562.00    0.78230   1.00928    0.000
 4563.00    0.89276   0.97958    0.000
 4564.00    1.09951   0.94840    0.000
 4565.00    1.04846   0.94338    0.000
 4566.00    0.89168   0.96518    0.000
 4567.00    0.65836   0.99947    0.000
 4568.00    0.39822   1.01570    0.000
 4569.00    0.59065   1.01430    0.000
 4570.00    0.91684   0.99519    0.000
 4571.00    0.86149   0.95091    0.000
 4572.00    0.71268   0.94063    0.000
 4573.00    0.69092   0.98312    0.000
 4574.00    0.69433   1.00765    0.000
 4575.00    0.78140   0.99999    0.000
 4576.00    0.88142   0.99725    0.000
 4577.00    0.85136   0.99792    0.000
 4578.00    0.80642   0.98698    0.000
 4579.00    0.97870   0.96056    0.000
 4580.00    1.16766   0.93297    0.000
 4581.00    1.21945   0.92647    0.000
 4582.00    1.26553   0.94166    0.000
 4583.00    1.13535   0.95042    0.000
 4584.00    1.00480   0.94654    0.000
 4585.00    0.92439   0.94290    0.000
 4586.00    0.85464   0.94183    0.000
 4587.00    0.97123   0.96001    0.000
 4588.00    1.08263   0.98609    0.000
 4589.00    1.13845   0.99646    0.000
 4590.00    1.18802   0.98635    0.000
 4591.00    1.19044   0.96429    0.000
 4592.00    1.19549   0.94572    0.000
 4593.00    1.21567   0.94566    0.000
 4594.00    1.19231   0.95132    0.000
 4595.00    0.97000   0.94990    0.000
 4596.00    0.76115   0.95280    0.000
 4597.00    0.60272   0.95931    0.000
 4598.00    0.51202   0.96530    0.000
 4599.00    0.63313   0.96879    0.000
 4600.00    0.72676   0.95341    0.000
 4601.00    0.74745   0.93990    0.000
 4602.00    0.80174   0.94667    0.000
 4603.00    0.93259   0.95617    0.000
 4604.00    1.03036   0.96145    0.000
 4605.00    1.06290   0.95924    0.000
 4606.00    1.09380   0.95878    0.000
 4607.00    1.12188   0.96871    0.000
 4608.00    1.13628   0.99325    0.000
 4609.00    1.13009   1.01340    0.000
 4610.00    1.12185   1.00914    0.000
 4611.00    1.11089   0.99172    0.000
 4612.00    0.95102   0.98063    0.000
 4613.00    0.61762   0.97303    0.000
 4614.00    0.51527   0.97869    0.000
 4615.00    0.65037   0.98955    0.000
 4616.00    0.89122   0.98319    0.000
 4617.00    1.22795   0.98283    0.000
 4618.00    1.17147   0.98030    0.000
 4619.00    0.80084   0.96443    0.000
 4620.00    0.60080   0.96810    0.000
 4621.00    0.52067   0.99001    0.000
 4622.00    0.68159   0.99497    0.000
 4623.00    0.99112   0.99216    0.000
 4624.00    1.09489   0.99167    0.000
 4625.00    1.08785   0.98243    0.000
 4626.00    0.88557   0.97562    0.000
 4627.00    0.59198   0.98169    0.000
 4628.00    0.40277   0.97894    0.000
 4629.00    0.25565   0.96005    0.000
 4630.00    0.39125   0.96044    0.000
 4631.00    0.62410   0.98369    0.000
 4632.00    0.73718   0.98528    0.000
 4633.00    0.81556   0.96354    0.000
 4634.00    0.76494   0.95374    0.000
 4635.00    0.68343   0.95756    0.000
 4636.00    0.77961   0.95755    0.000
 4637.00    0.91010   0.94519    0.000
 4638.00    0.80557   0.93127    0.000
 4639.00    0.66577   0.92486    0.000
 4640.00    0.72162   0.92846    0.000
 4641.00    0.79900   0.95014    0.000
 4642.00    0.81001   0.96792    0.000
 4643.00    0.81619   0.96554    0.000
 4644.00    0.56660   0.95617    0.000
 4645.00    0.30733   0.93887    0.000
 4646.00    0.40397   0.90440    0.000
 4647.00    0.50321   0.88371    0.000
 4648.00    0.63181   0.89239    0.000
 4649.00    0.75264   0.91426    0.000
 4650.00    0.74639   0.93394    0.000
 4651.00    0.73738   0.94232    0.000
 4652.00    0.70018   0.94845    0.000
 4653.00    0.65829   0.95261    0.000
 4654.00    0.58218   0.93260    0.000
 4655.00    0.53609   0.91079    0.000
 4656.00    0.65784   0.90993    0.000
 4657.00    0.74468   0.92863    0.000
 4658.00    0.67580   0.96625    0.000
 4659.00    0.61359   0.99791    0.000
 4660.00    0.57580   1.00486    0.000
 4661.00    0.57985   0.98754    0.000
 4662.00    0.71227   0.96220    0.000
 4663.00    0.80292   0.94487    0.000
 4664.00    0.78467   0.94245    0.000
 4665.00    0.83255   0.94096    0.000
 4666.00    1.02863   0.90763    0.000
 4667.00    1.01161   0.85560    0.000
 4668.00    0.58075   0.84193    0.000
 4669.00    0.29947   0.87311    0.000
 4670.00    0.27151   0.91289    0.000
 4671.00    0.43926   0.94127    0.000
 4672.00    0.89741   0.94643    0.000
 4673.00    1.11568   0.93608    0.000
 4674.00    1.02107   0.93053    0.000
 4675.00    0.91707   0.93841    0.000
 4676.00    0.80227   0.95702    0.000
 4677.00    0.83514   0.96232    0.000
 4678.00    1.01765   0.94374    0.000
 4679.00    1.07791   0.92269    0.000
 4680.00    1.02892   0.91049    0.000
 4681.00    0.87407   0.90364    0.000
 4682.00    0.63583   0.90668    0.000
 4683.00    0.69398   0.92515    0.000
 4684.00    0.95742   0.93909    0.000
 4685.00    0.97120   0.93637    0.000
 4686.00    0.83334   0.93126    0.000
 4687.00    0.66997   0.92818    0.000
 4688.00    0.49309   0.92977    0.000
 4689.00    0.48184   0.93581    0.000
 4690.00    0.54682   0.93205    0.000
 4691.00    0.63305   0.92144    0.000
 4692.00    0.72770   0.92622    0.000
 4693.00    0.95176   0.94006    0.000
 4694.00    1.21953   0.95013    0.000
 4695.00    1.04408   0.96131    0.000
 4696.00    0.74285   0.96839    0.000
 4697.00    0.75020   0.95539    0.000
 4698.00    0.82980   0.92132    0.000
 4699.00    0.67482   0.90113    0.000
 4700.00    0.47571   0.90982    0.000
 4701.00    0.51483   0.91331    0.000
 4702.00    0.58860   0.89438    0.000
 4703.00    0.85284   0.87740    0.000
 4704.00    1.13722   0.89280    0.000
 4705.00    0.92401   0.91936    0.000
 4706.00    0.67662   0.92037    0.000
 4707.00    0.87071   0.90010    0.000
 4708.00    1.07981   0.88388    0.000
 4709.00    0.91384   0.88094    0.000
 4710.00    0.75461   0.89694    0.000
 4711.00    0.83335   0.92850    0.000
 4712.00    0.91266   0.94021    0.000
 4713.00    1.00066   0.92465    0.000
 4714.00    1.08702   0.90177    0.000
 4715.00    1.15727   0.89829    0.000
 4716.00    1.19306   0.92206    0.000
 4717.00    0.98517   0.94570    0.000
 4718.00    0.76037   0.95279    0.000
 4719.00    0.44364   0.95794    0.000
 4720.00    0.21942   0.96333    0.000
 4721.00    0.39842   0.95841    0.000
 4722.00    0.57623   0.94445    0.000
 4723.00    0.74981   0.94247    0.000
 4724.00    0.89808   0.95739    0.000
 4725.00    0.97019   0.96787    0.000
 4726.00    0.92966   0.95363    0.000
 4727.00    0.60052   0.91376    0.000
 4728.00    0.47120   0.88399    0.000
 4729.00    0.78233   0.88468    0.000
 4730.00    0.94155   0.89341    0.000
 4731.00    0.81032   0.89775    0.000
 4732.00    0.74467   0.90717    0.000
 4733.00    0.78840   0.91743    0.000
 4734.00    0.79206   0.92437    0.000
 4735.00    0.73712   0.92961    0.000
 4736.00    0.71074   0.91472    0.000
 4737.00    0.72107   0.90270    0.000
 4738.00    0.69986   0.92240    0.000
 4739.00    0.64294   0.93710    0.000
 4740.00    0.71049   0.92708    0.000
 4741.00    0.90240   0.91649    0.000
 4742.00    1.03028   0.92066    0.000
 4743.00    1.10173   0.93377    0.000
 4744.00    1.04354   0.93681    0.000
 4745.00    0.88470   0.93008    0.000
 4746.00    0.80485   0.93605    0.000
 4747.00    0.77893   0.94535    0.000
 4748.00    0.80175   0.94293    0.000
 4749.00    0.85373   0.93972    0.000
 4750.00    0.84521   0.94295    0.000
 4751.00    0.80511   0.94265    0.000
 4752.00    0.76235   0.93116    0.000
 4753.00    0.71840   0.91867    0.000
 4754.00    0.82441   0.91052    0.000
 4755.00    0.98881   0.90869    0.000
 4756.00    0.89924   0.90736    0.000
 4757.00    0.72551   0.90722    0.000
 4758.00    0.62881   0.91012    0.000
 4759.00    0.55352   0.91708    0.000
 4760.00    0.75970   0.92410    0.000
 4761.00    1.03025   0.91115    0.009
 4762.00    0.97409   0.88192    0.009
 4763.00    0.85809   0.86638    0.009
 4764.00    0.80981   0.86578    0.009
 4765.00    0.77107   0.86196    0.009
 4766.00    0.99999   0.86055    0.009
 4767.00    1.25606   0.87251    0.009
 4768.00    1.07639   0.88942    0.009
 4769.00    0.86855   0.90727    0.009
 4770.00    0.72165   0.91535    0.009
 4771.00    0.57723   0.90082    0.009
 4772.00    0.75237   0.88546    0.009
 4773.00    0.92023   0.89355    0.009
 4774.00    0.87745   0.91692    0.009
 4775.00    0.83154   0.92683    0.009
 4776.00    0.74055   0.92132    0.009
 4777.00    0.67267   0.92220    0.008
 4778.00    0.82218   0.92141    0.009
 4779.00    0.94551   0.90887    0.009
 4780.00    0.88954   0.90076    0.008
 4781.00    0.86597   0.90305    0.008
 4782.00    1.01405   0.89718    0.008
 4783.00    1.08249   0.88291    0.008
 4784.00    0.81171   0.88529    0.008
 4785.00    0.61950   0.89381    0.008
 4786.00    0.70341   0.87903    0.009
 4787.00    0.78958   0.87207    0.009
 4788.00    0.88246   0.87963    0.009
 4789.00    0.87636   0.87683    0.009
 4790.00    0.62105   0.88010    0.008
 4791.00    0.53722   0.89174    0.008
 4792.00    0.82526   0.89944    0.008
 4793.00    0.97788   0.91375    0.009
 4794.00    0.87565   0.93358    0.009
 4795.00    0.80432   0.94279    0.009
 4796.00    0.78379   0.93540    0.009
 4797.00    0.64688   0.91934    0.009
 4798.00    0.34226   0.89960    0.008
 4799.00    0.27226   0.88397    0.008
 4800.00    0.49957   0.88432    0.009
 4801.00    0.70674   0.90114    0.009
 4802.00    0.89143   0.92020    0.009
 4803.00    1.01203   0.92458    0.009
 4804.00    1.06949   0.91020    0.009
 4805.00    1.09921   0.89067    0.009
 4806.00    1.10485   0.88671    0.009
 4807.00    1.06877   0.88622    0.009
 4808.00    1.00076   0.88348    0.009
 4809.00    1.02731   0.88970    0.009
 4810.00    1.11745   0.89762    0.009
 4811.00    1.03222   0.89902    0.009
 4812.00    0.84363   0.89849    0.009
 4813.00    0.78783   0.89869    0.009
 4814.00    0.80028   0.90131    0.009
 4815.00    0.91719   0.90512    0.009
 4816.00    1.08062   0.91051    0.009
 4817.00    1.04952   0.91735    0.009
 4818.00    0.94400   0.91983    0.009
 4819.00    0.94597   0.92028    0.009
 4820.00    0.98289   0.91719    0.009
 4821.00    0.92749   0.91352    0.009
 4822.00    0.84695   0.89995    0.009
 4823.00    0.98837   0.86729    0.009
 4824.00    1.17938   0.85333    0.009
 4825.00    1.07129   0.87623    0.009
 4826.00    0.90989   0.89791    0.009
 4827.00    0.84468   0.89696    0.009
 4828.00    0.79258   0.88344    0.009
 4829.00    1.01554   0.87641    0.009
 4830.00    1.26523   0.88071    0.009
 4831.00    1.00806   0.87439    0.009
 4832.00    0.72014   0.86081    0.009
 4833.00    0.82033   0.86826    0.009
 4834.00    0.93052   0.88675    0.009
 4835.00    0.98921   0.89166    0.009
 4836.00    1.04173   0.88709    0.009
 4837.00    0.93330   0.88659    0.009
 4838.00    0.83654   0.87996    0.009
 4839.00    0.89922   0.86195    0.009
 4840.00    0.94492   0.84981    0.009
 4841.00    0.83707   0.85687    0.009
 4842.00    0.75391   0.86365    0.009
 4843.00    0.83453   0.85554    0.008
 4844.00    0.87645   0.85768    0.008
 4845.00    0.71871   0.87683    0.008
 4846.00    0.65432   0.88614    0.008
 4847.00    0.97855   0.87343    0.008
 4848.00    1.22046   0.84834    0.000
 4849.00    1.17889   0.83987    0.000
 4850.00    1.13331   0.85289    0.000
 4851.00    1.07610   0.85607    0.000
 4852.00    0.99014   0.84930    0.000
 4853.00    0.83302   0.84453    0.000
 4854.00    0.69021   0.82099    0.000
 4855.00    0.57798   0.78114    0.000
 4856.00    0.54574   0.76926    0.000
 4857.00    0.66177   0.78386    0.000
 4858.00    0.71767   0.77278    0.000
 4859.00    0.67626   0.71566    0.000
 4860.00    0.72520   0.62131    0.000
 4861.00    0.90242   0.54297    0.000
 4862.00    0.94409   0.56688    0.000
 4863.00    0.81639   0.66056    0.000
 4864.00    0.70961   0.72253    0.000
 4865.00    0.62587   0.75472    0.000
 4866.00    0.65231   0.78292    0.000
 4867.00    0.78577   0.79926    0.000
 4868.00    0.87026   0.80773    0.000
 4869.00    0.91281   0.81618    0.000
 4870.00    0.95562   0.80078    0.000
 4871.00    0.99861   0.76259    0.000
 4872.00    0.90927   0.75626    0.000
 4873.00    0.73222   0.79345    0.000
 4874.00    0.64254   0.82319    0.000
 4875.00    0.60358   0.82697    0.008
 4876.00    0.79155   0.83064    0.008
 4877.00    1.09430   0.83753    0.008
 4878.00    1.00035   0.84108    0.008
 4879.00    0.73268   0.86092    0.008
 4880.00    0.63320   0.87186    0.008
 4881.00    0.59693   0.84996    0.008
 4882.00    0.67418   0.83720    0.008
 4883.00    0.78765   0.84862    0.008
 4884.00    0.81052   0.84853    0.008
 4885.00    0.80925   0.83002    0.008
 4886.00    0.86795   0.81806    0.008
 4887.00    0.93973   0.82523    0.008
 4888.00    0.79593   0.83380    0.008
 4889.00    0.61477   0.82742    0.008
 4890.00    0.65746   0.80061    0.008
 4891.00    0.72963   0.77532    0.008
 4892.00    0.92554   0.80271    0.008
 4893.00    1.13295   0.85850    0.008
 4894.00    0.95210   0.89371    0.008
 4895.00    0.74925   0.91070    0.008
 4896.00    0.64972   0.91508    0.008
 4897.00    0.55588   0.91286    0.008
 4898.00    0.82612   0.90623    0.008
 4899.00    1.08308   0.88411    0.008
 4900.00    1.02507   0.86337    0.008
 4901.00    0.97283   0.86842    0.008
 4902.00    0.99508   0.87160    0.008
 4903.00    1.01376   0.85559    0.008
 4904.00    1.00146   0.85293    0.008
 4905.00    0.98406   0.87666    0.008
 4906.00    0.93383   0.89876    0.008
 4907.00    0.89452   0.89541    0.008
 4908.00    0.91013   0.87639    0.008
 4909.00    0.93994   0.85148    0.008
 4910.00    1.02754   0.82890    0.008
 4911.00    1.07063   0.83161    0.008
 4912.00    0.96356   0.85354    0.008
 4913.00    0.93353   0.86661    0.008
 4914.00    1.12285   0.87399    0.008
 4915.00    1.23981   0.88865    0.008
 4916.00    1.18073   0.89456    0.008
 4917.00    1.10067   0.87304    0.008
 4918.00    0.97656   0.82512    0.008
 4919.00    0.90152   0.77419    0.008
 4920.00    0.91599   0.74520    0.008
 4921.00    0.92156   0.75491    0.008
 4922.00    0.91292   0.79608    0.008
 4923.00    0.91054   0.82195    0.008
 4924.00    0.91691   0.81798    0.008
 4925.00    0.94918   0.82243    0.008
 4926.00    1.01337   0.85206    0.008
 4927.00    1.02104   0.87471    0.008
 4928.00    0.96734   0.88353    0.008
 4929.00    0.90559   0.89382    0.008
 4930.00    0.83612   0.89744    0.008
 4931.00    0.87073   0.89449    0.008
 4932.00    0.99322   0.87878    0.008
 4933.00    0.92672   0.83699    0.008
 4934.00    0.71971   0.81358    0.008
 4935.00    0.65464   0.83800    0.008
 4936.00    0.68227   0.85826    0.008
 4937.00    0.72284   0.83941    0.008
 4938.00    0.77083   0.80299    0.008
 4939.00    0.76376   0.78994    0.008
 4940.00    0.72929   0.82097    0.000
 4941.00    0.73889   0.86068    0.000
 4942.00    0.76747   0.87250    0.000
 4943.00    0.75872   0.87962    0.000
 4944.00    0.73620   0.88786    0.000
 4945.00    0.78999   0.87822    0.000
 4946.00    0.86765   0.86560    0.000
 4947.00    0.99259   0.87368    0.000
 4948.00    1.12986   0.88744    0.000
 4949.00    1.22012   0.89126    0.000
 4950.00    1.30038   0.89281    0.000
 4951.00    1.28652   0.89638    0.000
 4952.00    1.25679   0.88947    0.000
 4953.00    1.21376   0.87725    0.000
 4954.00    1.16904   0.87077    0.000
 4955.00    1.04278   0.86081    0.000
 4956.00    0.90929   0.82124    0.000
 4957.00    0.81755   0.75422    0.000
 4958.00    0.72801   0.74327    0.000
 4959.00    0.79899   0.80572    0.000
 4960.00    0.87062   0.85618    0.000
 4961.00    0.75365   0.86389    0.000
 4962.00    0.63417   0.85761    0.000
 4963.00    0.46005   0.85832    0.000
 4964.00    0.31420   0.85183    0.000
 4965.00    0.51541   0.83007    0.000
 4966.00    0.70956   0.81618    0.000
 4967.00    0.84452   0.81745    0.000
 4968.00    0.95805   0.81921    0.000
 4969.00    0.93779   0.82332    0.000
 4970.00    0.95326   0.82823    0.000
 4971.00    1.14391   0.83681    0.000
 4972.00    1.28652   0.84829    0.000
 4973.00    1.23787   0.85482    0.000
 4974.00    1.17189   0.86154    0.000
 4975.00    1.04853   0.86256    0.000
 4976.00    0.95006   0.85547    0.000
 4977.00    0.92116   0.84549    0.000
 4978.00    0.91793   0.82994    0.000
 4979.00    0.97612   0.82000    0.000
 4980.00    1.00743   0.81668    0.000
 4981.00    0.98321   0.79537    0.000
 4982.00    1.00041   0.75768    0.000
 4983.00    1.09199   0.74033    0.000
 4984.00    1.15407   0.75496    0.000
 4985.00    1.16978   0.77818    0.000
 4986.00    1.14990   0.80284    0.000
 4987.00    1.08093   0.82890    0.000
 4988.00    1.03976   0.83775    0.000
 4989.00    1.03235   0.82782    0.000
 4990.00    1.01276   0.81292    0.000
 4991.00    0.98012   0.80547    0.000
 4992.00    1.00562   0.81802    0.000
 4993.00    1.08602   0.82359    0.000
 4994.00    1.04382   0.81633    0.000
 4995.00    0.89958   0.82575    0.000
 4996.00    0.87048   0.83640    0.000
 4997.00    0.92578   0.83455    0.000
 4998.00    0.85734   0.82622    0.000
 4999.00    0.70927   0.80235    0.000
 5000.00    0.61331   0.77985    0.000
 5001.00    0.54668   0.77554    0.000
 5002.00    0.56546   0.78237    0.000
 5003.00    0.62610   0.79379    0.000
 5004.00    0.72896   0.79450    0.000
 5005.00    0.84972   0.77127    0.000
 5006.00    1.01004   0.74575    0.000
 5007.00    1.18472   0.75639    0.000
 5008.00    0.99144   0.79401    0.000
 5009.00    0.68529   0.81504    0.000
 5010.00    0.65842   0.81166    0.000
 5011.00    0.70286   0.79514    0.000
 5012.00    0.78150   0.76732    0.000
 5013.00    0.86725   0.74236    0.000
 5014.00    0.88678   0.72975    0.000
 5015.00    0.89546   0.74027    0.000
 5016.00    0.77412   0.76283    0.000
 5017.00    0.63681   0.76621    0.000
 5018.00    0.61460   0.75936    0.000
 5019.00    0.60212   0.76988    0.000
 5020.00    0.68927   0.78956    0.000
 5021.00    0.78129   0.79121    0.000
 5022.00    0.78479   0.77510    0.000
 5023.00    0.78595   0.77754    0.000
 5024.00    0.72784   0.79706    0.000
 5025.00    0.67588   0.80508    0.000
 5026.00    0.74721   0.80013    0.000
 5027.00    0.81226   0.78389    0.000
 5028.00    0.80402   0.78112    0.000
 5029.00    0.80443   0.80221    0.007
 5030.00    0.87473   0.81522    0.007
 5031.00    0.95747   0.81928    0.007
 5032.00    1.11567   0.83032    0.007
 5033.00    1.20664   0.84191    0.008
 5034.00    0.97607   0.83317    0.008
 5035.00    0.76908   0.79679    0.008
 5036.00    0.65394   0.76873    0.008
 5037.00    0.59375   0.77791    0.008
 5038.00    0.71180   0.78332    0.008
 5039.00    0.77880   0.75912    0.008
 5040.00    0.70564   0.71709    0.008
 5041.00    0.66218   0.68758    0.008
 5042.00    0.68855   0.71590    0.008
 5043.00    0.74000   0.77387    0.007
 5044.00    0.84242   0.80700    0.007
 5045.00    0.95463   0.82664    0.007
 5046.00    1.08418   0.84114    0.007
 5047.00    1.08419   0.83197    0.007
 5048.00    0.88365   0.80013    0.008
 5049.00    0.75142   0.77300    0.008
 5050.00    0.71204   0.76671    0.007
 5051.00    0.60746   0.76862    0.007
 5052.00    0.42484   0.77575    0.008
 5053.00    0.50190   0.79517    0.008
 5054.00    0.85299   0.81348    0.008
 5055.00    0.89747   0.82029    0.008
 5056.00    0.65653   0.81920    0.008
 5057.00    0.62548   0.82033    0.007
 5058.00    0.76669   0.82613    0.008
 5059.00    0.94018   0.82459    0.007
 5060.00    1.13700   0.82457    0.007
 5061.00    1.16838   0.83258    0.008
 5062.00    1.09488   0.83585    0.008
 5063.00    0.94472   0.82061    0.008
 5064.00    0.75205   0.78163    0.008
 5065.00    0.76205   0.75502    0.008
 5066.00    0.86977   0.76979    0.008
 5067.00    0.92340   0.78503    0.008
 5068.00    0.95450   0.77963    0.008
 5069.00    1.04703   0.78187    0.008
 5070.00    1.16143   0.79769    0.008
 5071.00    1.12413   0.79500    0.008
 5072.00    1.04120   0.77566    0.008
 5073.00    0.97035   0.77791    0.008
 5074.00    0.90250   0.79130    0.008
 5075.00    1.03768   0.78936    0.008
 5076.00    1.21399   0.78564    0.008
 5077.00    0.94509   0.79196    0.008
 5078.00    0.60543   0.78130    0.008
 5079.00    0.66065   0.73720    0.008
 5080.00    0.76258   0.71200    0.008
 5081.00    0.71727   0.73056    0.008
 5082.00    0.66012   0.75134    0.008
 5083.00    0.83707   0.75243    0.008
 5084.00    1.02455   0.76067    0.008
 5085.00    0.90414   0.78208    0.007
 5086.00    0.78315   0.79399    0.007
 5087.00    0.81492   0.79149    0.007
 5088.00    0.83877   0.78957    0.007
 5089.00    0.71541   0.79426    0.007
 5090.00    0.62248   0.79490    0.007
 5091.00    0.86850   0.79469    0.007
 5092.00    1.07687   0.80385    0.007
 5093.00    0.99190   0.81653    0.008
 5094.00    0.91008   0.81667    0.008
 5095.00    0.84689   0.80174    0.008
 5096.00    0.81517   0.78440    0.008
 5097.00    0.93033   0.76931    0.008
 5098.00    1.00816   0.74824    0.008
 5099.00    0.94372   0.73218    0.007
 5100.00    0.86984   0.74791    0.007
 5101.00    0.76594   0.77770    0.007
 5102.00    0.72151   0.79005    0.007
 5103.00    0.83742   0.78615    0.007
 5104.00    0.90713   0.77855    0.007
 5105.00    0.87002   0.77296    0.007
 5106.00    0.86550   0.76417    0.007
 5107.00    0.92619   0.74777    0.007
 5108.00    0.92263   0.74373    0.007
 5109.00    0.80710   0.75015    0.007
 5110.00    0.79440   0.74787    0.007
 5111.00    0.93854   0.75775    0.007
 5112.00    1.06560   0.77659    0.007
 5113.00    1.16976   0.78208    0.008
 5114.00    1.14335   0.78602    0.008
 5115.00    0.96285   0.79062    0.008
 5116.00    0.85285   0.79463    0.008
 5117.00    0.81621   0.80495    0.008
 5118.00    0.81162   0.81073    0.008
 5119.00    0.83644   0.80382    0.008
 5120.00    0.80070   0.79002    0.008
 5121.00    0.71598   0.77643    0.007
 5122.00    0.78205   0.76271    0.007
 5123.00    0.95546   0.73983    0.007
 5124.00    0.96077   0.72299    0.007
 5125.00    0.86106   0.72954    0.007
 5126.00    0.82642   0.73992    0.007
 5127.00    0.82731   0.74062    0.007
 5128.00    0.88056   0.73793    0.007
 5129.00    0.95865   0.73542    0.007
 5130.00    0.91769   0.73915    0.007
 5131.00    0.82801   0.75333    0.007
 5132.00    0.90974   0.76337    0.007
 5133.00    1.05140   0.76322    0.007
 5134.00    1.05807   0.76798    0.007
 5135.00    1.02495   0.78304    0.007
 5136.00    0.84528   0.77961    0.007
 5137.00    0.62981   0.75851    0.007
 5138.00    0.74236   0.74013    0.007
 5139.00    0.91971   0.72415    0.008
 5140.00    1.06248   0.73628    0.008
 5141.00    1.19991   0.75311    0.007
 5142.00    0.99782   0.73248    0.007
 5143.00    0.75705   0.72216    0.007
 5144.00    0.76503   0.74342    0.007
 5145.00    0.79197   0.74969    0.007
 5146.00    0.88808   0.73681    0.007
 5147.00    0.98704   0.72976    0.007
 5148.00    0.91938   0.73618    0.007
 5149.00    0.85394   0.75034    0.007
 5150.00    0.94018   0.74725    0.007
 5151.00    1.00938   0.72937    0.007
 5152.00    0.78324   0.72051    0.007
 5153.00    0.58731   0.72136    0.007
 5154.00    0.71287   0.72532    0.007
 5155.00    0.81331   0.73829    0.007
 5156.00    0.72465   0.75947    0.007
 5157.00    0.66917   0.77902    0.007
 5158.00    0.80365   0.78844    0.008
 5159.00    0.91499   0.78586    0.008
 5160.00    0.92087   0.78681    0.008
 5161.00    0.92257   0.78512    0.008
 5162.00    0.90863   0.76988    0.008
 5163.00    0.88619   0.76132    0.008
 5164.00    0.83724   0.75537    0.008
 5165.00    0.82366   0.72020    0.008
 5166.00    0.90373   0.65306    0.007
 5167.00    0.93213   0.58769    0.007
 5168.00    0.84302   0.57488    0.007
 5169.00    0.81208   0.62091    0.007
 5170.00    0.89568   0.66741    0.008
 5171.00    0.91122   0.64528    0.008
 5172.00    0.80998   0.57358    0.007
 5173.00    0.75315   0.55950    0.007
 5174.00    0.76306   0.63297    0.007
 5175.00    0.74652   0.70701    0.007
 5176.00    0.69504   0.73322    0.007
 5177.00    0.67514   0.74092    0.007
 5178.00    0.69199   0.74703    0.007
 5179.00    0.73814   0.74434    0.007
 5180.00    0.81433   0.73299    0.007
 5181.00    0.80075   0.70796    0.007
 5182.00    0.70593   0.64955    0.007
 5183.00    0.71696   0.56880    0.007
 5184.00    0.81243   0.55307    0.007
 5185.00    0.84181   0.63026    0.007
 5186.00    0.82482   0.71061    0.007
 5187.00    0.84883   0.74198    0.007
 5188.00    0.89806   0.73895    0.007
 5189.00    0.85591   0.74251    0.007
 5190.00    0.76463   0.75490    0.000
 5191.00    0.78602   0.72912    0.000
 5192.00    0.86000   0.68764    0.000
 5193.00    0.84328   0.68992    0.000
 5194.00    0.79007   0.71419    0.000
 5195.00    0.84897   0.71923    0.000
 5196.00    0.94633   0.72622    0.000
 5197.00    0.87570   0.74278    0.000
 5198.00    0.75652   0.75281    0.000
 5199.00    0.76079   0.76261    0.000
 5200.00    0.79454   0.76882    0.000
 5201.00    0.82946   0.76289    0.000
 5202.00    0.86460   0.75179    0.000
 5203.00    0.98613   0.74146    0.000
 5204.00    1.12057   0.71585    0.000
 5205.00    0.88819   0.68112    0.000
 5206.00    0.61564   0.67175    0.000
 5207.00    0.58599   0.67867    0.000
 5208.00    0.57388   0.66741    0.000
 5209.00    0.80821   0.66564    0.000
 5210.00    1.05174   0.68948    0.000
 5211.00    0.77784   0.72129    0.007
 5212.00    0.51924   0.75438    0.007
 5213.00    0.90533   0.77633    0.007
 5214.00    1.26196   0.77529    0.007
 5215.00    1.14088   0.75129    0.007
 5216.00    1.03449   0.73076    0.007
 5217.00    1.07769   0.73450    0.007
 5218.00    1.09857   0.75548    0.007
 5219.00    0.95700   0.77282    0.007
 5220.00    0.85225   0.78088    0.007
 5221.00    0.95265   0.78718    0.007
 5222.00    0.99827   0.78589    0.008
 5223.00    0.80020   0.76954    0.007
 5224.00    0.65261   0.74096    0.007
 5225.00    0.68946   0.70551    0.007
 5226.00    0.70548   0.66739    0.007
 5227.00    0.65772   0.65430    0.007
 5228.00    0.66549   0.69627    0.008
 5229.00    0.81778   0.74537    0.008
 5230.00    0.88121   0.76479    0.007
 5231.00    0.74590   0.77234    0.007
 5232.00    0.69557   0.75756    0.007
 5233.00    0.80996   0.72944    0.007
 5234.00    0.96126   0.72328    0.007
 5235.00    1.17495   0.73788    0.007
 5236.00    1.17820   0.76202    0.007
 5237.00    0.86978   0.78122    0.007
 5238.00    0.70067   0.78572    0.007
 5239.00    0.71292   0.78161    0.007
 5240.00    0.77257   0.77862    0.007
 5241.00    0.88657   0.77975    0.007
 5242.00    0.95019   0.77632    0.007
 5243.00    0.96284   0.77314    0.007
 5244.00    0.98100   0.78365    0.007
 5245.00    1.00405   0.78980    0.007
 5246.00    0.97832   0.76423    0.007
 5247.00    0.91423   0.73056    0.007
 5248.00    0.94874   0.73052    0.007
 5249.00    1.05140   0.74000    0.007
 5250.00    1.01327   0.72700    0.007
 5251.00    0.88978   0.72272    0.007
 5252.00    0.83168   0.73891    0.007
 5253.00    0.80818   0.75082    0.007
 5254.00    0.80065   0.74571    0.007
 5255.00    0.80046   0.73523    0.007
 5256.00    0.90782   0.75093    0.007
 5257.00    1.05770   0.78101    0.007
 5258.00    1.08873   0.79620    0.007
 5259.00    1.07972   0.79411    0.007
 5260.00    1.12020   0.77913    0.007
 5261.00    1.17470   0.75105    0.008
 5262.00    1.25433   0.71616    0.008
 5263.00    1.33982   0.68719    0.008
 5264.00    1.33441   0.66838    0.008
 5265.00    1.31194   0.65476    0.008
 5266.00    1.12818   0.65567    0.008
 5267.00    0.92104   0.68744    0.008
 5268.00    1.06329   0.69595    0.008
 5269.00    1.24229   0.64236    0.008
 5270.00    1.25866   0.61183    0.008
 5271.00    1.26394   0.66146    0.008
 5272.00    1.27238   0.71644    0.008
 5273.00    1.28092   0.72920    0.008
 5274.00    0.99958   0.72803    0.008
 5275.00    0.72703   0.72098    0.008
 5276.00    0.74647   0.72448    0.008
 5277.00    0.77185   0.75826    0.008
 5278.00    0.88759   0.78687    0.008
 5279.00    0.98605   0.78743    0.007
 5280.00    0.91610   0.77034    0.007
 5281.00    0.84528   0.74898    0.007
 5282.00    0.76837   0.73152    0.007
 5283.00    0.71198   0.71767    0.007
 5284.00    0.76690   0.72066    0.007
 5285.00    0.80013   0.75413    0.007
 5286.00    0.73911   0.78796    0.007
 5287.00    0.72011   0.79608    0.007
 5288.00    0.85147   0.78768    0.007
 5289.00    0.96873   0.78436    0.007
 5290.00    1.04362   0.79094    0.007
 5291.00    1.08013   0.79360    0.007
 5292.00    1.01849   0.78702    0.007
 5293.00    1.02815   0.77995    0.007
 5294.00    1.19462   0.77981    0.008
 5295.00    1.26490   0.77370    0.008
 5296.00    1.15162   0.74667    0.007
 5297.00    1.14387   0.70806    0.007
 5298.00    1.31186   0.69215    0.008
 5299.00    1.24855   0.71586    0.008
 5300.00    0.84769   0.74173    0.007
 5301.00    0.69863   0.74105    0.007
 5302.00    0.87273   0.73922    0.007
 5303.00    0.99197   0.75615    0.007
 5304.00    1.04920   0.78089    0.007
 5305.00    1.07955   0.79182    0.007
 5306.00    1.08309   0.78338    0.007
 5307.00    1.03325   0.76935    0.007
 5308.00    0.93644   0.76913    0.007
 5309.00    0.88103   0.78126    0.007
 5310.00    0.85769   0.78805    0.007
 5311.00    0.82133   0.78528    0.007
 5312.00    0.77609   0.78019    0.007
 5313.00    0.81732   0.77539    0.007
 5314.00    0.91019   0.77330    0.007
 5315.00    0.88426   0.76818    0.007
 5316.00    0.79645   0.75474    0.007
 5317.00    0.77531   0.74955    0.007
 5318.00    0.78428   0.76027    0.007
 5319.00    0.85042   0.76682    0.007
 5320.00    0.93877   0.76373    0.007
 5321.00    0.99529   0.76074    0.007
 5322.00    1.04129   0.75631    0.007
 5323.00    0.96093   0.74116    0.007
 5324.00    0.84554   0.72254    0.007
 5325.00    0.84066   0.72663    0.007
 5326.00    0.86099   0.73165    0.007
 5327.00    0.81774   0.68972    0.007
 5328.00    0.76289   0.62918    0.007
 5329.00    0.87730   0.63651    0.007
 5330.00    1.01546   0.69877    0.007
 5331.00    0.94113   0.74136    0.007
 5332.00    0.84536   0.74566    0.007
 5333.00    0.90668   0.74235    0.007
 5334.00    0.97809   0.75508    0.007
 5335.00    0.93751   0.76697    0.007
 5336.00    0.89377   0.76206    0.007
 5337.00    0.91779   0.75414    0.007
 5338.00    0.94159   0.75337    0.007
 5339.00    0.95934   0.73937    0.007
 5340.00    0.97497   0.70888    0.007
 5341.00    0.96003   0.70105    0.007
 5342.00    0.94436   0.72654    0.007
 5343.00    0.92184   0.74919    0.007
 5344.00    0.91348   0.75489    0.007
 5345.00    1.00177   0.74606    0.007
 5346.00    1.06244   0.73875    0.007
 5347.00    0.97736   0.74233    0.007
 5348.00    0.92457   0.73582    0.007
 5349.00    1.00888   0.72325    0.007
 5350.00    1.06027   0.73222    0.007
 5351.00    0.99626   0.75535    0.007
 5352.00    0.92273   0.76691    0.007
 5353.00    0.82114   0.76590    0.007
 5354.00    0.76913   0.77222    0.007
 5355.00    0.84172   0.78466    0.007
 5356.00    0.88333   0.78844    0.007
 5357.00    0.85792   0.78760    0.007
 5358.00    0.85331   0.78838    0.007
 5359.00    0.88778   0.78869    0.007
 5360.00    0.88824   0.78290    0.007
 5361.00    0.83289   0.76811    0.007
 5362.00    0.86889   0.75306    0.007
 5363.00    1.03625   0.74774    0.007
 5364.00    1.16220   0.74321    0.007
 5365.00    1.23577   0.73576    0.007
 5366.00    1.22426   0.73610    0.007
 5367.00    1.11792   0.73947    0.007
 5368.00    1.05077   0.73840   -2.000
 5369.00    1.02216   0.72364   -2.000
 5370.00    1.08848   0.69209   -2.000
 5371.00    1.23710   0.66942   -2.000
 5372.00    1.35484   0.68655   -2.000
 5373.00    1.44899   0.72999   -2.000
 5374.00    1.43030   0.75906   -2.000
 5375.00    1.33585   0.76984   -2.000
 5376.00    1.24586   0.76850   -2.000
 5377.00    1.15848   0.76279   -2.000
 5378.00    1.13386   0.76386   -2.000
 5379.00    1.14142   0.76346   -2.000
 5380.00    1.04486   0.75599   -2.000
 5381.00    0.90203   0.74854   -2.000
 5382.00    0.98864   0.74374   -2.000
 5383.00    1.16284   0.73751    0.007
 5384.00    1.08408   0.74105    0.007
 5385.00    0.92327   0.75341    0.007
 5386.00    0.96257   0.75915    0.007
 5387.00    1.05621   0.75817    0.007
 5388.00    1.04481   0.75258    0.007
 5389.00    1.01002   0.74144    0.007
 5390.00    0.97315   0.73103    0.007
 5391.00    0.93591   0.72738    0.007
 5392.00    0.92905   0.72478    0.007
 5393.00    0.92632   0.72086    0.007
 5394.00    1.06295   0.72002    0.007
 5395.00    1.21306   0.71887    0.007
 5396.00    1.11630   0.69947    0.007
 5397.00    1.00470   0.67736    0.007
 5398.00    1.03204   0.69326    0.007
 5399.00    1.06255   0.72406    0.007
 5400.00    1.01764   0.73237    0.007
 5401.00    0.97976   0.73308    0.007
 5402.00    1.12311   0.73859    0.007
 5403.00    1.24649   0.72575    0.007
 5404.00    1.09919   0.69121    0.007
 5405.00    0.97081   0.66226    0.007
 5406.00    1.01251   0.66290    0.007
 5407.00    1.04376   0.69101    0.007
 5408.00    1.00591   0.70925    0.007
 5409.00    0.95084   0.69719    0.007
 5410.00    0.80718   0.68240    0.007
 5411.00    0.71005   0.69721    0.007
 5412.00    0.80608   0.72494    0.007
 5413.00    0.90136   0.73909    0.007
 5414.00    0.99404   0.73578    0.007
 5415.00    1.05430   0.73136    0.007
 5416.00    1.02075   0.74131    0.007
 5417.00    0.96422   0.75348    0.007
 5418.00    0.85095   0.75367    0.007
 5419.00    0.80233   0.74565    0.007
 5420.00    0.89137   0.73711    0.007
 5421.00    0.95623   0.73758    0.007
 5422.00    0.97635   0.74425    0.007
 5423.00    1.00404   0.73540    0.007
 5424.00    1.04398   0.71725    0.007
 5425.00    1.04724   0.72184    0.007
 5426.00    0.99854   0.74368    0.007
 5427.00    0.95793   0.75846    0.007
 5428.00    0.92742   0.74126    0.007
 5429.00    0.91566   0.69700    0.007
 5430.00    0.92452   0.68207    0.007
 5431.00    0.98260   0.70669    0.007
 5432.00    1.08840   0.71658    0.007
 5433.00    1.08625   0.70335    0.007
 5434.00    0.99180   0.68873    0.007
 5435.00    0.90033   0.68627    0.007
 5436.00    0.81109   0.69966    0.007
 5437.00    0.78818   0.72036    0.007
 5438.00    0.80916   0.74207    0.007
 5439.00    0.88555   0.75593    0.007
 5440.00    0.99406   0.76065    0.007
 5441.00    1.02634   0.76129    0.007
 5442.00    1.02013   0.76183    0.007
 5443.00    1.08505   0.76108    0.007
 5444.00    1.18104   0.74884    0.007
 5445.00    1.11264   0.71923    0.007
 5446.00    0.98259   0.68032    0.007
 5447.00    0.97117   0.66567    0.007
 5448.00    0.99749   0.69248    0.007
 5449.00    0.98828   0.72317    0.007
 5450.00    0.96961   0.73450    0.007
 5451.00    1.07157   0.73405    0.007
 5452.00    1.19976   0.73026    0.007
 5453.00    1.11587   0.72135    0.007
 5454.00    0.99534   0.69849    0.007
 5455.00    0.96952   0.66752    0.007
 5456.00    0.95611   0.66739    0.007
 5457.00    0.86743   0.70161    0.007
 5458.00    0.77179   0.72998    0.007
 5459.00    0.91743   0.73580    0.007
 5460.00    1.07662   0.72765    0.007
 5461.00    1.06795   0.71700    0.007
 5462.00    1.05606   0.70284    0.007
 5463.00    1.09949   0.69101    0.007
 5464.00    1.14751   0.69990    0.007
 5465.00    1.30292   0.71598    0.007
 5466.00    1.44142   0.71891    0.007
 5467.00    1.36262   0.72072    0.007
 5468.00    1.27995   0.72749    0.007
 5469.00    1.16368   0.72578    0.007
 5470.00    1.07289   0.71644    0.007
 5471.00    1.14550   0.71332    0.007
 5472.00    1.20770   0.71335    0.007
 5473.00    1.21769   0.70436    0.007
 5474.00    1.20449   0.69905    0.007
 5475.00    1.09716   0.69286    0.007
 5476.00    1.01463   0.66730    0.007
 5477.00    1.01564   0.65626    0.007
 5478.00    1.02693   0.68425   -2.000
 5479.00    1.06748   0.71280   -2.000
 5480.00    1.08979   0.70957   -2.000
 5481.00    1.06781   0.69083   -2.000
 5482.00    0.96204   0.68705   -2.000
 5483.00    0.68070   0.70021   -2.000
 5484.00    0.86736   0.71806   -2.000
 5485.00    1.90626   0.73067   -2.000
 5486.00    2.89199   0.72584   -2.000
 5487.00    3.79306   0.70881   -2.000
 5488.00    4.15989   0.70235   -2.000
 5489.00    3.78037   0.70999   -2.000
 5490.00    2.99891   0.71353   -2.000
 5491.00    1.72331   0.71708   -2.000
 5492.00    0.77736   0.72207   -2.000
 5493.00    0.18867   0.71762   -2.000
 5494.00   -0.01186   0.71498   -2.000
 5495.00    0.15866   0.72014   -2.000
 5496.00    0.38652   0.71596   -2.000
 5497.00    0.66273   0.70025   -2.000
 5498.00    0.76724   0.70163   -2.000
 5499.00    0.74432   0.71980   -2.000
 5500.00    0.81533   0.71980   -2.000
 5501.00    0.94758   0.70142   -2.000
 5502.00    0.99839   0.69375    0.007
 5503.00    1.00273   0.70151    0.007
 5504.00    0.96830   0.70913    0.007
 5505.00    0.91459   0.70315    0.007
 5506.00    0.89454   0.68554    0.007
 5507.00    0.88895   0.68389    0.007
 5508.00    0.81343   0.70311    0.007
 5509.00    0.71216   0.71307    0.007
 5510.00    0.81781   0.70972    0.007
 5511.00    0.98804   0.69845    0.007
 5512.00    1.03637   0.68085    0.007
 5513.00    1.05298   0.67217    0.007
 5514.00    1.05148   0.67748    0.007
 5515.00    1.04613   0.68947    0.007
 5516.00    1.03324   0.70103    0.007
 5517.00    1.01908   0.71082    0.007
 5518.00    0.97649   0.72257    0.007
 5519.00    0.93031   0.72976    0.007
 5520.00    0.89538   0.72794    0.007
 5521.00    0.86145   0.72390    0.007
 5522.00    0.95679   0.72191    0.007
 5523.00    1.05888   0.72229    0.007
 5524.00    0.99535   0.72159    0.007
 5525.00    0.92835   0.71458    0.007
 5526.00    0.83229   0.70095    0.007
 5527.00    0.74656   0.68087    0.007
 5528.00    0.88312   0.66515    0.007
 5529.00    1.00218   0.67694    0.007
 5530.00    0.90764   0.70382    0.007
 5531.00    0.84037   0.71675    0.007
 5532.00    1.00033   0.71438    0.007
 5533.00    1.11273   0.70948    0.007
 5534.00    0.92931   0.70274    0.007
 5535.00    0.79466   0.69644    0.007
 5536.00    0.89842   0.70153    0.007
 5537.00    0.95350   0.70922    0.007
 5538.00    0.81534   0.70969    0.007
 5539.00    0.72777   0.71345    0.007
 5540.00    0.80714   0.72253    0.007
 5541.00    0.88842   0.72723    0.007
 5542.00    0.97505   0.72108    0.007
 5543.00    0.99923   0.70965    0.007
 5544.00    0.87437   0.70634    0.007
 5545.00    0.81925   0.70838    0.007
 5546.00    0.90790   0.70824    0.007
 5547.00    0.98208   0.71206    0.007
 5548.00    1.03032   0.72190    0.007
 5549.00    1.04387   0.72757    0.007
 5550.00    1.00302   0.72759    0.007
 5551.00    0.94395   0.72593    0.007
 5552.00    0.85977   0.72087    0.007
 5553.00    0.85156   0.71053    0.007
 5554.00    0.93541   0.70151    0.007
 5555.00    0.96793   0.70267    0.007
 5556.00    0.94561   0.70892    0.007
 5557.00    0.94343   0.70951    0.007
 5558.00    0.96023   0.70814    0.007
 5559.00    0.98692   0.70977    0.007
 5560.00    1.02184   0.71110    0.007
 5561.00    0.92933   0.70886    0.006
 5562.00    0.74362   0.70127    0.006
 5563.00    0.71835   0.69297    0.006
 5564.00    0.79613   0.69174    0.006
 5565.00    0.87807   0.69074    0.006
 5566.00    0.96234   0.68815    0.006
 5567.00    0.98375   0.69010    0.006
 5568.00    0.97442   0.69101    0.006
 5569.00    0.97235   0.68454    0.007
 5570.00    0.97335   0.68554    0.007
 5571.00    0.98987   0.69325    0.007
 5572.00    1.01201   0.68526    0.007
 5573.00    0.91508   0.67828    0.007
 5574.00    0.78172   0.69105    0.007
 5575.00    0.90758   0.69890    0.007
 5576.00    1.09944   0.69607    0.007
 5577.00    1.13903   0.70021    0.007
 5578.00    1.14708   0.70358    0.007
 5579.00    1.16256   0.70342    0.007
 5580.00    1.17926   0.70531    0.007
 5581.00    1.16053   0.70071    0.007
 5582.00    1.13747   0.69377    0.007
 5583.00    1.06120   0.69598    0.007
 5584.00    0.98046   0.69755    0.007
 5585.00    1.14908   0.68878    0.007
 5586.00    1.32975   0.66864    0.007
 5587.00    1.08184   0.64690    0.007
 5588.00    0.83333   0.63700    0.007
 5589.00    0.93162   0.64071    0.007
 5590.00    1.02622   0.65607    0.007
 5591.00    1.04748   0.67217    0.007
 5592.00    1.06484   0.67710    0.007
 5593.00    1.03683   0.67307    0.007
 5594.00    1.01853   0.66777    0.007
 5595.00    1.07836   0.67766    0.007
 5596.00    1.12134   0.69657    0.007
 5597.00    1.06253   0.69336    0.007
 5598.00    1.02726   0.67170    0.007
 5599.00    1.10425   0.66331    0.007
 5600.00    1.13027   0.66555    0.007
 5601.00    0.95830   0.65978    0.007
 5602.00    0.83105   0.65021    0.007
 5603.00    0.84853   0.65350    0.007
 5604.00    0.86283   0.67630    0.007
 5605.00    0.86848   0.69919    0.006
 5606.00    0.83753   0.71037    0.006
 5607.00    0.72072   0.71309    0.006
 5608.00    0.69834   0.71143    0.006
 5609.00    0.86754   0.70939    0.006
 5610.00    1.00385   0.70864    0.006
 5611.00    1.08208   0.71058    0.006
 5612.00    1.04708   0.71347    0.006
 5613.00    0.83714   0.70858    0.006
 5614.00    0.76372   0.68247    0.006
 5615.00    0.87557   0.64589    0.006
 5616.00    0.94121   0.64214    0.006
 5617.00    0.95164   0.66835    0.006
 5618.00    0.97757   0.68398    0.006
 5619.00    1.01983   0.68389    0.006
 5620.00    1.05601   0.68472    0.006
 5621.00    1.08656   0.69158    0.006
 5622.00    1.12771   0.69653    0.006
 5623.00    1.17754   0.68647    0.006
 5624.00    1.15813   0.66467    0.006
 5625.00    1.08881   0.65763    0.006
 5626.00    1.05431   0.67196    0.006
 5627.00    1.04185   0.68439    0.007
 5628.00    1.00034   0.68903    0.007
 5629.00    0.94278   0.69539    0.006
 5630.00    0.95873   0.70039    0.006
 5631.00    1.01006   0.70104    0.006
 5632.00    0.96411   0.69925    0.006
 5633.00    0.87776   0.69615    0.006
 5634.00    0.89275   0.69274    0.006
 5635.00    0.94375   0.68817    0.006
 5636.00    0.99101   0.68124    0.006
 5637.00    1.03714   0.67448    0.006
 5638.00    1.08083   0.67401    0.006
 5639.00    1.12390   0.67897    0.006
 5640.00    1.00149   0.67795    0.006
 5641.00    0.84566   0.67120    0.006
 5642.00    0.75532   0.67320    0.006
 5643.00    0.67535   0.67930    0.006
 5644.00    0.82847   0.68109    0.006
 5645.00    1.00903   0.68291    0.006
 5646.00    0.99699   0.68481    0.006
 5647.00    0.96958   0.68729    0.006
 5648.00    0.93441   0.68817    0.006
 5649.00    0.89891   0.68567    0.006
 5650.00    0.92357   0.68485    0.006
 5651.00    0.94804   0.68999    0.006
 5652.00    0.93004   0.69665    0.006
 5653.00    0.90907   0.69631    0.006
 5654.00    0.83339   0.68669    0.006
 5655.00    0.76866   0.67995    0.006
 5656.00    0.82513   0.68132    0.006
 5657.00    0.87452   0.66801    0.006
 5658.00    0.86891   0.63891    0.006
 5659.00    0.87218   0.63668    0.006
 5660.00    0.92758   0.66239    0.006
 5661.00    0.98313   0.67163    0.006
 5662.00    1.03937   0.66041    0.006
 5663.00    1.09713   0.65935    0.006
 5664.00    1.16066   0.67309    0.006
 5665.00    1.17714   0.68401    0.006
 5666.00    1.04436   0.68292    0.006
 5667.00    0.95399   0.67437    0.006
 5668.00    0.97775   0.66978    0.006
 5669.00    0.99135   0.67162    0.006
 5670.00    0.98152   0.67515    0.006
 5671.00    0.95072   0.67831    0.006
 5672.00    0.87804   0.68611    0.006
 5673.00    0.84855   0.69472    0.006
 5674.00    0.89415   0.69499    0.006
 5675.00    0.92324   0.68904    0.006
 5676.00    0.92718   0.68989    0.006
 5677.00    0.93257   0.69550    0.006
 5678.00    0.93990   0.69277    0.006
 5679.00    0.91047   0.68693    0.006
 5680.00    0.83774   0.68653    0.006
 5681.00    0.82326   0.68445    0.006
 5682.00    0.86927   0.67250    0.006
 5683.00    0.84211   0.66495    0.006
 5684.00    0.74790   0.66969    0.006
 5685.00    0.72999   0.67618    0.006
 5686.00    0.77367   0.67324    0.006
 5687.00    0.82516   0.66368    0.006
 5688.00    0.88219   0.65963    0.006
 5689.00    0.88494   0.66515    0.006
 5690.00    0.85384   0.67631    0.006
 5691.00    0.77887   0.68566    0.006
 5692.00    0.67999   0.69200    0.006
 5693.00    0.74228   0.69383    0.006
 5694.00    0.88087   0.68999    0.006
 5695.00    0.92840   0.68763    0.006
 5696.00    0.93874   0.68803    0.006
 5697.00    0.99488   0.68446    0.006
 5698.00    1.06700   0.67437    0.006
 5699.00    1.07149   0.67048    0.006
 5700.00    1.05609   0.66780    0.006
 5701.00    0.93932   0.65953    0.006
 5702.00    0.79786   0.65690    0.006
 5703.00    0.83959   0.66427    0.006
 5704.00    0.91739   0.67295    0.006
 5705.00    0.96686   0.67111    0.006
 5706.00    1.01198   0.66071    0.006
 5707.00    0.98309   0.65265    0.006
 5708.00    0.94581   0.64195    0.006
 5709.00    0.92136   0.63168    0.006
 5710.00    0.89787   0.63386    0.006
 5711.00    0.90601   0.63766    0.006
 5712.00    0.91545   0.64410    0.006
 5713.00    0.97260   0.66282    0.006
 5714.00    1.02923   0.67615    0.006
 5715.00    1.04849   0.67896    0.006
 5716.00    1.06151   0.68157    0.006
 5717.00    0.96709   0.68121    0.006
 5718.00    0.87914   0.67969    0.006
 5719.00    0.85969   0.68374    0.006
 5720.00    0.85360   0.68794    0.006
 5721.00    0.94755   0.69074    0.006
 5722.00    1.02546   0.69446    0.006
 5723.00    1.01180   0.69547    0.006
 5724.00    0.98368   0.69370    0.006
 5725.00    0.88991   0.68952    0.006
 5726.00    0.79798   0.67895    0.006
 5727.00    0.71290   0.66818    0.006
 5728.00    0.66236   0.67162    0.006
 5729.00    0.71936   0.68245    0.006
 5730.00    0.77315   0.68281    0.006
 5731.00    0.81844   0.67343    0.006
 5732.00    0.87182   0.67244    0.006
 5733.00    0.94352   0.68127    0.006
 5734.00    0.99384   0.68794    0.006
 5735.00    1.00214   0.68934    0.006
 5736.00    1.01173   0.68576    0.006
 5737.00    1.02352   0.68253    0.006
 5738.00    1.02080   0.68234    0.006
 5739.00    0.99630   0.68213    0.006
 5740.00    0.97448   0.68194    0.000
 5741.00    0.95621   0.68192    0.000
 5742.00    0.96252   0.68038    0.000
 5743.00    0.99737   0.67848    0.000
 5744.00    0.98719   0.68141    0.000
 5745.00    0.93091   0.68826    0.000
 5746.00    0.87547   0.69019    0.000
 5747.00    0.82078   0.68060    0.000
 5748.00    0.82073   0.67003    0.000
 5749.00    0.86417   0.67460    0.000
 5750.00    0.90420   0.68576    0.000
 5751.00    0.94182   0.68665    0.000
 5752.00    0.91928   0.67376    0.000
 5753.00    0.85979   0.65722    0.000
 5754.00    0.78174   0.65141    0.000
 5755.00    0.69372   0.66301    0.000
 5756.00    0.67327   0.67894    0.000
 5757.00    0.68430   0.68758    0.000
 5758.00    0.75333   0.69060    0.000
 5759.00    0.84565   0.68646    0.000
 5760.00    0.89399   0.67687    0.000
 5761.00    0.92726   0.66530    0.000
 5762.00    0.95649   0.65430    0.000
 5763.00    0.98455   0.65299    0.000
 5764.00    1.02174   0.66808    0.000
 5765.00    1.06110   0.68152    0.000
 5766.00    1.06644   0.68499    0.000
 5767.00    1.06525   0.68512    0.000
 5768.00    1.09908   0.68468    0.000
 5769.00    1.13811   0.68300    0.000
 5770.00    1.14559   0.68167    0.000
 5771.00    1.14963   0.67916    0.000
 5772.00    1.14332   0.67505    0.000
 5773.00    1.13628   0.67381    0.000
 5774.00    1.02411   0.67199    0.000
 5775.00    0.90806   0.67109    0.000
 5776.00    0.84183   0.67510    0.000
 5777.00    0.77930   0.67794    0.000
 5778.00    0.84154   0.67630    0.000
 5779.00    0.90177   0.66957    0.000
 5780.00    0.92968   0.65407    0.000
 5781.00    0.95373   0.63749    0.000
 5782.00    0.93879   0.63541    0.000
 5783.00    0.92654   0.64267    0.000
 5784.00    0.93381   0.64363    0.000
 5785.00    0.95096   0.63976    0.000
 5786.00    1.02300   0.64628    0.000
 5787.00    1.09562   0.65968    0.000
 5788.00    1.17076   0.66750    0.000
 5789.00    1.23893   0.67049    0.000
 5790.00    1.28170   0.66445    0.000
 5791.00    1.31375   0.65719   -2.000
 5792.00    1.31306   0.66212   -2.000
 5793.00    1.31191   0.67103   -2.000
 5794.00    1.30956   0.67707   -2.000
 5795.00    1.28556   0.68113   -2.000
 5796.00    1.21326   0.67815   -2.000
 5797.00    1.12392   0.66634   -2.000
 5798.00    1.00165   0.66110   -2.000
 5799.00    0.92650   0.67144   -2.000
 5800.00    0.93082   0.68272   -2.000
 5801.00    0.94447   0.68744   -2.000
 5802.00    0.97190   0.68949   -2.000
 5803.00    0.94399   0.68566   -2.000
 5804.00    0.84419   0.67575   -2.000
 5805.00    0.79585   0.66964   -2.000
 5806.00    0.80643   0.66981   -2.000
 5807.00    0.83397   0.67354   -2.000
 5808.00    0.87863   0.67579   -2.000
 5809.00    0.89691   0.67646   -2.000
 5810.00    0.89168   0.67815   -2.000
 5811.00    0.89491   0.67903    0.000
 5812.00    0.90478   0.67833    0.000
 5813.00    0.90081   0.67727    0.000
 5814.00    0.88729   0.67375    0.000
 5815.00    0.85653   0.66521    0.000
 5816.00    0.81533   0.65882    0.000
 5817.00    0.84334   0.66301    0.000
 5818.00    0.90792   0.67394    0.000
 5819.00    0.95154   0.68025    0.000
 5820.00    0.98555   0.68144    0.000
 5821.00    1.04419   0.68125    0.000
 5822.00    1.11255   0.67938    0.000
 5823.00    1.10177   0.67652    0.000
 5824.00    1.06440   0.67653    0.000
 5825.00    1.00833   0.67961    0.000
 5826.00    0.94699   0.68030    0.000
 5827.00    0.95099   0.67938    0.000
 5828.00    0.97020   0.67916    0.000
 5829.00    0.92838   0.68006    0.000
 5830.00    0.87515   0.68063    0.000
 5831.00    0.82220   0.67936    0.000
 5832.00    0.76930   0.67858    0.000
 5833.00    0.70907   0.67721    0.000
 5834.00    0.64808   0.67424    0.000
 5835.00    0.72736   0.67306    0.000
 5836.00    0.81614   0.67616    0.000
 5837.00    0.77475   0.67646    0.000
 5838.00    0.72906   0.67181    0.000
 5839.00    0.81299   0.67089    0.000
 5840.00    0.89478   0.67542    0.000
 5841.00    0.90636   0.68083    0.000
 5842.00    0.91766   0.68266    0.000
 5843.00    0.92495   0.68173    0.000
 5844.00    0.93605   0.67871    0.000
 5845.00    0.98418   0.67460    0.000
 5846.00    1.02678   0.66886    0.000
 5847.00    1.03064   0.66243    0.000
 5848.00    1.01941   0.66125    0.000
 5849.00    0.92664   0.66382    0.000
 5850.00    0.83827   0.66474    0.000
 5851.00    0.76897   0.66169    0.000
 5852.00    0.71374   0.65186    0.000
 5853.00    0.70873   0.64058    0.000
 5854.00    0.71440   0.64063    0.000
 5855.00    0.75208   0.64798    0.000
 5856.00    0.78024   0.64388    0.000
 5857.00    0.78408   0.62786    0.000
 5858.00    0.80691   0.62269    0.000
 5859.00    0.87143   0.63385    0.000
 5860.00    0.92131   0.64596    0.000
 5861.00    0.94332   0.65148    0.000
 5862.00    0.96545   0.64842    0.000
 5863.00    0.98777   0.64743    0.000
 5864.00    1.00461   0.65325    0.000
 5865.00    1.01344   0.65505    0.000
 5866.00    1.00024   0.64651    0.000
 5867.00    0.95883   0.64156    0.000
 5868.00    0.93250   0.64909    0.000
 5869.00    0.92321   0.65812    0.000
 5870.00    0.93008   0.66245    0.000
 5871.00    0.95304   0.66293    0.000
 5872.00    0.98911   0.65914    0.000
 5873.00    1.03669   0.65553    0.000
 5874.00    1.02267   0.65339    0.000
 5875.00    0.96100   0.65009    0.000
 5876.00    0.92713   0.64640    0.000
 5877.00    0.91217   0.64551    0.000
 5878.00    0.92700   0.64606    0.000
 5879.00    0.95960   0.64195    0.000
 5880.00    0.98003   0.63742    0.000
 5881.00    0.99414   0.63886    0.000
 5882.00    0.96981   0.64253    0.000
 5883.00    0.92817   0.63996    0.000
 5884.00    0.98752   0.63523    0.000
 5885.00    1.08603   0.63583    0.000
 5886.00    1.15439   0.63762    0.000
 5887.00    1.21281   0.62897    0.000
 5888.00    1.09667   0.59165    0.000
 5889.00    0.93226   0.52211    0.000
 5890.00    0.87302   0.47675    0.000
 5891.00    0.83770   0.50834    0.000
 5892.00    0.83186   0.56300    0.000
 5893.00    0.83139   0.58776    0.000
 5894.00    0.87064   0.58104    0.000
 5895.00    0.91545   0.53697    0.000
 5896.00    0.89733   0.50401    0.000
 5897.00    0.87288   0.53539    0.000
 5898.00    0.84278   0.58306    0.000
 5899.00    0.81231   0.60213    0.000
 5900.00    0.83096   0.61267    0.000
 5901.00    0.85095   0.62468    0.006
 5902.00    0.83761   0.63063    0.006
 5903.00    0.82699   0.63294    0.006
 5904.00    0.89313   0.63405    0.006
 5905.00    0.95474   0.63228    0.006
 5906.00    0.95183   0.63076    0.006
 5907.00    0.94150   0.63395    0.005
 5908.00    0.86206   0.63832    0.005
 5909.00    0.78453   0.63741    0.005
 5910.00    0.72003   0.63680    0.005
 5911.00    0.66491   0.64071    0.005
 5912.00    0.65919   0.64064    0.005
 5913.00    0.65575   0.63080    0.005
 5914.00    0.66197   0.61790    0.005
 5915.00    0.67281   0.61545    0.005
 5916.00    0.69979   0.61999    0.005
 5917.00    0.72971   0.62747    0.005
 5918.00    0.76822   0.63311    0.005
 5919.00    0.80188   0.63584    0.005
 5920.00    0.82333   0.63786    0.005
 5921.00    0.83450   0.63522    0.005
 5922.00    0.82346   0.63115    0.005
 5923.00    0.81470   0.63252    0.005
 5924.00    0.81023   0.63665    0.005
 5925.00    0.84695   0.63978    0.005
 5926.00    0.95111   0.64140    0.005
 5927.00    1.00593   0.63940    0.005
 5928.00    0.98994   0.63433    0.005
 5929.00    0.92894   0.62693    0.005
 5930.00    0.81111   0.62243    0.006
 5931.00    0.76060   0.62981    0.006
 5932.00    0.78498   0.64015    0.006
 5933.00    0.81945   0.63902    0.006
 5934.00    0.86381   0.62961    0.006
 5935.00    0.85120   0.62605    0.006
 5936.00    0.78929   0.63292    0.006
 5937.00    0.78801   0.63909    0.006
 5938.00    0.83295   0.64134    0.006
 5939.00    0.86831   0.64125    0.006
 5940.00    0.89725   0.63481    0.006
 5941.00    0.88168   0.62519    0.006
 5942.00    0.83999   0.62477    0.005
 5943.00    0.85675   0.63117    0.005
 5944.00    0.90344   0.63601    0.005
 5945.00    0.96850   0.64029    0.005
 5946.00    1.04169   0.64281    0.005
 5947.00    1.01000   0.63793    0.005
 5948.00    0.93836   0.62580    0.005
 5949.00    0.85380   0.61906    0.005
 5950.00    0.76505   0.62573    0.005
 5951.00    0.77329   0.63225    0.005
 5952.00    0.80780   0.62602    0.005
 5953.00    0.81071   0.61997    0.005
 5954.00    0.80660   0.62658    0.005
 5955.00    0.79474   0.63179    0.005
 5956.00    0.78150   0.62573    0.005
 5957.00    0.78138   0.62041    0.005
 5958.00    0.78303   0.62344    0.005
 5959.00    0.70374   0.62985    0.005
 5960.00    0.61667   0.63678    0.005
 5961.00    0.58804   0.64088    0.005
 5962.00    0.56289   0.64218    0.005
 5963.00    0.58320   0.64150    0.005
 5964.00    0.60494   0.63913    0.005
 5965.00    0.66818   0.63413    0.005
 5966.00    0.73204   0.63046    0.006
 5967.00    0.81186   0.63414    0.006
 5968.00    0.88370   0.63855    0.005
 5969.00    0.84788   0.64068    0.005
 5970.00    0.81466   0.64249    0.005
 5971.00    0.80458   0.64322    0.005
 5972.00    0.80176   0.64216    0.005
 5973.00    0.84675   0.64119    0.005
 5974.00    0.88045   0.63830    0.005
 5975.00    0.85629   0.63068    0.005
 5976.00    0.83016   0.62205    0.005
 5977.00    0.79593   0.61749    0.005
 5978.00    0.77802   0.61855    0.005
 5979.00    0.81606   0.62482    0.005
 5980.00    0.84237   0.63245    0.005
 5981.00    0.83481   0.63563    0.005
 5982.00    0.81059   0.63278    0.005
 5983.00    0.74534   0.62189    0.005
 5984.00    0.70326   0.61059    0.005
 5985.00    0.71041   0.61244    0.005
 5986.00    0.71777   0.62172    0.005
 5987.00    0.72555   0.62628    0.005
 5988.00    0.73004   0.62717    0.005
 5989.00    0.72924   0.63014    0.005
 5990.00    0.74247   0.63184    0.005
 5991.00    0.77554   0.62823    0.005
 5992.00    0.81788   0.62863    0.005
 5993.00    0.87177   0.63596    0.005
 5994.00    0.88654   0.64133    0.005
 5995.00    0.85838   0.63947    0.005
 5996.00    0.83600   0.63376    0.005
 5997.00    0.81922   0.62749    0.006
 5998.00    0.80293   0.62479    0.005
 5999.00    0.78704   0.62642    0.005
 6000.00    0.77745   0.62982    0.005
 6001.00    0.77258   0.63034    0.005
 6002.00    0.76710   0.62348    0.005
 6003.00    0.76122   0.61782    0.005
 6004.00    0.73695   0.62247    0.005
 6005.00    0.70204   0.62720    0.005
 6006.00    0.70300   0.62270    0.005
 6007.00    0.72205   0.61253    0.005
 6008.00    0.74942   0.60434    0.005
 6009.00    0.78044   0.61101    0.005
 6010.00    0.82476   0.62591    0.005
 6011.00    0.87406   0.63095    0.005
 6012.00    0.86416   0.62412    0.005
 6013.00    0.83548   0.61687    0.005
 6014.00    0.76022   0.61950    0.005
 6015.00    0.67262   0.62352    0.005
 6016.00    0.68682   0.61917    0.005
 6017.00    0.72310   0.61705    0.005
 6018.00    0.74120   0.62137    0.005
 6019.00    0.75617   0.61967    0.005
 6020.00    0.75607   0.61178    0.005
 6021.00    0.75400   0.60903    0.005
 6022.00    0.74491   0.61297    0.005
 6023.00    0.73518   0.61566    0.005
 6024.00    0.73951   0.61629    0.005
 6025.00    0.74462   0.62236    0.005
 6026.00    0.79304   0.62684    0.005
 6027.00    0.84185   0.62555    0.005
 6028.00    0.83657   0.62926    0.005
 6029.00    0.83063   0.63452    0.005
 6030.00    0.80971   0.63450    0.005
 6031.00    0.79100   0.63269    0.005
 6032.00    0.80044   0.63462    0.005
 6033.00    0.81012   0.63734    0.005
 6034.00    0.82191   0.63766    0.005
 6035.00    0.82988   0.63705    0.005
 6036.00    0.81345   0.63612    0.005
 6037.00    0.79664   0.63561    0.005
 6038.00    0.77788   0.63443    0.005
 6039.00    0.76842   0.63108    0.005
 6040.00    0.79657   0.62860    0.005
 6041.00    0.82349   0.62916    0.005
 6042.00    0.84627   0.62983    0.005
 6043.00    0.85813   0.63333    0.005
 6044.00    0.83905   0.63676    0.005
 6045.00    0.82907   0.63740    0.005
 6046.00    0.84110   0.63745    0.005
 6047.00    0.86054   0.63844    0.005
 6048.00    0.89550   0.63774    0.005
 6049.00    0.93455   0.63565    0.005
 6050.00    0.98104   0.63706    0.005
 6051.00    0.97419   0.63866    0.007
 6052.00    0.88258   0.63690    0.018
 6053.00    0.80290   0.63329   -1.000
 6054.00    0.73984   0.62990   -1.000
 6055.00    0.71619   0.62542   -1.000
 6056.00    0.74089   0.62162   -1.000
 6057.00    0.79709   0.62263   -1.000
 6058.00    0.88736   0.62655   -1.000
 6059.00    0.95303   0.63119   -1.000
 6060.00    0.99521   0.63329   -1.000
 6061.00    0.97743   0.63335    0.020
 6062.00    0.90921   0.63022    0.007
 6063.00    0.86731   0.62427    0.005
 6064.00    0.84489   0.61394    0.005
 6065.00    0.81616   0.60156    0.005
 6066.00    0.78332   0.60574    0.005
 6067.00    0.73032   0.62303    0.005
 6068.00    0.66584   0.63408    0.005
 6069.00    0.68093   0.63710    0.005
 6070.00    0.73546   0.63757    0.005
 6071.00    0.79372   0.63822    0.005
 6072.00    0.85357   0.63883    0.005
 6073.00    0.82449   0.63858    0.005
 6074.00    0.76273   0.63760    0.005
 6075.00    0.74707   0.63735    0.005
 6076.00    0.74577   0.63463    0.005
 6077.00    0.75250   0.62847    0.005
 6078.00    0.76132   0.61965    0.005
 6079.00    0.77806   0.61631    0.005
 6080.00    0.79646   0.61880    0.005
 6081.00    0.78224   0.61659    0.005
 6082.00    0.76255   0.61227    0.005
 6083.00    0.74360   0.61410    0.005
 6084.00    0.72475   0.61718    0.005
 6085.00    0.71645   0.61529    0.005
 6086.00    0.70907   0.61598    0.005
 6087.00    0.76655   0.62128    0.005
 6088.00    0.82738   0.62461    0.005
 6089.00    0.81354   0.61910    0.005
 6090.00    0.79761   0.61083    0.005
 6091.00    0.72786   0.61015    0.005
 6092.00    0.66271   0.61378    0.005
 6093.00    0.69545   0.61551    0.005
 6094.00    0.72698   0.62084    0.005
 6095.00    0.74385   0.62829    0.005
 6096.00    0.75546   0.62778    0.005
 6097.00    0.72339   0.62387    0.005
 6098.00    0.70233   0.62412    0.005
 6099.00    0.74955   0.62724    0.005
 6100.00    0.78914   0.62813    0.005
 6101.00    0.79156   0.61585    0.005
 6102.00    0.78490   0.58697    0.005
 6103.00    0.74232   0.57468    0.005
 6104.00    0.70295   0.59494    0.005
 6105.00    0.67413   0.61654    0.005
 6106.00    0.66155   0.62204    0.005
 6107.00    0.69414   0.61718    0.005
 6108.00    0.72837   0.61348    0.005
 6109.00    0.76649   0.61895    0.005
 6110.00    0.79672   0.62323    0.005
 6111.00    0.81068   0.61903    0.005
 6112.00    0.82274   0.61769    0.005
 6113.00    0.83142   0.62334    0.005
 6114.00    0.84951   0.62775    0.005
 6115.00    0.88236   0.62573    0.005
 6116.00    0.89924   0.61970    0.005
 6117.00    0.89420   0.61920    0.005
 6118.00    0.87801   0.62279    0.005
 6119.00    0.84831   0.61782    0.005
 6120.00    0.84464   0.60604    0.005
 6121.00    0.86871   0.58961    0.005
 6122.00    0.85357   0.57521    0.005
 6123.00    0.80151   0.58517    0.005
 6124.00    0.76548   0.60685    0.005
 6125.00    0.74275   0.61340    0.005
 6126.00    0.75114   0.60992    0.005
 6127.00    0.78226   0.60786    0.005
 6128.00    0.76372   0.60799    0.005
 6129.00    0.71335   0.61165    0.005
 6130.00    0.69046   0.61919    0.005
 6131.00    0.68300   0.62293    0.005
 6132.00    0.67596   0.62110    0.005
 6133.00    0.66913   0.61939    0.005
 6134.00    0.68084   0.61364    0.005
 6135.00    0.70037   0.59746    0.005
 6136.00    0.73058   0.57001    0.005
 6137.00    0.76465   0.55012    0.005
 6138.00    0.79422   0.56500    0.005
 6139.00    0.82242   0.59810    0.005
 6140.00    0.79920   0.61070    0.005
 6141.00    0.76292   0.59812    0.005
 6142.00    0.69096   0.59073    0.005
 6143.00    0.61163   0.60308    0.005
 6144.00    0.57080   0.61763    0.005
 6145.00    0.53621   0.62268    0.005
 6146.00    0.59876   0.62213    0.005
 6147.00    0.67311   0.61892    0.005
 6148.00    0.73630   0.61111    0.005
 6149.00    0.79855   0.60323    0.005
 6150.00    0.72921   0.59876    0.005
 6151.00    0.65357   0.60097    0.005
 6152.00    0.61631   0.60831    0.005
 6153.00    0.58042   0.61330    0.005
 6154.00    0.59114   0.60741    0.005
 6155.00    0.60556   0.60093    0.005
 6156.00    0.69296   0.60233    0.005
 6157.00    0.77685   0.60292    0.005
 6158.00    0.82014   0.60087    0.005
 6159.00    0.84992   0.59715    0.005
 6160.00    0.77164   0.58147    0.005
 6161.00    0.70185   0.54936    0.005
 6162.00    0.68321   0.52515    0.005
 6163.00    0.66994   0.52884    0.005
 6164.00    0.68214   0.54988    0.005
 6165.00    0.69358   0.56694    0.005
 6166.00    0.70202   0.57430    0.005
 6167.00    0.72052   0.57883    0.005
 6168.00    0.77147   0.57287    0.005
 6169.00    0.80707   0.55261    0.005
 6170.00    0.80071   0.54657    0.005
 6171.00    0.78248   0.56547    0.005
 6172.00    0.73641   0.58205    0.005
 6173.00    0.70880   0.58249    0.005
 6174.00    0.71856   0.58159    0.005
 6175.00    0.71553   0.58359    0.005
 6176.00    0.68995   0.58287    0.005
 6177.00    0.66881   0.58302    0.005
 6178.00    0.65449   0.58960    0.005
 6179.00    0.67260   0.59179    0.005
 6180.00    0.73463   0.58890    0.005
 6181.00    0.79113   0.59200    0.005
 6182.00    0.84103   0.59616    0.005
 6183.00    0.85696   0.59673    0.005
 6184.00    0.83716   0.59595    0.005
 6185.00    0.79481   0.59301    0.005
 6186.00    0.73155   0.58538    0.005
 6187.00    0.71586   0.57886    0.005
 6188.00    0.73909   0.57628    0.005
 6189.00    0.76908   0.57493    0.005
 6190.00    0.80395   0.56551    0.005
 6191.00    0.81871   0.54717    0.005
 6192.00    0.82078   0.54753    0.005
 6193.00    0.94197   0.56888    0.005
 6194.00    1.12896   0.58374    0.005
 6195.00    1.61934   0.58708    0.005
 6196.00    2.25540   0.58872   -2.000
 6197.00    2.43622   0.59032   -2.000
 6198.00    2.42833   0.58625   -2.000
 6199.00    1.94256   0.57416   -2.000
 6200.00    1.28740   0.56722   -2.000
 6201.00    0.70380   0.57395   -2.000
 6202.00    0.14161   0.58439   -2.000
 6203.00    0.06841   0.58934   -2.000
 6204.00    0.11668   0.58891   -2.000
 6205.00    0.29131   0.58892   -2.000
 6206.00    0.49137   0.59113   -2.000
 6207.00    0.59684   0.59261   -2.000
 6208.00    0.68739   0.59270    0.005
 6209.00    0.72303   0.59223    0.005
 6210.00    0.75225   0.58883    0.005
 6211.00    0.76877   0.58423    0.005
 6212.00    0.78428   0.57806    0.005
 6213.00    0.77348   0.56426    0.005
 6214.00    0.76152   0.55379    0.005
 6215.00    0.74743   0.55164    0.005
 6216.00    0.73302   0.55558    0.005
 6217.00    0.70440   0.56565    0.005
 6218.00    0.67751   0.56945    0.005
 6219.00    0.68227   0.56089    0.005
 6220.00    0.68568   0.55606    0.005
 6221.00    0.67412   0.56079    0.005
 6222.00    0.66306   0.56751    0.005
 6223.00    0.65573   0.56951    0.005
 6224.00    0.65680   0.56704    0.005
 6225.00    0.70703   0.56822    0.005
 6226.00    0.75928   0.57131    0.005
 6227.00    0.82090   0.57196    0.005
 6228.00    0.85980   0.56994    0.005
 6229.00    0.81256   0.55899    0.005
 6230.00    0.77480   0.54042    0.005
 6231.00    0.76708   0.53381    0.005
 6232.00    0.76591   0.54297    0.005
 6233.00    0.78235   0.55513    0.005
 6234.00    0.77499   0.56910    0.005
 6235.00    0.71284   0.57880    0.005
 6236.00    0.64505   0.57826    0.005
 6237.00    0.56603   0.57298    0.005
 6238.00    0.51251   0.56679    0.005
 6239.00    0.50324   0.56052    0.005
 6240.00    0.51025   0.55607    0.005
 6241.00    0.54201   0.55832    0.005
 6242.00    0.57692   0.55659    0.005
 6243.00    0.61606   0.54822    0.005
 6244.00    0.62129   0.54800    0.005
 6245.00    0.58665   0.55094    0.005
 6246.00    0.58291   0.55029    0.005
 6247.00    0.61123   0.55630    0.005
 6248.00    0.65944   0.56796    0.005
 6249.00    0.72587   0.57450    0.005
 6250.00    0.75341   0.57396    0.005
 6251.00    0.74962   0.56460    0.005
 6252.00    0.71688   0.54857    0.005
 6253.00    0.66361   0.54085    0.005
 6254.00    0.64497   0.54345    0.005
 6255.00    0.64788   0.54707    0.005
 6256.00    0.73590   0.54366    0.005
 6257.00    0.87019   0.53613    0.005
 6258.00    1.07756   0.53053    0.005
 6259.00    1.31945   0.53656    0.005
 6260.00    1.31621   0.54983    0.006
 6261.00    1.21309   0.55710    0.006
 6262.00    0.92088   0.56510    0.006
 6263.00    0.56288   0.57385    0.007
 6264.00    0.40063   0.57095    0.006
 6265.00    0.29580   0.56155    0.006
 6266.00    0.38508   0.56226    0.006
 6267.00    0.52152   0.56911    0.006
 6268.00    0.57601   0.56950    0.005
 6269.00    0.61441   0.56509    0.005
 6270.00    0.63368   0.56342    0.005
 6271.00    0.65004   0.56640    0.005
 6272.00    0.69476   0.57131    0.005
 6273.00    0.74268   0.57403    0.005
 6274.00    0.74373   0.57230    0.005
 6275.00    0.74126   0.57135    0.005
 6276.00    0.70864   0.57221    0.005
 6277.00    0.67481   0.57229    0.005
 6278.00    0.63143   0.57046    0.005
 6279.00    0.59007   0.56430    0.005
 6280.00    0.63371   0.55537    0.000
 6281.00    0.67716   0.55342    0.000
 6282.00    0.71740   0.55948    0.000
 6283.00    0.75198   0.56637    0.000
 6284.00    0.72706   0.56975    0.000
 6285.00    0.70169   0.56908    0.000
 6286.00    0.67283   0.57180    0.000
 6287.00    0.65161   0.57778    0.000
 6288.00    0.67379   0.58253    0.000
 6289.00    0.69302   0.58377    0.000
 6290.00    0.69886   0.57894    0.000
 6291.00    0.69364   0.57221    0.000
 6292.00    0.64739   0.56940    0.000
 6293.00    0.59902   0.57025    0.000
 6294.00    0.54408   0.57318    0.000
 6295.00    0.50918   0.57198    0.000
 6296.00    0.52716   0.56245    0.000
 6297.00    0.54735   0.55437    0.000
 6298.00    0.57254   0.55695    0.000
 6299.00    0.59526   0.56351    0.000
 6300.00    0.61316   0.56191    0.000
 6301.00    0.63215   0.55294    0.000
 6302.00    0.65302   0.54937    0.000
 6303.00    0.67034   0.55651    0.000
 6304.00    0.68235   0.56582    0.000
 6305.00    0.68103   0.56878    0.000
 6306.00    0.66216   0.57085    0.000
 6307.00    0.64180   0.57814    0.000
 6308.00    0.61972   0.58304    0.000
 6309.00    0.61178   0.58051    0.000
 6310.00    0.61828   0.57495    0.000
 6311.00    0.62142   0.57002    0.000
 6312.00    0.62152   0.56882    0.000
 6313.00    0.64091   0.57055    0.000
 6314.00    0.67561   0.56583    0.000
 6315.00    0.71454   0.55887    0.000
 6316.00    0.75641   0.56098    0.000
 6317.00    0.74685   0.56034    0.000
 6318.00    0.70575   0.55142    0.000
 6319.00    0.62705   0.55301    0.000
 6320.00    0.52822   0.56431    0.000
 6321.00    0.48539   0.56918    0.005
 6322.00    0.46860   0.56800    0.005
 6323.00    0.50292   0.57040    0.005
 6324.00    0.55771   0.57585    0.005
 6325.00    0.57494   0.57806    0.005
 6326.00    0.57934   0.57830    0.005
 6327.00    0.57721   0.57604    0.005
 6328.00    0.57321   0.57633    0.005
 6329.00    0.60489   0.57711    0.005
 6330.00    0.64504   0.57418    0.005
 6331.00    0.69898   0.57521    0.005
 6332.00    0.75555   0.58113    0.005
 6333.00    0.76145   0.58449    0.005
 6334.00    0.75984   0.57623    0.005
 6335.00    0.77505   0.55782    0.005
 6336.00    0.79209   0.54824    0.005
 6337.00    0.82006   0.55484    0.005
 6338.00    0.84881   0.56427    0.005
 6339.00    0.79430   0.56923    0.005
 6340.00    0.73676   0.57510    0.005
 6341.00    0.67355   0.57946    0.005
 6342.00    0.61210   0.57724    0.005
 6343.00    0.61306   0.56824    0.005
 6344.00    0.61380   0.55885    0.005
 6345.00    0.61112   0.55981    0.005
 6346.00    0.60439   0.56421    0.005
 6347.00    0.55690   0.56700    0.005
 6348.00    0.51400   0.57132    0.005
 6349.00    0.50423   0.57663    0.005
 6350.00    0.50390   0.57898    0.005
 6351.00    0.55583   0.57887    0.005
 6352.00    0.60370   0.57735    0.005
 6353.00    0.63355   0.57211    0.005
 6354.00    0.65461   0.56348    0.005
 6355.00    0.64376   0.55825    0.005
 6356.00    0.64110   0.56120    0.005
 6357.00    0.66335   0.56150    0.005
 6358.00    0.68547   0.55209    0.005
 6359.00    0.70724   0.54611    0.005
 6360.00    0.72709   0.54915    0.005
 6361.00    0.74264   0.54946    0.005
 6362.00    0.74242   0.54497    0.005
 6363.00    0.71175   0.54493    0.005
 6364.00    0.70184   0.55060    0.005
 6365.00    0.72689   0.55657    0.005
 6366.00    0.75429   0.56063    0.005
 6367.00    0.78516   0.56587    0.005
 6368.00    0.77234   0.57140    0.005
 6369.00    0.70285   0.57135    0.005
 6370.00    0.66341   0.56814    0.005
 6371.00    0.65830   0.56835    0.005
 6372.00    0.66183   0.57310    0.005
 6373.00    0.67408   0.57769    0.005
 6374.00    0.67443   0.57825    0.005
 6375.00    0.66421   0.57662    0.005
 6376.00    0.66665   0.57636    0.005
 6377.00    0.67901   0.57497    0.005
 6378.00    0.70988   0.56892    0.005
 6379.00    0.75349   0.56310    0.005
 6380.00    0.75035   0.56168    0.005
 6381.00    0.71897   0.56318    0.005
 6382.00    0.68690   0.56758    0.005
 6383.00    0.65447   0.57005    0.005
 6384.00    0.62761   0.56773    0.005
 6385.00    0.60330   0.56636    0.005
 6386.00    0.59070   0.56917    0.005
 6387.00    0.58272   0.57165    0.005
 6388.00    0.62252   0.57052    0.005
 6389.00    0.67835   0.56914    0.005
 6390.00    0.72582   0.56902    0.005
 6391.00    0.77095   0.56761    0.005
 6392.00    0.72984   0.55820    0.005
 6393.00    0.66872   0.54438    0.005
 6394.00    0.63288   0.54489    0.009
 6395.00    0.60176   0.55986    0.078
 6396.00    0.56644   0.57183   -1.000
 6397.00    0.53053   0.57626   -1.000
 6398.00    0.52138   0.57165   -1.000
 6399.00    0.51503   0.55249   -1.000
 6400.00    0.53183   0.53613   -1.000
 6401.00    0.55018   0.54704   -1.000
 6402.00    0.53385   0.56778   -1.000
 6403.00    0.51638   0.57729   -1.000
 6404.00    0.50386   0.57950   -1.000
 6405.00    0.49266   0.57806    0.319
 6406.00    0.52240   0.57263    0.010
 6407.00    0.55062   0.56351    0.005
 6408.00    0.55600   0.55903    0.005
 6409.00    0.56095   0.56592    0.005
 6410.00    0.56181   0.56944    0.005
 6411.00    0.56670   0.56016    0.005
 6412.00    0.59970   0.55526    0.005
 6413.00    0.63191   0.56057    0.005
 6414.00    0.65981   0.56539    0.005
 6415.00    0.68533   0.56733    0.005
 6416.00    0.70057   0.56973    0.005
 6417.00    0.70514   0.57057    0.005
 6418.00    0.67179   0.56860    0.005
 6419.00    0.63517   0.56134    0.005
 6420.00    0.58876   0.54906    0.005
 6421.00    0.55620   0.54296    0.005
 6422.00    0.55888   0.55359    0.005
 6423.00    0.56649   0.56955    0.005
 6424.00    0.58489   0.57488    0.005
 6425.00    0.59374   0.57335    0.005
 6426.00    0.58443   0.57393    0.005
 6427.00    0.56099   0.57668    0.005
 6428.00    0.51411   0.57691    0.005
 6429.00    0.47850   0.56958    0.005
 6430.00    0.45930   0.55483    0.005
 6431.00    0.46673   0.54662    0.005
 6432.00    0.50824   0.55330    0.005
 6433.00    0.55278   0.56384    0.005
 6434.00    0.60072   0.57003    0.005
 6435.00    0.64799   0.57354    0.005
 6436.00    0.69459   0.57523    0.005
 6437.00    0.70685   0.56992    0.005
 6438.00    0.68903   0.55279    0.005
 6439.00    0.66572   0.54131    0.005
 6440.00    0.63818   0.55218    0.005
 6441.00    0.63470   0.56972    0.005
 6442.00    0.64755   0.57767    0.005
 6443.00    0.64975   0.58035    0.005
 6444.00    0.64562   0.58081    0.005
 6445.00    0.61859   0.58110    0.005
 6446.00    0.57967   0.58201    0.005
 6447.00    0.51887   0.57906    0.005
 6448.00    0.44822   0.56623    0.005
 6449.00    0.39838   0.54169    0.005
 6450.00    0.35658   0.52692    0.005
 6451.00    0.34108   0.53952    0.005
 6452.00    0.33424   0.55957    0.005
 6453.00    0.36869   0.56992    0.005
 6454.00    0.41452   0.56858    0.005
 6455.00    0.50384   0.55893    0.005
 6456.00    0.60302   0.55380    0.005
 6457.00    0.61826   0.56142    0.005
 6458.00    0.61830   0.57257    0.005
 6459.00    0.58727   0.57870    0.005
 6460.00    0.55191   0.57779    0.005
 6461.00    0.51095   0.56391    0.005
 6462.00    0.46942   0.53868    0.005
 6463.00    0.45919   0.53110    0.005
 6464.00    0.45093   0.54708    0.005
 6465.00    0.46993   0.56265    0.005
 6466.00    0.48963   0.57056    0.005
 6467.00    0.48662   0.57487    0.005
 6468.00    0.48649   0.57435    0.005
 6469.00    0.56658   0.56933    0.005
 6470.00    0.64248   0.56375    0.005
 6471.00    0.65910   0.55773    0.005
 6472.00    0.67083   0.55723    0.005
 6473.00    0.63735   0.56225    0.005
 6474.00    0.60451   0.56046    0.005
 6475.00    0.57604   0.55362    0.005
 6476.00    0.55174   0.55410    0.005
 6477.00    0.54933   0.56112    0.005
 6478.00    0.54823   0.56483    0.005
 6479.00    0.55266   0.56493    0.005
 6480.00    0.55014   0.56098    0.005
 6481.00    0.52339   0.54906    0.005
 6482.00    0.49863   0.53759    0.005
 6483.00    0.47977   0.53818    0.005
 6484.00    0.48474   0.54733    0.005
 6485.00    0.54936   0.55464    0.005
 6486.00    0.59032   0.55721    0.005
 6487.00    0.58029   0.55831    0.005
 6488.00    0.56358   0.55877    0.005
 6489.00    0.53438   0.55688    0.005
 6490.00    0.51130   0.55237    0.005
 6491.00    0.49820   0.54811    0.005
 6492.00    0.52673   0.54194    0.005
 6493.00    0.61492   0.52476    0.005
 6494.00    0.68415   0.50020    0.005
 6495.00    0.72948   0.48831    0.005
 6496.00    0.74242   0.49120    0.005
 6497.00    0.71938   0.50081    0.005
 6498.00    0.71613   0.51205    0.005
 6499.00    0.73228   0.51831    0.005
 6500.00    0.72128   0.52736    0.005
 6501.00    0.68681   0.53828    0.005
 6502.00    0.64554   0.54565    0.005
 6503.00    0.59910   0.54984    0.005
 6504.00    0.56724   0.55230    0.005
 6505.00    0.54512   0.55509    0.005
 6506.00    0.53011   0.55661    0.005
 6507.00    0.51926   0.55455    0.005
 6508.00    0.52027   0.55046    0.005
 6509.00    0.52734   0.54951    0.005
 6510.00    0.57183   0.55239    0.005
 6511.00    0.63287   0.55458    0.005
 6512.00    0.63188   0.55463    0.005
 6513.00    0.60732   0.55379    0.005
 6514.00    0.58093   0.55053    0.005
 6515.00    0.55395   0.54520    0.005
 6516.00    0.57415   0.54031    0.005
 6517.00    0.60709   0.53766    0.005
 6518.00    0.59998   0.53535    0.005
 6519.00    0.58399   0.53740    0.005
 6520.00    0.52941   0.54534    0.005
 6521.00    0.46802   0.55181    0.005
 6522.00    0.45996   0.55346    0.005
 6523.00    0.45907   0.55258    0.005
 6524.00    0.47559   0.55285    0.005
 6525.00    0.49378   0.55226    0.005
 6526.00    0.50526   0.54743    0.005
 6527.00    0.51636   0.54345    0.005
 6528.00    0.51244   0.54608    0.000
 6529.00    0.50834   0.55126    0.000
 6530.00    0.53121   0.55292    0.000
 6531.00    0.55573   0.55001    0.000
 6532.00    0.62182   0.54552    0.000
 6533.00    0.68448   0.54318    0.000
 6534.00    0.70118   0.54574    0.000
 6535.00    0.71196   0.55035    0.000
 6536.00    0.67002   0.55241    0.000
 6537.00    0.63277   0.55123    0.000
 6538.00    0.62626   0.55111    0.000
 6539.00    0.62059   0.55343    0.000
 6540.00    0.61915   0.55570    0.000
 6541.00    0.61139   0.55397    0.000
 6542.00    0.57755   0.54870    0.000
 6543.00    0.55056   0.54394    0.000
 6544.00    0.54703   0.53976    0.000
 6545.00    0.54254   0.53116    0.000
 6546.00    0.53531   0.52210    0.000
 6547.00    0.52494   0.52391    0.000
 6548.00    0.50687   0.53273    0.000
 6549.00    0.50719   0.53682    0.000
 6550.00    0.54648   0.53408    0.000
 6551.00    0.59229   0.52994    0.000
 6552.00    0.65008   0.52737    0.000
 6553.00    0.68286   0.52349    0.000
 6554.00    0.67536   0.51606    0.000
 6555.00    0.65069   0.50891    0.000
 6556.00    0.60179   0.50720    0.000
 6557.00    0.58221   0.50980    0.000
 6558.00    0.59908   0.50989    0.000
 6559.00    0.62202   0.50331    0.000
 6560.00    0.65161   0.48715    0.000
 6561.00    0.67240   0.44311    0.000
 6562.00    0.68467   0.37169    0.000
 6563.00    0.68597   0.34391    0.000
 6564.00    0.67792   0.39724    0.000
 6565.00    0.67131   0.46416    0.000
 6566.00    0.66579   0.49674    0.000
 6567.00    0.65097   0.50949    0.000
 6568.00    0.63002   0.51293    0.000
 6569.00    0.55783   0.51109    0.000
 6570.00    0.45605   0.51384    0.000
 6571.00    0.38169   0.51782    0.000
 6572.00    0.32112   0.51470    0.000
 6573.00    0.35279   0.50802    0.000
 6574.00    0.42460   0.50562    0.000
 6575.00    0.49385   0.51094    0.000
 6576.00    0.56214   0.52222    0.000
 6577.00    0.60641   0.53196    0.000
 6578.00    0.64307   0.53620    0.000
 6579.00    0.62391   0.53543    0.000
 6580.00    0.58998   0.53148    0.000
 6581.00    0.57003   0.52793    0.000
 6582.00    0.55310   0.53098    0.000
 6583.00    0.63249   0.53613    0.000
 6584.00    0.72840   0.53720    0.000
 6585.00    0.73014   0.53491    0.000
 6586.00    0.71965   0.53222    0.000
 6587.00    0.63927   0.53496    0.000
 6588.00    0.55252   0.54100    0.000
 6589.00    0.50736   0.54414    0.000
 6590.00    0.46449   0.54376    0.000
 6591.00    0.52813   0.53646    0.000
 6592.00    0.59321   0.51963    0.000
 6593.00    0.57826   0.50449    0.000
 6594.00    0.56513   0.50873    0.000
 6595.00    0.59357   0.52532    0.000
 6596.00    0.62033   0.53443    0.000
 6597.00    0.62583   0.53367    0.000
 6598.00    0.63255   0.52936    0.000
 6599.00    0.64977   0.52979    0.000
 6600.00    0.66347   0.53687    0.000
 6601.00    0.65468   0.54262    0.000
 6602.00    0.63687   0.54329    0.000
 6603.00    0.57412   0.54051    0.000
 6604.00    0.52539   0.53612    0.000
 6605.00    0.53324   0.53284    0.000
 6606.00    0.54098   0.53186    0.000
 6607.00    0.54834   0.52964    0.000
 6608.00    0.54357   0.52378    0.000
 6609.00    0.50450   0.51986    0.005
 6610.00    0.47253   0.52622    0.005
 6611.00    0.45769   0.53642    0.005
 6612.00    0.46715   0.53971    0.005
 6613.00    0.52726   0.53657    0.005
 6614.00    0.57278   0.53474    0.005
 6615.00    0.59181   0.53811    0.005
 6616.00    0.59313   0.54029    0.005
 6617.00    0.56637   0.53948    0.005
 6618.00    0.54523   0.53835    0.005
 6619.00    0.53190   0.53915    0.005
 6620.00    0.52601   0.54087    0.005
 6621.00    0.52922   0.54125    0.005
 6622.00    0.55412   0.53942    0.005
 6623.00    0.60243   0.53430    0.005
 6624.00    0.61995   0.52711    0.005
 6625.00    0.60815   0.52388    0.005
 6626.00    0.58529   0.52750    0.005
 6627.00    0.55315   0.53122    0.005
 6628.00    0.55316   0.53228    0.005
 6629.00    0.57694   0.53212    0.005
 6630.00    0.56018   0.53089    0.005
 6631.00    0.51708   0.52859    0.005
 6632.00    0.48271   0.52476    0.005
 6633.00    0.45330   0.51896    0.005
 6634.00    0.44316   0.51636    0.005
 6635.00    0.44256   0.52114    0.005
 6636.00    0.48821   0.52799    0.005
 6637.00    0.55365   0.53143    0.005
 6638.00    0.52411   0.53147    0.005
 6639.00    0.45973   0.52981    0.005
 6640.00    0.40575   0.52941    0.005
 6641.00    0.35500   0.53213    0.005
 6642.00    0.37626   0.53044    0.005
 6643.00    0.41616   0.51955    0.005
 6644.00    0.44115   0.51489    0.005
 6645.00    0.46299   0.52202    0.005
 6646.00    0.47297   0.52813    0.005
 6647.00    0.48097   0.52819    0.005
 6648.00    0.48069   0.52802    0.005
 6649.00    0.47936   0.52918    0.005
 6650.00    0.41260   0.52859    0.005
 6651.00    0.34014   0.52528    0.005
 6652.00    0.35342   0.52306    0.005
 6653.00    0.37109   0.52321    0.005
 6654.00    0.45010   0.52384    0.005
 6655.00    0.52914   0.52447    0.005
 6656.00    0.53381   0.52404    0.005
 6657.00    0.53914   0.52416    0.005
 6658.00    0.55819   0.52489    0.005
 6659.00    0.57000   0.52418    0.005
 6660.00    0.49451   0.52254    0.005
 6661.00    0.42762   0.52049    0.005
 6662.00    0.43159   0.51507    0.005
 6663.00    0.43064   0.50720    0.005
 6664.00    0.39926   0.50785    0.005
 6665.00    0.38168   0.51445    0.005
 6666.00    0.43110   0.51767    0.005
 6667.00    0.49908   0.51802    0.005
 6668.00    0.64039   0.51880    0.005
 6669.00    0.74089   0.52227    0.005
 6670.00    0.70745   0.52605    0.005
 6671.00    0.65503   0.52743    0.005
 6672.00    0.54993   0.52645    0.005
 6673.00    0.47246   0.52586    0.005
 6674.00    0.46065   0.52576    0.005
 6675.00    0.45562   0.52500    0.005
 6676.00    0.46452   0.51951    0.005
 6677.00    0.44466   0.50491    0.005
 6678.00    0.37344   0.49386    0.005
 6679.00    0.35082   0.50005    0.005
 6680.00    0.40414   0.51168    0.005
 6681.00    0.46001   0.51489    0.005
 6682.00    0.51938   0.51471    0.005
 6683.00    0.56654   0.51668    0.005
 6684.00    0.59895   0.51909    0.005
 6685.00    0.60877   0.51945    0.005
 6686.00    0.59452   0.51858    0.005
 6687.00    0.58150   0.51757    0.005
 6688.00    0.56964   0.51651    0.005
 6689.00    0.53976   0.51740    0.005
 6690.00    0.49496   0.51882    0.005
 6691.00    0.48861   0.51940    0.005
 6692.00    0.51029   0.51884    0.005
 6693.00    0.53100   0.51858    0.005
 6694.00    0.55110   0.51686    0.005
 6695.00    0.56764   0.51248    0.005
 6696.00    0.58220   0.50783    0.000
 6697.00    0.57061   0.50767    0.000
 6698.00    0.54628   0.51090    0.000
 6699.00    0.54315   0.51459    0.000
 6700.00    0.54895   0.51851    0.000
 6701.00    0.56147   0.51997    0.000
 6702.00    0.57642   0.51735    0.000
 6703.00    0.59485   0.51266    0.000
 6704.00    0.61433   0.50969    0.000
 6705.00    0.65372   0.51105    0.000
 6706.00    0.69815   0.51443    0.000
 6707.00    0.64666   0.51627    0.000
 6708.00    0.57543   0.51649    0.000
 6709.00    0.59866   0.51590    0.000
 6710.00    0.63718   0.51352    0.000
 6711.00    0.61328   0.51323    0.000
 6712.00    0.58182   0.51438    0.000
 6713.00    0.60331   0.51148    0.000
 6714.00    0.62919   0.50702    0.000
 6715.00    0.66294   0.50263    0.000
 6716.00    0.69707   0.49582    0.000
 6717.00    0.61337   0.48714    0.000
 6718.00    0.52891   0.48637    0.000
 6719.00    0.49474   0.49591    0.000
 6720.00    0.46282   0.50318    0.000
 6721.00    0.47491   0.50345    0.000
 6722.00    0.48619   0.50341    0.000
 6723.00    0.48823   0.50626    0.000
 6724.00    0.50065   0.50811    0.000
 6725.00    0.59578   0.50584    0.000
 6726.00    0.67159   0.50268    0.000
 6727.00    0.63157   0.50426    0.000
 6728.00    0.59611   0.50758    0.000
 6729.00    0.58225   0.50904    0.000
 6730.00    0.56284   0.50962    0.000
 6731.00    0.52198   0.50933    0.000
 6732.00    0.48063   0.50834    0.000
 6733.00    0.43772   0.50710    0.000
 6734.00    0.42687   0.50714    0.000
 6735.00    0.50346   0.50763    0.000
 6736.00    0.55343   0.50839    0.000
 6737.00    0.54124   0.50712    0.000
 6738.00    0.50796   0.50346    0.000
 6739.00    0.43210   0.50067    0.000
 6740.00    0.37363   0.50151    0.000
 6741.00    0.34573   0.50341    0.000
 6742.00    0.35293   0.50116    0.000
 6743.00    0.41418   0.49764    0.000
 6744.00    0.45770   0.49932    0.000
 6745.00    0.47726   0.50305    0.000
 6746.00    0.48787   0.50340    0.000
 6747.00    0.48782   0.50158    0.000
 6748.00    0.50773   0.49906    0.000
 6749.00    0.54857   0.49505    0.000
 6750.00    0.58179   0.49213    0.000
 6751.00    0.60793   0.49434    0.000
 6752.00    0.60951   0.49619    0.000
 6753.00    0.59103   0.49563    0.006
 6754.00    0.62120   0.49881    0.006
 6755.00    0.68631   0.50279    0.006
 6756.00    0.74094   0.50518    0.006
 6757.00    0.78895   0.50686    0.007
 6758.00    0.77564   0.50837    0.006
 6759.00    0.72853   0.50948    0.006
 6760.00    0.68248   0.51025    0.006
 6761.00    0.63695   0.50958    0.006
 6762.00    0.60168   0.50739    0.006
 6763.00    0.57067   0.50766    0.007
 6764.00    0.61970   0.50875    0.007
 6765.00    0.69703   0.50746    0.006
 6766.00    0.68837   0.50264    0.006
 6767.00    0.65404   0.49662    0.006
 6768.00    0.68863   0.49559    0.006
 6769.00    0.74028   0.49928    0.007
 6770.00    0.73556   0.49959    0.007
 6771.00    0.71953   0.49749    0.006
 6772.00    0.67069   0.49911    0.006
 6773.00    0.61669   0.50335    0.006
 6774.00    0.63197   0.50756    0.006
 6775.00    0.65532   0.51012    0.006
 6776.00    0.65592   0.51096    0.006
 6777.00    0.65473   0.51084    0.006
 6778.00    0.62087   0.51099    0.006
 6779.00    0.58558   0.51160    0.006
 6780.00    0.52034   0.51019    0.006
 6781.00    0.45781   0.50673    0.006
 6782.00    0.53620   0.50096    0.006
 6783.00    0.61035   0.49458    0.006
 6784.00    0.60770   0.49085    0.006
 6785.00    0.60135   0.49130    0.006
 6786.00    0.55439   0.49345    0.006
 6787.00    0.50233   0.49640    0.006
 6788.00    0.41096   0.49920    0.006
 6789.00    0.32812   0.49992    0.006
 6790.00    0.29495   0.49868    0.006
 6791.00    0.29141   0.49871    0.006
 6792.00    0.42490   0.49888    0.006
 6793.00    0.52683   0.49690    0.006
 6794.00    0.50940   0.49580    0.006
 6795.00    0.50247   0.49660    0.006
 6796.00    0.52873   0.49731    0.006
 6797.00    0.54423   0.49834    0.006
 6798.00    0.53094   0.49870    0.006
 6799.00    0.54388   0.49953    0.006
 6800.00    0.61707   0.50111    0.006
 6801.00    0.66441   0.50286    0.006
 6802.00    0.66036   0.50362    0.006
 6803.00    0.66148   0.50192    0.006
 6804.00    0.67156   0.49935    0.006
 6805.00    0.66188   0.49896    0.006
 6806.00    0.62225   0.49806    0.006
 6807.00    0.62063   0.49679    0.006
 6808.00    0.66967   0.49836    0.006
 6809.00    0.70658   0.49860    0.006
 6810.00    0.72925   0.49670    0.006
 6811.00    0.68973   0.49758    0.006
 6812.00    0.58584   0.49945    0.006
 6813.00    0.53542   0.49955    0.006
 6814.00    0.53381   0.49642    0.007
 6815.00    0.54139   0.49386    0.007
 6816.00    0.55637   0.49608    0.007
 6817.00    0.58578   0.50007    0.007
 6818.00    0.62542   0.50067    0.006
 6819.00    0.69201   0.49763    0.006
 6820.00    0.77535   0.49532    0.006
 6821.00    0.73651   0.49706    0.006
 6822.00    0.63135   0.50101    0.006
 6823.00    0.52325   0.50272    0.006
 6824.00    0.41374   0.50252    0.006
 6825.00    0.49422   0.50242    0.006
 6826.00    0.65193   0.50209    0.006
 6827.00    0.64096   0.49787    0.006
 6828.00    0.57142   0.49243    0.006
 6829.00    0.51393   0.49247    0.006
 6830.00    0.45997   0.49708    0.006
 6831.00    0.41656   0.50069    0.006
 6832.00    0.37570   0.50003    0.006
 6833.00    0.42629   0.49888    0.006
 6834.00    0.49476   0.50064    0.006
 6835.00    0.52794   0.50252    0.006
 6836.00    0.55574   0.50235    0.006
 6837.00    0.56232   0.50009    0.006
 6838.00    0.56652   0.49634    0.007
 6839.00    0.59330   0.49165    0.007
 6840.00    0.62176   0.48733    0.007
 6841.00    0.63175   0.48272    0.007
 6842.00    0.64101   0.48178    0.007
 6843.00    0.66884   0.48579    0.007
 6844.00    0.69571   0.49224    0.007
 6845.00    0.67955   0.49714    0.006
 6846.00    0.66007   0.49767    0.006
 6847.00    0.58452   0.49669    0.006
 6848.00    0.52100   0.49705    0.006
 6849.00    0.58322   0.49674    0.006
 6850.00    0.63368   0.49579    0.006
 6851.00    0.59672   0.49533    0.006
 6852.00    0.55925   0.49546    0.006
 6853.00    0.51889   0.49441    0.006
 6854.00    0.47877   0.48900    0.006
 6855.00    0.43971   0.48314    0.006
 6856.00    0.43215   0.48365    0.006
 6857.00    0.54119   0.48708    0.006
 6858.00    0.61469   0.48868    0.006
 6859.00    0.57811   0.48964    0.006
 6860.00    0.57278   0.48813    0.006
 6861.00    0.64967   0.48359    0.006
 6862.00    0.72349   0.48348    0.006
 6863.00    0.79038   0.49018    0.007
 6864.00    0.84038   0.49711    0.007
 6865.00    0.85733   0.49771    0.007
 6866.00    0.80326   0.49326    0.007
 6867.00    0.62803   0.48830    0.007
 6868.00    0.52812   0.48482    0.007
 6869.00    0.54079   0.48624    0.007
 6870.00    0.50189   0.49053    0.006
 6871.00    0.39523   0.48953    0.006
 6872.00    0.35910   0.48596    0.006
 6873.00    0.40460   0.48678    0.006
 6874.00    0.44838   0.48916    0.006
 6875.00    0.49042   0.48978    0.006
 6876.00    0.44816   0.49191    0.006
 6877.00    0.33004   0.49539    0.006
 6878.00    0.31619   0.49805    0.006
 6879.00    0.38506   0.49840    0.006
 6880.00    0.47071   0.49685    0.006
 6881.00    0.56805   0.49229    0.006
 6882.00    0.58994   0.48673    0.006
 6883.00    0.56566   0.48547    0.006
 6884.00    0.51228   0.48830    0.006
 6885.00    0.44336   0.49090    0.006
 6886.00    0.43203   0.49049    0.006
 6887.00    0.44742   0.49111    0.006
 6888.00    0.48099   0.49527    0.006
 6889.00    0.52182   0.49803    0.006
 6890.00    0.46377   0.49807    0.006
 6891.00    0.37201   0.49902    0.006
 6892.00    0.44783   0.49911    0.006
 6893.00    0.57169   0.49720    0.006
 6894.00    0.48505   0.49596    0.006
 6895.00    0.34857   0.49503    0.006
 6896.00    0.32342   0.49399    0.006
 6897.00    0.31949   0.49380    0.006
 6898.00    0.49981   0.49496    0.006
 6899.00    0.70735   0.49477    0.006
 6900.00    0.73180   0.49163    0.006
 6901.00    0.73650   0.49114    0.006
 6902.00    0.62159   0.49524    0.006
 6903.00    0.49823   0.49811    0.006
 6904.00    0.43315   0.49743    0.006
 6905.00    0.37016   0.49589    0.006
 6906.00    0.43104   0.49759    0.006
 6907.00    0.49074   0.50102    0.006
 6908.00    0.49563   0.50193    0.006
 6909.00    0.50814   0.50103    0.006
 6910.00    0.64123   0.49940    0.006
 6911.00    0.75357   0.49770    0.006
 6912.00    0.65799   0.49636    0.006
 6913.00    0.56464   0.49207    0.006
 6914.00    0.48727   0.48673    0.006
 6915.00    0.41602   0.48738    0.006
 6916.00    0.37848   0.48972    0.006
 6917.00    0.35413   0.49006    0.006
 6918.00    0.38793   0.49199    0.006
 6919.00    0.42111   0.49314    0.006
 6920.00    0.45205   0.49458    0.006
 6921.00    0.45942   0.49705    0.006
 6922.00    0.39513   0.49744    0.006
 6923.00    0.36870   0.49385    0.006
 6924.00    0.44016   0.48736    0.006
 6925.00    0.51382   0.48455    0.006
 6926.00    0.59238   0.48659    0.006
 6927.00    0.60647   0.49154    0.006
 6928.00    0.49630   0.49578    0.006
 6929.00    0.41784   0.49710    0.006
 6930.00    0.39264   0.49628    0.006
 6931.00    0.39459   0.49446    0.006
 6932.00    0.43653   0.49147    0.006
 6933.00    0.49202   0.48843    0.006
 6934.00    0.56504   0.49007    0.006
 6935.00    0.57447   0.49398    0.007
 6936.00    0.51135   0.49502    0.007
 6937.00    0.46281   0.49436    0.007
 6938.00    0.42894   0.49350    0.006
 6939.00    0.42865   0.49463    0.006
 6940.00    0.45815   0.49658    0.006
 6941.00    0.48026   0.49750    0.006
 6942.00    0.49658   0.49666    0.006
 6943.00    0.47900   0.49349    0.006
 6944.00    0.43811   0.48728    0.006
 6945.00    0.40224   0.48239    0.006
 6946.00    0.36939   0.48640    0.006
 6947.00    0.44038   0.49395    0.006
 6948.00    0.56600   0.49769    0.006
 6949.00    0.53927   0.49795    0.006
 6950.00    0.44301   0.49578    0.006
 6951.00    0.27553   0.49194    0.006
 6952.00    0.08010   0.48993    0.006
 6953.00    0.19875   0.48930    0.006
 6954.00    0.42247   0.48841    0.007
 6955.00    0.55121   0.48991    0.007
 6956.00    0.65327   0.49344    0.007
 6957.00    0.60315   0.49542    0.007
 6958.00    0.51782   0.49565    0.007
 6959.00    0.51934   0.49577    0.007
 6960.00    0.53698   0.49617    0.007
 6961.00    0.50082   0.49722    0.006
 6962.00    0.45697   0.49785    0.006
 6963.00    0.58487   0.49852    0.006
 6964.00    0.73055   0.49838    0.006
 6965.00    0.68851   0.49626    0.006
 6966.00    0.63395   0.49528    0.006
 6967.00    0.59621   0.49680    0.006
 6968.00    0.55903   0.49959    0.006
 6969.00    0.59645   0.50005    0.006
 6970.00    0.63301   0.49774    0.006
 6971.00    0.64300   0.49525    0.006
 6972.00    0.64908   0.49565    0.006
 6973.00    0.59677   0.49822    0.006
 6974.00    0.54928   0.49791    0.007
 6975.00    0.54796   0.49355    0.007
 6976.00    0.54887   0.48795    0.007
 6977.00    0.56521   0.48065    0.007
 6978.00    0.58020   0.47017    0.007
 6979.00    0.58795   0.46779    0.007
 6980.00    0.59888   0.47846    0.007
 6981.00    0.62350   0.49021    0.007
 6982.00    0.61512   0.49620    0.007
 6983.00    0.48955   0.49888    0.007
 6984.00    0.41894   0.49945    0.007
 6985.00    0.51221   0.49934    0.007
 6986.00    0.58296   0.49983    0.007
 6987.00    0.59652   0.49857    0.006
 6988.00    0.60101   0.49437    0.006
 6989.00    0.58570   0.48975    0.006
 6990.00    0.58392   0.48925    0.006
 6991.00    0.60784   0.49276    0.006
 6992.00    0.61445   0.49648    0.006
 6993.00    0.59242   0.49705    0.006
 6994.00    0.57232   0.49409    0.006
 6995.00    0.55501   0.49261    0.006
 6996.00    0.53475   0.49419    0.006
 6997.00    0.51070   0.49622    0.007
 6998.00    0.42323   0.49435    0.007
 6999.00    0.26442   0.48864    0.006
 7000.00    0.22031   0.48470    0.006
 7001.00    0.28996   0.48739    0.007
 7002.00    0.35275   0.49232    0.007
 7003.00    0.40952   0.49250    0.007
 7004.00    0.43270   0.48771    0.007
 7005.00    0.43000   0.48480    0.007
 7006.00    0.47724   0.48527    0.007
 7007.00    0.55833   0.48780    0.007
 7008.00    0.56172   0.49074    0.007
 7009.00    0.51897   0.49355    0.007
 7010.00    0.49002   0.49384    0.006
 7011.00    0.46822   0.49133    0.006
 7012.00    0.46476   0.49076    0.006
 7013.00    0.46953   0.49272    0.007
 7014.00    0.50701   0.49129    0.006
 7015.00    0.55712   0.48212    0.006
 7016.00    0.50726   0.47116    0.007
 7017.00    0.42459   0.47227    0.007
 7018.00    0.42189   0.48470    0.007
 7019.00    0.44118   0.49383    0.007
 7020.00    0.37340   0.49706    0.007
 7021.00    0.28593   0.49696    0.007
 7022.00    0.33556   0.49309    0.007
 7023.00    0.40996   0.48624    0.007
 7024.00    0.38015   0.48168    0.007
 7025.00    0.33591   0.48379    0.007
 7026.00    0.34193   0.48959    0.007
 7027.00    0.35294   0.49211    0.007
 7028.00    0.40139   0.49190    0.007
 7029.00    0.45218   0.49283    0.007
 7030.00    0.41422   0.49502    0.007
 7031.00    0.37429   0.49632    0.007
 7032.00    0.48001   0.49486    0.007
 7033.00    0.58353   0.49282    0.007
 7034.00    0.62637   0.49217    0.007
 7035.00    0.65051   0.49374    0.007
 7036.00    0.41192   0.49513    0.007
 7037.00    0.19461   0.49032    0.007
 7038.00    0.17351   0.48132    0.007
 7039.00    0.16543   0.48232    0.007
 7040.00    0.24497   0.49438    0.007
 7041.00    0.31059   0.50430    0.007
 7042.00    0.30345   0.50840    0.007
 7043.00    0.32138   0.50852    0.007
 7044.00    0.44482   0.50473    0.007
 7045.00    0.50153   0.50071    0.007
 7046.00    0.32615   0.50183    0.007
 7047.00    0.20068   0.50649    0.007
 7048.00    0.22128   0.50948    0.007
 7049.00   -0.01106   0.50918    0.000
 7050.00   -0.87485   0.50658   -2.000
 7051.00   -1.21781   0.50155   -2.000
 7052.00   -0.44056   0.49264   -2.000
 7053.00    0.13120   0.48268   -2.000
 7054.00    0.31918   0.47505   -2.000
 7055.00    0.40182   0.47158   -2.000
 7056.00    0.31265   0.47409   -2.000
 7057.00    0.27235   0.47895   -2.000
 7058.00    0.30196   0.47959   -2.000
 7059.00    0.34898   0.47406   -2.000
 7060.00    0.41788   0.46787   -2.000
 7061.00    0.39691   0.46716   -2.000
 7062.00    0.27627   0.47009   -2.000
 7063.00    0.24148   0.47233   -2.000
 7064.00    0.29065   0.47498   -2.000
 7065.00    0.24684   0.47527   -2.000
 7066.00    0.12281   0.47168   -2.000
 7067.00    0.08124   0.46766   -2.000
 7068.00    0.10229   0.46357   -2.000
 7069.00    0.17581   0.46470   -2.000
 7070.00    0.28437   0.47163   -2.000
 7071.00    0.42751   0.47747   -2.000
 7072.00    0.59089   0.47954   -2.000
 7073.00    0.48187   0.48066   -2.000
 7074.00    0.23399   0.48116   -2.000
 7075.00    0.19313   0.47992   -2.000
 7076.00    0.24366   0.47892   -2.000
 7077.00    0.34222   0.47876   -2.000
 7078.00    0.45899   0.47922   -2.000
 7079.00    0.42884   0.47971   -2.000
 7080.00    0.35139   0.48053   -2.000
 7081.00    0.30344   0.48069   -2.000
 7082.00    0.26344   0.47765   -2.000
 7083.00    0.25846   0.47007   -2.000
 7084.00    0.26122   0.45982   -2.000
 7085.00    0.34804   0.45494   -2.000
 7086.00    0.44965   0.45684   -2.000
 7087.00    0.48183   0.45583   -2.000
 7088.00    0.50471   0.45086   -2.000
 7089.00    0.49806   0.44646   -2.000
 7090.00    0.48861   0.44437   -2.000
 7091.00    0.43174   0.44514   -2.000
 7092.00    0.37209   0.44796   -2.000
 7093.00    0.39809   0.44792   -2.000
 7094.00    0.42477   0.44780   -2.000
 7095.00    0.25493   0.44738   -2.000
 7096.00    0.09761   0.44695   -2.000
 7097.00    0.25150   0.44750   -2.000
 7098.00    0.39983   0.45011   -2.000
 7099.00    0.47427   0.45846   -2.000
 7100.00    0.51025   0.46137   -2.000
 7101.00    0.20531   0.45989   -2.000
 7102.00   -0.03227   0.45630   -2.000
 7103.00    0.17025   0.45492   -2.000
 7104.00    0.33786   0.45772   -2.000
 7105.00    0.32769   0.46177   -2.000
 7106.00    0.32314   0.46191   -2.000
 7107.00    0.34173   0.46009   -2.000
 7108.00    0.35384   0.46056   -2.000
 7109.00    0.34387   0.46112   -2.000
 7110.00    0.33882   0.45770   -2.000
 7111.00    0.34792   0.45299   -2.000
 7112.00    0.32393   0.45303   -2.000
 7113.00    0.21877   0.45754   -2.000
 7114.00    0.17940   0.46064   -2.000
 7115.00    0.27925   0.46147   -2.000
 7116.00    0.30107   0.46351   -2.000
 7117.00    0.17940   0.46548   -2.000
 7118.00    0.18978   0.46563   -2.000
 7119.00    0.41229   0.46460   -2.000
 7120.00    0.55708   0.46323   -2.000
 7121.00    0.59228   0.46037   -2.000
 7122.00    0.60063   0.45724   -2.000
 7123.00    0.57569   0.45940   -2.000
 7124.00    0.34338   0.46206   -2.000
 7125.00   -0.11562   0.45728   -2.000
 7126.00   -0.13864   0.44982   -2.000
 7127.00    0.25881   0.44728   -2.000
 7128.00    0.44220   0.44834   -2.000
 7129.00    0.44357   0.44654   -2.000
 7130.00    0.40667   0.44072   -2.000
 7131.00    0.34112   0.43732   -2.000
 7132.00    0.27429   0.44117   -2.000
 7133.00    0.20661   0.44720   -2.000
 7134.00    0.35624   0.45188   -2.000
 7135.00    0.63104   0.45394   -2.000
 7136.00    0.60277   0.45441   -2.000
 7137.00    0.42242   0.45560   -2.000
 7138.00    0.28350   0.45379   -2.000
 7139.00    0.16257   0.45087   -2.000
 7140.00    0.21578   0.45182   -2.000
 7141.00    0.33385   0.45533   -2.000
 7142.00    0.25774   0.45683   -2.000
 7143.00    0.12030   0.45733   -2.000
 7144.00    0.18039   0.45767   -2.000
 7145.00    0.29257   0.45747   -2.000
 7146.00    0.21171   0.45632   -2.000
 7147.00    0.08925   0.44974   -2.000
 7148.00    0.18142   0.44135   -2.000
 7149.00    0.31027   0.44358   -2.000
 7150.00    0.27457   0.45217   -2.000
 7151.00    0.21757   0.45755   -2.000
 7152.00   -0.05073   0.46173   -2.000
 7153.00   -0.33821   0.46587   -2.000
 7154.00   -0.30478   0.46675   -2.000
 7155.00   -0.25380   0.46551   -2.000
 7156.00    0.24221   0.46775   -2.000
 7157.00    0.74048   0.47240   -2.000
 7158.00    0.59386   0.47215   -2.000
 7159.00    0.44001   0.46752   -2.000
 7160.00    0.12217   0.46397   -2.000
 7161.00   -0.16119   0.46562   -2.000
 7162.00   -0.01044   0.46716   -2.000
 7163.00    0.12624   0.45229   -2.000
 7164.00    0.14290   0.43777   -2.000
 7165.00    0.23477   0.43224   -2.000
 7166.00    0.80323   0.43802   -2.000
 7167.00    1.16337   0.44746   -2.000
 7168.00    0.48918   0.45142   -2.000
 7169.00   -0.01945   0.45060   -2.000
 7170.00    0.13831   0.45072   -2.000
 7171.00    0.23652   0.45292   -2.000
 7172.00    0.13581   0.45552   -2.000
 7173.00    0.11341   0.45685   -2.000
 7174.00    0.31192   0.45511   -2.000
 7175.00    0.43607   0.45125   -2.000
 7176.00    0.38086   0.44831   -2.000
 7177.00    0.33222   0.45034   -2.000
 7178.00    0.29724   0.45356   -2.000
 7179.00    0.21717   0.45071   -2.000
 7180.00    0.05545   0.44318   -2.000
 7181.00   -0.06173   0.43855   -2.000
 7182.00   -0.10843   0.44129   -2.000
 7183.00   -0.04493   0.44955   -2.000
 7184.00    0.17168   0.45510   -2.000
 7185.00    0.19568   0.45421   -2.000
 7186.00   -0.01585   0.44848   -2.000
 7187.00   -0.03277   0.43899   -2.000
 7188.00    0.16009   0.43355   -2.000
 7189.00    0.24208   0.43521   -2.000
 7190.00    0.21866   0.44131   -2.000
 7191.00    0.30847   0.44808   -2.000
 7192.00    0.49321   0.44854   -2.000
 7193.00    0.48704   0.44672   -2.000
 7194.00    0.33996   0.44831   -2.000
 7195.00    0.26825   0.45140   -2.000
 7196.00    0.24540   0.44940   -2.000
 7197.00    0.19478   0.44409   -2.000
 7198.00    0.12841   0.44408   -2.000
 7199.00    0.10816   0.44769   -2.000
 7200.00    0.11068   0.44891   -2.000
 7201.00    0.09486   0.44477   -2.000
 7202.00    0.07120   0.43970   -2.000
 7203.00    0.18853   0.44284   -2.000
 7204.00    0.35745   0.45032   -2.000
 7205.00    0.47479   0.45179   -2.000
 7206.00    0.57617   0.44346   -2.000
 7207.00    0.39122   0.43170   -2.000
 7208.00    0.13237   0.42903   -2.000
 7209.00    0.18263   0.43475   -2.000
 7210.00    0.29790   0.44289   -2.000
 7211.00    0.22571   0.45049   -2.000
 7212.00    0.12238   0.45184   -2.000
 7213.00    0.11487   0.44908   -2.000
 7214.00    0.11932   0.44671   -2.000
 7215.00    0.16368   0.44599   -2.000
 7216.00    0.21150   0.44726   -2.000
 7217.00    0.26664   0.45073   -2.000
 7218.00    0.32215   0.45428   -2.000
