###################################################################
## OUTPUT of StarlightChains_v04.for    [Cid@UFSC - 01/Apr/2007] ##
###################################################################

## Some input info
KUG0210-078._37_36.txt                   [arq_obs]
Base.CB07.vall.4m                        [arq_base]
Masks.EmLines.NEW.gm                     [arq_masks]
StCv04.C11.config                        [arq_config]
   66                                    [N_base]
    0                                    [N_YAV_components = # of components with extra extinction!]
    0                                    [i_FitPowerLaw (1/0 = Yes/No)]
-9.99                                    [alpha_PowerLaw]
CCM                                      [red_law_option]
 1.458241                                [q_norm = A(l_norm)/A(V)]

## (Re)Sampling Parameters
 3741.00                                 [l_ini (A)]
 7218.00                                 [l_fin (A)]
    1.00                                 [dl    (A)]     (OBS: dl_cushion =    50.00 A)

## Normalization info
 4020.00                                 [l_norm (A) - for base]
 4010.00                                 [llow_norm (A) - window for f_obs]
 4060.00                                 [lupp_norm (A) - window for f_obs]
2.186644E-17                             [fobs_norm (in input units)]

## S/N
 3691.00                                 [llow_SN (A) - window for S/N]
 7268.00                                 [lupp_SN (A) - window for S/N]
   4.922                                 [S/N in S/N window]
   4.130                                 [S/N in norm. window]
   0.032                                 [S/N_err in S/N window]
   0.027                                 [S/N_err in norm. window]
  1.0000                                 [fscale_chi2]

## etc...
    -2007630                             [idum_orig]
  2432                                   [NOl_eff]
  2413                                   [Nl_eff]
    19    NSIGMA                         [Ntot_cliped & clip_method]
  5837930                                [Nglobal_steps]
   7                                     [N_chains]
   7                                     [NEX0s_base = N_base in EX0s-fits]
 0   0   1       19   2.0   3.959E+03    [Clip-Bug, RC-Crash & Burn-In warning-flags, n_censored_weights, wei_nsig_threshold & wei_limit]
    54     52.485     51.812      0.674  [idt_all, wdt_TotTime, wdt_UsrTime & wdt_SysTime (sec)]

## Synthesis Results - Best model ##

 2.44494E-05                             [chi2/Nl_eff]
     7.98822                             [adev (%)]

   115.68544                             [sum-of-x (%)]
 1.19280E-17                             [Flux_tot (units of input spectrum!)]
 1.05705E-12                             [Mini_tot (???)]
 5.34229E-13                             [Mcor_tot (???)]

  19.57                                  [v0_min  (km/s)]
  83.36                                  [vd_min  (km/s)]
-0.5597                                  [AV_min  (mag)]
 0.0000                                  [YAV_min (mag)]

# j     x_j(%)      Mini_j(%)     Mcor_j(%)     age_j(yr)     Z_j      (L/M)_j    YAV?  Mstars   component_j        a/Fe...       SSP_chi2r SSP_adev(%)   SSP_AV   SSP_x(%)
  1      0.0000     0.0000E+00    0.0000E+00    1.000000E+06  0.00400  1.094E-02    0   1.0000   age020_m42            0.0000     6.2456E-05    14.1467   3.5322    92.1659
  2      0.0000     0.0000E+00    0.0000E+00    3.160000E+06  0.00400  4.007E-02    0   0.9999   age045_m42            0.0000     5.1754E-05    12.9206   2.7753    99.4783
  3      0.0000     0.0000E+00    0.0000E+00    5.010000E+06  0.00400  2.539E-02    0   0.9488   age055_m42            0.0000     5.6950E-05    13.5254   3.1131    96.4792
  4      0.0000     0.0000E+00    0.0000E+00    6.610000E+06  0.00400  2.620E-02    0   0.9220   age061_m42            0.0000     5.2266E-05    13.0102   2.7059    99.5261
  5      0.0000     0.0000E+00    0.0000E+00    1.000000E+07  0.00400  1.322E-02    0   0.8862   age070_m42            0.0000     5.9366E-05    14.5207   2.4428   100.3963
  6      0.0000     0.0000E+00    0.0000E+00    1.445000E+07  0.00400  7.883E-03    0   0.8571   age078_m42            0.0000     6.1714E-05    14.6923   2.7767    97.7100
  7      0.0000     0.0000E+00    0.0000E+00    2.512000E+07  0.00400  5.251E-03    0   0.8174   age090_m42            0.0000     6.0091E-05    14.7972   2.3186   100.7388
  8      0.0000     0.0000E+00    0.0000E+00    4.000000E+07  0.00400  3.649E-03    0   0.7851   age104_m42            0.0000     5.7161E-05    14.3878   2.0820   101.9840
  9      0.0000     0.0000E+00    0.0000E+00    5.500000E+07  0.00400  3.098E-03    0   0.7629   age110_m42            0.0000     5.2537E-05    13.4790   2.2231   102.7140
 10      0.0000     0.0000E+00    0.0000E+00    1.015200E+08  0.00400  2.228E-03    0   0.7207   age116_m42            0.0000     4.9672E-05    12.8920   2.2350   103.3775
 11      0.0000     0.0000E+00    0.0000E+00    2.861200E+08  0.00400  1.093E-03    0   0.6648   age125_m42            0.0000     4.9497E-05    13.2953   1.6594   106.3865
 12      0.0000     0.0000E+00    0.0000E+00    5.088000E+08  0.00400  6.597E-04    0   0.6365   age130_m42            0.0000     4.4500E-05    12.2521   1.6348   108.1859
 13      0.0000     0.0000E+00    0.0000E+00    1.434000E+09  0.00400  2.132E-04    0   0.5798   age139_m42            0.0000     3.7264E-05    11.1974   0.6464   111.2023
 14      0.0000     0.0000E+00    0.0000E+00    4.250000E+09  0.00400  5.895E-05    0   0.5377   age158_m42            0.0000     3.4603E-05    10.4819   0.2018   107.5696
 15      0.0000     0.0000E+00    0.0000E+00    7.500000E+09  0.00400  3.510E-05    0   0.5212   age171_m42            0.0000     3.3224E-05    10.1117   0.0075   107.2659
 16      0.0000     0.0000E+00    0.0000E+00    1.300000E+10  0.00400  2.005E-05    0   0.5034   age193_m42            0.0000     3.2534E-05     9.8497  -0.1624   106.9970
 17      0.0000     0.0000E+00    0.0000E+00    1.800000E+10  0.00400  1.525E-05    0   0.4967   age213_m42            0.0000     3.3050E-05     9.9696  -0.1845   106.4311
 18      0.0000     0.0000E+00    0.0000E+00    1.000000E+06  0.00800  1.238E-02    0   1.0000   age020_m52            0.0000     6.2374E-05    14.1368   3.5277    92.3770
 19      0.0000     0.0000E+00    0.0000E+00    3.160000E+06  0.00800  3.074E-02    0   0.9966   age045_m52            0.0000     6.1678E-05    13.9905   3.4487    93.2600
 20      0.0000     0.0000E+00    0.0000E+00    5.010000E+06  0.00800  2.668E-02    0   0.9443   age055_m52            0.0000     5.8686E-05    13.7001   3.1982    95.4801
 21      0.0000     0.0000E+00    0.0000E+00    6.610000E+06  0.00800  2.136E-02    0   0.9177   age061_m52            0.0000     5.6448E-05    14.2908   1.9454   101.7531
 22      0.0000     0.0000E+00    0.0000E+00    1.000000E+07  0.00800  1.215E-02    0   0.8827   age070_m52            0.0000     6.3632E-05    15.1850   2.6260    99.7437
 23      0.0000     0.0000E+00    0.0000E+00    1.445000E+07  0.00800  8.717E-03    0   0.8552   age078_m52            0.0000     6.1034E-05    14.6055   2.7370    99.1365
 24      0.0000     0.0000E+00    0.0000E+00    2.512000E+07  0.00800  5.592E-03    0   0.8162   age090_m52            0.0000     6.0347E-05    14.7975   2.3733   102.0055
 25      0.0000     0.0000E+00    0.0000E+00    4.000000E+07  0.00800  3.896E-03    0   0.7841   age104_m52            0.0000     5.6531E-05    14.2563   2.2770   103.2690
 26      0.0000     0.0000E+00    0.0000E+00    1.015200E+08  0.00800  2.148E-03    0   0.7226   age116_m52            0.0000     5.1206E-05    13.2985   2.2039   103.9003
 27      0.0000     0.0000E+00    0.0000E+00    2.861200E+08  0.00800  9.925E-04    0   0.6683   age125_m52            0.0000     4.4185E-05    12.1746   1.6978   109.2017
 28      0.0000     0.0000E+00    0.0000E+00    9.047900E+08  0.00800  3.141E-04    0   0.6138   age135_m52            0.0000     3.4863E-05    10.6484   0.8660   115.3996
 29      0.0000     0.0000E+00    0.0000E+00    1.434000E+09  0.00800  1.719E-04    0   0.5853   age139_m52            0.0000     3.4228E-05    10.6907   0.2857   113.0018
 30      0.0000     0.0000E+00    0.0000E+00    2.500000E+09  0.00800  7.872E-05    0   0.5600   age150_m52            0.0000     3.0502E-05     9.5983   0.0107   110.9426
 31      0.0000     0.0000E+00    0.0000E+00    4.250000E+09  0.00800  4.336E-05    0   0.5426   age158_m52            0.0000     3.0981E-05     9.6434  -0.0013   109.8582
 32      0.0000     0.0000E+00    0.0000E+00    6.250000E+09  0.00800  3.159E-05    0   0.5319   age166_m52            0.0000     2.8884E-05     9.0644  -0.2168   110.6551
 33      0.0000     0.0000E+00    0.0000E+00    1.300000E+10  0.00800  1.361E-05    0   0.5073   age193_m52            0.0000     2.7333E-05     8.5251  -0.7008   110.8761
 34      0.0000     0.0000E+00    0.0000E+00    1.800000E+10  0.00800  9.886E-06    0   0.4990   age213_m52            0.0000     2.6430E-05     8.1886  -0.8235   111.1643
 35      0.0000     0.0000E+00    0.0000E+00    1.000000E+06  0.02000  1.544E-02    0   1.0000   age020_m62            0.0000     6.2717E-05    14.1780   3.5254    92.5474
 36      0.0000     0.0000E+00    0.0000E+00    3.160000E+06  0.02000  3.762E-02    0   0.9858   age045_m62            0.0000     6.2906E-05    14.0984   3.4619    93.3947
 37      0.0000     0.0000E+00    0.0000E+00    5.010000E+06  0.02000  3.296E-02    0   0.9342   age055_m62            0.0000     5.4235E-05    13.1021   3.0652    98.0166
 38      0.0000     0.0000E+00    0.0000E+00    8.710000E+06  0.02000  1.154E-02    0   0.8861   age067_m62            0.0000     8.6920E-05    19.2151   2.1130    99.8996
 39      0.0000     0.0000E+00    0.0000E+00    1.445000E+07  0.02000  7.663E-03    0   0.8472   age078_m62            0.0000     6.8690E-05    16.3069   2.2770   101.3494
 40      0.0000     0.0000E+00    0.0000E+00    2.512000E+07  0.02000  4.532E-03    0   0.8099   age090_m62            0.0000     6.9661E-05    16.5063   2.2697   100.9319
 41      0.0000     0.0000E+00    0.0000E+00    5.500000E+07  0.02000  2.733E-03    0   0.7595   age110_m62            0.0000     5.7047E-05    14.3244   2.2669   102.3873
 42      0.0000     0.0000E+00    0.0000E+00    1.609000E+08  0.02000  1.369E-03    0   0.6985   age120_m62            0.0000     4.8701E-05    12.8591   2.0806   106.5778
 43      0.0000     0.0000E+00    0.0000E+00    2.861200E+08  0.02000  9.013E-04    0   0.6714   age125_m62            0.0000     4.4073E-05    11.9831   1.8110   110.5884
 44      0.0000     0.0000E+00    0.0000E+00    5.088000E+08  0.02000  5.028E-04    0   0.6449   age130_m62            0.0000     3.6548E-05    10.5346   1.4059   115.0689
 45      0.0000     0.0000E+00    0.0000E+00    9.047900E+08  0.02000  2.428E-04    0   0.6179   age135_m62            0.0000     3.1725E-05     9.9476   0.8121   115.0288
 46      0.0000     0.0000E+00    0.0000E+00    1.434000E+09  0.02000  1.263E-04    0   0.5908   age139_m62            0.0000     3.0809E-05     9.7623   0.3669   113.5660
 47      0.0000     0.0000E+00    0.0000E+00    2.500000E+09  0.02000  5.985E-05    0   0.5673   age150_m62            0.0000     2.8489E-05     9.0473  -0.0114   112.9071
 48      0.0000     0.0000E+00    0.0000E+00    4.250000E+09  0.02000  3.271E-05    0   0.5468   age158_m62            0.0000     2.6290E-05     8.3552  -0.3332   113.0672
 49      0.0000     0.0000E+00    0.0000E+00    1.000000E+10  0.02000  1.360E-05    0   0.5167   age181_m62            0.0000     2.5629E-05     7.9672  -0.7063   114.0166
 50     51.4166     7.0401E+01    6.9830E+01    1.800000E+10  0.02000  7.124E-06    0   0.5013   age213_m62            0.0000     2.6070E-05     7.9567  -0.9392   114.3134
 51      0.0000     0.0000E+00    0.0000E+00    1.000000E+06  0.05000  2.592E-02    0   0.9998   age020_m72            0.0000     6.4079E-05    14.3428   3.5181    92.5167
 52      0.0000     0.0000E+00    0.0000E+00    3.160000E+06  0.05000  4.845E-02    0   0.9577   age045_m72            0.0000     5.9343E-05    13.6229   3.3363    94.9757
 53      0.0000     0.0000E+00    0.0000E+00    5.010000E+06  0.05000  3.072E-02    0   0.9147   age055_m72            0.0000     6.6974E-05    15.5420   2.8566    97.9929
 54      0.0000     0.0000E+00    0.0000E+00    6.610000E+06  0.05000  1.455E-02    0   0.8877   age061_m72            0.0000     1.0352E-04    22.2158   2.1404    99.8363
 55      0.0000     0.0000E+00    0.0000E+00    1.000000E+07  0.05000  9.074E-03    0   0.8524   age070_m72            0.0000     6.9047E-05    16.1300   3.0338    97.7055
 56      0.0000     0.0000E+00    0.0000E+00    2.512000E+07  0.05000  4.250E-03    0   0.7902   age090_m72            0.0000     6.4192E-05    15.4498   2.7251    99.9011
 57      0.0000     0.0000E+00    0.0000E+00    4.000000E+07  0.05000  3.087E-03    0   0.7618   age104_m72            0.0000     6.3868E-05    15.5655   2.4899   101.6200
 58      0.0000     0.0000E+00    0.0000E+00    1.015200E+08  0.05000  1.700E-03    0   0.7096   age116_m72            0.0000     5.2733E-05    13.5204   2.2217   105.6957
 59      0.0000     0.0000E+00    0.0000E+00    2.861200E+08  0.05000  7.384E-04    0   0.6633   age125_m72            0.0000     3.9594E-05    11.1296   1.6608   113.0339
 60      0.0000     0.0000E+00    0.0000E+00    5.088000E+08  0.05000  3.819E-04    0   0.6372   age130_m72            0.0000     3.2546E-05     9.9800   1.1551   116.0585
 61     43.5817     2.5365E+00    3.0664E+00    9.047900E+08  0.05000  1.676E-04    0   0.6110   age135_m72            0.0000     2.8002E-05     8.9908   0.4452   115.2037
 62      0.0000     0.0000E+00    0.0000E+00    1.434000E+09  0.05000  8.837E-05    0   0.5874   age139_m72            0.0000     2.8211E-05     8.9741  -0.0205   114.9414
 63      0.0000     0.0000E+00    0.0000E+00    2.500000E+09  0.05000  4.233E-05    0   0.5598   age150_m72            0.0000     2.5761E-05     8.2057  -0.3483   114.6727
 64      4.7917     3.2571E+00    3.3828E+00    6.250000E+09  0.05000  1.435E-05    0   0.5249   age166_m72            0.0000     2.5155E-05     8.0424  -0.8149   114.0982
 65     15.8954     2.3806E+01    2.3721E+01    1.300000E+10  0.05000  6.513E-06    0   0.5036   age193_m72            0.0000     2.8065E-05     8.2044  -1.0000   112.1334
 66      0.0000     0.0000E+00    0.0000E+00    1.800000E+10  0.05000  4.527E-06    0   0.4945   age213_m72            0.0000     3.5462E-05     9.5567  -1.0000   106.1506


## Synthesis Results - Average & Chains ##

# j      x_j: min, <> & last-chain-values for 1 ...  7 chains
  1      0.0000      0.2617      0.0000      0.0083      0.0077      0.0003      0.0000      0.0001      0.0000
  2      0.0000      0.2511      0.0000      0.0023      0.0195      0.0000      0.0001      0.0001      0.0048
  3      0.0000      0.2273      0.0045      0.0000      0.0159      0.0001      0.0000      0.0001      0.0023
  4      0.0000      0.2689      0.0032      0.0013      0.0000      0.0001      0.0000      0.0000      0.0047
  5      0.0000      0.2279      0.0000      0.0079      0.0004      0.0001      0.0001      0.0000      0.0212
  6      0.0000      0.2460      0.0000      0.0041      0.0000      0.0002      0.0000      0.0000      0.0037
  7      0.0000      0.3307      0.0000      0.0000      0.0007      0.0001      0.0001      0.0001      0.0100
  8      0.0000      0.3000      0.0000      0.0098      0.0000      0.0001      0.0001      0.0002      0.0272
  9      0.0000      0.2453      0.0000      0.0000      0.0000      0.0001      0.0001      0.0001      0.0025
 10      0.0000      0.3421      0.0009      0.0000      0.0000      0.0000      0.0000      0.0002      0.0070
 11      0.0000      0.2224      0.0019      0.0002      0.0000      0.0001      0.0001      0.0001      0.0008
 12      0.0000      0.2853      0.0027      0.0044      0.0120      0.0001      0.0002      0.0001      0.0038
 13      0.0000      0.2930      0.0064      0.0123      0.0012      0.0000      0.0001      0.0001      0.0014
 14      0.0000      0.3321      0.0000      0.0067      0.0173      0.0005      0.0004      0.0003      0.0000
 15      0.0000      0.3135      0.0133      0.0039      0.0026      0.0006      0.0007      0.0007      0.0221
 16      0.0000      0.3231      0.0109      0.0000      0.0001      0.0021      0.0026      0.0027      0.0043
 17      0.0000      0.2818      0.0000      0.0000      0.0001      0.0005      0.0008      0.0008      0.0038
 18      0.0000      0.1926      0.0000      0.0036      0.0000      0.0001      0.0001      0.0001      0.0220
 19      0.0000      0.1851      0.0000      0.0120      0.0101      0.0000      0.0001      0.0000      0.0000
 20      0.0000      0.3987      0.0084      0.0071      0.0000      0.0000      0.0000      0.0001      0.0197
 21      0.0000      0.3399      0.0029      0.0013      0.0213      0.0001      0.0001      0.0000      0.0072
 22      0.0000      0.2575      0.0045      0.0009      0.0000      0.0000      0.0000      0.0001      0.0000
 23      0.0000      0.1988      0.0092      0.0018      0.0000      0.0000      0.0001      0.0001      0.0000
 24      0.0000      0.2619      0.0000      0.0000      0.0081      0.0001      0.0002      0.0001      0.0103
 25      0.0000      0.4180      0.0030      0.0000      0.0067      0.0000      0.0000      0.0001      0.0046
 26      0.0000      0.2339      0.0135      0.0000      0.0000      0.0000      0.0001      0.0001      0.0261
 27      0.0000      0.2942      0.0021      0.0166      0.0113      0.0000      0.0002      0.0001      0.0094
 28      0.0000      0.3542      0.0000      0.0057      0.0048      0.0002      0.0000      0.0001      0.0084
 29      0.0000      0.2613      0.0034      0.0004      0.0163      0.0000      0.0001      0.0001      0.0167
 30      0.0000      0.2871      0.0251      0.0036      0.0192      0.0006      0.0010      0.0009      0.0171
 31      0.0000      0.3518      0.0015      0.0077      0.0016      0.0005      0.0005      0.0004      0.0180
 32      0.0000      0.3410      0.0053      0.0104      0.0072      0.0025      0.0020      0.0020      0.0000
 33      0.0000      0.3746      0.0000      0.0000      0.0133      0.0009      0.0010      0.0011      0.0090
 34      0.0000      0.1820      0.0124      0.0009      0.0000      0.0019      0.0019      0.0018      0.0361
 35      0.0000      0.3247      0.0105      0.0033      0.0027      0.0001      0.0000      0.0000      0.0044
 36      0.0000      0.2235      0.0044      0.0105      0.0054      0.0001      0.0001      0.0001      0.0028
 37      0.0000      0.2332      0.0048      0.0014      0.0157      0.0001      0.0000      0.0000      0.0000
 38      0.0000      0.2995      0.0056      0.0002      0.0042      0.0001      0.0001      0.0001      0.0106
 39      0.0000      0.2885      0.0000      0.0013      0.0000      0.0001      0.0002      0.0001      0.0139
 40      0.0000      0.2144      0.0000      0.0050      0.0059      0.0000      0.0000      0.0000      0.0086
 41      0.0000      0.3311      0.0046      0.0047      0.0000      0.0001      0.0002      0.0000      0.0000
 42      0.0000      0.2600      0.0043      0.0000      0.0203      0.0000      0.0001      0.0001      0.0000
 43      0.0000      0.1825      0.0075      0.0004      0.0000      0.0002      0.0000      0.0001      0.0147
 44      0.0000      0.2702      0.0000      0.0062      0.0147      0.0002      0.0001      0.0001      0.0114
 45      0.0000      0.2513      0.0000      0.0000      0.0072      0.0000      0.0001      0.0001      0.0040
 46      0.0000      0.2925      0.0103      0.0085      0.0000      0.0004      0.0004      0.0004      0.0271
 47      0.0000      0.1871      0.0038      0.0104      0.0047      0.0012      0.0013      0.0013      0.0071
 48      0.0000      4.5622      4.8189      4.8650      4.8644      4.8775      4.8734      5.0215      4.7319
 49      0.0000      0.4853      0.1233      0.1663      0.1591      0.1844      0.2942      0.1806      0.1505
 50     51.4166      0.5064      0.1404      0.1680      0.1625      0.1794      0.2310      0.1803      0.0813
 51      0.0000      0.2783      0.0084      0.0000      0.0000      0.0002      0.0001      0.0001      0.0000
 52      0.0000      0.3033      0.0000      0.0031      0.0038      0.0000      0.0001      0.0001      0.0000
 53      0.0000      0.2287      0.0053      0.0019      0.0000      0.0000      0.0000      0.0001      0.0174
 54      0.0000      0.4029      0.0000      0.0015      0.0019      0.0000      0.0000      0.0001      0.0166
 55      0.0000      0.3075      0.0015      0.0002      0.0051      0.0000      0.0001      0.0000      0.0013
 56      0.0000      0.1667      0.0079      0.0005      0.0122      0.0000      0.0001      0.0001      0.0000
 57      0.0000      0.3655      0.0000      0.0254      0.0000      0.0001      0.0000      0.0001      0.0019
 58      0.0000      0.2363      0.0096      0.0000      0.0000      0.0002      0.0000      0.0000      0.0000
 59      0.0000      0.3323      0.0048      0.0000      0.0179      0.0000      0.0000      0.0001      0.0000
 60      0.0000      0.3542      0.0040      0.0079      0.0029      0.0000      0.0001      0.0001      0.0264
 61     43.5817     37.0813     20.2434     50.9939     51.2839     51.1263     50.6046     51.1017     15.6308
 62      0.0000      0.3105      0.0074      0.0060      0.0006      0.0011      0.0013      0.0013      0.0000
 63      0.0000     68.1978    102.3281     71.1816     70.8347     71.1707     71.4413     71.0740    105.6274
 64      4.7917      2.1797      1.9911      2.2246      2.2181      2.1946      2.3540      2.2182      3.1742
 65     15.8954      0.2501      0.0721      0.0768      0.0700      0.0851      0.1155      0.0768      0.0451
 66      0.0000      0.2423      0.0398      0.0920      0.0824      0.1656      0.0688      0.1296      0.0501

# j      m_j: min, <> & last-chain-values for 1 ...  7 chains
  1  0.0000E+00  1.7528E-03  0.0000E+00  5.7557E-05  5.3284E-05  1.7574E-06  4.8021E-08  9.2703E-07  0.0000E+00
  2  0.0000E+00  4.5909E-04  0.0000E+00  4.3758E-06  3.6855E-05  6.9705E-08  1.6558E-07  1.5246E-07  7.1371E-06
  3  0.0000E+00  6.2249E-04  1.0387E-05  0.0000E+00  4.4933E-05  1.9275E-07  0.0000E+00  1.7184E-07  5.0431E-06
  4  0.0000E+00  6.9339E-04  7.0477E-06  3.4626E-06  0.0000E+00  3.5278E-07  1.8035E-08  1.2381E-07  9.8130E-06
  5  0.0000E+00  1.1194E-03  0.0000E+00  4.0038E-05  2.2566E-06  3.2648E-07  4.6171E-07  1.9688E-07  8.4793E-05
  6  0.0000E+00  1.9594E-03  0.0000E+00  3.3847E-05  0.0000E+00  1.3433E-06  0.0000E+00  1.0799E-07  2.4078E-05
  7  0.0000E+00  3.7718E-03  0.0000E+00  0.0000E+00  7.8442E-06  6.1376E-07  8.0015E-07  7.8292E-07  9.2614E-05
  8  0.0000E+00  4.7301E-03  0.0000E+00  1.5879E-04  0.0000E+00  1.3264E-06  1.8425E-06  2.5152E-06  3.4940E-04
  9  0.0000E+00  4.4264E-03  0.0000E+00  0.0000E+00  0.0000E+00  2.4170E-06  2.7466E-06  1.4103E-06  3.7214E-05
 10  0.0000E+00  8.1073E-03  1.9120E-05  0.0000E+00  0.0000E+00  0.0000E+00  8.8940E-07  4.4720E-06  1.3631E-04
 11  0.0000E+00  9.9134E-03  7.2970E-05  1.0105E-05  0.0000E+00  3.8533E-06  5.8472E-06  5.2669E-06  3.0804E-05
 12  0.0000E+00  2.0168E-02  1.6343E-04  3.2068E-04  8.7662E-04  9.9115E-06  1.0842E-05  6.3623E-06  2.1975E-04
 13  0.0000E+00  5.8377E-02  1.0751E-03  2.5257E-03  2.5644E-04  4.0494E-06  1.3251E-05  2.6547E-05  2.2678E-04
 14  0.0000E+00  2.2197E-01  0.0000E+00  4.5989E-03  1.1944E-02  3.1065E-04  2.9037E-04  2.0671E-04  0.0000E+00
 15  0.0000E+00  3.4114E-01  1.2327E-02  4.3464E-03  2.8739E-03  6.1259E-04  7.5489E-04  7.9788E-04  1.9622E-02
 16  0.0000E+00  5.9443E-01  1.7079E-02  0.0000E+00  2.2691E-04  4.0338E-03  4.8667E-03  5.0819E-03  6.4979E-03
 17  0.0000E+00  6.7263E-01  0.0000E+00  0.0000E+00  1.4211E-04  1.2309E-03  1.8651E-03  1.8870E-03  7.4370E-03
 18  0.0000E+00  1.1400E-03  0.0000E+00  2.2005E-05  0.0000E+00  6.2169E-07  5.3633E-07  3.3638E-07  1.0635E-04
 19  0.0000E+00  4.3982E-04  0.0000E+00  2.9483E-05  2.4937E-05  0.0000E+00  1.5225E-07  8.8662E-08  0.0000E+00
 20  0.0000E+00  1.0341E-03  1.8399E-05  1.8839E-05  0.0000E+00  0.0000E+00  0.0000E+00  2.8808E-07  4.1774E-05
 21  0.0000E+00  1.0701E-03  7.7842E-06  4.2784E-06  6.9400E-05  2.9360E-07  2.4784E-07  1.5699E-07  1.8579E-05
 22  0.0000E+00  1.3710E-03  2.0522E-05  4.6631E-06  0.0000E+00  1.1514E-07  1.1514E-07  4.1673E-07  0.0000E+00
 23  0.0000E+00  1.4290E-03  5.6336E-05  1.3114E-05  0.0000E+00  3.2682E-07  9.4485E-07  5.6398E-07  0.0000E+00
 24  0.0000E+00  2.8015E-03  0.0000E+00  0.0000E+00  8.9289E-05  9.2555E-07  1.7026E-06  9.5280E-07  8.9785E-05
 25  0.0000E+00  6.1644E-03  3.7669E-05  0.0000E+00  1.0183E-04  5.7437E-07  6.6679E-07  1.4012E-06  5.5723E-05
 26  0.0000E+00  5.7661E-03  2.8334E-04  0.0000E+00  0.0000E+00  1.5654E-07  2.5060E-06  1.6248E-06  5.2419E-04
 27  0.0000E+00  1.4515E-02  8.9208E-05  8.4458E-04  5.7544E-04  0.0000E+00  9.1534E-06  4.9335E-06  3.7909E-04
 28  0.0000E+00  5.0713E-02  0.0000E+00  8.3572E-04  7.1815E-04  3.1751E-05  0.0000E+00  1.7619E-05  9.8291E-04
 29  0.0000E+00  6.5198E-02  7.1106E-04  1.1096E-04  4.2117E-03  0.0000E+00  2.8451E-05  3.3272E-05  3.4090E-03
 30  0.0000E+00  1.4966E-01  1.1135E-02  1.9534E-03  1.0344E-02  3.4095E-04  5.2670E-04  5.0646E-04  7.2858E-03
 31  0.0000E+00  3.2257E-01  1.1888E-03  7.2728E-03  1.4925E-03  4.2687E-04  4.2783E-04  3.8052E-04  1.3477E-02
 32  0.0000E+00  4.2074E-01  5.5184E-03  1.3269E-02  9.2262E-03  3.1617E-03  2.5702E-03  2.5302E-03  0.0000E+00
 33  0.0000E+00  1.0231E+00  0.0000E+00  0.0000E+00  3.7508E-02  2.4167E-03  2.8941E-03  3.1696E-03  2.0122E-02
 34  0.0000E+00  6.7329E-01  3.9107E-02  3.5499E-03  0.0000E+00  7.2223E-03  7.2286E-03  6.7804E-03  1.0903E-01
 35  0.0000E+00  1.5407E-03  4.2169E-05  1.6069E-05  1.3441E-05  4.9712E-07  2.2104E-07  1.6976E-07  1.7226E-05
 36  0.0000E+00  4.2915E-04  7.2345E-06  2.0683E-05  1.0714E-05  2.8915E-07  1.6379E-07  1.0933E-07  4.3821E-06
 37  0.0000E+00  4.8423E-04  8.5443E-06  2.9075E-06  3.3740E-05  1.7100E-07  0.0000E+00  2.7545E-08  0.0000E+00
 38  0.0000E+00  1.6849E-03  2.6533E-05  1.2429E-06  2.4483E-05  7.1762E-07  2.9725E-07  7.1088E-07  4.8695E-05
 39  0.0000E+00  2.3371E-03  0.0000E+00  1.1185E-05  0.0000E+00  1.1869E-06  1.7519E-06  1.1831E-06  9.2073E-05
 40  0.0000E+00  2.8070E-03  0.0000E+00  6.7963E-05  7.9311E-05  3.2647E-07  0.0000E+00  2.2262E-07  9.1506E-05
 41  0.0000E+00  6.7417E-03  7.9327E-05  9.9036E-05  0.0000E+00  1.4572E-06  3.3295E-06  0.0000E+00  0.0000E+00
 42  0.0000E+00  9.7187E-03  1.3730E-04  0.0000E+00  7.8655E-04  0.0000E+00  2.1230E-06  3.2747E-06  0.0000E+00
 43  0.0000E+00  9.9612E-03  3.4965E-04  2.3075E-05  0.0000E+00  9.8343E-06  1.9619E-06  3.4563E-06  6.5649E-04
 44  0.0000E+00  2.5392E-02  0.0000E+00  5.9899E-04  1.4334E-03  1.7942E-05  7.0173E-06  1.0435E-05  8.7454E-04
 45  0.0000E+00  4.6862E-02  0.0000E+00  0.0000E+00  1.3928E-03  8.8561E-06  2.3071E-05  2.5530E-05  6.1275E-04
 46  0.0000E+00  1.0026E-01  2.9859E-03  3.0147E-03  0.0000E+00  1.4450E-04  1.3508E-04  1.3404E-04  7.5682E-03
 47  0.0000E+00  1.2993E-01  2.2618E-03  7.4266E-03  3.3759E-03  8.8798E-04  9.3539E-04  9.5715E-04  4.0073E-03
 48  0.0000E+00  5.5881E+00  5.0143E+00  6.1386E+00  6.1638E+00  6.1122E+00  6.0749E+00  6.3054E+00  4.7283E+00
 49  0.0000E+00  1.3509E+00  2.9165E-01  4.7682E-01  4.5811E-01  5.2505E-01  8.3361E-01  5.1537E-01  3.4178E-01
 50  6.9830E+01  2.6108E+00  6.1486E-01  8.9241E-01  8.6652E-01  9.4656E-01  1.2119E+00  9.5315E-01  3.4193E-01
 51  0.0000E+00  7.8658E-04  2.0082E-05  0.0000E+00  0.0000E+00  6.2471E-07  3.5728E-07  3.6950E-07  0.0000E+00
 52  0.0000E+00  4.3932E-04  0.0000E+00  4.6111E-06  5.6237E-06  6.6841E-10  1.4962E-07  8.4963E-08  0.0000E+00
 53  0.0000E+00  4.9896E-04  9.8330E-06  4.2934E-06  0.0000E+00  0.0000E+00  9.3135E-08  1.1586E-07  3.1013E-05
 54  0.0000E+00  1.8013E-03  0.0000E+00  7.0507E-06  8.6969E-06  0.0000E+00  6.1266E-08  4.1666E-07  6.0703E-05
 55  0.0000E+00  2.1166E-03  8.9605E-06  1.5106E-06  3.6217E-05  1.4332E-07  6.8094E-07  2.3087E-08  7.0307E-06
 56  0.0000E+00  2.2709E-03  9.1377E-05  6.8488E-06  1.7147E-04  4.0680E-07  8.0412E-07  1.4267E-06  0.0000E+00
 57  0.0000E+00  6.6081E-03  0.0000E+00  4.7254E-04  0.0000E+00  1.1090E-06  5.7726E-07  1.0374E-06  2.7883E-05
 58  0.0000E+00  7.2274E-03  2.5031E-04  0.0000E+00  0.0000E+00  7.2202E-06  0.0000E+00  1.3374E-06  0.0000E+00
 59  0.0000E+00  2.1874E-02  2.6710E-04  0.0000E+00  1.2200E-03  3.1910E-06  0.0000E+00  6.0464E-06  0.0000E+00
 60  0.0000E+00  4.3306E-02  4.1511E-04  1.0002E-03  3.6453E-04  1.7530E-06  1.5876E-05  6.4234E-06  2.6284E-03
 61  3.0664E+00  9.9051E+00  4.5937E+00  1.4032E+01  1.4172E+01  1.3972E+01  1.3757E+01  1.3994E+01  3.4062E+00
 62  0.0000E+00  1.5123E-01  3.0793E-03  2.9860E-03  2.9444E-04  5.7173E-04  6.3419E-04  6.4133E-04  0.0000E+00
 63  0.0000E+00  6.6083E+01  8.4235E+01  7.1055E+01  7.1007E+01  7.0556E+01  7.0452E+01  7.0605E+01  8.3499E+01
 64  3.3828E+00  5.8419E+00  4.5335E+00  6.1421E+00  6.1501E+00  6.0176E+00  6.4209E+00  6.0948E+00  6.9403E+00
 65  2.3721E+01  1.4167E+00  3.4712E-01  4.4839E-01  4.1026E-01  4.9316E-01  6.6595E-01  4.4586E-01  2.0827E-01
 66  0.0000E+00  1.9394E+00  2.7092E-01  7.5888E-01  6.8195E-01  1.3557E+00  5.6032E-01  1.0636E+00  3.2688E-01

# AV, chi2 & Mass for <> & i_chain = 1 ...  7 solutions
AV      -0.5597     -0.4099     -0.5220     -0.3511     -0.3484     -0.3529     -0.3560     -0.3527     -0.5479
chi2 2.4449E-05  4.2786E-05  3.6090E-05  3.6005E-05  3.6014E-05  3.5962E-05  3.5960E-05  3.5970E-05  3.6132E-05
Mass 5.3423E-13  1.7208E-13  1.7426E-13  1.8077E-13  1.8068E-13  1.8159E-13  1.8178E-13  1.8126E-13  1.7525E-13
  19.57                                  [v0_min (km/s) before EX0s...]
  83.36                                  [vd_min (km/s) before EX0s...]


## Synthetic spectrum (Best Model) ##l_obs f_obs f_syn wei
 3478    [Nl_obs]
 3741.00    0.77412   0.60170    0.000
 3742.00    0.72951   0.57837    0.000
 3743.00    0.63562   0.52711    0.000
 3744.00    0.53168   0.47456    0.000
 3745.00    0.42188   0.43292    0.067
 3746.00    0.34033   0.40063    0.062
 3747.00    0.27312   0.37073    0.056
 3748.00    0.21500   0.34089    0.056
 3749.00    0.16087   0.32754    0.059
 3750.00    0.28506   0.35652    0.060
 3751.00    0.47657   0.42832    0.060
 3752.00    0.55387   0.51511    0.059
 3753.00    0.59457   0.59451    0.057
 3754.00    0.61952   0.65897    0.056
 3755.00    0.64026   0.69215    0.056
 3756.00    0.60988   0.66806    0.055
 3757.00    0.56828   0.58956    0.055
 3758.00    0.40427   0.50617    0.053
 3759.00    0.21888   0.47092    0.052
 3760.00    0.27050   0.48829    0.073
 3761.00    0.35361   0.52198    0.137
 3762.00    0.30764   0.54109    0.080
 3763.00    0.24954   0.54395    0.053
 3764.00    0.44289   0.54447    0.054
 3765.00    0.65075   0.54516    0.056
 3766.00    0.50488   0.53694    0.056
 3767.00    0.35314   0.52727    0.056
 3768.00    0.50717   0.53654    0.060
 3769.00    0.65437   0.56267    0.065
 3770.00    0.63576   0.58830    0.062
 3771.00    0.61882   0.61402    0.060
 3772.00    0.62377   0.64697    0.058
 3773.00    0.61641   0.67470    0.057
 3774.00    0.50099   0.68202    0.053
 3775.00    0.39403   0.67650    0.050
 3776.00    0.34199   0.67687    0.051
 3777.00    0.31521   0.68965    0.052
 3778.00    0.41627   0.71175    0.052
 3779.00    0.53197   0.74094    0.053
 3780.00    0.70764   0.77023    0.057
 3781.00    0.83870   0.78771    0.059
 3782.00    0.81847   0.79288    0.058
 3783.00    0.79330   0.79470    0.057
 3784.00    0.75399   0.78616    0.056
 3785.00    0.69472   0.74507    0.056
 3786.00    0.58667   0.67134    0.055
 3787.00    0.52210   0.59741    0.056
 3788.00    0.54918   0.55166    0.063
 3789.00    0.61812   0.53786    0.066
 3790.00    0.76372   0.55001    0.060
 3791.00    0.79301   0.57481    0.057
 3792.00    0.63611   0.58684    0.055
 3793.00    0.54745   0.56919    0.054
 3794.00    0.55464   0.53331    0.055
 3795.00    0.55801   0.50228    0.055
 3796.00    0.55668   0.48090    0.053
 3797.00    0.48640   0.45848    0.052
 3798.00    0.34102   0.43908    0.053
 3799.00    0.29929   0.44707    0.053
 3800.00    0.35717   0.49428    0.055
 3801.00    0.29149   0.56333    0.055
 3802.00    0.12110   0.62998    0.052
 3803.00    0.14633   0.68054    0.053
 3804.00    0.31752   0.70523    0.055
 3805.00    0.46679   0.69672    0.056
 3806.00    0.60169   0.66424    0.055
 3807.00    0.70276   0.63778    0.057
 3808.00    0.78443   0.64460    0.060
 3809.00    0.78070   0.68107    0.063
 3810.00    0.73428   0.71684    0.066
 3811.00    0.55039   0.72229    0.063
 3812.00    0.30704   0.68664    0.059
 3813.00    0.29661   0.62233    0.055
 3814.00    0.37255   0.55698    0.053
 3815.00    0.52994   0.51612    0.053
 3816.00    0.71294   0.51061    0.054
 3817.00    0.57259   0.52918    0.057
 3818.00    0.34741   0.54035    0.061
 3819.00    0.39022   0.52131    0.057
 3820.00    0.49045   0.48817    0.052
 3821.00    0.43677   0.47628    0.051
 3822.00    0.35697   0.48997    0.050
 3823.00    0.27755   0.49557    0.050
 3824.00    0.19817   0.46995    0.049
 3825.00    0.30443   0.43027    0.049
 3826.00    0.42734   0.40594    0.049
 3827.00    0.37140   0.40488    0.054
 3828.00    0.30584   0.41713    0.060
 3829.00    0.37870   0.43131    0.059
 3830.00    0.45396   0.43696    0.057
 3831.00    0.49702   0.42393    0.055
 3832.00    0.53581   0.39288    0.054
 3833.00    0.47967   0.36090    0.053
 3834.00    0.43617   0.34762    0.053
 3835.00    0.54972   0.35698    0.055
 3836.00    0.65600   0.37507    0.059
 3837.00    0.70083   0.38450    0.073
 3838.00    0.72574   0.38142    0.089
 3839.00    0.62528   0.37791    0.068
 3840.00    0.52565   0.39087    0.057
 3841.00    0.43007   0.43013    0.055
 3842.00    0.33776   0.48845    0.053
 3843.00    0.25850   0.54308    0.053
 3844.00    0.21301   0.57546    0.053
 3845.00    0.27977   0.58675    0.054
 3846.00    0.34967   0.59083    0.056
 3847.00    0.42844   0.59507    0.000
 3848.00    0.46133   0.59145    0.000
 3849.00    0.38404   0.57428    0.000
 3850.00    0.37838   0.56018    0.000
 3851.00    0.52126   0.56849    0.000
 3852.00    0.63769   0.58996    0.000
 3853.00    0.70639   0.59961    0.000
 3854.00    0.66572   0.58916    0.000
 3855.00    0.45254   0.56837    0.000
 3856.00    0.25177   0.54792    0.000
 3857.00    0.06820   0.52932    0.000
 3858.00    0.00421   0.50678    0.000
 3859.00    0.08592   0.48430    0.000
 3860.00    0.26285   0.48376    0.000
 3861.00    0.54205   0.51966    0.000
 3862.00    0.73357   0.57501    0.000
 3863.00    0.84200   0.61699    0.000
 3864.00    0.84831   0.62924    0.000
 3865.00    0.76931   0.62069    0.000
 3866.00    0.73500   0.60931    0.000
 3867.00    0.73356   0.60406    0.000
 3868.00    0.74980   0.60052    0.000
 3869.00    0.77746   0.58879    0.000
 3870.00    0.71925   0.56428    0.000
 3871.00    0.61251   0.53391    0.000
 3872.00    0.56471   0.51608    0.000
 3873.00    0.54591   0.53005    0.000
 3874.00    0.50931   0.57454    0.000
 3875.00    0.46514   0.61906    0.000
 3876.00    0.44533   0.62812    0.000
 3877.00    0.43439   0.59597    0.000
 3878.00    0.41934   0.55360    0.000
 3879.00    0.40303   0.53565    0.000
 3880.00    0.30804   0.54158    0.000
 3881.00    0.19284   0.54685    0.050
 3882.00    0.40568   0.54774    0.052
 3883.00    0.68710   0.55846    0.055
 3884.00    0.66049   0.56791    0.058
 3885.00    0.58308   0.54736    0.062
 3886.00    0.58428   0.50130    0.060
 3887.00    0.59521   0.46615    0.057
 3888.00    0.46738   0.46403    0.054
 3889.00    0.32768   0.49289    0.052
 3890.00    0.32899   0.54639    0.052
 3891.00    0.33733   0.61324    0.053
 3892.00    0.22754   0.67038    0.052
 3893.00    0.12020   0.69707    0.051
 3894.00    0.29568   0.69271    0.051
 3895.00    0.46006   0.67793    0.052
 3896.00    0.39735   0.67501    0.051
 3897.00    0.35364   0.68301    0.050
 3898.00    0.53467   0.68391    0.050
 3899.00    0.68756   0.67643    0.050
 3900.00    0.61116   0.68043    0.049
 3901.00    0.55155   0.70015    0.048
 3902.00    0.59442   0.71283    0.048
 3903.00    0.64206   0.70317    0.047
 3904.00    0.71266   0.67903    0.045
 3905.00    0.76098   0.65495    0.044
 3906.00    0.72206   0.64836    0.045
 3907.00    0.70234   0.67545    0.046
 3908.00    0.74519   0.72947    0.047
 3909.00    0.79199   0.78284    0.049
 3910.00    0.84969   0.81761    0.051
 3911.00    0.86597   0.83577    0.052
 3912.00    0.78442   0.84205    0.051
 3913.00    0.71745   0.83637    0.050
 3914.00    0.68023   0.82171    0.050
 3915.00    0.63371   0.80287    0.051
 3916.00    0.57067   0.78086    0.052
 3917.00    0.58863   0.75570    0.053
 3918.00    0.73246   0.72622    0.053
 3919.00    0.83278   0.68941    0.054
 3920.00    0.87375   0.65028    0.055
 3921.00    0.77996   0.62428    0.054
 3922.00    0.52431   0.62154    0.052
 3923.00    0.41407   0.63568    0.051
 3924.00    0.45782   0.64802    0.052
 3925.00    0.48382   0.63973    0.053
 3926.00    0.49322   0.60403    0.054
 3927.00    0.46173   0.54779    0.054
 3928.00    0.39656   0.48263    0.052
 3929.00    0.50217   0.41756    0.053
 3930.00    0.73160   0.35700    0.056
 3931.00    0.79770   0.30256    0.059
 3932.00    0.75987   0.25693    0.060
 3933.00    0.66008   0.22567    0.058
 3934.00    0.52580   0.21563    0.056
 3935.00    0.46050   0.23218    0.055
 3936.00    0.42859   0.27557    0.054
 3937.00    0.61952   0.33906    0.055
 3938.00    0.90361   0.41163    0.057
 3939.00    0.89229   0.48062    0.058
 3940.00    0.77531   0.53306    0.058
 3941.00    0.61287   0.56101    0.057
 3942.00    0.43670   0.56705    0.056
 3943.00    0.54689   0.56451    0.055
 3944.00    0.72899   0.57555    0.056
 3945.00    0.71429   0.61568    0.055
 3946.00    0.65944   0.67036    0.055
 3947.00    0.75123   0.70758    0.055
 3948.00    0.86649   0.72125    0.055
 3949.00    0.80792   0.73521    0.055
 3950.00    0.72859   0.76049    0.055
 3951.00    0.80731   0.77990    0.056
 3952.00    0.89890   0.78366    0.057
 3953.00    0.82803   0.78873    0.056
 3954.00    0.74970   0.80360    0.054
 3955.00    0.66083   0.80630    0.054
 3956.00    0.57447   0.78335    0.054
 3957.00    0.62673   0.75747    0.054
 3958.00    0.67927   0.74995    0.054
 3959.00    0.73726   0.74272    0.054
 3960.00    0.78856   0.70171    0.000
 3961.00    0.76451   0.62493    0.000
 3962.00    0.73503   0.54685    0.000
 3963.00    0.66287   0.49445    0.000
 3964.00    0.58545   0.45857    0.000
 3965.00    0.47677   0.41448    0.000
 3966.00    0.37756   0.35392    0.000
 3967.00    0.32282   0.29038    0.000
 3968.00    0.31641   0.24450    0.000
 3969.00    0.49523   0.23078    0.000
 3970.00    0.62692   0.25246    0.000
 3971.00    0.60795   0.30193    0.000
 3972.00    0.62357   0.36590    0.000
 3973.00    0.73285   0.43428    0.000
 3974.00    0.81241   0.50413    0.000
 3975.00    0.82293   0.57353    0.000
 3976.00    0.77369   0.63824    0.000
 3977.00    0.60441   0.69839    0.000
 3978.00    0.52072   0.75868    0.000
 3979.00    0.58676   0.81627    0.000
 3980.00    0.67490   0.85626    0.000
 3981.00    0.79688   0.86673    0.056
 3982.00    0.82544   0.85624    0.056
 3983.00    0.72838   0.84835    0.055
 3984.00    0.81790   0.85840    0.056
 3985.00    1.12837   0.88265    0.059
 3986.00    1.18190   0.90994    0.059
 3987.00    0.96710   0.93500    0.058
 3988.00    0.90783   0.95348    0.058
 3989.00    0.99181   0.95815    0.058
 3990.00    1.02206   0.95424    0.058
 3991.00    1.00870   0.95962    0.056
 3992.00    0.90991   0.97903    0.056
 3993.00    0.75007   0.99617    0.055
 3994.00    0.80484   0.99413    0.056
 3995.00    0.99416   0.97101    0.056
 3996.00    1.08288   0.93791    0.056
 3997.00    1.11646   0.91452    0.056
 3998.00    1.08484   0.92289    0.056
 3999.00    1.02215   0.96733    0.055
 4000.00    1.10077   1.02289    0.055
 4001.00    1.23747   1.06138    0.056
 4002.00    1.26936   1.07552    0.056
 4003.00    1.26444   1.06165    0.056
 4004.00    1.19199   1.01050    0.056
 4005.00    1.09953   0.94025    0.056
 4006.00    1.13390   0.90271    0.056
 4007.00    1.19942   0.92709    0.056
 4008.00    1.24925   0.98638    0.056
 4009.00    1.29597   1.03674    0.056
 4010.00    1.28735   1.06215    0.056
 4011.00    1.27013   1.07129    0.055
 4012.00    1.23562   1.07577    0.054
 4013.00    1.19911   1.08231    0.054
 4014.00    1.10261   1.09335    0.054
 4015.00    1.00147   1.10498    0.053
 4016.00    0.97231   1.10770    0.055
 4017.00    0.94619   1.10133    0.057
 4018.00    0.89576   1.10202    0.055
 4019.00    0.85114   1.11721    0.054
 4020.00    1.07100   1.12952    0.054
 4021.00    1.27937   1.12311    0.053
 4022.00    1.28533   1.10319    0.054
 4023.00    1.26056   1.08083    0.054
 4024.00    0.90509   1.06429    0.053
 4025.00    0.62122   1.06685    0.053
 4026.00    0.88092   1.09649    0.054
 4027.00    1.10314   1.13629    0.055
 4028.00    1.10913   1.15010    0.057
 4029.00    1.08580   1.10906    0.058
 4030.00    0.92807   1.01856    0.056
 4031.00    0.85175   0.92075    0.054
 4032.00    1.08081   0.85783    0.055
 4033.00    1.26913   0.84163    0.055
 4034.00    1.32970   0.86735    0.055
 4035.00    1.32114   0.93098    0.055
 4036.00    1.12869   1.02064    0.055
 4037.00    0.99623   1.10787    0.055
 4038.00    1.00079   1.16023    0.055
 4039.00    0.99375   1.16494    0.055
 4040.00    0.96380   1.13946    0.055
 4041.00    0.94250   1.11348    0.055
 4042.00    0.93612   1.09258    0.056
 4043.00    0.99356   1.04589    0.057
 4044.00    1.14726   0.95080    0.057
 4045.00    1.14000   0.84517    0.057
 4046.00    0.91939   0.80477    0.057
 4047.00    0.74729   0.86112    0.057
 4048.00    0.63183   0.96819    0.056
 4049.00    0.66836   1.06073    0.056
 4050.00    0.86139   1.11240    0.057
 4051.00    0.96933   1.12660    0.057
 4052.00    1.00000   1.11089    0.057
 4053.00    0.98532   1.07563    0.057
 4054.00    0.93435   1.03574    0.056
 4055.00    0.96129   1.00397    0.056
 4056.00    1.04310   0.98285    0.057
 4057.00    1.08943   0.96760    0.057
 4058.00    1.11385   0.96407    0.056
 4059.00    1.04672   0.98546    0.056
 4060.00    0.93019   1.01879    0.056
 4061.00    0.91719   1.02032    0.056
 4062.00    0.95271   0.96429    0.056
 4063.00    0.96504   0.88508    0.055
 4064.00    0.96801   0.84854    0.054
 4065.00    0.99278   0.87677    0.054
 4066.00    1.02506   0.93087    0.055
 4067.00    1.00492   0.97642    0.055
 4068.00    0.96957   1.01667    0.054
 4069.00    0.92723   1.04688    0.054
 4070.00    0.88321   1.03696    0.053
 4071.00    0.94614   0.98808    0.053
 4072.00    1.02978   0.95461    0.053
 4073.00    1.10435   0.97307    0.053
 4074.00    1.17756   1.00753    0.053
 4075.00    1.10607   0.99854    0.053
 4076.00    1.01859   0.93833    0.052
 4077.00    0.92711   0.87648    0.052
 4078.00    0.83534   0.86878    0.052
 4079.00    0.72752   0.92903    0.052
 4080.00    0.61907   1.02356    0.052
 4081.00    0.71887   1.10079    0.052
 4082.00    0.82181   1.12628    0.052
 4083.00    0.99935   1.10398    0.052
 4084.00    1.16689   1.06833    0.052
 4085.00    1.16966   1.05399    0.052
 4086.00    1.16749   1.07618    0.052
 4087.00    1.11466   1.12761    0.053
 4088.00    1.05265   1.18207    0.053
 4089.00    0.92340   1.21077    0.052
 4090.00    0.82864   1.20483    0.052
 4091.00    0.92738   1.17881    0.052
 4092.00    1.01815   1.15377    0.000
 4093.00    1.07327   1.13762    0.000
 4094.00    1.07847   1.11626    0.000
 4095.00    0.90033   1.07239    0.000
 4096.00    0.78312   1.01561    0.000
 4097.00    0.85330   0.97253    0.000
 4098.00    0.87496   0.94839    0.000
 4099.00    0.76976   0.92067    0.000
 4100.00    0.72404   0.87167    0.000
 4101.00    0.81188   0.81809    0.000
 4102.00    0.84863   0.79881    0.000
 4103.00    0.78597   0.83158    0.000
 4104.00    0.80932   0.89774    0.000
 4105.00    0.97863   0.96932    0.000
 4106.00    1.14593   1.02711    0.000
 4107.00    1.31025   1.05810    0.000
 4108.00    1.40495   1.05851    0.000
 4109.00    1.40869   1.03799    0.000
 4110.00    1.28526   1.01400    0.000
 4111.00    1.01547   1.00364    0.000
 4112.00    0.92434   1.01626    0.000
 4113.00    1.01456   1.04836    0.054
 4114.00    1.15911   1.08608    0.054
 4115.00    1.35230   1.11519    0.055
 4116.00    1.36355   1.12581    0.055
 4117.00    1.23126   1.11006    0.055
 4118.00    1.15898   1.07163    0.054
 4119.00    1.12836   1.03541    0.054
 4120.00    0.98418   1.02416    0.053
 4121.00    0.77090   1.03094    0.052
 4122.00    0.82757   1.03727    0.053
 4123.00    1.02765   1.04418    0.054
 4124.00    1.09641   1.06158    0.054
 4125.00    1.10462   1.08109    0.055
 4126.00    0.95277   1.08222    0.054
 4127.00    0.73737   1.06026    0.052
 4128.00    0.84993   1.03073    0.052
 4129.00    1.07350   1.00717    0.053
 4130.00    1.10254   0.98531    0.054
 4131.00    1.07624   0.95385    0.054
 4132.00    0.99891   0.91796    0.053
 4133.00    0.90959   0.90216    0.051
 4134.00    0.96572   0.92577    0.052
 4135.00    1.04930   0.98265    0.053
 4136.00    1.02280   1.04541    0.053
 4137.00    0.98023   1.08956    0.053
 4138.00    0.99058   1.11401    0.053
 4139.00    1.00654   1.12751    0.052
 4140.00    1.14352   1.12277    0.053
 4141.00    1.28886   1.07970    0.054
 4142.00    1.21058   0.99528    0.053
 4143.00    1.12460   0.90728    0.053
 4144.00    1.10209   0.87246    0.052
 4145.00    1.08204   0.90873    0.051
 4146.00    1.13906   0.97648    0.052
 4147.00    1.19652   1.02507    0.053
 4148.00    1.26083   1.03551    0.053
 4149.00    1.30205   1.01873    0.053
 4150.00    1.11570   0.99666    0.052
 4151.00    0.93412   0.98437    0.051
 4152.00    0.78642   0.97996    0.051
 4153.00    0.68845   0.97302    0.051
 4154.00    0.86193   0.96040    0.050
 4155.00    0.95364   0.94910    0.050
 4156.00    0.68793   0.94863    0.049
 4157.00    0.48991   0.96623    0.048
 4158.00    0.53538   1.00189    0.049
 4159.00    0.65997   1.04235    0.049
 4160.00    1.02334   1.07178    0.049
 4161.00    1.25467   1.09043    0.049
 4162.00    1.14692   1.10769    0.049
 4163.00    1.07227   1.12002    0.049
 4164.00    1.07073   1.11523    0.049
 4165.00    1.09147   1.09263    0.049
 4166.00    1.15488   1.06262    0.050
 4167.00    1.17516   1.03891    0.050
 4168.00    1.12338   1.03504    0.049
 4169.00    1.07269   1.04774    0.049
 4170.00    1.02364   1.04808    0.049
 4171.00    1.03059   1.00981    0.049
 4172.00    1.10968   0.94386    0.051
 4173.00    1.00720   0.89202    0.051
 4174.00    0.69866   0.88341    0.050
 4175.00    0.66853   0.90670    0.050
 4176.00    0.91703   0.93010    0.051
 4177.00    1.07977   0.93838    0.051
 4178.00    1.16680   0.94278    0.052
 4179.00    1.13572   0.95762    0.052
 4180.00    1.01277   0.97721    0.050
 4181.00    0.97016   0.98658    0.050
 4182.00    0.98249   0.98804    0.050
 4183.00    0.97823   0.99976    0.051
 4184.00    0.96402   1.02734    0.051
 4185.00    0.86582   1.04935    0.051
 4186.00    0.72368   1.03964    0.050
 4187.00    0.76303   1.00593    0.050
 4188.00    0.88469   0.98795    0.050
 4189.00    0.96971   1.00489    0.050
 4190.00    1.04042   1.03403    0.049
 4191.00    0.86993   1.05513    0.049
 4192.00    0.61933   1.07620    0.050
 4193.00    0.67514   1.09872    0.050
 4194.00    0.81636   1.09728    0.050
 4195.00    0.83974   1.05552    0.050
 4196.00    0.83608   0.99270    0.051
 4197.00    0.85459   0.93946    0.052
 4198.00    0.87718   0.91085    0.052
 4199.00    0.92283   0.90735    0.052
 4200.00    0.97175   0.91762    0.052
 4201.00    1.03881   0.92501    0.051
 4202.00    1.10773   0.92930    0.051
 4203.00    1.09264   0.94635    0.050
 4204.00    1.07208   0.98054    0.050
 4205.00    0.93234   1.02182    0.048
 4206.00    0.78939   1.06278    0.047
 4207.00    0.93922   1.09800    0.049
 4208.00    1.08348   1.11735    0.050
 4209.00    1.06442   1.11572    0.050
 4210.00    1.05069   1.10529    0.050
 4211.00    1.11472   1.10432    0.056
 4212.00    1.15088   1.11014    0.062
 4213.00    0.92357   1.09786    0.061
 4214.00    0.76412   1.05394    0.061
 4215.00    1.07107   1.00408    0.061
 4216.00    1.31849   0.99678    0.061
 4217.00    1.24952   1.05105    0.060
 4218.00    1.20061   1.13236    0.059
 4219.00    1.23735   1.19397    0.053
 4220.00    1.24164   1.21889    0.048
 4221.00    1.13158   1.20870    0.048
 4222.00    1.01115   1.16162    0.048
 4223.00    0.86000   1.07742    0.048
 4224.00    0.76429   0.96411    0.048
 4225.00    0.80850   0.83830    0.048
 4226.00    0.86949   0.73674    0.048
 4227.00    0.96695   0.71336    0.047
 4228.00    1.04739   0.79291    0.046
 4229.00    1.09574   0.93388    0.046
 4230.00    1.10661   1.06233    0.046
 4231.00    1.05578   1.12949    0.046
 4232.00    1.01725   1.12961    0.046
 4233.00    0.99646   1.09061    0.045
 4234.00    1.01965   1.05022    0.045
 4235.00    1.09867   1.02516    0.044
 4236.00    1.11645   1.01366    0.044
 4237.00    1.06571   1.01599    0.044
 4238.00    1.08698   1.03128    0.044
 4239.00    1.17932   1.05432    0.044
 4240.00    1.23973   1.08564    0.044
 4241.00    1.27235   1.12523    0.045
 4242.00    1.24943   1.16499    0.045
 4243.00    1.18394   1.20115    0.045
 4244.00    1.20724   1.23286    0.045
 4245.00    1.29038   1.24375    0.047
 4246.00    1.32254   1.21494    0.047
 4247.00    1.32460   1.15492    0.048
 4248.00    1.23869   1.09067    0.048
 4249.00    1.10749   1.03820    0.048
 4250.00    1.10777   1.00442    0.049
 4251.00    1.16671   0.99990    0.049
 4252.00    1.15823   1.01935    0.048
 4253.00    1.12390   1.03222    0.048
 4254.00    1.08389   1.02577    0.047
 4255.00    1.04203   1.02983    0.046
 4256.00    0.95234   1.06778    0.046
 4257.00    0.84960   1.11011    0.045
 4258.00    0.90932   1.10742    0.045
 4259.00    1.00545   1.05376    0.046
 4260.00    1.01432   0.99634    0.046
 4261.00    1.00759   0.99075    0.046
 4262.00    1.03691   1.05310    0.047
 4263.00    1.07117   1.14936    0.047
 4264.00    1.15539   1.23127    0.047
 4265.00    1.24450   1.27497    0.047
 4266.00    1.06670   1.27856    0.047
 4267.00    0.87258   1.24516    0.047
 4268.00    0.91567   1.18288    0.046
 4269.00    0.96487   1.10137    0.045
 4270.00    0.95441   1.00571    0.045
 4271.00    0.94083   0.91203    0.045
 4272.00    0.84475   0.85406    0.045
 4273.00    0.76547   0.84908    0.045
 4274.00    0.91719   0.88116    0.046
 4275.00    1.05523   0.93612    0.046
 4276.00    1.06911   1.01612    0.046
 4277.00    1.07906   1.10719    0.047
 4278.00    1.06281   1.17110    0.047
 4279.00    1.05896   1.18100    0.047
 4280.00    1.11929   1.14954    0.047
 4281.00    1.15759   1.11480    0.047
 4282.00    1.10390   1.10144   -2.000
 4283.00    1.05248   1.10442   -2.000
 4284.00    1.00890   1.10541   -2.000
 4285.00    0.93539   1.09442   -2.000
 4286.00    0.77490   1.07577   -2.000
 4287.00    0.70978   1.05143   -2.000
 4288.00    0.88123   1.00924   -2.000
 4289.00    1.02578   0.94875   -2.000
 4290.00    1.11280   0.90525   -2.000
 4291.00    1.17611   0.91779   -2.000
 4292.00    1.19541   0.97817   -2.000
 4293.00    1.16381   1.03672   -2.000
 4294.00    1.04968   1.05857   -2.000
 4295.00    0.99923   1.05106   -2.000
 4296.00    1.03938   1.03066   -2.000
 4297.00    1.04548   0.99198   -2.000
 4298.00    1.00895   0.92477    0.048
 4299.00    0.96670   0.84343    0.048
 4300.00    0.91812   0.78389    0.048
 4301.00    0.88789   0.76808    0.048
 4302.00    0.87549   0.78369    0.048
 4303.00    0.96430   0.80748    0.048
 4304.00    1.13992   0.82585    0.049
 4305.00    1.10605   0.82795    0.052
 4306.00    0.91386   0.80557    0.056
 4307.00    0.83149   0.76541    0.058
 4308.00    0.82204   0.73167    0.059
 4309.00    0.90818   0.73257    0.059
 4310.00    1.04991   0.77754    0.059
 4311.00    1.06875   0.84906    0.054
 4312.00    1.02531   0.92079    0.048
 4313.00    0.95015   0.98167    0.047
 4314.00    0.86108   1.04470    0.046
 4315.00    0.98561   1.13236    0.047
 4316.00    1.19060   1.24246    0.048
 4317.00    1.28175   1.33633    0.048
 4318.00    1.33650   1.37779    0.048
 4319.00    1.39024   1.36768    0.048
 4320.00    1.44370   1.32987    0.048
 4321.00    1.33836   1.28156    0.048
 4322.00    1.19827   1.22034    0.048
 4323.00    1.02084   1.13091    0.048
 4324.00    0.83691   1.01523    0.047
 4325.00    0.98990   0.91732    0.047
 4326.00    1.18745   0.90048    0.047
 4327.00    1.14695   0.98731    0.047
 4328.00    1.08420   1.12661    0.047
 4329.00    1.31002   1.23627    0.047
 4330.00    1.55233   1.27917    0.000
 4331.00    1.43553   1.28223    0.000
 4332.00    1.31116   1.28659    0.000
 4333.00    1.27691   1.30482    0.000
 4334.00    1.24306   1.32441    0.000
 4335.00    1.21857   1.32071    0.000
 4336.00    1.18932   1.26546    0.000
 4337.00    1.09809   1.15449    0.000
 4338.00    1.01687   1.02494    0.000
 4339.00    1.02308   0.92482    0.000
 4340.00    1.03050   0.88194    0.000
 4341.00    1.04569   0.90497    0.000
 4342.00    1.09726   0.97864    0.000
 4343.00    1.33235   1.06366    0.000
 4344.00    1.49175   1.13143    0.000
 4345.00    1.34221   1.18277    0.000
 4346.00    1.25781   1.22490    0.000
 4347.00    1.39380   1.26123    0.000
 4348.00    1.46715   1.29461    0.000
 4349.00    1.36174   1.30835    0.000
 4350.00    1.28883   1.26819    0.000
 4351.00    1.29517   1.17622    0.046
 4352.00    1.28654   1.09424    0.046
 4353.00    1.24645   1.08069    0.047
 4354.00    1.28448   1.12967    0.047
 4355.00    1.46531   1.19715    0.047
 4356.00    1.52235   1.25227    0.047
 4357.00    1.38162   1.27973    0.047
 4358.00    1.27106   1.27308    0.046
 4359.00    1.20281   1.25186    0.046
 4360.00    1.19323   1.25326    0.045
 4361.00    1.25606   1.28884    0.046
 4362.00    1.31832   1.33483    0.046
 4363.00    1.37997   1.37089    0.046
 4364.00    1.30923   1.39740    0.046
 4365.00    1.11151   1.40877    0.045
 4366.00    1.10294   1.38601    0.045
 4367.00    1.25437   1.33021    0.046
 4368.00    1.26568   1.27460    0.046
 4369.00    1.17262   1.24900    0.044
 4370.00    1.16217   1.25148    0.044
 4371.00    1.20577   1.26001    0.045
 4372.00    1.25792   1.25133    0.045
 4373.00    1.31499   1.21104    0.045
 4374.00    1.28351   1.15030    0.045
 4375.00    1.20788   1.11068    0.044
 4376.00    1.16394   1.12943    0.045
 4377.00    1.13368   1.19749    0.045
 4378.00    1.09945   1.26529    0.045
 4379.00    1.06374   1.28980    0.046
 4380.00    1.03975   1.26119    0.045
 4381.00    1.01944   1.18433    0.044
 4382.00    1.02729   1.06320    0.044
 4383.00    1.04250   0.92629    0.045
 4384.00    1.14383   0.84092    0.044
 4385.00    1.26357   0.85938    0.044
 4386.00    1.27062   0.95853    0.044
 4387.00    1.25861   1.06297    0.043
 4388.00    1.14256   1.12070    0.043
 4389.00    1.01321   1.13429    0.043
 4390.00    1.14136   1.13333    0.044
 4391.00    1.29249   1.14193    0.045
 4392.00    1.34352   1.16291    0.044
 4393.00    1.38923   1.17998    0.043
 4394.00    1.35595   1.18365    0.043
 4395.00    1.32030   1.19262    0.043
 4396.00    1.21724   1.23004    0.043
 4397.00    1.11986   1.28202    0.042
 4398.00    1.14713   1.30493    0.043
 4399.00    1.17264   1.27755    0.043
 4400.00    1.17654   1.22729    0.043
 4401.00    1.18002   1.19659    0.043
 4402.00    1.17989   1.18729    0.043
 4403.00    1.19492   1.15736    0.044
 4404.00    1.30502   1.08947    0.043
 4405.00    1.38540   1.02904    0.043
 4406.00    1.31970   1.02167    0.043
 4407.00    1.26575   1.05567    0.044
 4408.00    1.25876   1.10104    0.044
 4409.00    1.24105   1.15821    0.044
 4410.00    1.18775   1.23416    0.043
 4411.00    1.16385   1.30885    0.043
 4412.00    1.22231   1.34849    0.044
 4413.00    1.26976   1.32973    0.044
 4414.00    1.29080   1.25656    0.043
 4415.00    1.29676   1.17295    0.043
 4416.00    1.27149   1.13725    0.043
 4417.00    1.29580   1.16976    0.043
 4418.00    1.40935   1.24304    0.043
 4419.00    1.46417   1.31439    0.043
 4420.00    1.42656   1.34867    0.043
 4421.00    1.41019   1.33184    0.043
 4422.00    1.42318   1.28459    0.043
 4423.00    1.43385   1.24838    0.043
 4424.00    1.44170   1.24467    0.043
 4425.00    1.40032   1.25932    0.042
 4426.00    1.30617   1.27175    0.043
 4427.00    1.29323   1.27929    0.043
 4428.00    1.35711   1.28431    0.043
 4429.00    1.34622   1.27996    0.043
 4430.00    1.27299   1.26569    0.043
 4431.00    1.31085   1.25641    0.043
 4432.00    1.43027   1.25442    0.043
 4433.00    1.53419   1.23656    0.043
 4434.00    1.62812   1.19280    0.043
 4435.00    1.51189   1.15550    0.043
 4436.00    1.27712   1.16917    0.043
 4437.00    1.22171   1.24043    0.043
 4438.00    1.25434   1.32933    0.043
 4439.00    1.31820   1.38312    0.044
 4440.00    1.39531   1.37287    0.044
 4441.00    1.38047   1.30882    0.044
 4442.00    1.33221   1.23403    0.044
 4443.00    1.24101   1.19805    0.043
 4444.00    1.13662   1.22433    0.042
 4445.00    1.12885   1.29270    0.042
 4446.00    1.14582   1.35731    0.043
 4447.00    1.24764   1.38945    0.043
 4448.00    1.36714   1.39458    0.043
 4449.00    1.49804   1.38678    0.043
 4450.00    1.63081   1.37186    0.043
 4451.00    1.56963   1.35451    0.043
 4452.00    1.48453   1.33276    0.043
 4453.00    1.45966   1.29198    0.043
 4454.00    1.43992   1.22791    0.043
 4455.00    1.29867   1.16540    0.042
 4456.00    1.15143   1.13454    0.042
 4457.00    1.17986   1.13522    0.042
 4458.00    1.21210   1.14193    0.042
 4459.00    1.30802   1.13729    0.042
 4460.00    1.39884   1.12387    0.042
 4461.00    1.38617   1.11572    0.000
 4462.00    1.37434   1.13215    0.000
 4463.00    1.37245   1.18050    0.000
 4464.00    1.36742   1.23814    0.000
 4465.00    1.33696   1.27397    0.000
 4466.00    1.32247   1.28208    0.000
 4467.00    1.40512   1.27510    0.000
 4468.00    1.45995   1.26168    0.000
 4469.00    1.38126   1.24940    0.000
 4470.00    1.33140   1.25314    0.000
 4471.00    1.39413   1.28351    0.000
 4472.00    1.43006   1.33392    0.000
 4473.00    1.37890   1.38571    0.000
 4474.00    1.37126   1.42255    0.000
 4475.00    1.48336   1.44323    0.000
 4476.00    1.50461   1.46044    0.000
 4477.00    1.31175   1.47744    0.000
 4478.00    1.23466   1.47272    0.000
 4479.00    1.39338   1.42364    0.000
 4480.00    1.50005   1.34130    0.000
 4481.00    1.51442   1.26931    0.000
 4482.00    1.45662   1.24975    0.042
 4483.00    1.28689   1.29228    0.042
 4484.00    1.21244   1.37009    0.042
 4485.00    1.26776   1.44148    0.042
 4486.00    1.31970   1.47457    0.042
 4487.00    1.36760   1.45708    0.041
 4488.00    1.38925   1.39938    0.042
 4489.00    1.38314   1.33485    0.043
 4490.00    1.41084   1.30221    0.043
 4491.00    1.47006   1.31394    0.042
 4492.00    1.51510   1.34257    0.042
 4493.00    1.54850   1.34684    0.041
 4494.00    1.50016   1.31547    0.041
 4495.00    1.39269   1.27922    0.042
 4496.00    1.39018   1.27623    0.042
 4497.00    1.45434   1.31498    0.042
 4498.00    1.47975   1.37247    0.042
 4499.00    1.48363   1.41615    0.042
 4500.00    1.36772   1.42905    0.042
 4501.00    1.19394   1.42633    0.042
 4502.00    1.22768   1.44334    0.042
 4503.00    1.34799   1.49423    0.042
 4504.00    1.41549   1.55129    0.042
 4505.00    1.46415   1.57742    0.042
 4506.00    1.53136   1.56481    0.042
 4507.00    1.60416   1.53443    0.043
 4508.00    1.56788   1.51233    0.042
 4509.00    1.50428   1.51046    0.042
 4510.00    1.43359   1.51970    0.041
 4511.00    1.36146   1.51861    0.040
 4512.00    1.39356   1.49401    0.041
 4513.00    1.44228   1.45396    0.042
 4514.00    1.38770   1.41903    0.042
 4515.00    1.32084   1.40302    0.043
 4516.00    1.34028   1.40234    0.043
 4517.00    1.36669   1.40486    0.043
 4518.00    1.36618   1.40929    0.042
 4519.00    1.36446   1.42562    0.041
 4520.00    1.37344   1.45256    0.041
 4521.00    1.38284   1.46921    0.041
 4522.00    1.40631   1.45728    0.041
 4523.00    1.43163   1.42190    0.041
 4524.00    1.49182   1.37949    0.042
 4525.00    1.52906   1.33356    0.042
 4526.00    1.30913   1.27893    0.041
 4527.00    1.11393   1.22112    0.041
 4528.00    1.11214   1.17719    0.041
 4529.00    1.12969   1.16221    0.040
 4530.00    1.26149   1.17857    0.040
 4531.00    1.37033   1.21358    0.040
 4532.00    1.37167   1.24408    0.041
 4533.00    1.36640   1.24942    0.041
 4534.00    1.33593   1.23310    0.041
 4535.00    1.30423   1.22981    0.041
 4536.00    1.26866   1.27316    0.041
 4537.00    1.24396   1.35267    0.041
 4538.00    1.24864   1.41779    0.041
 4539.00    1.27957   1.43118    0.041
 4540.00    1.37132   1.40447    0.041
 4541.00    1.45742   1.37759    0.041
 4542.00    1.53222   1.37477    0.042
 4543.00    1.50547   1.38513    0.042
 4544.00    1.30145   1.38476    0.041
 4545.00    1.21400   1.37065    0.041
 4546.00    1.30466   1.35856    0.041
 4547.00    1.43186   1.35277    0.041
 4548.00    1.60810   1.34183    0.042
 4549.00    1.65343   1.32493    0.042
 4550.00    1.54401   1.31840    0.000
 4551.00    1.46972   1.32776    0.000
 4552.00    1.43205   1.33472    0.000
 4553.00    1.46498   1.32361    0.000
 4554.00    1.56283   1.30414    0.000
 4555.00    1.57577   1.30190    0.000
 4556.00    1.51990   1.33387    0.000
 4557.00    1.44702   1.39174    0.000
 4558.00    1.36201   1.44820    0.000
 4559.00    1.40653   1.48235    0.000
 4560.00    1.53213   1.49379    0.000
 4561.00    1.55630   1.49041    0.000
 4562.00    1.52500   1.47087    0.000
 4563.00    1.51092   1.42978    0.000
 4564.00    1.50502   1.37952    0.000
 4565.00    1.43739   1.35206    0.000
 4566.00    1.34444   1.37038    0.000
 4567.00    1.43326   1.42309    0.000
 4568.00    1.58576   1.47284    0.000
 4569.00    1.60420   1.48810    0.000
 4570.00    1.58302   1.46473    0.000
 4571.00    1.50246   1.42667    0.000
 4572.00    1.40735   1.40976    0.000
 4573.00    1.34257   1.42871    0.000
 4574.00    1.28380   1.46123    0.000
 4575.00    1.34975   1.47886    0.000
 4576.00    1.43502   1.47707    0.000
 4577.00    1.47703   1.46165    0.000
 4578.00    1.51409   1.43008    0.000
 4579.00    1.42945   1.38231    0.000
 4580.00    1.33547   1.33538    0.000
 4581.00    1.38720   1.31220    0.000
 4582.00    1.44501   1.31691    0.000
 4583.00    1.58855   1.33148    0.000
 4584.00    1.72614   1.33890    0.000
 4585.00    1.57616   1.34073    0.000
 4586.00    1.43440   1.35156    0.000
 4587.00    1.43612   1.38195    0.000
 4588.00    1.43857   1.42482    0.000
 4589.00    1.44880   1.45705    0.000
 4590.00    1.44956   1.45838    0.000
 4591.00    1.37874   1.42973    0.000
 4592.00    1.32009   1.39133    0.000
 4593.00    1.33136   1.36285    0.000
 4594.00    1.34721   1.34813    0.000
 4595.00    1.38399   1.34163    0.000
 4596.00    1.41272   1.34150    0.000
 4597.00    1.41135   1.34909    0.000
 4598.00    1.40435   1.36108    0.000
 4599.00    1.37971   1.36876    0.000
 4600.00    1.34409   1.36722    0.000
 4601.00    1.27931   1.36311    0.000
 4602.00    1.27132   1.36539    0.000
 4603.00    1.39273   1.37142    0.000
 4604.00    1.45620   1.37363    0.000
 4605.00    1.40537   1.37598    0.000
 4606.00    1.40174   1.39409    0.000
 4607.00    1.47924   1.43768    0.000
 4608.00    1.49302   1.49525    0.000
 4609.00    1.41082   1.53882    0.000
 4610.00    1.39265   1.54690    0.000
 4611.00    1.45918   1.52294    0.000
 4612.00    1.50831   1.48977    0.000
 4613.00    1.53714   1.46952    0.000
 4614.00    1.60646   1.47042    0.000
 4615.00    1.71739   1.48519    0.000
 4616.00    1.68603   1.49965    0.000
 4617.00    1.52569   1.50450    0.000
 4618.00    1.41568   1.49846    0.000
 4619.00    1.34590   1.48841    0.000
 4620.00    1.39318   1.48688    0.000
 4621.00    1.52275   1.49782    0.000
 4622.00    1.56015   1.51037    0.000
 4623.00    1.54071   1.51424    0.000
 4624.00    1.51226   1.50892    0.000
 4625.00    1.47896   1.49827    0.000
 4626.00    1.49599   1.48822    0.000
 4627.00    1.53657   1.48324    0.000
 4628.00    1.49933   1.48061    0.000
 4629.00    1.43072   1.47821    0.000
 4630.00    1.37355   1.48186    0.000
 4631.00    1.32032   1.49116    0.000
 4632.00    1.35845   1.49055    0.000
 4633.00    1.42305   1.47056    0.000
 4634.00    1.43298   1.44342    0.000
 4635.00    1.42982   1.42410    0.000
 4636.00    1.38310   1.41062    0.000
 4637.00    1.32797   1.39323    0.000
 4638.00    1.37013   1.37197    0.000
 4639.00    1.42690   1.35755    0.000
 4640.00    1.41559   1.36076    0.000
 4641.00    1.39678   1.38173    0.000
 4642.00    1.40495   1.40483    0.000
 4643.00    1.41507   1.40860    0.000
 4644.00    1.41671   1.38350    0.000
 4645.00    1.41803   1.33598    0.000
 4646.00    1.41381   1.28290    0.000
 4647.00    1.40905   1.24757    0.000
 4648.00    1.38525   1.24853    0.000
 4649.00    1.36452   1.28525    0.000
 4650.00    1.39397   1.33935    0.000
 4651.00    1.42522   1.38908    0.000
 4652.00    1.47477   1.41916    0.000
 4653.00    1.51385   1.42171    0.000
 4654.00    1.47634   1.39861    0.000
 4655.00    1.44309   1.36738    0.000
 4656.00    1.43357   1.35543    0.000
 4657.00    1.42714   1.38122    0.000
 4658.00    1.43445   1.43923    0.000
 4659.00    1.44806   1.50109    0.000
 4660.00    1.48480   1.53333    0.000
 4661.00    1.50254   1.52069    0.000
 4662.00    1.46200   1.47500    0.000
 4663.00    1.43397   1.42182    0.000
 4664.00    1.43856   1.37591    0.000
 4665.00    1.43999   1.32900    0.000
 4666.00    1.43432   1.26827    0.000
 4667.00    1.42053   1.20707    0.000
 4668.00    1.39099   1.18231    0.000
 4669.00    1.36973   1.21444    0.000
 4670.00    1.36251   1.28400    0.000
 4671.00    1.37622   1.35105    0.000
 4672.00    1.42101   1.38873    0.000
 4673.00    1.47397   1.39800    0.000
 4674.00    1.53760   1.39934    0.000
 4675.00    1.55212   1.41060    0.000
 4676.00    1.51020   1.42907    0.000
 4677.00    1.46188   1.43526    0.000
 4678.00    1.40708   1.41613    0.000
 4679.00    1.39910   1.37983    0.000
 4680.00    1.43298   1.34614    0.000
 4681.00    1.42605   1.33040    0.000
 4682.00    1.38700   1.33820    0.000
 4683.00    1.36312   1.36407    0.000
 4684.00    1.34976   1.39267    0.000
 4685.00    1.43494   1.40922    0.000
 4686.00    1.57997   1.40968    0.000
 4687.00    1.56872   1.39977    0.000
 4688.00    1.47460   1.38827    0.000
 4689.00    1.43684   1.38043    0.000
 4690.00    1.42502   1.37497    0.000
 4691.00    1.44010   1.37011    0.000
 4692.00    1.46585   1.37037    0.000
 4693.00    1.40140   1.38189    0.000
 4694.00    1.30650   1.40443    0.000
 4695.00    1.33713   1.42877    0.000
 4696.00    1.40340   1.43868    0.000
 4697.00    1.43074   1.42059    0.000
 4698.00    1.44896   1.37928    0.000
 4699.00    1.37768   1.33784    0.000
 4700.00    1.28956   1.31395    0.000
 4701.00    1.30655   1.30392    0.000
 4702.00    1.33883   1.29723    0.000
 4703.00    1.38844   1.29625    0.000
 4704.00    1.43989   1.30865    0.000
 4705.00    1.42638   1.32777    0.000
 4706.00    1.40840   1.33534    0.000
 4707.00    1.36155   1.32409    0.000
 4708.00    1.31372   1.30753    0.000
 4709.00    1.41750   1.30626    0.000
 4710.00    1.51771   1.32890    0.000
 4711.00    1.49400   1.36332    0.000
 4712.00    1.46681   1.38494    0.000
 4713.00    1.38612   1.37991    0.000
 4714.00    1.32120   1.36159    0.000
 4715.00    1.41089   1.35876    0.000
 4716.00    1.48640   1.38608    0.000
 4717.00    1.46168   1.43155    0.000
 4718.00    1.44224   1.47446    0.000
 4719.00    1.45149   1.50461    0.000
 4720.00    1.46434   1.51970    0.000
 4721.00    1.49284   1.51924    0.000
 4722.00    1.50931   1.50943    0.000
 4723.00    1.48268   1.50366    0.000
 4724.00    1.45629   1.50741    0.000
 4725.00    1.43063   1.50571    0.000
 4726.00    1.43034   1.47546    0.000
 4727.00    1.49504   1.41303    0.000
 4728.00    1.49332   1.34360    0.000
 4729.00    1.34522   1.29868    0.000
 4730.00    1.25993   1.29022    0.000
 4731.00    1.29472   1.30976    0.000
 4732.00    1.34519   1.34267    0.000
 4733.00    1.42181   1.37603    0.000
 4734.00    1.44708   1.39969    0.000
 4735.00    1.39728   1.40797    0.000
 4736.00    1.39498   1.40444    0.000
 4737.00    1.45374   1.40381    0.000
 4738.00    1.48232   1.41757    0.000
 4739.00    1.47671   1.43704    0.000
 4740.00    1.50817   1.44538    0.000
 4741.00    1.57667   1.44281    0.000
 4742.00    1.56514   1.44299    0.000
 4743.00    1.48308   1.45073    0.000
 4744.00    1.47637   1.45936    0.000
 4745.00    1.52817   1.46624    0.000
 4746.00    1.46467   1.47595    0.000
 4747.00    1.32247   1.48838    0.000
 4748.00    1.37179   1.49692    0.000
 4749.00    1.53569   1.49839    0.000
 4750.00    1.55858   1.49376    0.000
 4751.00    1.50784   1.48148    0.000
 4752.00    1.50795   1.45994    0.000
 4753.00    1.53107   1.43369    0.000
 4754.00    1.55761   1.41122    0.000
 4755.00    1.58550   1.39857    0.000
 4756.00    1.50698   1.39734    0.000
 4757.00    1.39321   1.40618    0.000
 4758.00    1.38993   1.42155    0.000
 4759.00    1.41737   1.43620    0.000
 4760.00    1.42025   1.43847    0.000
 4761.00    1.41753   1.41944    0.037
 4762.00    1.42411   1.38326    0.037
 4763.00    1.43241   1.34430    0.038
 4764.00    1.40572   1.31290    0.037
 4765.00    1.37410   1.29212    0.036
 4766.00    1.38255   1.28750    0.036
 4767.00    1.39506   1.30686    0.036
 4768.00    1.35655   1.34766    0.036
 4769.00    1.31474   1.39250    0.036
 4770.00    1.49416   1.42042    0.036
 4771.00    1.67968   1.42465    0.037
 4772.00    1.57417   1.42020    0.036
 4773.00    1.47451   1.42844    0.036
 4774.00    1.54471   1.45319    0.036
 4775.00    1.60762   1.47950    0.037
 4776.00    1.56511   1.49504    0.037
 4777.00    1.52147   1.50080    0.036
 4778.00    1.46729   1.50029    0.036
 4779.00    1.41690   1.49233    0.036
 4780.00    1.39255   1.47682    0.036
 4781.00    1.37194   1.45588    0.035
 4782.00    1.37115   1.43106    0.035
 4783.00    1.37249   1.40717    0.034
 4784.00    1.38288   1.39178    0.035
 4785.00    1.40198   1.38494    0.035
 4786.00    1.45175   1.38007    0.035
 4787.00    1.48145   1.37588    0.035
 4788.00    1.45190   1.37558    0.035
 4789.00    1.44072   1.37894    0.036
 4790.00    1.47578   1.38637    0.036
 4791.00    1.51166   1.40329    0.036
 4792.00    1.54932   1.43429    0.036
 4793.00    1.55447   1.47678    0.036
 4794.00    1.49843   1.51914    0.036
 4795.00    1.48208   1.54419    0.036
 4796.00    1.53092   1.53993    0.036
 4797.00    1.60850   1.50877    0.036
 4798.00    1.72747   1.46582    0.037
 4799.00    1.76277   1.43132    0.037
 4800.00    1.69203   1.42236    0.037
 4801.00    1.58887   1.44251    0.037
 4802.00    1.44951   1.47578    0.037
 4803.00    1.45802   1.49644    0.037
 4804.00    1.61218   1.48990    0.037
 4805.00    1.62099   1.46303    0.037
 4806.00    1.50352   1.43324    0.036
 4807.00    1.42610   1.41247    0.036
 4808.00    1.37934   1.40503    0.035
 4809.00    1.43185   1.41180    0.036
 4810.00    1.55115   1.42812    0.037
 4811.00    1.56444   1.44386    0.036
 4812.00    1.51525   1.45240    0.036
 4813.00    1.50741   1.45614    0.035
 4814.00    1.52081   1.46180    0.036
 4815.00    1.50657   1.47361    0.036
 4816.00    1.48000   1.49127    0.036
 4817.00    1.52767   1.51137    0.036
 4818.00    1.60372   1.52933    0.036
 4819.00    1.52714   1.54017    0.036
 4820.00    1.40092   1.53770    0.036
 4821.00    1.40978   1.51576    0.036
 4822.00    1.45540   1.47422    0.036
 4823.00    1.45127   1.42691    0.036
 4824.00    1.43603   1.39864    0.036
 4825.00    1.45787   1.40357    0.036
 4826.00    1.48631   1.42839    0.036
 4827.00    1.52815   1.44704    0.036
 4828.00    1.57182   1.44818    0.036
 4829.00    1.57472   1.43889    0.036
 4830.00    1.57365   1.42708    0.035
 4831.00    1.52429   1.41383    0.035
 4832.00    1.47201   1.40362    0.035
 4833.00    1.49953   1.40665    0.035
 4834.00    1.52901   1.42434    0.034
 4835.00    1.53009   1.44414    0.034
 4836.00    1.52758   1.45337    0.034
 4837.00    1.43128   1.44869    0.034
 4838.00    1.34402   1.43183    0.034
 4839.00    1.38001   1.40804    0.034
 4840.00    1.41017   1.38791    0.034
 4841.00    1.38765   1.37983    0.034
 4842.00    1.37501   1.38201    0.034
 4843.00    1.42791   1.38997    0.034
 4844.00    1.46457   1.40552    0.034
 4845.00    1.41748   1.42769    0.034
 4846.00    1.39259   1.44263    0.034
 4847.00    1.46012   1.43611    0.034
 4848.00    1.51505   1.41356    0.000
 4849.00    1.52656   1.39668    0.000
 4850.00    1.49336   1.39881    0.000
 4851.00    1.33051   1.41088    0.000
 4852.00    1.22048   1.41333    0.000
 4853.00    1.24118   1.39344    0.000
 4854.00    1.26886   1.35223    0.000
 4855.00    1.31144   1.30598    0.000
 4856.00    1.31093   1.27658    0.000
 4857.00    1.23056   1.26685    0.000
 4858.00    1.17415   1.25070    0.000
 4859.00    1.15650   1.20061    0.000
 4860.00    1.16654   1.12287    0.000
 4861.00    1.21592   1.05852    0.000
 4862.00    1.22942   1.04721    0.000
 4863.00    1.19810   1.09172    0.000
 4864.00    1.18728   1.16140    0.000
 4865.00    1.19905   1.22603    0.000
 4866.00    1.23886   1.27447    0.000
 4867.00    1.30591   1.30575    0.000
 4868.00    1.28220   1.31783    0.000
 4869.00    1.18076   1.30623    0.000
 4870.00    1.17182   1.27009    0.000
 4871.00    1.23265   1.22455    0.000
 4872.00    1.31312   1.19989    0.000
 4873.00    1.40660   1.21453    0.000
 4874.00    1.43610   1.25529    0.000
 4875.00    1.42846   1.29615    0.033
 4876.00    1.39808   1.32721    0.033
 4877.00    1.35620   1.35511    0.033
 4878.00    1.30672   1.38541    0.032
 4879.00    1.25391   1.41209    0.032
 4880.00    1.35099   1.42177    0.033
 4881.00    1.50441   1.40941    0.034
 4882.00    1.54758   1.38654    0.034
 4883.00    1.55559   1.36582    0.034
 4884.00    1.47491   1.34487    0.034
 4885.00    1.37058   1.31775    0.034
 4886.00    1.35660   1.29240    0.033
 4887.00    1.36232   1.28109    0.033
 4888.00    1.35139   1.27978    0.033
 4889.00    1.33756   1.27084    0.034
 4890.00    1.36644   1.24876    0.034
 4891.00    1.40094   1.23616    0.034
 4892.00    1.42937   1.26490    0.034
 4893.00    1.45724   1.34005    0.034
 4894.00    1.51141   1.43177    0.034
 4895.00    1.56706   1.50392    0.033
 4896.00    1.46845   1.54076    0.034
 4897.00    1.36814   1.54551    0.034
 4898.00    1.46637   1.52707    0.034
 4899.00    1.56274   1.49564    0.035
 4900.00    1.61497   1.46410    0.034
 4901.00    1.65470   1.44242    0.034
 4902.00    1.53267   1.43061    0.034
 4903.00    1.42353   1.42559    0.034
 4904.00    1.42649   1.43219    0.034
 4905.00    1.42908   1.45442    0.034
 4906.00    1.42927   1.47896    0.034
 4907.00    1.43505   1.48161    0.035
 4908.00    1.46902   1.45148    0.035
 4909.00    1.47787   1.40181    0.036
 4910.00    1.38449   1.35901    0.035
 4911.00    1.32996   1.34430    0.035
 4912.00    1.40653   1.36156    0.035
 4913.00    1.44581   1.39845    0.034
 4914.00    1.37893   1.43758    0.034
 4915.00    1.34605   1.46317    0.034
 4916.00    1.39589   1.45891    0.034
 4917.00    1.42626   1.41115    0.034
 4918.00    1.41574   1.32398    0.035
 4919.00    1.38607   1.22795    0.035
 4920.00    1.32149   1.16588    0.035
 4921.00    1.32232   1.16260    0.035
 4922.00    1.42750   1.20592    0.034
 4923.00    1.48034   1.26004    0.034
 4924.00    1.45994   1.30105    0.034
 4925.00    1.46476   1.33399    0.034
 4926.00    1.50066   1.37411    0.034
 4927.00    1.52463   1.42268    0.034
 4928.00    1.53566   1.46851    0.035
 4929.00    1.52388   1.50173    0.034
 4930.00    1.49024   1.51666    0.034
 4931.00    1.49134   1.50808    0.034
 4932.00    1.52175   1.47494    0.035
 4933.00    1.51306   1.42921    0.035
 4934.00    1.47530   1.39280    0.035
 4935.00    1.46438   1.37669    0.034
 4936.00    1.47100   1.36594    0.034
 4937.00    1.47107   1.33856    0.034
 4938.00    1.46740   1.29987    0.034
 4939.00    1.41831   1.28271    0.034
 4940.00    1.34662   1.31054    0.000
 4941.00    1.38012   1.37221    0.000
 4942.00    1.45893   1.43595    0.000
 4943.00    1.55384   1.47825    0.000
 4944.00    1.65469   1.49420    0.000
 4945.00    1.61358   1.49135    0.000
 4946.00    1.52807   1.48369    0.000
 4947.00    1.55035   1.48483    0.000
 4948.00    1.60075   1.49769    0.000
 4949.00    1.55049   1.51419    0.000
 4950.00    1.47880   1.52579    0.000
 4951.00    1.48297   1.52849    0.000
 4952.00    1.49992   1.52017    0.000
 4953.00    1.51175   1.50061    0.000
 4954.00    1.52293   1.46993    0.000
 4955.00    1.44179   1.42304    0.000
 4956.00    1.35246   1.35602    0.000
 4957.00    1.41220   1.28771    0.000
 4958.00    1.47980   1.25954    0.000
 4959.00    1.41114   1.29527    0.000
 4960.00    1.34227   1.37015    0.000
 4961.00    1.46177   1.43555    0.000
 4962.00    1.57605   1.46567    0.000
 4963.00    1.57682   1.46459    0.000
 4964.00    1.56895   1.44237    0.000
 4965.00    1.45501   1.40722    0.000
 4966.00    1.35880   1.37247    0.000
 4967.00    1.41111   1.35252    0.000
 4968.00    1.46370   1.35142    0.000
 4969.00    1.51813   1.36329    0.000
 4970.00    1.55523   1.38254    0.000
 4971.00    1.50734   1.40727    0.000
 4972.00    1.45872   1.43470    0.000
 4973.00    1.40722   1.45922    0.000
 4974.00    1.35628   1.47431    0.000
 4975.00    1.30719   1.47532    0.000
 4976.00    1.28442   1.46084    0.000
 4977.00    1.33526   1.43288    0.000
 4978.00    1.36849   1.39751    0.000
 4979.00    1.35963   1.36113    0.000
 4980.00    1.35010   1.32367    0.000
 4981.00    1.33918   1.27930    0.000
 4982.00    1.34116   1.22931    0.000
 4983.00    1.36632   1.19122    0.000
 4984.00    1.37309   1.18589    0.000
 4985.00    1.35094   1.21779    0.000
 4986.00    1.34705   1.27249    0.000
 4987.00    1.36833   1.32866    0.000
 4988.00    1.37413   1.36803    0.000
 4989.00    1.36111   1.38189    0.000
 4990.00    1.33218   1.37610    0.000
 4991.00    1.28622   1.36611    0.000
 4992.00    1.31009   1.36265    0.000
 4993.00    1.39990   1.36580    0.000
 4994.00    1.48166   1.37227    0.000
 4995.00    1.55674   1.38083    0.000
 4996.00    1.55007   1.38877    0.000
 4997.00    1.48349   1.38751    0.000
 4998.00    1.43159   1.36871    0.000
 4999.00    1.38915   1.33449    0.000
 5000.00    1.36560   1.29729    0.000
 5001.00    1.35268   1.27087    0.000
 5002.00    1.37474   1.25975    0.000
 5003.00    1.41393   1.25459    0.000
 5004.00    1.40542   1.24148    0.000
 5005.00    1.37672   1.21847    0.000
 5006.00    1.31718   1.20233    0.000
 5007.00    1.24645   1.21411    0.000
 5008.00    1.26570   1.25428    0.000
 5009.00    1.31256   1.29690    0.000
 5010.00    1.33422   1.31209    0.000
 5011.00    1.34944   1.29006    0.000
 5012.00    1.34442   1.24374    0.000
 5013.00    1.33520   1.19674    0.000
 5014.00    1.39280   1.17060    0.000
 5015.00    1.46134   1.17277    0.000
 5016.00    1.42687   1.19147    0.000
 5017.00    1.37977   1.20876    0.000
 5018.00    1.30200   1.21828    0.000
 5019.00    1.22164   1.22628    0.000
 5020.00    1.29102   1.23677    0.000
 5021.00    1.36772   1.24538    0.000
 5022.00    1.40650   1.25128    0.000
 5023.00    1.44240   1.26247    0.000
 5024.00    1.33872   1.28249    0.000
 5025.00    1.24065   1.30095    0.000
 5026.00    1.25520   1.30508    0.000
 5027.00    1.27814   1.29738    0.000
 5028.00    1.39916   1.29452    0.000
 5029.00    1.50524   1.30933    0.033
 5030.00    1.49077   1.33990    0.033
 5031.00    1.47612   1.37529    0.033
 5032.00    1.46035   1.40572    0.033
 5033.00    1.43863   1.42142    0.033
 5034.00    1.38837   1.41064    0.033
 5035.00    1.34127   1.37273    0.033
 5036.00    1.30647   1.32563    0.033
 5037.00    1.28606   1.28796    0.032
 5038.00    1.31230   1.25698    0.033
 5039.00    1.33175   1.21591    0.033
 5040.00    1.33259   1.16522    0.032
 5041.00    1.33981   1.13435    0.032
 5042.00    1.36200   1.15393    0.032
 5043.00    1.39481   1.22416    0.032
 5044.00    1.44920   1.31420    0.032
 5045.00    1.46207   1.38708    0.031
 5046.00    1.40150   1.42069    0.031
 5047.00    1.36176   1.40990    0.030
 5048.00    1.35429   1.36504    0.031
 5049.00    1.34790   1.31110    0.031
 5050.00    1.34298   1.27405    0.031
 5051.00    1.35438   1.26474    0.031
 5052.00    1.38533   1.27947    0.031
 5053.00    1.42666   1.31026    0.031
 5054.00    1.47896   1.34813    0.032
 5055.00    1.52310   1.38205    0.032
 5056.00    1.55964   1.40434    0.032
 5057.00    1.54986   1.41640    0.032
 5058.00    1.50206   1.42502    0.031
 5059.00    1.42765   1.43536    0.031
 5060.00    1.33401   1.44752    0.030
 5061.00    1.33697   1.45591    0.030
 5062.00    1.40118   1.44922    0.030
 5063.00    1.44420   1.41754    0.030
 5064.00    1.47547   1.36632    0.031
 5065.00    1.47677   1.31741    0.031
 5066.00    1.46363   1.29076    0.031
 5067.00    1.43082   1.28777    0.031
 5068.00    1.38983   1.29661    0.031
 5069.00    1.37572   1.30846    0.031
 5070.00    1.37118   1.31940    0.031
 5071.00    1.36107   1.32383    0.031
 5072.00    1.34928   1.31992    0.030
 5073.00    1.32210   1.31537    0.031
 5074.00    1.29108   1.31763    0.031
 5075.00    1.30621   1.32338    0.030
 5076.00    1.33068   1.32379    0.030
 5077.00    1.31617   1.31121    0.031
 5078.00    1.29547   1.27941    0.031
 5079.00    1.28614   1.23146    0.031
 5080.00    1.27816   1.18814    0.031
 5081.00    1.27181   1.17339    0.031
 5082.00    1.26560   1.19000    0.031
 5083.00    1.27283   1.22115    0.030
 5084.00    1.28067   1.25323    0.030
 5085.00    1.36505   1.28321    0.030
 5086.00    1.44819   1.30885    0.030
 5087.00    1.42403   1.32653    0.030
 5088.00    1.40186   1.33753    0.031
 5089.00    1.41652   1.34710    0.030
 5090.00    1.43055   1.35843    0.030
 5091.00    1.43766   1.37206    0.030
 5092.00    1.43664   1.38746    0.031
 5093.00    1.37225   1.40028    0.031
 5094.00    1.32397   1.40111    0.031
 5095.00    1.37062   1.38201    0.031
 5096.00    1.40037   1.34344    0.031
 5097.00    1.35123   1.29396    0.031
 5098.00    1.29343   1.24806    0.031
 5099.00    1.20256   1.22370    0.031
 5100.00    1.15650   1.23263    0.030
 5101.00    1.25295   1.26779    0.030
 5102.00    1.32465   1.30497    0.030
 5103.00    1.32963   1.32310    0.031
 5104.00    1.32557   1.31979    0.031
 5105.00    1.30061   1.30448    0.031
 5106.00    1.28495   1.28492    0.031
 5107.00    1.28793   1.26448    0.031
 5108.00    1.30805   1.24674    0.031
 5109.00    1.35804   1.23760    0.031
 5110.00    1.38315   1.24166    0.031
 5111.00    1.37028   1.25910    0.031
 5112.00    1.36759   1.28599    0.031
 5113.00    1.37853   1.31447    0.031
 5114.00    1.39302   1.33793    0.031
 5115.00    1.41170   1.35700    0.032
 5116.00    1.43030   1.37501    0.032
 5117.00    1.44883   1.39102    0.032
 5118.00    1.44611   1.39916    0.032
 5119.00    1.42391   1.39211    0.032
 5120.00    1.37909   1.36735    0.031
 5121.00    1.31596   1.32861    0.031
 5122.00    1.27414   1.28262    0.031
 5123.00    1.24748   1.23821    0.031
 5124.00    1.22530   1.20577    0.031
 5125.00    1.20591   1.19234    0.030
 5126.00    1.23004   1.19476    0.030
 5127.00    1.27791   1.20185    0.030
 5128.00    1.31031   1.20666    0.030
 5129.00    1.33537   1.21246    0.030
 5130.00    1.30112   1.22558    0.031
 5131.00    1.24259   1.24679    0.030
 5132.00    1.28240   1.27077    0.030
 5133.00    1.35659   1.29214    0.030
 5134.00    1.34429   1.30862    0.030
 5135.00    1.30648   1.31718    0.030
 5136.00    1.29107   1.31103    0.030
 5137.00    1.28113   1.28691    0.030
 5138.00    1.26631   1.25517    0.030
 5139.00    1.25052   1.23330    0.030
 5140.00    1.23754   1.22748    0.030
 5141.00    1.22499   1.22984    0.030
 5142.00    1.23304   1.22997    0.030
 5143.00    1.24345   1.22690    0.030
 5144.00    1.23512   1.22707    0.030
 5145.00    1.22536   1.22895    0.030
 5146.00    1.26181   1.22474    0.030
 5147.00    1.30017   1.21721    0.030
 5148.00    1.24951   1.21606    0.030
 5149.00    1.19997   1.22201    0.029
 5150.00    1.22826   1.22602    0.029
 5151.00    1.25483   1.22092    0.029
 5152.00    1.25167   1.21010    0.030
 5153.00    1.25443   1.20428    0.030
 5154.00    1.32012   1.21220    0.030
 5155.00    1.38102   1.23657    0.030
 5156.00    1.40587   1.27300    0.030
 5157.00    1.40790   1.31038    0.030
 5158.00    1.27928   1.33751    0.030
 5159.00    1.18894   1.34950    0.030
 5160.00    1.27302   1.34703    0.030
 5161.00    1.33509   1.33259    0.030
 5162.00    1.31504   1.30673    0.031
 5163.00    1.27224   1.26756    0.031
 5164.00    1.15845   1.21101    0.031
 5165.00    1.06882   1.13190    0.030
 5166.00    1.04316   1.03671    0.030
 5167.00    1.03288   0.95344    0.030
 5168.00    1.05757   0.91435    0.031
 5169.00    1.04206   0.92385    0.031
 5170.00    0.94737   0.94867    0.031
 5171.00    0.91296   0.95005    0.031
 5172.00    0.98198   0.92839    0.031
 5173.00    1.06425   0.92574    0.031
 5174.00    1.16643   0.97763    0.030
 5175.00    1.22240   1.07156    0.031
 5176.00    1.21734   1.16322    0.031
 5177.00    1.21433   1.22237    0.031
 5178.00    1.21371   1.24722    0.031
 5179.00    1.21754   1.24398    0.030
 5180.00    1.22594   1.21090    0.030
 5181.00    1.20185   1.14382    0.030
 5182.00    1.14836   1.05185    0.030
 5183.00    1.13136   0.96771    0.030
 5184.00    1.14347   0.93629    0.030
 5185.00    1.18399   0.98098    0.030
 5186.00    1.24445   1.07792    0.030
 5187.00    1.24862   1.17561    0.029
 5188.00    1.21817   1.24006    0.029
 5189.00    1.24382   1.26683    0.029
 5190.00    1.29964   1.26172    0.000
 5191.00    1.34101   1.23099    0.000
 5192.00    1.37564   1.18948    0.000
 5193.00    1.35155   1.16226    0.000
 5194.00    1.30384   1.16387    0.000
 5195.00    1.28330   1.18507    0.000
 5196.00    1.27209   1.21151    0.000
 5197.00    1.23557   1.24074    0.000
 5198.00    1.19173   1.27265    0.000
 5199.00    1.22164   1.30068    0.000
 5200.00    1.26918   1.31709    0.000
 5201.00    1.25037   1.31716    0.000
 5202.00    1.21879   1.29862    0.000
 5203.00    1.18424   1.26087    0.000
 5204.00    1.14925   1.20749    0.000
 5205.00    1.18234   1.14915    0.000
 5206.00    1.22288   1.10132    0.000
 5207.00    1.17183   1.07549    0.000
 5208.00    1.11416   1.07287    0.000
 5209.00    1.17647   1.09203    0.000
 5210.00    1.24325   1.13562    0.000
 5211.00    1.32470   1.19865    0.030
 5212.00    1.40240   1.26236    0.030
 5213.00    1.34051   1.30514    0.030
 5214.00    1.28234   1.31523    0.029
 5215.00    1.28450   1.29893    0.029
 5216.00    1.29050   1.27844    0.029
 5217.00    1.33552   1.27663    0.029
 5218.00    1.37492   1.29954    0.029
 5219.00    1.37338   1.33475    0.029
 5220.00    1.37605   1.36427    0.029
 5221.00    1.40209   1.37567    0.030
 5222.00    1.40789   1.36345    0.030
 5223.00    1.32366   1.32526    0.030
 5224.00    1.26152   1.26336    0.030
 5225.00    1.28010   1.19044    0.029
 5226.00    1.29588   1.13156    0.029
 5227.00    1.30315   1.11350    0.030
 5228.00    1.31384   1.14686    0.030
 5229.00    1.33345   1.21450    0.030
 5230.00    1.36356   1.27815    0.030
 5231.00    1.41718   1.30770    0.030
 5232.00    1.43591   1.30158    0.030
 5233.00    1.38704   1.27864    0.031
 5234.00    1.37230   1.26492    0.031
 5235.00    1.41526   1.27766    0.031
 5236.00    1.43237   1.31295    0.031
 5237.00    1.41119   1.35327    0.031
 5238.00    1.38562   1.38250    0.031
 5239.00    1.35432   1.39534    0.030
 5240.00    1.37160   1.39703    0.030
 5241.00    1.44457   1.39546    0.030
 5242.00    1.47771   1.39566    0.030
 5243.00    1.47057   1.39837    0.030
 5244.00    1.43505   1.39923    0.030
 5245.00    1.37422   1.38880    0.030
 5246.00    1.36317   1.36023    0.030
 5247.00    1.39124   1.31999    0.029
 5248.00    1.37680   1.28491    0.029
 5249.00    1.33296   1.26567    0.029
 5250.00    1.30326   1.25939    0.029
 5251.00    1.28211   1.26188    0.029
 5252.00    1.31166   1.27294    0.029
 5253.00    1.36802   1.28647    0.030
 5254.00    1.37869   1.29518    0.030
 5255.00    1.36837   1.30445    0.030
 5256.00    1.35263   1.32760    0.030
 5257.00    1.33474   1.36701    0.029
 5258.00    1.33622   1.40457    0.029
 5259.00    1.34423   1.41663    0.030
 5260.00    1.36514   1.39244    0.030
 5261.00    1.38970   1.33584    0.030
 5262.00    1.39457   1.25968    0.030
 5263.00    1.39484   1.18022    0.030
 5264.00    1.29378   1.11338    0.030
 5265.00    1.17372   1.07209    0.029
 5266.00    1.14942   1.05909    0.030
 5267.00    1.13898   1.06121    0.030
 5268.00    1.16005   1.05831    0.030
 5269.00    1.18443   1.04335    0.029
 5270.00    1.23085   1.03669    0.029
 5271.00    1.27876   1.06720    0.030
 5272.00    1.24513   1.13173    0.030
 5273.00    1.20876   1.19393    0.030
 5274.00    1.27215   1.22989    0.030
 5275.00    1.33515   1.25024    0.030
 5276.00    1.38215   1.27719    0.030
 5277.00    1.42209   1.31915    0.029
 5278.00    1.35452   1.36207    0.029
 5279.00    1.29221   1.38174    0.029
 5280.00    1.28118   1.36862    0.029
 5281.00    1.28214   1.33368    0.029
 5282.00    1.36746   1.29680    0.029
 5283.00    1.43681   1.27714    0.029
 5284.00    1.41958   1.28752    0.029
 5285.00    1.41195   1.32870    0.029
 5286.00    1.44604   1.38515    0.029
 5287.00    1.46420   1.43230    0.029
 5288.00    1.42538   1.45697    0.029
 5289.00    1.41002   1.46571    0.030
 5290.00    1.46512   1.46990    0.030
 5291.00    1.49888   1.47130    0.030
 5292.00    1.47808   1.46487    0.030
 5293.00    1.43384   1.44857    0.030
 5294.00    1.33806   1.42309    0.030
 5295.00    1.28093   1.38605    0.029
 5296.00    1.29754   1.33553    0.029
 5297.00    1.30794   1.28202    0.029
 5298.00    1.30800   1.24782    0.030
 5299.00    1.30784   1.24761    0.030
 5300.00    1.30735   1.27387    0.030
 5301.00    1.32834   1.30668    0.029
 5302.00    1.37690   1.33754    0.029
 5303.00    1.42473   1.37240    0.029
 5304.00    1.47172   1.41173    0.029
 5305.00    1.49068   1.44353    0.030
 5306.00    1.48170   1.45769    0.029
 5307.00    1.46610   1.45788    0.029
 5308.00    1.44469   1.45694    0.029
 5309.00    1.44664   1.46318    0.029
 5310.00    1.46669   1.47269    0.029
 5311.00    1.47466   1.47580    0.029
 5312.00    1.47438   1.46872    0.029
 5313.00    1.45962   1.45481    0.029
 5314.00    1.43622   1.43831    0.029
 5315.00    1.44331   1.42168    0.028
 5316.00    1.46628   1.40677    0.028
 5317.00    1.46653   1.39654    0.028
 5318.00    1.45651   1.39406    0.028
 5319.00    1.45346   1.39731    0.028
 5320.00    1.45313   1.39918    0.028
 5321.00    1.41133   1.39325    0.028
 5322.00    1.35581   1.37579    0.027
 5323.00    1.31879   1.34787    0.027
 5324.00    1.28689   1.31528    0.028
 5325.00    1.24639   1.28092    0.027
 5326.00    1.20392   1.23943    0.027
 5327.00    1.20010   1.18655    0.027
 5328.00    1.20334   1.13842    0.027
 5329.00    1.28497   1.12852    0.028
 5330.00    1.37759   1.17264    0.028
 5331.00    1.39225   1.24577    0.028
 5332.00    1.39903   1.31019    0.028
 5333.00    1.37202   1.35231    0.028
 5334.00    1.34284   1.38023    0.028
 5335.00    1.36145   1.40098    0.028
 5336.00    1.38134   1.41101    0.028
 5337.00    1.33998   1.40454    0.028
 5338.00    1.30133   1.38067    0.028
 5339.00    1.33996   1.34471    0.028
 5340.00    1.37225   1.30967    0.028
 5341.00    1.31366   1.29387    0.028
 5342.00    1.26229   1.30773    0.027
 5343.00    1.27855   1.33901    0.027
 5344.00    1.28650   1.36320    0.028
 5345.00    1.23772   1.36876    0.027
 5346.00    1.20974   1.36018    0.027
 5347.00    1.29159   1.34670    0.028
 5348.00    1.35789   1.33584    0.028
 5349.00    1.35813   1.33290    0.028
 5350.00    1.36407   1.34460    0.028
 5351.00    1.39002   1.37268    0.028
 5352.00    1.41530   1.40798    0.028
 5353.00    1.43862   1.43996    0.028
 5354.00    1.46497   1.46617    0.028
 5355.00    1.49895   1.48884    0.028
 5356.00    1.50449   1.50659    0.028
 5357.00    1.44849   1.51594    0.028
 5358.00    1.41126   1.51663    0.028
 5359.00    1.40929   1.50909    0.028
 5360.00    1.40717   1.49251    0.028
 5361.00    1.40481   1.46782    0.028
 5362.00    1.38826   1.43932    0.028
 5363.00    1.35133   1.41280    0.028
 5364.00    1.32923   1.39201    0.028
 5365.00    1.32591   1.37633    0.028
 5366.00    1.31174   1.36406    0.028
 5367.00    1.28548   1.35201    0.028
 5368.00    1.29308   1.33146   -2.000
 5369.00    1.33398   1.29659   -2.000
 5370.00    1.35090   1.25568   -2.000
 5371.00    1.34703   1.23144   -2.000
 5372.00    1.38689   1.24578   -2.000
 5373.00    1.46017   1.29873   -2.000
 5374.00    1.49180   1.36491   -2.000
 5375.00    1.49549   1.41463   -2.000
 5376.00    1.48414   1.43763   -2.000
 5377.00    1.46395   1.44156   -2.000
 5378.00    1.47318   1.43817   -2.000
 5379.00    1.49750   1.43359   -2.000
 5380.00    1.50524   1.42586   -2.000
 5381.00    1.50562   1.41283   -2.000
 5382.00    1.48521   1.39906   -2.000
 5383.00    1.45685   1.39171    0.027
 5384.00    1.39496   1.39414    0.027
 5385.00    1.32218   1.40413    0.026
 5386.00    1.33941   1.41299    0.026
 5387.00    1.38110   1.41123    0.026
 5388.00    1.38476   1.39672    0.026
 5389.00    1.37994   1.37354    0.026
 5390.00    1.37967   1.34828    0.026
 5391.00    1.38021   1.32788    0.027
 5392.00    1.36667   1.31565    0.027
 5393.00    1.35122   1.30903    0.026
 5394.00    1.30331   1.30122    0.027
 5395.00    1.25228   1.28560    0.027
 5396.00    1.21915   1.26380    0.027
 5397.00    1.18710   1.24745    0.027
 5398.00    1.23503   1.25042    0.027
 5399.00    1.28497   1.27559    0.027
 5400.00    1.32394   1.30743    0.027
 5401.00    1.36129   1.32702    0.027
 5402.00    1.35682   1.32514    0.027
 5403.00    1.35060   1.29858    0.027
 5404.00    1.32069   1.25168    0.027
 5405.00    1.29369   1.20425    0.026
 5406.00    1.29299   1.18106    0.027
 5407.00    1.29195   1.18917    0.027
 5408.00    1.28868   1.21340    0.027
 5409.00    1.28942   1.23516    0.027
 5410.00    1.31071   1.25263    0.027
 5411.00    1.32913   1.27707    0.026
 5412.00    1.33562   1.31222    0.026
 5413.00    1.34378   1.34645    0.026
 5414.00    1.35766   1.36951    0.026
 5415.00    1.37525   1.38457    0.027
 5416.00    1.40357   1.39924    0.027
 5417.00    1.42156   1.41321    0.027
 5418.00    1.41404   1.41811    0.026
 5419.00    1.41109   1.40967    0.026
 5420.00    1.41789   1.39449    0.026
 5421.00    1.40401   1.38113    0.026
 5422.00    1.35189   1.37148    0.026
 5423.00    1.33912   1.36307    0.026
 5424.00    1.38993   1.35707    0.026
 5425.00    1.42261   1.36131    0.026
 5426.00    1.42958   1.37704    0.026
 5427.00    1.42521   1.38621    0.026
 5428.00    1.40670   1.37006    0.026
 5429.00    1.38673   1.33341    0.026
 5430.00    1.36517   1.29932    0.026
 5431.00    1.32986   1.28563    0.026
 5432.00    1.28123   1.28517    0.025
 5433.00    1.26962   1.27872    0.025
 5434.00    1.28967   1.26557    0.025
 5435.00    1.32103   1.26122    0.025
 5436.00    1.36091   1.27839    0.026
 5437.00    1.39108   1.31777    0.026
 5438.00    1.41484   1.36887    0.026
 5439.00    1.41636   1.41738    0.026
 5440.00    1.40499   1.45195    0.025
 5441.00    1.40181   1.46890    0.026
 5442.00    1.40276   1.46912    0.026
 5443.00    1.38840   1.45215    0.026
 5444.00    1.36736   1.41513    0.026
 5445.00    1.37162   1.36073    0.026
 5446.00    1.38538   1.30607    0.026
 5447.00    1.39120   1.27636    0.026
 5448.00    1.39449   1.28620    0.026
 5449.00    1.37321   1.32619    0.026
 5450.00    1.34539   1.36824    0.026
 5451.00    1.34484   1.39013    0.026
 5452.00    1.35022   1.38580    0.026
 5453.00    1.34533   1.35889    0.026
 5454.00    1.33868   1.31950    0.026
 5455.00    1.32092   1.28560    0.026
 5456.00    1.30171   1.27694    0.026
 5457.00    1.32469   1.30169    0.026
 5458.00    1.35158   1.34477    0.026
 5459.00    1.38560   1.37808    0.026
 5460.00    1.42002   1.38495    0.026
 5461.00    1.41134   1.36743    0.026
 5462.00    1.40176   1.34052    0.026
 5463.00    1.40003   1.32111    0.026
 5464.00    1.39943   1.31887    0.026
 5465.00    1.42542   1.33290    0.026
 5466.00    1.44800   1.35207    0.025
 5467.00    1.42690   1.36552    0.025
 5468.00    1.40403   1.37068    0.025
 5469.00    1.36582   1.36830    0.025
 5470.00    1.33580   1.35934    0.025
 5471.00    1.35836   1.34679    0.025
 5472.00    1.37310   1.33347    0.025
 5473.00    1.34872   1.31824    0.025
 5474.00    1.32809   1.29709    0.025
 5475.00    1.32274   1.27079    0.025
 5476.00    1.31768   1.24652    0.025
 5477.00    1.31359   1.23549    0.025
 5478.00    1.31691   1.24656   -2.000
 5479.00    1.34128   1.27114   -2.000
 5480.00    1.36192   1.28775   -2.000
 5481.00    1.37349   1.28905   -2.000
 5482.00    1.40821   1.28935   -2.000
 5483.00    1.49141   1.30493   -2.000
 5484.00    1.49983   1.33331   -2.000
 5485.00    1.37206   1.35746   -2.000
 5486.00    1.31528   1.36369   -2.000
 5487.00    1.37150   1.35235   -2.000
 5488.00    1.42322   1.33684   -2.000
 5489.00    1.46866   1.33123   -2.000
 5490.00    1.45351   1.33762   -2.000
 5491.00    1.36387   1.34729   -2.000
 5492.00    1.29258   1.35338   -2.000
 5493.00    1.24119   1.35416   -2.000
 5494.00    1.26432   1.35132   -2.000
 5495.00    1.35868   1.34825   -2.000
 5496.00    1.41641   1.34601   -2.000
 5497.00    1.44327   1.34496   -2.000
 5498.00    1.44811   1.34802   -2.000
 5499.00    1.43661   1.35502   -2.000
 5500.00    1.39744   1.35730   -2.000
 5501.00    1.34025   1.34734   -2.000
 5502.00    1.32559   1.33074    0.025
 5503.00    1.33519   1.31845    0.025
 5504.00    1.36863   1.31198    0.025
 5505.00    1.41390   1.30617    0.025
 5506.00    1.42235   1.30074    0.025
 5507.00    1.41497   1.30097    0.025
 5508.00    1.38748   1.31037    0.025
 5509.00    1.35257   1.32139    0.025
 5510.00    1.33232   1.32090    0.025
 5511.00    1.31663   1.30592    0.024
 5512.00    1.30983   1.28463    0.025
 5513.00    1.30534   1.26864    0.025
 5514.00    1.28855   1.26718    0.025
 5515.00    1.26914   1.28084    0.024
 5516.00    1.24940   1.30464    0.024
 5517.00    1.22961   1.33343    0.024
 5518.00    1.26747   1.36180    0.024
 5519.00    1.31262   1.38402    0.024
 5520.00    1.33295   1.39521    0.024
 5521.00    1.35109   1.39610    0.024
 5522.00    1.34707   1.39211    0.024
 5523.00    1.34189   1.38614    0.024
 5524.00    1.32612   1.37633    0.024
 5525.00    1.31050   1.35901    0.024
 5526.00    1.32164   1.33304    0.024
 5527.00    1.33256   1.30461    0.024
 5528.00    1.33883   1.28594    0.024
 5529.00    1.34562   1.28711    0.024
 5530.00    1.35883   1.30759    0.024
 5531.00    1.36850   1.33331    0.024
 5532.00    1.34851   1.34858    0.024
 5533.00    1.33334   1.34943    0.024
 5534.00    1.34805   1.34218    0.024
 5535.00    1.36038   1.33520    0.024
 5536.00    1.36101   1.33365    0.024
 5537.00    1.35842   1.33953    0.024
 5538.00    1.34304   1.35095    0.024
 5539.00    1.33645   1.36515    0.024
 5540.00    1.35887   1.37972    0.024
 5541.00    1.38009   1.38859    0.029
 5542.00    1.39796   1.38700    0.069
 5543.00    1.40583   1.37692   -1.000
 5544.00    1.38984   1.36564   -1.000
 5545.00    1.37562   1.36039   -1.000
 5546.00    1.36503   1.36381   -1.000
 5547.00    1.36514   1.37505   -1.000
 5548.00    1.38441   1.39218   -1.000
 5549.00    1.40426   1.40969   -1.000
 5550.00    1.42499   1.42001   -1.000
 5551.00    1.42510   1.41974   -1.000
 5552.00    1.39682   1.40987   -1.000
 5553.00    1.36067   1.39433    0.104
 5554.00    1.31498   1.37946    0.032
 5555.00    1.28144   1.37075    0.024
 5556.00    1.26087   1.36899    0.024
 5557.00    1.25387   1.37059    0.024
 5558.00    1.25965   1.37166    0.024
 5559.00    1.28235   1.37104    0.024
 5560.00    1.31910   1.36794    0.024
 5561.00    1.34601   1.36029    0.024
 5562.00    1.36571   1.34904    0.023
 5563.00    1.36814   1.33753    0.023
 5564.00    1.35948   1.32826    0.023
 5565.00    1.36858   1.32142    0.023
 5566.00    1.38766   1.31534    0.023
 5567.00    1.38944   1.31041    0.023
 5568.00    1.38276   1.30882    0.023
 5569.00    1.36416   1.31090    0.023
 5570.00    1.34052   1.31449    0.023
 5571.00    1.33417   1.31734    0.023
 5572.00    1.33406   1.31861    0.023
 5573.00    1.33005   1.31934    0.023
 5574.00    1.32485   1.32461    0.023
 5575.00    1.36708   1.33650    0.024
 5576.00    1.42140   1.34830    0.024
 5577.00    1.43867   1.35596    0.024
 5578.00    1.44826   1.36151    0.024
 5579.00    1.42441   1.36527    0.024
 5580.00    1.39510   1.36623    0.024
 5581.00    1.40330   1.36450    0.024
 5582.00    1.41608   1.35876    0.024
 5583.00    1.41621   1.34784    0.025
 5584.00    1.41526   1.32982    0.025
 5585.00    1.38871   1.30052    0.025
 5586.00    1.36092   1.26134    0.024
 5587.00    1.33428   1.22225    0.025
 5588.00    1.30744   1.19666    0.025
 5589.00    1.26806   1.19334    0.024
 5590.00    1.23027   1.20932    0.024
 5591.00    1.22411   1.23372    0.024
 5592.00    1.22017   1.25542    0.024
 5593.00    1.24205   1.27019    0.025
 5594.00    1.26280   1.28356    0.025
 5595.00    1.27443   1.30051    0.025
 5596.00    1.28680   1.31781    0.025
 5597.00    1.30356   1.32522    0.025
 5598.00    1.31550   1.31537    0.025
 5599.00    1.30453   1.29336    0.025
 5600.00    1.29502   1.27074    0.025
 5601.00    1.29119   1.25436    0.025
 5602.00    1.29477   1.24913    0.024
 5603.00    1.32235   1.26188    0.024
 5604.00    1.34453   1.29368    0.024
 5605.00    1.35191   1.33637    0.024
 5606.00    1.35921   1.37504    0.023
 5607.00    1.36633   1.39945    0.023
 5608.00    1.35657   1.40921    0.023
 5609.00    1.31256   1.41037    0.023
 5610.00    1.29415   1.40968    0.023
 5611.00    1.32093   1.40851    0.023
 5612.00    1.32944   1.40085    0.023
 5613.00    1.30972   1.37692    0.023
 5614.00    1.28258   1.33449    0.023
 5615.00    1.24538   1.28714    0.023
 5616.00    1.21928   1.25682    0.023
 5617.00    1.20644   1.25620    0.023
 5618.00    1.20037   1.27605    0.023
 5619.00    1.20143   1.29782    0.023
 5620.00    1.21939   1.31365    0.023
 5621.00    1.25308   1.32350    0.023
 5622.00    1.28482   1.32436    0.023
 5623.00    1.31498   1.31148    0.023
 5624.00    1.32248   1.28861    0.023
 5625.00    1.31364   1.26993    0.023
 5626.00    1.29708   1.26942    0.023
 5627.00    1.27561   1.28850    0.023
 5628.00    1.30734   1.31696    0.024
 5629.00    1.36848   1.34512    0.024
 5630.00    1.39428   1.36779    0.024
 5631.00    1.40308   1.38062    0.024
 5632.00    1.39629   1.38166    0.024
 5633.00    1.38304   1.37262    0.023
 5634.00    1.35970   1.35698    0.023
 5635.00    1.33278   1.33839    0.023
 5636.00    1.30205   1.32076    0.023
 5637.00    1.27017   1.30788    0.023
 5638.00    1.25671   1.30191    0.023
 5639.00    1.24784   1.30142    0.023
 5640.00    1.23207   1.30169    0.023
 5641.00    1.21491   1.29976    0.023
 5642.00    1.23220   1.29808    0.023
 5643.00    1.25495   1.30133    0.023
 5644.00    1.26807   1.30985    0.023
 5645.00    1.28006   1.32013    0.022
 5646.00    1.29200   1.32971    0.022
 5647.00    1.30392   1.33613    0.022
 5648.00    1.27906   1.33833    0.022
 5649.00    1.25256   1.33809    0.022
 5650.00    1.26087   1.33919    0.022
 5651.00    1.26956   1.34414    0.022
 5652.00    1.27744   1.34973    0.022
 5653.00    1.28399   1.34896    0.022
 5654.00    1.26584   1.33898    0.022
 5655.00    1.24897   1.32236    0.023
 5656.00    1.24635   1.30186    0.022
 5657.00    1.24152   1.27820    0.022
 5658.00    1.21955   1.25430    0.023
 5659.00    1.20592   1.23916    0.023
 5660.00    1.24130   1.24101    0.023
 5661.00    1.26982   1.25420    0.023
 5662.00    1.26639   1.26741    0.023
 5663.00    1.26509   1.27992    0.023
 5664.00    1.27188   1.29616    0.023
 5665.00    1.28313   1.31320    0.023
 5666.00    1.30854   1.32255    0.023
 5667.00    1.32604   1.32152    0.023
 5668.00    1.32226   1.31569    0.023
 5669.00    1.31429   1.31372    0.023
 5670.00    1.29663   1.32001    0.023
 5671.00    1.29454   1.33407    0.023
 5672.00    1.32355   1.35291    0.023
 5673.00    1.34011   1.37155    0.023
 5674.00    1.33500   1.38456    0.023
 5675.00    1.33121   1.38982    0.023
 5676.00    1.32943   1.38995    0.024
 5677.00    1.32073   1.38800    0.024
 5678.00    1.30279   1.38338    0.023
 5679.00    1.30182   1.37423    0.023
 5680.00    1.32084   1.36076    0.023
 5681.00    1.32253   1.34436    0.023
 5682.00    1.30621   1.32742    0.023
 5683.00    1.28559   1.31444    0.023
 5684.00    1.26105   1.30942    0.022
 5685.00    1.25840   1.30946    0.022
 5686.00    1.27343   1.30745    0.022
 5687.00    1.30196   1.30195    0.022
 5688.00    1.34008   1.29942    0.022
 5689.00    1.34159   1.30700    0.022
 5690.00    1.32027   1.32470    0.022
 5691.00    1.31593   1.34666    0.022
 5692.00    1.32085   1.36503    0.023
 5693.00    1.34616   1.37583    0.023
 5694.00    1.38113   1.37841    0.022
 5695.00    1.37508   1.37482    0.022
 5696.00    1.35228   1.36715    0.023
 5697.00    1.35091   1.35527    0.023
 5698.00    1.35701   1.33895    0.023
 5699.00    1.34748   1.31966    0.023
 5700.00    1.33335   1.30174    0.023
 5701.00    1.30547   1.28852    0.023
 5702.00    1.27424   1.28228    0.023
 5703.00    1.25604   1.28417    0.023
 5704.00    1.24040   1.28901    0.023
 5705.00    1.24568   1.28756    0.023
 5706.00    1.25418   1.27437    0.023
 5707.00    1.25010   1.25199    0.023
 5708.00    1.24460   1.22910    0.023
 5709.00    1.25407   1.21353    0.023
 5710.00    1.26467   1.20908    0.023
 5711.00    1.28504   1.21785    0.023
 5712.00    1.30582   1.23788    0.023
 5713.00    1.32738   1.26586    0.023
 5714.00    1.34815   1.29759    0.023
 5715.00    1.33583   1.32511    0.023
 5716.00    1.32518   1.34403    0.023
 5717.00    1.34305   1.35600    0.023
 5718.00    1.36008   1.36425    0.022
 5719.00    1.36822   1.37212    0.022
 5720.00    1.37218   1.38172    0.023
 5721.00    1.34480   1.39231    0.023
 5722.00    1.32463   1.40202    0.022
 5723.00    1.34561   1.40836    0.022
 5724.00    1.36758   1.40790    0.022
 5725.00    1.39402   1.39911    0.022
 5726.00    1.41760   1.38463    0.022
 5727.00    1.43055   1.37075    0.022
 5728.00    1.44120   1.36324    0.022
 5729.00    1.44468   1.36244    0.022
 5730.00    1.44103   1.36233    0.022
 5731.00    1.41857   1.35919    0.022
 5732.00    1.39233   1.35733    0.022
 5733.00    1.35750   1.36303    0.022
 5734.00    1.33886   1.37492    0.022
 5735.00    1.35201   1.38497    0.022
 5736.00    1.37866   1.38799    0.022
 5737.00    1.42843   1.38494    0.022
 5738.00    1.45412   1.37986    0.023
 5739.00    1.44370   1.37601    0.023
 5740.00    1.43702   1.37361    0.000
 5741.00    1.43529   1.37130    0.000
 5742.00    1.41965   1.36925    0.000
 5743.00    1.38784   1.36973    0.000
 5744.00    1.37288   1.37444    0.000
 5745.00    1.37518   1.38076    0.000
 5746.00    1.37314   1.38192    0.000
 5747.00    1.36720   1.37446    0.000
 5748.00    1.36734   1.36363    0.000
 5749.00    1.37233   1.35760    0.000
 5750.00    1.39480   1.35784    0.000
 5751.00    1.42952   1.35542    0.000
 5752.00    1.45136   1.34230    0.000
 5753.00    1.46530   1.32274    0.000
 5754.00    1.43427   1.31070    0.000
 5755.00    1.37911   1.31695    0.000
 5756.00    1.34719   1.33951    0.000
 5757.00    1.32611   1.36472    0.000
 5758.00    1.34788   1.37774    0.000
 5759.00    1.38685   1.37267    0.000
 5760.00    1.37722   1.35247    0.000
 5761.00    1.35094   1.32722    0.000
 5762.00    1.33992   1.30991    0.000
 5763.00    1.33329   1.31058    0.000
 5764.00    1.35438   1.33005    0.000
 5765.00    1.38208   1.35977    0.000
 5766.00    1.39350   1.38632    0.000
 5767.00    1.40179   1.40181    0.000
 5768.00    1.40961   1.40633    0.000
 5769.00    1.41735   1.40307    0.000
 5770.00    1.40737   1.39522    0.000
 5771.00    1.39546   1.38536    0.000
 5772.00    1.40923   1.37565    0.000
 5773.00    1.42484   1.36768    0.000
 5774.00    1.45136   1.36362    0.000
 5775.00    1.47829   1.36397    0.000
 5776.00    1.43987   1.36730    0.000
 5777.00    1.40195   1.36953    0.000
 5778.00    1.39141   1.36327    0.000
 5779.00    1.38103   1.34328    0.000
 5780.00    1.37327   1.31106    0.000
 5781.00    1.36282   1.27578    0.000
 5782.00    1.32513   1.24849    0.000
 5783.00    1.29531   1.23476    0.000
 5784.00    1.32256   1.23198    0.000
 5785.00    1.35003   1.23719    0.000
 5786.00    1.37870   1.25126    0.000
 5787.00    1.40016   1.27470    0.000
 5788.00    1.38963   1.30097    0.000
 5789.00    1.37662   1.31989    0.000
 5790.00    1.35457   1.32817    0.000
 5791.00    1.34024   1.33047   -2.000
 5792.00    1.34951   1.33491   -2.000
 5793.00    1.36663   1.34636   -2.000
 5794.00    1.40414   1.36066   -2.000
 5795.00    1.42577   1.36995   -2.000
 5796.00    1.41197   1.36937   -2.000
 5797.00    1.40548   1.36167   -2.000
 5798.00    1.41312   1.35670   -2.000
 5799.00    1.42569   1.36339   -2.000
 5800.00    1.44655   1.38104   -2.000
 5801.00    1.45991   1.39903   -2.000
 5802.00    1.46217   1.40605   -2.000
 5803.00    1.44445   1.39876   -2.000
 5804.00    1.40076   1.38161   -2.000
 5805.00    1.37916   1.36385   -2.000
 5806.00    1.38285   1.35375   -2.000
 5807.00    1.40386   1.35323   -2.000
 5808.00    1.44236   1.35914   -2.000
 5809.00    1.44763   1.36767   -2.000
 5810.00    1.42333   1.37618   -2.000
 5811.00    1.39613   1.38275    0.000
 5812.00    1.36667   1.38521    0.000
 5813.00    1.35138   1.38118    0.000
 5814.00    1.34589   1.37073    0.000
 5815.00    1.34758   1.35746    0.000
 5816.00    1.35363   1.34873    0.000
 5817.00    1.36315   1.35141    0.000
 5818.00    1.37452   1.36611    0.000
 5819.00    1.37482   1.38590    0.000
 5820.00    1.37006   1.40141    0.000
 5821.00    1.39785   1.40816    0.000
 5822.00    1.43849   1.40736    0.000
 5823.00    1.46650   1.40327    0.000
 5824.00    1.49028   1.40013    0.000
 5825.00    1.47921   1.39951    0.000
 5826.00    1.45831   1.40063    0.000
 5827.00    1.43460   1.40203    0.000
 5828.00    1.41024   1.40356    0.000
 5829.00    1.40021   1.40515    0.000
 5830.00    1.39286   1.40596    0.000
 5831.00    1.38773   1.40446    0.000
 5832.00    1.38293   1.39989    0.000
 5833.00    1.38548   1.39289    0.000
 5834.00    1.38881   1.38538    0.000
 5835.00    1.39736   1.37978    0.000
 5836.00    1.40626   1.37749    0.000
 5837.00    1.39714   1.37773    0.000
 5838.00    1.38743   1.37938    0.000
 5839.00    1.37468   1.38329    0.000
 5840.00    1.36304   1.39141    0.000
 5841.00    1.38647   1.40208    0.000
 5842.00    1.40735   1.41068    0.000
 5843.00    1.38970   1.41310    0.000
 5844.00    1.37369   1.40800    0.000
 5845.00    1.37372   1.39650    0.000
 5846.00    1.37465   1.38187    0.000
 5847.00    1.38184   1.36851    0.000
 5848.00    1.38912   1.35989    0.000
 5849.00    1.39688   1.35630    0.000
 5850.00    1.40131   1.35385    0.000
 5851.00    1.39128   1.34715    0.000
 5852.00    1.37995   1.33469    0.000
 5853.00    1.36402   1.32015    0.000
 5854.00    1.34696   1.30829    0.000
 5855.00    1.32651   1.29920    0.000
 5856.00    1.30393   1.28896    0.000
 5857.00    1.27590   1.27680    0.000
 5858.00    1.24412   1.26914    0.000
 5859.00    1.20411   1.27300    0.000
 5860.00    1.18173   1.28788    0.000
 5861.00    1.19290   1.30521    0.000
 5862.00    1.21805   1.31836    0.000
 5863.00    1.26639   1.32564    0.000
 5864.00    1.29932   1.32925    0.000
 5865.00    1.30979   1.33030    0.000
 5866.00    1.31458   1.32966    0.000
 5867.00    1.31210   1.33052    0.000
 5868.00    1.30930   1.33687    0.000
 5869.00    1.30614   1.34853    0.000
 5870.00    1.32600   1.35999    0.000
 5871.00    1.36880   1.36600    0.000
 5872.00    1.40555   1.36573    0.000
 5873.00    1.43700   1.36274    0.000
 5874.00    1.42232   1.36050    0.000
 5875.00    1.37196   1.35931    0.000
 5876.00    1.33720   1.35631    0.000
 5877.00    1.31305   1.34869    0.000
 5878.00    1.30531   1.33670    0.000
 5879.00    1.30734   1.32277    0.000
 5880.00    1.29586   1.31111    0.000
 5881.00    1.27734   1.30452    0.000
 5882.00    1.27994   1.30281    0.000
 5883.00    1.29206   1.30248    0.000
 5884.00    1.27588   1.29965    0.000
 5885.00    1.24872   1.29053    0.000
 5886.00    1.20365   1.26774    0.000
 5887.00    1.15267   1.21982    0.000
 5888.00    1.11747   1.14228    0.000
 5889.00    1.08664   1.05127    0.000
 5890.00    1.07005   0.98120    0.000
 5891.00    1.05671   0.95994    0.000
 5892.00    1.07560   0.98545    0.000
 5893.00    1.10036   1.02433    0.000
 5894.00    1.11796   1.04210    0.000
 5895.00    1.13456   1.03396    0.000
 5896.00    1.14706   1.02301    0.000
 5897.00    1.15914   1.03758    0.000
 5898.00    1.16497   1.08586    0.000
 5899.00    1.17040   1.15048    0.000
 5900.00    1.17655   1.20969    0.000
 5901.00    1.18277   1.25340    0.021
 5902.00    1.21159   1.28106    0.021
 5903.00    1.24032   1.29612    0.021
 5904.00    1.26656   1.30257    0.021
 5905.00    1.28994   1.30446    0.021
 5906.00    1.27265   1.30568    0.021
 5907.00    1.25466   1.30928    0.021
 5908.00    1.23017   1.31552    0.021
 5909.00    1.21241   1.32242    0.021
 5910.00    1.24031   1.32759    0.021
 5911.00    1.26502   1.32887    0.021
 5912.00    1.27297   1.32364    0.021
 5913.00    1.27359   1.31089    0.021
 5914.00    1.24314   1.29417    0.021
 5915.00    1.22156   1.28071    0.021
 5916.00    1.23099   1.27723    0.021
 5917.00    1.24414   1.28419    0.021
 5918.00    1.26821   1.29739    0.021
 5919.00    1.28322   1.31100    0.021
 5920.00    1.27552   1.32029    0.021
 5921.00    1.26465   1.32428    0.021
 5922.00    1.24696   1.32466    0.021
 5923.00    1.23823   1.32486    0.021
 5924.00    1.24633   1.32743    0.021
 5925.00    1.26722   1.33169    0.021
 5926.00    1.30906   1.33391    0.021
 5927.00    1.33592   1.33088    0.021
 5928.00    1.34127   1.32181    0.021
 5929.00    1.33615   1.31072    0.021
 5930.00    1.31781   1.30426    0.021
 5931.00    1.30349   1.30546    0.021
 5932.00    1.29362   1.31136    0.021
 5933.00    1.28936   1.31488    0.020
 5934.00    1.29058   1.31324    0.020
 5935.00    1.29962   1.31077    0.020
 5936.00    1.31543   1.31302    0.021
 5937.00    1.32325   1.32090    0.021
 5938.00    1.32497   1.32934    0.021
 5939.00    1.32292   1.33246    0.021
 5940.00    1.31836   1.32821    0.021
 5941.00    1.32380   1.31941    0.021
 5942.00    1.33512   1.31239    0.021
 5943.00    1.34913   1.31262    0.021
 5944.00    1.36453   1.32009    0.021
 5945.00    1.35870   1.32953    0.021
 5946.00    1.34346   1.33440    0.021
 5947.00    1.32230   1.33080    0.021
 5948.00    1.29887   1.32071    0.021
 5949.00    1.29282   1.31049    0.021
 5950.00    1.29239   1.30503    0.021
 5951.00    1.29700   1.30370    0.021
 5952.00    1.30297   1.30273    0.021
 5953.00    1.29048   1.30105    0.021
 5954.00    1.27388   1.30042    0.021
 5955.00    1.27351   1.30121    0.021
 5956.00    1.27603   1.30111    0.021
 5957.00    1.28434   1.29983    0.021
 5958.00    1.29343   1.30133    0.020
 5959.00    1.29293   1.30917    0.020
 5960.00    1.29152   1.32237    0.020
 5961.00    1.30459   1.33624    0.020
 5962.00    1.31854   1.34575    0.020
 5963.00    1.33482   1.34874    0.020
 5964.00    1.35091   1.34587    0.021
 5965.00    1.32852   1.34052    0.020
 5966.00    1.30649   1.33697    0.020
 5967.00    1.29357   1.33805    0.020
 5968.00    1.28208   1.34416    0.020
 5969.00    1.28994   1.35254    0.020
 5970.00    1.29706   1.36019    0.020
 5971.00    1.29755   1.36509    0.020
 5972.00    1.29697   1.36574    0.020
 5973.00    1.28922   1.36075    0.020
 5974.00    1.28540   1.34943    0.021
 5975.00    1.30170   1.33292    0.021
 5976.00    1.31889   1.31543    0.021
 5977.00    1.33977   1.30281    0.020
 5978.00    1.35582   1.29960    0.020
 5979.00    1.35531   1.30556    0.021
 5980.00    1.35159   1.31504    0.021
 5981.00    1.33862   1.32011    0.021
 5982.00    1.32862   1.31467    0.021
 5983.00    1.32596   1.29962    0.021
 5984.00    1.32096   1.28337    0.020
 5985.00    1.31101   1.27514    0.020
 5986.00    1.30764   1.27888    0.020
 5987.00    1.31641   1.29106    0.021
 5988.00    1.32541   1.30467    0.021
 5989.00    1.33477   1.31514    0.021
 5990.00    1.33682   1.32076    0.021
 5991.00    1.32852   1.32315    0.020
 5992.00    1.31307   1.32581    0.020
 5993.00    1.28872   1.33088    0.020
 5994.00    1.27588   1.33633    0.020
 5995.00    1.27566   1.33667    0.020
 5996.00    1.27956   1.32895    0.020
 5997.00    1.28744   1.31640    0.020
 5998.00    1.29006   1.30569    0.020
 5999.00    1.28819   1.30173    0.020
 6000.00    1.27571   1.30371    0.020
 6001.00    1.25527   1.30640    0.020
 6002.00    1.24148   1.30624    0.020
 6003.00    1.23209   1.30376    0.020
 6004.00    1.23810   1.30065    0.020
 6005.00    1.25301   1.29648    0.020
 6006.00    1.26246   1.28851    0.020
 6007.00    1.26918   1.27747    0.021
 6008.00    1.28298   1.27039    0.021
 6009.00    1.29988   1.27328    0.021
 6010.00    1.30959   1.28472    0.021
 6011.00    1.31661   1.29580    0.021
 6012.00    1.31355   1.29822    0.021
 6013.00    1.30728   1.29274    0.021
 6014.00    1.29749   1.28558    0.021
 6015.00    1.28677   1.28104    0.021
 6016.00    1.26149   1.27922    0.021
 6017.00    1.23306   1.27780    0.021
 6018.00    1.22685   1.27547    0.021
 6019.00    1.22446   1.27198    0.021
 6020.00    1.24536   1.26817    0.020
 6021.00    1.26930   1.26621    0.020
 6022.00    1.26992   1.26870    0.020
 6023.00    1.26839   1.27550    0.021
 6024.00    1.27834   1.28536    0.020
 6025.00    1.28892   1.29600    0.020
 6026.00    1.30217   1.30603    0.020
 6027.00    1.31542   1.31519    0.020
 6028.00    1.32283   1.32340    0.020
 6029.00    1.33046   1.33125    0.020
 6030.00    1.34330   1.33792    0.020
 6031.00    1.35592   1.34324    0.020
 6032.00    1.36582   1.34761    0.020
 6033.00    1.37451   1.35159    0.020
 6034.00    1.37286   1.35469    0.021
 6035.00    1.37070   1.35646    0.021
 6036.00    1.36526   1.35701    0.020
 6037.00    1.36054   1.35641    0.020
 6038.00    1.35947   1.35404    0.020
 6039.00    1.35715   1.34957    0.020
 6040.00    1.34977   1.34416    0.021
 6041.00    1.34006   1.34018    0.021
 6042.00    1.32258   1.34035    0.021
 6043.00    1.30925   1.34499    0.021
 6044.00    1.30770   1.35240    0.021
 6045.00    1.30414   1.35976    0.020
 6046.00    1.29574   1.36485    0.020
 6047.00    1.29490   1.36721    0.020
 6048.00    1.30990   1.36766    0.020
 6049.00    1.32199   1.36723    0.020
 6050.00    1.32883   1.36601    0.020
 6051.00    1.32789   1.36294    0.020
 6052.00    1.31460   1.35650    0.020
 6053.00    1.31020   1.34661    0.020
 6054.00    1.31822   1.33530    0.020
 6055.00    1.32937   1.32507    0.020
 6056.00    1.34438   1.31867    0.020
 6057.00    1.34274   1.31752    0.020
 6058.00    1.32310   1.32221    0.020
 6059.00    1.29696   1.33026    0.020
 6060.00    1.26464   1.33722    0.020
 6061.00    1.24869   1.33837    0.020
 6062.00    1.24652   1.33136    0.020
 6063.00    1.26243   1.31756    0.020
 6064.00    1.29175   1.30173    0.020
 6065.00    1.31109   1.29219    0.020
 6066.00    1.32392   1.29541    0.020
 6067.00    1.32851   1.31192    0.020
 6068.00    1.32842   1.33513    0.020
 6069.00    1.33576   1.35570    0.020
 6070.00    1.34680   1.36891    0.020
 6071.00    1.34872   1.37566    0.020
 6072.00    1.34672   1.37862    0.021
 6073.00    1.32631   1.37935    0.021
 6074.00    1.29912   1.37737    0.021
 6075.00    1.28077   1.37136    0.021
 6076.00    1.26518   1.36048    0.020
 6077.00    1.28655   1.34535    0.020
 6078.00    1.31752   1.32902    0.020
 6079.00    1.33669   1.31525    0.020
 6080.00    1.35337   1.30546    0.020
 6081.00    1.34122   1.29894    0.020
 6082.00    1.32425   1.29457    0.020
 6083.00    1.31800   1.29237    0.020
 6084.00    1.31310   1.29311    0.019
 6085.00    1.31214   1.29616    0.020
 6086.00    1.31152   1.30007    0.020
 6087.00    1.29643   1.30358    0.020
 6088.00    1.28059   1.30459    0.020
 6089.00    1.27959   1.30112    0.020
 6090.00    1.27897   1.29418    0.020
 6091.00    1.28710   1.28760    0.020
 6092.00    1.29470   1.28573    0.020
 6093.00    1.29097   1.29043    0.020
 6094.00    1.28819   1.29999    0.020
 6095.00    1.29691   1.31051    0.020
 6096.00    1.30431   1.31845    0.020
 6097.00    1.30076   1.32236    0.020
 6098.00    1.29571   1.32315    0.020
 6099.00    1.28136   1.32056    0.020
 6100.00    1.26773   1.31045    0.020
 6101.00    1.25768   1.28921    0.020
 6102.00    1.24845   1.26238    0.020
 6103.00    1.24241   1.24388    0.020
 6104.00    1.23953   1.24436    0.020
 6105.00    1.24703   1.26246    0.020
 6106.00    1.25317   1.28537    0.020
 6107.00    1.25555   1.30214    0.020
 6108.00    1.26029   1.31135    0.020
 6109.00    1.27065   1.31608    0.020
 6110.00    1.28319   1.31865    0.020
 6111.00    1.30022   1.32018    0.020
 6112.00    1.31378   1.32191    0.020
 6113.00    1.32117   1.32541    0.020
 6114.00    1.31975   1.32942    0.020
 6115.00    1.30455   1.33029    0.020
 6116.00    1.28870   1.32656    0.020
 6117.00    1.27194   1.31943    0.020
 6118.00    1.25753   1.30927    0.020
 6119.00    1.24596   1.29453    0.019
 6120.00    1.24193   1.27392    0.019
 6121.00    1.24592   1.25156    0.020
 6122.00    1.25104   1.23781    0.020
 6123.00    1.25720   1.23956    0.020
 6124.00    1.26383   1.25459    0.020
 6125.00    1.27085   1.27298    0.020
 6126.00    1.27520   1.28424    0.020
 6127.00    1.27760   1.28651    0.020
 6128.00    1.27545   1.28556    0.020
 6129.00    1.27038   1.28792    0.020
 6130.00    1.26266   1.29600    0.020
 6131.00    1.25346   1.30672    0.020
 6132.00    1.24510   1.31347    0.020
 6133.00    1.23716   1.30868    0.020
 6134.00    1.23717   1.28735    0.020
 6135.00    1.24055   1.25034    0.020
 6136.00    1.25256   1.20795    0.020
 6137.00    1.26769   1.17884    0.020
 6138.00    1.28452   1.17672    0.020
 6139.00    1.30187   1.19981    0.020
 6140.00    1.32027   1.23188    0.020
 6141.00    1.33894   1.25705    0.020
 6142.00    1.33992   1.27289    0.020
 6143.00    1.33725   1.28584    0.019
 6144.00    1.32513   1.30017    0.019
 6145.00    1.31148   1.31248    0.020
 6146.00    1.30649   1.31684    0.020
 6147.00    1.30256   1.31157    0.019
 6148.00    1.30171   1.30002    0.020
 6149.00    1.30112   1.28787    0.020
 6150.00    1.30334   1.28045    0.020
 6151.00    1.30570   1.27981    0.020
 6152.00    1.28763   1.28364    0.020
 6153.00    1.26899   1.28656    0.020
 6154.00    1.23426   1.28523    0.020
 6155.00    1.20058   1.28046    0.020
 6156.00    1.18767   1.27503    0.020
 6157.00    1.17611   1.26990    0.021
 6158.00    1.18014   1.26117    0.020
 6159.00    1.18365   1.24177    0.020
 6160.00    1.18299   1.20800    0.020
 6161.00    1.18074   1.16580    0.021
 6162.00    1.16884   1.12989    0.020
 6163.00    1.15732   1.11556    0.020
 6164.00    1.14765   1.12722    0.020
 6165.00    1.14343   1.15505    0.020
 6166.00    1.16036   1.18350    0.020
 6167.00    1.17873   1.19955    0.019
 6168.00    1.20174   1.19908    0.019
 6169.00    1.22081   1.18900    0.019
 6170.00    1.22911   1.18195    0.019
 6171.00    1.23525   1.18721    0.019
 6172.00    1.23633   1.20410    0.019
 6173.00    1.23775   1.22385    0.019
 6174.00    1.23986   1.23814    0.019
 6175.00    1.23884   1.24536    0.019
 6176.00    1.23228   1.24864    0.019
 6177.00    1.21861   1.25170    0.019
 6178.00    1.19396   1.25622    0.019
 6179.00    1.17272   1.26197    0.019
 6180.00    1.15613   1.26830    0.019
 6181.00    1.15984   1.27431    0.019
 6182.00    1.18777   1.27954    0.020
 6183.00    1.20846   1.28260    0.020
 6184.00    1.22153   1.28107    0.020
 6185.00    1.23180   1.27320    0.020
 6186.00    1.23947   1.26020    0.020
 6187.00    1.24296   1.24448    0.020
 6188.00    1.24302   1.22844    0.020
 6189.00    1.22840   1.21255    0.020
 6190.00    1.20321   1.19629    0.020
 6191.00    1.19640   1.18416    0.020
 6192.00    1.20122   1.18330    0.020
 6193.00    1.21042   1.19693    0.020
 6194.00    1.22203   1.22140    0.020
 6195.00    1.19575   1.24649    0.020
 6196.00    1.15126   1.26365   -2.000
 6197.00    1.18550   1.26910   -2.000
 6198.00    1.25236   1.26309   -2.000
 6199.00    1.29712   1.25086   -2.000
 6200.00    1.33405   1.24117   -2.000
 6201.00    1.28098   1.24099   -2.000
 6202.00    1.20098   1.25082   -2.000
 6203.00    1.14530   1.26454   -2.000
 6204.00    1.09566   1.27551   -2.000
 6205.00    1.10129   1.28159   -2.000
 6206.00    1.11804   1.28392   -2.000
 6207.00    1.16125   1.28426   -2.000
 6208.00    1.20864   1.28266    0.020
 6209.00    1.22035   1.27784    0.020
 6210.00    1.22788   1.26864    0.020
 6211.00    1.21338   1.25392    0.020
 6212.00    1.19714   1.23293    0.020
 6213.00    1.18405   1.20811    0.019
 6214.00    1.17109   1.18486    0.019
 6215.00    1.16718   1.16974    0.019
 6216.00    1.16341   1.16668    0.019
 6217.00    1.16242   1.17229    0.019
 6218.00    1.16178   1.17905    0.019
 6219.00    1.16783   1.18210    0.019
 6220.00    1.17486   1.18222    0.019
 6221.00    1.19279   1.18418    0.019
 6222.00    1.20849   1.19072    0.019
 6223.00    1.20702   1.19975    0.019
 6224.00    1.20578   1.20825    0.019
 6225.00    1.20585   1.21429    0.019
 6226.00    1.20890   1.21710    0.019
 6227.00    1.22575   1.21516    0.019
 6228.00    1.24041   1.20482    0.020
 6229.00    1.24672   1.18515    0.020
 6230.00    1.25135   1.16206    0.020
 6231.00    1.25069   1.14606    0.020
 6232.00    1.24714   1.14576    0.020
 6233.00    1.23586   1.16335    0.019
 6234.00    1.22679   1.19087    0.019
 6235.00    1.22282   1.21657    0.019
 6236.00    1.22121   1.23108    0.019
 6237.00    1.22427   1.23065    0.019
 6238.00    1.22213   1.21814    0.019
 6239.00    1.21095   1.20022    0.019
 6240.00    1.20039   1.18387    0.019
 6241.00    1.19076   1.17149    0.019
 6242.00    1.18162   1.16195    0.019
 6243.00    1.17313   1.15494    0.019
 6244.00    1.17029   1.15070    0.019
 6245.00    1.17410   1.15172    0.019
 6246.00    1.17918   1.16085    0.019
 6247.00    1.18558   1.17643    0.019
 6248.00    1.18365   1.19380    0.019
 6249.00    1.17411   1.20654    0.019
 6250.00    1.16560   1.20812    0.019
 6251.00    1.15793   1.19671    0.019
 6252.00    1.15651   1.17739    0.019
 6253.00    1.15953   1.15757    0.019
 6254.00    1.15995   1.14273    0.019
 6255.00    1.15874   1.13307    0.019
 6256.00    1.14743   1.12532    0.019
 6257.00    1.13064   1.11818    0.019
 6258.00    1.14000   1.11540    0.020
 6259.00    1.16170   1.12243    0.020
 6260.00    1.22424   1.14004    0.022
 6261.00    1.30343   1.16496    0.023
 6262.00    1.32235   1.18986    0.024
 6263.00    1.32029   1.20747    0.024
 6264.00    1.27412   1.21499    0.024
 6265.00    1.21500   1.21488    0.023
 6266.00    1.18464   1.21223    0.022
 6267.00    1.16127   1.21102    0.021
 6268.00    1.16728   1.21181    0.020
 6269.00    1.17906   1.21283    0.020
 6270.00    1.21504   1.21387    0.019
 6271.00    1.25472   1.21655    0.019
 6272.00    1.27036   1.22147    0.019
 6273.00    1.28328   1.22683    0.019
 6274.00    1.25387   1.23101    0.019
 6275.00    1.22126   1.23304    0.018
 6276.00    1.21441   1.23282    0.019
 6277.00    1.20859   1.23047    0.019
 6278.00    1.21773   1.22509    0.019
 6279.00    1.22668   1.21661    0.019
 6280.00    1.22384   1.20804    0.000
 6281.00    1.22104   1.20345    0.000
 6282.00    1.21898   1.20581    0.000
 6283.00    1.21836   1.21490    0.000
 6284.00    1.23285   1.22640    0.000
 6285.00    1.24419   1.23745    0.000
 6286.00    1.23192   1.24699    0.000
 6287.00    1.21906   1.25523    0.000
 6288.00    1.20289   1.26165    0.000
 6289.00    1.19361   1.26340    0.000
 6290.00    1.21550   1.25894    0.000
 6291.00    1.23535   1.24989    0.000
 6292.00    1.24760   1.23987    0.000
 6293.00    1.25543   1.23243    0.000
 6294.00    1.24956   1.22718    0.000
 6295.00    1.24191   1.22076    0.000
 6296.00    1.22956   1.21184    0.000
 6297.00    1.22149   1.20222    0.000
 6298.00    1.22309   1.19527    0.000
 6299.00    1.22485   1.19184    0.000
 6300.00    1.22692   1.18933    0.000
 6301.00    1.23145   1.18626    0.000
 6302.00    1.24018   1.18474    0.000
 6303.00    1.24655   1.18810    0.000
 6304.00    1.24938   1.19726    0.000
 6305.00    1.24782   1.21043    0.000
 6306.00    1.24048   1.22507    0.000
 6307.00    1.23081   1.23838    0.000
 6308.00    1.21844   1.24771    0.000
 6309.00    1.20814   1.25010    0.000
 6310.00    1.19996   1.24464    0.000
 6311.00    1.20406   1.23451    0.000
 6312.00    1.21925   1.22366    0.000
 6313.00    1.22661   1.21324    0.000
 6314.00    1.22775   1.20269    0.000
 6315.00    1.22102   1.19210    0.000
 6316.00    1.20880   1.18146    0.000
 6317.00    1.19398   1.17220    0.000
 6318.00    1.17757   1.16772    0.000
 6319.00    1.17854   1.16988    0.000
 6320.00    1.18882   1.17892    0.000
 6321.00    1.21216   1.19265    0.019
 6322.00    1.24159   1.20730    0.019
 6323.00    1.25848   1.22062    0.019
 6324.00    1.27036   1.23185    0.019
 6325.00    1.26237   1.24088    0.019
 6326.00    1.24758   1.24642    0.019
 6327.00    1.24469   1.24902    0.019
 6328.00    1.24520   1.24979    0.019
 6329.00    1.25662   1.24926    0.019
 6330.00    1.27062   1.24889    0.018
 6331.00    1.27258   1.24894    0.019
 6332.00    1.27224   1.24815    0.019
 6333.00    1.25878   1.24334    0.019
 6334.00    1.24337   1.23075    0.019
 6335.00    1.22916   1.21245    0.019
 6336.00    1.21507   1.19586    0.019
 6337.00    1.22473   1.18830    0.019
 6338.00    1.23608   1.19218    0.019
 6339.00    1.22417   1.20411    0.019
 6340.00    1.21142   1.21676    0.019
 6341.00    1.18515   1.22379    0.019
 6342.00    1.15965   1.22251    0.019
 6343.00    1.16313   1.21443    0.019
 6344.00    1.16656   1.20610    0.019
 6345.00    1.16903   1.20335    0.019
 6346.00    1.17213   1.20814    0.018
 6347.00    1.18158   1.21869    0.019
 6348.00    1.19235   1.23053    0.019
 6349.00    1.21264   1.24060    0.019
 6350.00    1.23168   1.24751    0.019
 6351.00    1.24384   1.25007    0.019
 6352.00    1.25371   1.24731    0.019
 6353.00    1.25339   1.23891    0.019
 6354.00    1.24523   1.22669    0.019
 6355.00    1.20855   1.21408    0.019
 6356.00    1.17481   1.20260    0.018
 6357.00    1.15005   1.19109    0.018
 6358.00    1.13770   1.17831    0.018
 6359.00    1.15748   1.16424    0.019
 6360.00    1.17356   1.15066    0.019
 6361.00    1.18140   1.14050    0.019
 6362.00    1.18840   1.13611    0.019
 6363.00    1.19380   1.13880    0.019
 6364.00    1.19698   1.14918    0.019
 6365.00    1.19645   1.16582    0.019
 6366.00    1.20007   1.18547    0.019
 6367.00    1.20981   1.20463    0.019
 6368.00    1.22033   1.22002    0.019
 6369.00    1.23187   1.23034    0.019
 6370.00    1.23870   1.23688    0.019
 6371.00    1.24015   1.24248    0.019
 6372.00    1.24797   1.24914    0.019
 6373.00    1.26219   1.25619    0.019
 6374.00    1.27436   1.26147    0.019
 6375.00    1.28471   1.26330    0.019
 6376.00    1.27361   1.26126    0.019
 6377.00    1.24570   1.25569    0.019
 6378.00    1.21923   1.24809    0.019
 6379.00    1.19374   1.24035    0.018
 6380.00    1.19453   1.23479    0.018
 6381.00    1.21118   1.23340    0.018
 6382.00    1.22456   1.23514    0.018
 6383.00    1.23621   1.23781    0.018
 6384.00    1.24664   1.24061    0.018
 6385.00    1.25650   1.24374    0.018
 6386.00    1.26888   1.24773    0.018
 6387.00    1.28225   1.25238    0.019
 6388.00    1.27001   1.25611    0.019
 6389.00    1.24919   1.25665    0.019
 6390.00    1.22811   1.25172    0.019
 6391.00    1.20696   1.23972    0.019
 6392.00    1.21415   1.22202    0.019
 6393.00    1.22791   1.20588    0.019
 6394.00    1.23961   1.19952    0.019
 6395.00    1.25093   1.20565    0.020
 6396.00    1.24881   1.21934    0.020
 6397.00    1.24477   1.22940    0.020
 6398.00    1.21282   1.22686    0.036
 6399.00    1.17797   1.21350    0.614
 6400.00    1.15185   1.20131   -1.000
 6401.00    1.12630   1.20060   -1.000
 6402.00    1.13599   1.21366   -1.000
 6403.00    1.14682   1.23390   -1.000
 6404.00    1.15509   1.24946   -1.000
 6405.00    1.16357   1.25374   -1.000
 6406.00    1.17821   1.24721   -1.000
 6407.00    1.19234   1.23504   -1.000
 6408.00    1.19880   1.22456   -1.000
 6409.00    1.20575   1.21843    0.387
 6410.00    1.21751   1.21532    0.033
 6411.00    1.22718   1.21396    0.018
 6412.00    1.22232   1.21340    0.019
 6413.00    1.21686   1.21467    0.019
 6414.00    1.20822   1.21945    0.019
 6415.00    1.20227   1.22618    0.019
 6416.00    1.20794   1.23119    0.019
 6417.00    1.21044   1.23167    0.019
 6418.00    1.20172   1.22547    0.019
 6419.00    1.19205   1.21362    0.019
 6420.00    1.17956   1.20208    0.019
 6421.00    1.17483   1.19830    0.019
 6422.00    1.18984   1.20616    0.018
 6423.00    1.20224   1.22250    0.018
 6424.00    1.20891   1.24076    0.018
 6425.00    1.21490   1.25516    0.018
 6426.00    1.21961   1.26343    0.019
 6427.00    1.22952   1.26544    0.019
 6428.00    1.24806   1.25991    0.019
 6429.00    1.25604   1.24560    0.019
 6430.00    1.24865   1.22642    0.019
 6431.00    1.23552   1.21089    0.019
 6432.00    1.21504   1.20606    0.019
 6433.00    1.21010   1.21355    0.019
 6434.00    1.22267   1.22788    0.019
 6435.00    1.22959   1.24011    0.019
 6436.00    1.23089   1.24373    0.019
 6437.00    1.23360   1.23680    0.019
 6438.00    1.23755   1.22439    0.019
 6439.00    1.24143   1.21623    0.019
 6440.00    1.24524   1.21897    0.019
 6441.00    1.24624   1.23279    0.019
 6442.00    1.24533   1.25177    0.019
 6443.00    1.22917   1.26787    0.019
 6444.00    1.20394   1.27763    0.019
 6445.00    1.18869   1.28086    0.019
 6446.00    1.17861   1.27648    0.019
 6447.00    1.18516   1.26166    0.019
 6448.00    1.19920   1.23495    0.019
 6449.00    1.21965   1.20293    0.019
 6450.00    1.24259   1.17877    0.019
 6451.00    1.23963   1.17196    0.019
 6452.00    1.22815   1.18344    0.019
 6453.00    1.21940   1.20318    0.019
 6454.00    1.21140   1.21832    0.018
 6455.00    1.22945   1.22521    0.018
 6456.00    1.25340   1.22847    0.018
 6457.00    1.25634   1.23433    0.019
 6458.00    1.25547   1.24454    0.019
 6459.00    1.24163   1.25386    0.019
 6460.00    1.22598   1.25384    0.019
 6461.00    1.22597   1.24082    0.019
 6462.00    1.22751   1.22125    0.019
 6463.00    1.22450   1.20662    0.019
 6464.00    1.22120   1.20453    0.018
 6465.00    1.22126   1.21585    0.019
 6466.00    1.22147   1.23323    0.019
 6467.00    1.23589   1.24727    0.019
 6468.00    1.25043   1.25319    0.018
 6469.00    1.26822   1.25130    0.019
 6470.00    1.28492   1.24453    0.019
 6471.00    1.28621   1.23789    0.019
 6472.00    1.28731   1.23521    0.019
 6473.00    1.28663   1.23584    0.019
 6474.00    1.28356   1.23804    0.019
 6475.00    1.26430   1.24051    0.019
 6476.00    1.24786   1.24281    0.018
 6477.00    1.24622   1.24505    0.018
 6478.00    1.24477   1.24655    0.018
 6479.00    1.24409   1.24433    0.018
 6480.00    1.24193   1.23555    0.018
 6481.00    1.23461   1.22167    0.019
 6482.00    1.22875   1.20800    0.019
 6483.00    1.22722   1.20056    0.018
 6484.00    1.22547   1.20260    0.018
 6485.00    1.22318   1.21247    0.018
 6486.00    1.21696   1.22479    0.019
 6487.00    1.20230   1.23413    0.018
 6488.00    1.19393   1.23718    0.018
 6489.00    1.19733   1.23259    0.018
 6490.00    1.19682   1.22032    0.018
 6491.00    1.18991   1.20017    0.018
 6492.00    1.17472   1.17109    0.018
 6493.00    1.14768   1.13392    0.018
 6494.00    1.12870   1.09507    0.018
 6495.00    1.11991   1.06413    0.018
 6496.00    1.12662   1.04981    0.018
 6497.00    1.15056   1.05506    0.018
 6498.00    1.17835   1.07429    0.018
 6499.00    1.20992   1.10059    0.019
 6500.00    1.22732   1.12838    0.019
 6501.00    1.23250   1.15432    0.018
 6502.00    1.22952   1.17748    0.018
 6503.00    1.22033   1.19653    0.018
 6504.00    1.21272   1.21102    0.018
 6505.00    1.20617   1.22122    0.018
 6506.00    1.19951   1.22691    0.019
 6507.00    1.19277   1.22827    0.019
 6508.00    1.20211   1.22698    0.019
 6509.00    1.21965   1.22563    0.019
 6510.00    1.24844   1.22617    0.019
 6511.00    1.28220   1.22870    0.019
 6512.00    1.28876   1.23140    0.019
 6513.00    1.28500   1.23141    0.019
 6514.00    1.26515   1.22690    0.019
 6515.00    1.24010   1.21848    0.019
 6516.00    1.22754   1.20811    0.018
 6517.00    1.21835   1.19851    0.018
 6518.00    1.22034   1.19343    0.018
 6519.00    1.22481   1.19528    0.019
 6520.00    1.23050   1.20309    0.019
 6521.00    1.23641   1.21414    0.018
 6522.00    1.24815   1.22463    0.018
 6523.00    1.26067   1.23153    0.018
 6524.00    1.24862   1.23380    0.018
 6525.00    1.23421   1.23133    0.018
 6526.00    1.20243   1.22575    0.018
 6527.00    1.16961   1.22014    0.018
 6528.00    1.17258   1.21697    0.000
 6529.00    1.17655   1.21695    0.000
 6530.00    1.19387   1.21787    0.000
 6531.00    1.21029   1.21658    0.000
 6532.00    1.20418   1.21312    0.000
 6533.00    1.19827   1.21049    0.000
 6534.00    1.19499   1.21176    0.000
 6535.00    1.19382   1.21700    0.000
 6536.00    1.21150   1.22353    0.000
 6537.00    1.22855   1.22927    0.000
 6538.00    1.24144   1.23368    0.000
 6539.00    1.25097   1.23701    0.000
 6540.00    1.24336   1.23869    0.000
 6541.00    1.23534   1.23693    0.000
 6542.00    1.22565   1.23035    0.000
 6543.00    1.21750   1.21930    0.000
 6544.00    1.21466   1.20532    0.000
 6545.00    1.21668   1.19088    0.000
 6546.00    1.23274   1.18005    0.000
 6547.00    1.24352   1.17567    0.000
 6548.00    1.24131   1.17792    0.000
 6549.00    1.23718   1.18375    0.000
 6550.00    1.22898   1.18771    0.000
 6551.00    1.22129   1.18640    0.000
 6552.00    1.21455   1.17933    0.000
 6553.00    1.20339   1.16788    0.000
 6554.00    1.18511   1.15490    0.000
 6555.00    1.17060   1.14348    0.000
 6556.00    1.16140   1.13589    0.000
 6557.00    1.15225   1.13152    0.000
 6558.00    1.14317   1.12538    0.000
 6559.00    1.15019   1.10943    0.000
 6560.00    1.17484   1.07553    0.000
 6561.00    1.19574   1.02318    0.000
 6562.00    1.21301   0.96815    0.000
 6563.00    1.21010   0.93563    0.000
 6564.00    1.18999   0.94103    0.000
 6565.00    1.18109   0.98369    0.000
 6566.00    1.18060   1.04509    0.000
 6567.00    1.18513   1.09939    0.000
 6568.00    1.19296   1.13310    0.000
 6569.00    1.18929   1.14786    0.000
 6570.00    1.17898   1.15031    0.000
 6571.00    1.17967   1.14662    0.000
 6572.00    1.18589   1.14084    0.000
 6573.00    1.18684   1.13505    0.000
 6574.00    1.18550   1.13225    0.000
 6575.00    1.18814   1.13673    0.000
 6576.00    1.19228   1.14938    0.000
 6577.00    1.19315   1.16647    0.000
 6578.00    1.19299   1.18176    0.000
 6579.00    1.21299   1.18976    0.000
 6580.00    1.23832   1.18996    0.000
 6581.00    1.26397   1.18679    0.000
 6582.00    1.28970   1.18470    0.000
 6583.00    1.29419   1.18578    0.000
 6584.00    1.29504   1.18915    0.000
 6585.00    1.27618   1.19253    0.000
 6586.00    1.25477   1.19574    0.000
 6587.00    1.23977   1.19951    0.000
 6588.00    1.22537   1.20328    0.000
 6589.00    1.20354   1.20470    0.000
 6590.00    1.18130   1.19932    0.000
 6591.00    1.17695   1.18415    0.000
 6592.00    1.17294   1.16255    0.000
 6593.00    1.16575   1.14339    0.000
 6594.00    1.15918   1.13449    0.000
 6595.00    1.16698   1.13813    0.000
 6596.00    1.17544   1.15017    0.000
 6597.00    1.19227   1.16299    0.000
 6598.00    1.20796   1.17269    0.000
 6599.00    1.21391   1.18084    0.000
 6600.00    1.21835   1.18941    0.000
 6601.00    1.21312   1.19792    0.000
 6602.00    1.20726   1.20355    0.000
 6603.00    1.19824   1.20334    0.000
 6604.00    1.18785   1.19705    0.000
 6605.00    1.17190   1.18686    0.000
 6606.00    1.15962   1.17521    0.000
 6607.00    1.15959   1.16406    0.000
 6608.00    1.15975   1.15567    0.000
 6609.00    1.16046   1.15327    0.018
 6610.00    1.16766   1.15831    0.018
 6611.00    1.19052   1.16892    0.018
 6612.00    1.20967   1.18120    0.018
 6613.00    1.22108   1.19136    0.018
 6614.00    1.22724   1.19833    0.018
 6615.00    1.22391   1.20303    0.018
 6616.00    1.21892   1.20669    0.018
 6617.00    1.21129   1.20973    0.018
 6618.00    1.20109   1.21187    0.018
 6619.00    1.18731   1.21343    0.019
 6620.00    1.18358   1.21447    0.019
 6621.00    1.19216   1.21334    0.019
 6622.00    1.20508   1.20790    0.019
 6623.00    1.22268   1.19793    0.019
 6624.00    1.23076   1.18647    0.019
 6625.00    1.22976   1.17804    0.019
 6626.00    1.22389   1.17492    0.019
 6627.00    1.21392   1.17655    0.018
 6628.00    1.20154   1.17972    0.018
 6629.00    1.18736   1.18021    0.018
 6630.00    1.17675   1.17625    0.018
 6631.00    1.16846   1.16790    0.018
 6632.00    1.16922   1.15665    0.018
 6633.00    1.17511   1.14635    0.018
 6634.00    1.18346   1.14156    0.018
 6635.00    1.19304   1.14457    0.018
 6636.00    1.19683   1.15425    0.018
 6637.00    1.19815   1.16610    0.018
 6638.00    1.18797   1.17482    0.018
 6639.00    1.17357   1.17855    0.018
 6640.00    1.16420   1.17863    0.018
 6641.00    1.15641   1.17592    0.018
 6642.00    1.16062   1.17117    0.018
 6643.00    1.16794   1.16633    0.018
 6644.00    1.18063   1.16317    0.018
 6645.00    1.19446   1.16296    0.018
 6646.00    1.20232   1.16607    0.019
 6647.00    1.20919   1.17084    0.019
 6648.00    1.19471   1.17505    0.019
 6649.00    1.17755   1.17783    0.018
 6650.00    1.17034   1.17943    0.018
 6651.00    1.16400   1.17986    0.018
 6652.00    1.15655   1.17912    0.018
 6653.00    1.14905   1.17801    0.018
 6654.00    1.15158   1.17749    0.018
 6655.00    1.15436   1.17742    0.018
 6656.00    1.16236   1.17749    0.018
 6657.00    1.16898   1.17736    0.018
 6658.00    1.14659   1.17606    0.018
 6659.00    1.12670   1.17284    0.018
 6660.00    1.13695   1.16708    0.018
 6661.00    1.14693   1.15809    0.018
 6662.00    1.15475   1.14679    0.018
 6663.00    1.16017   1.13679    0.018
 6664.00    1.15077   1.13085    0.018
 6665.00    1.14276   1.12972    0.018
 6666.00    1.14148   1.13312    0.018
 6667.00    1.14040   1.13936    0.018
 6668.00    1.14013   1.14700    0.018
 6669.00    1.13963   1.15601    0.018
 6670.00    1.13838   1.16560    0.018
 6671.00    1.13744   1.17406    0.018
 6672.00    1.13735   1.17973    0.018
 6673.00    1.13882   1.18159    0.018
 6674.00    1.14396   1.17926    0.018
 6675.00    1.14687   1.17175    0.018
 6676.00    1.14518   1.15826    0.018
 6677.00    1.13983   1.14168    0.018
 6678.00    1.12796   1.12841    0.018
 6679.00    1.11437   1.12336    0.018
 6680.00    1.09809   1.12788    0.018
 6681.00    1.09892   1.13943    0.018
 6682.00    1.12321   1.15213    0.018
 6683.00    1.14060   1.16199    0.018
 6684.00    1.14963   1.16869    0.018
 6685.00    1.14945   1.17264    0.018
 6686.00    1.13948   1.17408    0.018
 6687.00    1.14260   1.17377    0.018
 6688.00    1.15802   1.17306    0.018
 6689.00    1.16991   1.17282    0.018
 6690.00    1.17887   1.17325    0.018
 6691.00    1.19025   1.17373    0.018
 6692.00    1.20338   1.17302    0.018
 6693.00    1.19498   1.16984    0.018
 6694.00    1.17280   1.16328    0.018
 6695.00    1.15714   1.15397    0.018
 6696.00    1.14513   1.14465    0.000
 6697.00    1.14070   1.13842    0.000
 6698.00    1.13995   1.13783    0.000
 6699.00    1.14098   1.14322    0.000
 6700.00    1.14277   1.15102    0.000
 6701.00    1.14255   1.15693    0.000
 6702.00    1.14161   1.15822    0.000
 6703.00    1.13800   1.15497    0.000
 6704.00    1.13357   1.15035    0.000
 6705.00    1.13330   1.14764    0.000
 6706.00    1.13409   1.14808    0.000
 6707.00    1.14760   1.15074    0.000
 6708.00    1.16374   1.15305    0.000
 6709.00    1.18050   1.15286    0.000
 6710.00    1.19737   1.15034    0.000
 6711.00    1.19942   1.14606    0.000
 6712.00    1.19967   1.14007    0.000
 6713.00    1.19901   1.13260    0.000
 6714.00    1.19827   1.12317    0.000
 6715.00    1.20134   1.11202    0.000
 6716.00    1.20460   1.10159    0.000
 6717.00    1.21429   1.09569    0.000
 6718.00    1.22368   1.09716    0.000
 6719.00    1.21104   1.10542    0.000
 6720.00    1.19843   1.11756    0.000
 6721.00    1.18644   1.12961    0.000
 6722.00    1.17491   1.13856    0.000
 6723.00    1.16853   1.14374    0.000
 6724.00    1.16273   1.14565    0.000
 6725.00    1.16159   1.14520    0.000
 6726.00    1.16136   1.14370    0.000
 6727.00    1.16659   1.14280    0.000
 6728.00    1.16954   1.14417    0.000
 6729.00    1.16169   1.14797    0.000
 6730.00    1.15557   1.15215    0.000
 6731.00    1.15610   1.15465    0.000
 6732.00    1.15487   1.15483    0.000
 6733.00    1.14798   1.15344    0.000
 6734.00    1.13933   1.15160    0.000
 6735.00    1.12589   1.14982    0.000
 6736.00    1.10939   1.14728    0.000
 6737.00    1.08576   1.14296    0.000
 6738.00    1.07216   1.13723    0.000
 6739.00    1.07881   1.13182    0.000
 6740.00    1.08747   1.12826    0.000
 6741.00    1.09969   1.12660    0.000
 6742.00    1.10204   1.12611    0.000
 6743.00    1.08920   1.12605    0.000
 6744.00    1.08513   1.12581    0.000
 6745.00    1.09290   1.12545    0.000
 6746.00    1.10076   1.12490    0.000
 6747.00    1.10875   1.12319    0.000
 6748.00    1.10779   1.12011    0.000
 6749.00    1.09746   1.11691    0.000
 6750.00    1.09070   1.11487    0.000
 6751.00    1.08727   1.11406    0.000
 6752.00    1.09395   1.11461    0.000
 6753.00    1.10888   1.11740    0.020
 6754.00    1.11381   1.12194    0.021
 6755.00    1.11155   1.12832    0.021
 6756.00    1.10960   1.13677    0.021
 6757.00    1.10784   1.14570    0.020
 6758.00    1.10083   1.15371    0.021
 6759.00    1.09093   1.15989    0.021
 6760.00    1.13233   1.16325    0.021
 6761.00    1.19830   1.16370    0.021
 6762.00    1.24134   1.16220    0.021
 6763.00    1.27491   1.15923    0.022
 6764.00    1.27831   1.15468    0.022
 6765.00    1.27104   1.14821    0.022
 6766.00    1.28605   1.13999    0.022
 6767.00    1.30771   1.13179    0.022
 6768.00    1.29691   1.12574    0.021
 6769.00    1.27808   1.12261    0.021
 6770.00    1.25542   1.12244    0.021
 6771.00    1.23200   1.12493    0.020
 6772.00    1.23226   1.12974    0.020
 6773.00    1.23624   1.13706    0.020
 6774.00    1.22112   1.14643    0.020
 6775.00    1.20377   1.15577    0.020
 6776.00    1.16817   1.16275    0.020
 6777.00    1.13113   1.16697    0.019
 6778.00    1.15396   1.16897    0.020
 6779.00    1.17940   1.16848    0.020
 6780.00    1.17581   1.16484    0.020
 6781.00    1.17142   1.15689    0.020
 6782.00    1.14418   1.14434    0.020
 6783.00    1.11981   1.12975    0.020
 6784.00    1.14752   1.11721    0.020
 6785.00    1.17434   1.11012    0.020
 6786.00    1.19144   1.11033    0.020
 6787.00    1.20524   1.11660    0.020
 6788.00    1.19353   1.12524    0.020
 6789.00    1.18627   1.13321    0.020
 6790.00    1.20492   1.13853    0.020
 6791.00    1.22052   1.13999    0.020
 6792.00    1.22203   1.13802    0.020
 6793.00    1.22741   1.13425    0.020
 6794.00    1.24742   1.13005    0.020
 6795.00    1.25266   1.12696    0.020
 6796.00    1.21121   1.12655    0.020
 6797.00    1.18456   1.12863    0.020
 6798.00    1.19752   1.13209    0.020
 6799.00    1.20447   1.13616    0.019
 6800.00    1.19759   1.13996    0.019
 6801.00    1.18869   1.14264    0.019
 6802.00    1.17572   1.14364    0.020
 6803.00    1.16406   1.14294    0.020
 6804.00    1.15466   1.14113    0.020
 6805.00    1.14331   1.13878    0.020
 6806.00    1.12901   1.13676    0.019
 6807.00    1.12476   1.13576    0.019
 6808.00    1.13391   1.13494    0.019
 6809.00    1.14477   1.13415    0.019
 6810.00    1.15761   1.13408    0.019
 6811.00    1.17541   1.13411    0.020
 6812.00    1.19833   1.13368    0.020
 6813.00    1.20701   1.13280    0.021
 6814.00    1.20270   1.13176    0.021
 6815.00    1.18072   1.13186    0.021
 6816.00    1.14453   1.13382    0.020
 6817.00    1.12631   1.13695    0.020
 6818.00    1.12082   1.13967    0.019
 6819.00    1.13767   1.14055    0.019
 6820.00    1.16841   1.14033    0.019
 6821.00    1.17598   1.14126    0.019
 6822.00    1.17097   1.14453    0.019
 6823.00    1.17651   1.14939    0.019
 6824.00    1.18701   1.15343    0.019
 6825.00    1.19017   1.15426    0.019
 6826.00    1.19034   1.15097    0.019
 6827.00    1.17934   1.14485    0.019
 6828.00    1.16446   1.13877    0.020
 6829.00    1.16515   1.13523    0.020
 6830.00    1.17039   1.13519    0.020
 6831.00    1.18136   1.13809    0.020
 6832.00    1.19372   1.14210    0.020
 6833.00    1.19453   1.14551    0.020
 6834.00    1.19307   1.14749    0.019
 6835.00    1.19318   1.14765    0.020
 6836.00    1.19352   1.14529    0.020
 6837.00    1.19807   1.13913    0.021
 6838.00    1.20309   1.12858    0.021
 6839.00    1.18930   1.11508    0.021
 6840.00    1.17409   1.10129    0.021
 6841.00    1.14189   1.09064    0.020
 6842.00    1.10902   1.08652    0.020
 6843.00    1.10045   1.09030    0.020
 6844.00    1.09375   1.10062    0.019
 6845.00    1.15494   1.11390    0.019
 6846.00    1.21195   1.12616    0.019
 6847.00    1.19845   1.13470    0.019
 6848.00    1.18626   1.13893    0.019
 6849.00    1.18781   1.14005    0.019
 6850.00    1.18875   1.13943    0.020
 6851.00    1.18513   1.13760    0.020
 6852.00    1.17860   1.13410    0.019
 6853.00    1.15568   1.12785    0.019
 6854.00    1.13517   1.11917    0.019
 6855.00    1.12557   1.11031    0.019
 6856.00    1.12086   1.10342    0.019
 6857.00    1.13424   1.10018    0.020
 6858.00    1.13355   1.10066    0.020
 6859.00    1.08931   1.10171    0.019
 6860.00    1.06374   1.10124    0.019
 6861.00    1.08732   1.10106    0.019
 6862.00    1.10611   1.10350    0.019
 6863.00    1.11405   1.10909    0.019
 6864.00    1.12135   1.11627    0.019
 6865.00    1.12740   1.12118    0.019
 6866.00    1.12822   1.12019    0.019
 6867.00    1.12012   1.11414    0.020
 6868.00    1.12024   1.10757    0.020
 6869.00    1.13263   1.10381    0.020
 6870.00    1.13434   1.10316    0.020
 6871.00    1.12201   1.10435    0.020
 6872.00    1.11251   1.10563    0.019
 6873.00    1.10628   1.10596    0.019
 6874.00    1.10080   1.10654    0.019
 6875.00    1.09608   1.10928    0.019
 6876.00    1.09166   1.11427    0.019
 6877.00    1.08751   1.11986    0.019
 6878.00    1.07882   1.12440    0.019
 6879.00    1.06654   1.12622    0.019
 6880.00    1.07272   1.12365    0.019
 6881.00    1.09178   1.11743    0.019
 6882.00    1.11696   1.11096    0.019
 6883.00    1.14586   1.10745    0.019
 6884.00    1.15482   1.10810    0.019
 6885.00    1.15311   1.11261    0.019
 6886.00    1.14321   1.11985    0.019
 6887.00    1.12951   1.12771    0.019
 6888.00    1.11947   1.13508    0.019
 6889.00    1.11089   1.14223    0.019
 6890.00    1.11959   1.14803    0.019
 6891.00    1.13418   1.15084    0.019
 6892.00    1.13266   1.15078    0.019
 6893.00    1.12652   1.14853    0.019
 6894.00    1.12826   1.14467    0.019
 6895.00    1.13187   1.14090    0.019
 6896.00    1.12784   1.13880    0.019
 6897.00    1.12237   1.13809    0.019
 6898.00    1.12501   1.13823    0.019
 6899.00    1.12885   1.13897    0.020
 6900.00    1.13892   1.14020    0.020
 6901.00    1.14965   1.14169    0.020
 6902.00    1.13110   1.14336    0.020
 6903.00    1.11047   1.14526    0.019
 6904.00    1.09498   1.14687    0.019
 6905.00    1.07967   1.14796    0.019
 6906.00    1.07495   1.14936    0.019
 6907.00    1.07023   1.15142    0.019
 6908.00    1.06452   1.15359    0.019
 6909.00    1.06067   1.15443    0.019
 6910.00    1.08635   1.15245    0.019
 6911.00    1.10831   1.14753    0.019
 6912.00    1.09310   1.14016    0.019
 6913.00    1.08172   1.13169    0.019
 6914.00    1.09783   1.12462    0.019
 6915.00    1.11077   1.12046    0.019
 6916.00    1.10620   1.11971    0.019
 6917.00    1.10271   1.12284    0.020
 6918.00    1.10398   1.12872    0.020
 6919.00    1.10864   1.13556    0.020
 6920.00    1.12559   1.14216    0.020
 6921.00    1.14010   1.14618    0.019
 6922.00    1.14716   1.14517    0.019
 6923.00    1.14478   1.13859    0.019
 6924.00    1.11802   1.12872    0.019
 6925.00    1.09484   1.11956    0.019
 6926.00    1.07963   1.11474    0.019
 6927.00    1.07025   1.11575    0.019
 6928.00    1.07214   1.12114    0.019
 6929.00    1.07743   1.12752    0.019
 6930.00    1.08845   1.13141    0.019
 6931.00    1.10029   1.13146    0.019
 6932.00    1.11334   1.12902    0.020
 6933.00    1.11043   1.12668    0.020
 6934.00    1.08686   1.12617    0.020
 6935.00    1.08577   1.12779    0.020
 6936.00    1.11032   1.13134    0.020
 6937.00    1.12598   1.13552    0.020
 6938.00    1.13268   1.13903    0.020
 6939.00    1.13085   1.14191    0.020
 6940.00    1.12146   1.14378    0.020
 6941.00    1.11612   1.14314    0.020
 6942.00    1.11395   1.13859    0.020
 6943.00    1.10226   1.13027    0.019
 6944.00    1.08402   1.12067    0.019
 6945.00    1.07538   1.11391    0.019
 6946.00    1.07254   1.11252    0.020
 6947.00    1.07380   1.11622    0.020
 6948.00    1.07723   1.12272    0.019
 6949.00    1.07641   1.12771    0.019
 6950.00    1.07366   1.12805    0.020
 6951.00    1.08350   1.12455    0.020
 6952.00    1.09827   1.11940    0.020
 6953.00    1.09792   1.11513    0.020
 6954.00    1.09250   1.11452    0.020
 6955.00    1.08221   1.11791    0.020
 6956.00    1.07055   1.12350    0.020
 6957.00    1.08421   1.12969    0.020
 6958.00    1.10372   1.13509    0.020
 6959.00    1.11923   1.13870    0.020
 6960.00    1.13401   1.14092    0.020
 6961.00    1.13707   1.14271    0.020
 6962.00    1.13845   1.14433    0.020
 6963.00    1.12378   1.14553    0.020
 6964.00    1.10745   1.14565    0.020
 6965.00    1.10609   1.14517    0.020
 6966.00    1.10572   1.14552    0.020
 6967.00    1.11645   1.14700    0.020
 6968.00    1.12752   1.14905    0.020
 6969.00    1.14416   1.15069    0.020
 6970.00    1.15957   1.15066    0.020
 6971.00    1.13713   1.14902    0.020
 6972.00    1.11381   1.14654    0.020
 6973.00    1.07734   1.14278    0.020
 6974.00    1.04487   1.13666    0.020
 6975.00    1.05072   1.12622    0.020
 6976.00    1.06222   1.11012    0.020
 6977.00    1.11292   1.09116    0.020
 6978.00    1.15177   1.07579    0.020
 6979.00    1.12699   1.06958    0.020
 6980.00    1.10046   1.07452    0.020
 6981.00    1.06640   1.08968    0.020
 6982.00    1.04245   1.11041    0.020
 6983.00    1.05436   1.12949    0.020
 6984.00    1.07278   1.14257    0.020
 6985.00    1.11056   1.14927    0.020
 6986.00    1.13845   1.15052    0.020
 6987.00    1.14123   1.14778    0.020
 6988.00    1.13323   1.14318    0.020
 6989.00    1.10166   1.13917    0.020
 6990.00    1.08218   1.13750    0.020
 6991.00    1.08562   1.13858    0.020
 6992.00    1.09533   1.14161    0.020
 6993.00    1.11541   1.14473    0.020
 6994.00    1.13178   1.14628    0.020
 6995.00    1.14278   1.14588    0.021
 6996.00    1.14969   1.14367    0.021
 6997.00    1.15138   1.13960    0.021
 6998.00    1.14289   1.13349    0.021
 6999.00    1.12294   1.12628    0.020
 7000.00    1.11058   1.12026    0.020
 7001.00    1.10574   1.11694    0.020
 7002.00    1.10079   1.11623    0.020
 7003.00    1.09574   1.11673    0.020
 7004.00    1.07734   1.11644    0.020
 7005.00    1.04863   1.11485    0.020
 7006.00    1.04192   1.11373    0.020
 7007.00    1.05010   1.11523    0.020
 7008.00    1.06290   1.11926    0.021
 7009.00    1.07843   1.12383    0.021
 7010.00    1.08500   1.12712    0.021
 7011.00    1.08691   1.12844    0.021
 7012.00    1.07623   1.12716    0.021
 7013.00    1.05990   1.12223    0.021
 7014.00    1.07196   1.11314    0.021
 7015.00    1.09497   1.10148    0.021
 7016.00    1.09067   1.09177    0.021
 7017.00    1.07740   1.08877    0.021
 7018.00    1.06835   1.09469    0.021
 7019.00    1.06046   1.10784    0.021
 7020.00    1.07613   1.12175    0.021
 7021.00    1.09714   1.12871    0.021
 7022.00    1.07970   1.12626    0.021
 7023.00    1.05532   1.11795    0.021
 7024.00    1.04921   1.10921    0.021
 7025.00    1.04562   1.10449    0.021
 7026.00    1.04109   1.10569    0.021
 7027.00    1.03645   1.11183    0.021
 7028.00    1.04611   1.11973    0.021
 7029.00    1.05666   1.12636    0.021
 7030.00    1.05424   1.13064    0.021
 7031.00    1.05146   1.13280    0.021
 7032.00    1.04791   1.13342    0.021
 7033.00    1.04585   1.13313    0.022
 7034.00    1.08478   1.13261    0.022
 7035.00    1.12018   1.13173    0.022
 7036.00    1.10605   1.12907    0.022
 7037.00    1.09546   1.12484    0.022
 7038.00    1.11738   1.12235    0.022
 7039.00    1.13279   1.12476    0.022
 7040.00    1.10423   1.13343    0.022
 7041.00    1.08277   1.14749    0.022
 7042.00    1.09838   1.16186    0.022
 7043.00    1.11482   1.17036    0.022
 7044.00    1.13473   1.17180    0.022
 7045.00    1.14600   1.16985    0.022
 7046.00    1.12720   1.16867    0.022
 7047.00    1.10540   1.17050    0.022
 7048.00    1.07479   1.17452    0.022
 7049.00    1.04873   1.17675    0.022
 7050.00    1.03402   1.17265   -2.000
 7051.00    1.02901   1.16025   -2.000
 7052.00    1.04488   1.14152   -2.000
 7053.00    1.06839   1.12135   -2.000
 7054.00    1.10613   1.10484   -2.000
 7055.00    1.12392   1.09561   -2.000
 7056.00    1.10915   1.09367   -2.000
 7057.00    1.11430   1.09493   -2.000
 7058.00    1.14796   1.09467   -2.000
 7059.00    1.16669   1.09102   -2.000
 7060.00    1.16663   1.08532   -2.000
 7061.00    1.17080   1.08036   -2.000
 7062.00    1.17967   1.07876   -2.000
 7063.00    1.19130   1.08081   -2.000
 7064.00    1.20561   1.08327   -2.000
 7065.00    1.20840   1.08238   -2.000
 7066.00    1.20124   1.07702   -2.000
 7067.00    1.18385   1.06892   -2.000
 7068.00    1.15867   1.06226   -2.000
 7069.00    1.13849   1.06138   -2.000
 7070.00    1.12165   1.06742   -2.000
 7071.00    1.15918   1.07837   -2.000
 7072.00    1.22850   1.09038   -2.000
 7073.00    1.23030   1.09953   -2.000
 7074.00    1.19769   1.10439   -2.000
 7075.00    1.20770   1.10648   -2.000
 7076.00    1.23654   1.10769   -2.000
 7077.00    1.25660   1.10902   -2.000
 7078.00    1.27332   1.11087   -2.000
 7079.00    1.22879   1.11279   -2.000
 7080.00    1.16452   1.11290   -2.000
 7081.00    1.19455   1.10849   -2.000
 7082.00    1.24999   1.09798   -2.000
 7083.00    1.21752   1.08220   -2.000
 7084.00    1.16565   1.06459   -2.000
 7085.00    1.15392   1.04932   -2.000
 7086.00    1.14924   1.03886   -2.000
 7087.00    1.14449   1.03350   -2.000
 7088.00    1.13972   1.03118   -2.000
 7089.00    1.15393   1.02901   -2.000
 7090.00    1.16995   1.02647   -2.000
 7091.00    1.18225   1.02456   -2.000
 7092.00    1.19434   1.02379   -2.000
 7093.00    1.12217   1.02438   -2.000
 7094.00    1.04856   1.02597   -2.000
 7095.00    1.06183   1.02810   -2.000
 7096.00    1.07335   1.03127   -2.000
 7097.00    1.04168   1.03592   -2.000
 7098.00    1.01205   1.04172   -2.000
 7099.00    1.00945   1.04748   -2.000
 7100.00    1.00514   1.05164   -2.000
 7101.00    0.98582   1.05355   -2.000
 7102.00    0.97028   1.05360   -2.000
 7103.00    0.97943   1.05339   -2.000
 7104.00    0.99173   1.05381   -2.000
 7105.00    1.02012   1.05450   -2.000
 7106.00    1.04352   1.05453   -2.000
 7107.00    1.04643   1.05301   -2.000
 7108.00    1.04216   1.04936   -2.000
 7109.00    1.01347   1.04412   -2.000
 7110.00    0.99451   1.03894   -2.000
 7111.00    1.00355   1.03535   -2.000
 7112.00    1.01549   1.03410   -2.000
 7113.00    1.03455   1.03582   -2.000
 7114.00    1.04476   1.04047   -2.000
 7115.00    1.03627   1.04635   -2.000
 7116.00    1.03695   1.05104   -2.000
 7117.00    1.05447   1.05325   -2.000
 7118.00    1.06183   1.05311   -2.000
 7119.00    1.05285   1.05104   -2.000
 7120.00    1.05111   1.04772   -2.000
 7121.00    1.05956   1.04427   -2.000
 7122.00    1.08699   1.04175   -2.000
 7123.00    1.13796   1.04003   -2.000
 7124.00    1.16988   1.03806   -2.000
 7125.00    1.18098   1.03545   -2.000
 7126.00    1.16494   1.03187   -2.000
 7127.00    1.12274   1.02681   -2.000
 7128.00    1.10546   1.02042   -2.000
 7129.00    1.10936   1.01364   -2.000
 7130.00    1.07663   1.00808   -2.000
 7131.00    1.01645   1.00538   -2.000
 7132.00    1.03817   1.00709   -2.000
 7133.00    1.11376   1.01388   -2.000
 7134.00    1.08323   1.02417   -2.000
 7135.00    0.99157   1.03470   -2.000
 7136.00    0.99400   1.04267   -2.000
 7137.00    1.04364   1.04658   -2.000
 7138.00    1.06614   1.04707   -2.000
 7139.00    1.07685   1.04626   -2.000
 7140.00    1.09477   1.04542   -2.000
 7141.00    1.11537   1.04512   -2.000
 7142.00    1.06914   1.04581   -2.000
 7143.00    1.00180   1.04661   -2.000
 7144.00    1.01359   1.04569   -2.000
 7145.00    1.04625   1.04201   -2.000
 7146.00    1.05715   1.03551   -2.000
 7147.00    1.06336   1.02753   -2.000
 7148.00    1.06561   1.02084   -2.000
 7149.00    1.06719   1.01782   -2.000
 7150.00    1.05422   1.02010   -2.000
 7151.00    1.03937   1.02810   -2.000
 7152.00    1.04530   1.03885   -2.000
 7153.00    1.05311   1.04816   -2.000
 7154.00    1.05955   1.05434   -2.000
 7155.00    1.06592   1.05802   -2.000
 7156.00    1.06733   1.05988   -2.000
 7157.00    1.06869   1.06039   -2.000
 7158.00    1.07534   1.06009   -2.000
 7159.00    1.08410   1.05887   -2.000
 7160.00    1.14079   1.05602   -2.000
 7161.00    1.19471   1.05143   -2.000
 7162.00    1.21361   1.04493   -2.000
 7163.00    1.22065   1.03676   -2.000
 7164.00    1.12657   1.02869   -2.000
 7165.00    1.04032   1.02366   -2.000
 7166.00    1.00370   1.02429   -2.000
 7167.00    0.98772   1.03140   -2.000
 7168.00    1.07421   1.04278   -2.000
 7169.00    1.13844   1.05437   -2.000
 7170.00    1.11306   1.06342   -2.000
 7171.00    1.09054   1.06950   -2.000
 7172.00    1.07753   1.07325   -2.000
 7173.00    1.06008   1.07483   -2.000
 7174.00    1.03008   1.07363   -2.000
 7175.00    1.02619   1.06985   -2.000
 7176.00    1.08526   1.06515   -2.000
 7177.00    1.12005   1.06051   -2.000
 7178.00    1.10430   1.05536   -2.000
 7179.00    1.08939   1.04919   -2.000
 7180.00    1.07599   1.04266   -2.000
 7181.00    1.05671   1.03774   -2.000
 7182.00    1.02811   1.03682   -2.000
 7183.00    1.01641   1.04038   -2.000
 7184.00    1.02819   1.04565   -2.000
 7185.00    1.00437   1.04753   -2.000
 7186.00    0.93701   1.04271   -2.000
 7187.00    0.94753   1.03286   -2.000
 7188.00    1.04199   1.02283   -2.000
 7189.00    1.08979   1.01687   -2.000
 7190.00    1.09321   1.01656   -2.000
 7191.00    1.07789   1.02031   -2.000
 7192.00    1.04687   1.02547   -2.000
 7193.00    1.02610   1.03040   -2.000
 7194.00    1.01291   1.03426   -2.000
 7195.00    1.01796   1.03705   -2.000
 7196.00    1.03483   1.03965   -2.000
 7197.00    1.03636   1.04243   -2.000
 7198.00    1.02920   1.04479   -2.000
 7199.00    1.07037   1.04649   -2.000
 7200.00    1.13542   1.04807   -2.000
 7201.00    1.14105   1.04990   -2.000
 7202.00    1.12131   1.05195   -2.000
 7203.00    1.07057   1.05367   -2.000
 7204.00    1.00849   1.05331   -2.000
 7205.00    0.95666   1.04880   -2.000
 7206.00    0.90801   1.03991   -2.000
 7207.00    0.90187   1.02937   -2.000
 7208.00    0.90671   1.02188   -2.000
 7209.00    0.91710   1.02156   -2.000
 7210.00    0.92867   1.02884   -2.000
 7211.00    0.95909   1.03946   -2.000
 7212.00    0.99263   1.04797   -2.000
 7213.00    1.00136   1.05165   -2.000
 7214.00    1.00699   1.05125   -2.000
 7215.00    1.00756   1.05002   -2.000
 7216.00    1.00769   1.05113   -2.000
 7217.00    0.98192   1.05494   -2.000
 7218.00    0.95483   1.05948   -2.000
