###################################################################
## OUTPUT of StarlightChains_v04.for    [Cid@UFSC - 01/Apr/2007] ##
###################################################################

## Some input info
KUG0210-078._61_42.txt                   [arq_obs]
Base.CB07.vall.4m                        [arq_base]
Masks.EmLines.NEW.gm                     [arq_masks]
StCv04.C11.config                        [arq_config]
   66                                    [N_base]
    0                                    [N_YAV_components = # of components with extra extinction!]
    0                                    [i_FitPowerLaw (1/0 = Yes/No)]
-9.99                                    [alpha_PowerLaw]
CCM                                      [red_law_option]
 1.458241                                [q_norm = A(l_norm)/A(V)]

## (Re)Sampling Parameters
 3741.00                                 [l_ini (A)]
 7218.00                                 [l_fin (A)]
    1.00                                 [dl    (A)]     (OBS: dl_cushion =    50.00 A)

## Normalization info
 4020.00                                 [l_norm (A) - for base]
 4010.00                                 [llow_norm (A) - window for f_obs]
 4060.00                                 [lupp_norm (A) - window for f_obs]
6.053106E-18                             [fobs_norm (in input units)]

## S/N
 3691.00                                 [llow_SN (A) - window for S/N]
 7268.00                                 [lupp_SN (A) - window for S/N]
   2.165                                 [S/N in S/N window]
   2.780                                 [S/N in norm. window]
   0.006                                 [S/N_err in S/N window]
   0.007                                 [S/N_err in norm. window]
  1.0000                                 [fscale_chi2]

## etc...
    -2008038                             [idum_orig]
  2401                                   [NOl_eff]
  2292                                   [Nl_eff]
   109    NSIGMA                         [Ntot_cliped & clip_method]
  6935810                                [Nglobal_steps]
   7                                     [N_chains]
  32                                     [NEX0s_base = N_base in EX0s-fits]
 0   1   1      110   2.0   2.765E+03    [Clip-Bug, RC-Crash & Burn-In warning-flags, n_censored_weights, wei_nsig_threshold & wei_limit]
    78     76.189     75.249      0.940  [idt_all, wdt_TotTime, wdt_UsrTime & wdt_SysTime (sec)]

## Synthesis Results - Best model ##

 1.07845E-05                             [chi2/Nl_eff]
    46.36718                             [adev (%)]

   129.97086                             [sum-of-x (%)]
 2.06112E-18                             [Flux_tot (units of input spectrum!)]
 8.58482E-14                             [Mini_tot (???)]
 4.41728E-14                             [Mcor_tot (???)]

   0.00                                  [v0_min  (km/s)]
 190.39                                  [vd_min  (km/s)]
-0.9973                                  [AV_min  (mag)]
 0.0000                                  [YAV_min (mag)]

# j     x_j(%)      Mini_j(%)     Mcor_j(%)     age_j(yr)     Z_j      (L/M)_j    YAV?  Mstars   component_j        a/Fe...       SSP_chi2r SSP_adev(%)   SSP_AV   SSP_x(%)
  1     27.2715     4.6049E-02    8.9494E-02    1.000000E+06  0.00400  1.094E-02    0   1.0000   age020_m42            0.0000     1.0176E-05    49.4444   2.3770   103.2679
  2      0.0000     0.0000E+00    0.0000E+00    3.160000E+06  0.00400  4.007E-02    0   0.9999   age045_m42            0.0000     1.0799E-05    48.9723   1.6306   111.2124
  3      0.0000     0.0000E+00    0.0000E+00    5.010000E+06  0.00400  2.539E-02    0   0.9488   age055_m42            0.0000     1.0652E-05    49.4691   1.9504   108.6939
  4      0.0000     0.0000E+00    0.0000E+00    6.610000E+06  0.00400  2.620E-02    0   0.9220   age061_m42            0.0000     1.1167E-05    49.3681   1.5617   111.4034
  5      0.0000     0.0000E+00    0.0000E+00    1.000000E+07  0.00400  1.322E-02    0   0.8862   age070_m42            0.0000     1.1189E-05    50.0203   1.3022   112.0302
  6      0.0000     0.0000E+00    0.0000E+00    1.445000E+07  0.00400  7.883E-03    0   0.8571   age078_m42            0.0000     1.0962E-05    50.2874   1.6252   109.6880
  7      0.0000     0.0000E+00    0.0000E+00    2.512000E+07  0.00400  5.251E-03    0   0.8174   age090_m42            0.0000     1.1280E-05    49.9825   1.1724   112.3774
  8      0.0000     0.0000E+00    0.0000E+00    4.000000E+07  0.00400  3.649E-03    0   0.7851   age104_m42            0.0000     1.1390E-05    49.6473   0.9423   113.4189
  9      0.0000     0.0000E+00    0.0000E+00    5.500000E+07  0.00400  3.098E-03    0   0.7629   age110_m42            0.0000     1.1696E-05    49.4620   1.0948   113.8793
 10      0.0000     0.0000E+00    0.0000E+00    1.015200E+08  0.00400  2.228E-03    0   0.7207   age116_m42            0.0000     1.2079E-05    49.1612   1.1140   114.1831
 11      0.3925     6.6329E-03    8.5698E-03    2.861200E+08  0.00400  1.093E-03    0   0.6648   age125_m42            0.0000     1.2449E-05    49.2420   0.5572   116.6302
 12      0.6562     1.8373E-02    2.2728E-02    5.088000E+08  0.00400  6.597E-04    0   0.6365   age130_m42            0.0000     1.2765E-05    48.3965   0.5405   117.9075
 13      2.3297     2.0185E-01    2.2745E-01    1.434000E+09  0.00400  2.132E-04    0   0.5798   age139_m42            0.0000     1.2080E-05    46.3087  -0.4642   121.2661
 14      1.4209     4.4527E-01    4.6530E-01    4.250000E+09  0.00400  5.895E-05    0   0.5377   age158_m42            0.0000     1.0815E-05    45.1529  -0.9469   119.3672
 15      0.6703     3.5279E-01    3.5735E-01    7.500000E+09  0.00400  3.510E-05    0   0.5212   age171_m42            0.0000     1.0901E-05    44.2734  -1.0000   110.7860
 16      0.5079     4.6791E-01    4.5778E-01    1.300000E+10  0.00400  2.005E-05    0   0.5034   age193_m42            0.0000     1.1594E-05    43.7998  -1.0000   101.2664
 17      0.7365     8.9214E-01    8.6120E-01    1.800000E+10  0.00400  1.525E-05    0   0.4967   age213_m42            0.0000     1.1661E-05    43.8218  -1.0000    99.4708
 18      2.2258     3.3212E-03    6.4545E-03    1.000000E+06  0.00800  1.238E-02    0   1.0000   age020_m52            0.0000     1.0184E-05    49.4775   2.3725   103.5503
 19      0.4512     2.7117E-04    5.2521E-04    3.160000E+06  0.00800  3.074E-02    0   0.9966   age045_m52            0.0000     1.0277E-05    49.4762   2.2816   105.1756
 20      0.0000     0.0000E+00    0.0000E+00    5.010000E+06  0.00800  2.668E-02    0   0.9443   age055_m52            0.0000     1.0590E-05    49.5482   2.0326   107.7462
 21      0.2262     1.9558E-04    3.4882E-04    6.610000E+06  0.00800  2.136E-02    0   0.9177   age061_m52            0.0000     1.0583E-05    48.8905   0.7887   113.6635
 22      0.8193     1.2457E-03    2.1369E-03    1.000000E+07  0.00800  1.215E-02    0   0.8827   age070_m52            0.0000     1.1006E-05    50.1098   1.4762   111.6340
 23      0.0000     0.0000E+00    0.0000E+00    1.445000E+07  0.00800  8.717E-03    0   0.8552   age078_m52            0.0000     1.1010E-05    50.0324   1.5840   111.2510
 24      0.0000     0.0000E+00    0.0000E+00    2.512000E+07  0.00800  5.592E-03    0   0.8162   age090_m52            0.0000     1.1305E-05    49.8301   1.2291   113.7540
 25      0.0000     0.0000E+00    0.0000E+00    4.000000E+07  0.00800  3.896E-03    0   0.7841   age104_m52            0.0000     1.1497E-05    49.7682   1.1442   114.8245
 26      0.0000     0.0000E+00    0.0000E+00    1.015200E+08  0.00800  2.148E-03    0   0.7226   age116_m52            0.0000     1.1901E-05    49.3171   1.0789   115.1152
 27      0.0000     0.0000E+00    0.0000E+00    2.861200E+08  0.00800  9.925E-04    0   0.6683   age125_m52            0.0000     1.2904E-05    48.7822   0.6211   118.6134
 28      0.0000     0.0000E+00    0.0000E+00    9.047900E+08  0.00800  3.141E-04    0   0.6138   age135_m52            0.0000     1.2323E-05    46.4000  -0.2167   125.3775
 29      0.5229     5.6192E-02    6.3919E-02    1.434000E+09  0.00800  1.719E-04    0   0.5853   age139_m52            0.0000     1.1499E-05    45.7695  -0.8240   123.8339
 30      2.0029     4.7001E-01    5.1153E-01    2.500000E+09  0.00800  7.872E-05    0   0.5600   age150_m52            0.0000     1.1201E-05    44.1552  -1.0000   115.0192
 31      1.3933     5.9360E-01    6.2596E-01    4.250000E+09  0.00800  4.336E-05    0   0.5426   age158_m52            0.0000     1.1044E-05    44.2971  -1.0000   113.4267
 32      2.5473     1.4895E+00    1.5398E+00    6.250000E+09  0.00800  3.159E-05    0   0.5319   age166_m52            0.0000     1.2085E-05    43.4492  -1.0000   102.1707
 33      0.1474     2.0008E-01    1.9726E-01    1.300000E+10  0.00800  1.361E-05    0   0.5073   age193_m52            0.0000     1.6420E-05    43.8137  -1.0000    79.2986
 34      3.5120     6.5623E+00    6.3641E+00    1.800000E+10  0.00800  9.886E-06    0   0.4990   age213_m52            0.0000     1.7798E-05    43.9626  -1.0000    74.6975
 35      0.0000     0.0000E+00    0.0000E+00    1.000000E+06  0.02000  1.544E-02    0   1.0000   age020_m62            0.0000     1.0194E-05    49.5206   2.3665   103.9123
 36      0.0000     0.0000E+00    0.0000E+00    3.160000E+06  0.02000  3.762E-02    0   0.9858   age045_m62            0.0000     1.0346E-05    49.8874   2.3008   105.4234
 37      0.0000     0.0000E+00    0.0000E+00    5.010000E+06  0.02000  3.296E-02    0   0.9342   age055_m62            0.0000     1.0987E-05    49.8022   1.9180   110.1630
 38      0.8005     1.2813E-03    2.2066E-03    8.710000E+06  0.02000  1.154E-02    0   0.8861   age067_m62            0.0000     1.1014E-05    51.2953   0.9491   111.7224
 39      0.0000     0.0000E+00    0.0000E+00    1.445000E+07  0.02000  7.663E-03    0   0.8472   age078_m62            0.0000     1.0938E-05    50.5689   1.1351   113.1754
 40      0.0000     0.0000E+00    0.0000E+00    2.512000E+07  0.02000  4.532E-03    0   0.8099   age090_m62            0.0000     1.1160E-05    50.6600   1.1232   112.7980
 41      0.6815     4.6063E-03    6.7991E-03    5.500000E+07  0.02000  2.733E-03    0   0.7595   age110_m62            0.0000     1.1552E-05    49.8642   1.1246   114.1594
 42      0.0000     0.0000E+00    0.0000E+00    1.609000E+08  0.02000  1.369E-03    0   0.6985   age120_m62            0.0000     1.2692E-05    49.3725   0.9810   116.7837
 43      0.0000     0.0000E+00    0.0000E+00    2.861200E+08  0.02000  9.013E-04    0   0.6714   age125_m62            0.0000     1.3358E-05    48.5362   0.7382   119.5051
 44     27.8416     1.0229E+00    1.2820E+00    5.088000E+08  0.02000  5.028E-04    0   0.6449   age130_m62            0.0000     1.3167E-05    47.2260   0.3452   123.9122
 45      0.0000     0.0000E+00    0.0000E+00    9.047900E+08  0.02000  2.428E-04    0   0.6179   age135_m62            0.0000     1.1883E-05    46.1060  -0.2841   125.7873
 46      0.0000     0.0000E+00    0.0000E+00    1.434000E+09  0.02000  1.263E-04    0   0.5908   age139_m62            0.0000     1.1214E-05    45.3405  -0.7515   125.0652
 47      2.5775     7.9554E-01    8.7710E-01    2.500000E+09  0.02000  5.985E-05    0   0.5673   age150_m62            0.0000     1.1241E-05    43.8700  -1.0000   116.0323
 48      1.3399     7.5670E-01    8.0414E-01    4.250000E+09  0.02000  3.271E-05    0   0.5468   age158_m62            0.0000     1.3206E-05    42.4916  -1.0000    97.8241
 49      0.2852     3.8741E-01    3.8904E-01    1.000000E+10  0.02000  1.360E-05    0   0.5167   age181_m62            0.0000     1.6826E-05    42.6767  -1.0000    81.1560
 50      8.2335     2.1349E+01    2.0800E+01    1.800000E+10  0.02000  7.124E-06    0   0.5013   age213_m62            0.0000     1.9476E-05    43.4781  -1.0000    72.2469
 51      0.0000     0.0000E+00    0.0000E+00    1.000000E+06  0.05000  2.592E-02    0   0.9998   age020_m72            0.0000     1.0149E-05    49.5051   2.3533   104.0829
 52      0.0000     0.0000E+00    0.0000E+00    3.160000E+06  0.05000  4.845E-02    0   0.9577   age045_m72            0.0000     1.0587E-05    49.9831   2.1737   107.5029
 53      0.0000     0.0000E+00    0.0000E+00    5.010000E+06  0.05000  3.072E-02    0   0.9147   age055_m72            0.0000     1.0746E-05    51.1947   1.7215   110.2322
 54      0.5989     7.6037E-04    1.3118E-03    6.610000E+06  0.05000  1.455E-02    0   0.8877   age061_m72            0.0000     1.1335E-05    53.5658   1.0315   111.4156
 55      0.0000     0.0000E+00    0.0000E+00    1.000000E+07  0.05000  9.074E-03    0   0.8524   age070_m72            0.0000     1.0988E-05    53.3373   1.9482   109.5244
 56      0.0000     0.0000E+00    0.0000E+00    2.512000E+07  0.05000  4.250E-03    0   0.7902   age090_m72            0.0000     1.1343E-05    51.5561   1.6097   111.7559
 57      0.0000     0.0000E+00    0.0000E+00    4.000000E+07  0.05000  3.087E-03    0   0.7618   age104_m72            0.0000     1.1629E-05    51.0690   1.3725   113.3244
 58      0.4350     4.7268E-03    6.5186E-03    1.015200E+08  0.05000  1.700E-03    0   0.7096   age116_m72            0.0000     1.2599E-05    49.8272   1.1204   116.1907
 59      0.0000     0.0000E+00    0.0000E+00    2.861200E+08  0.05000  7.384E-04    0   0.6633   age125_m72            0.0000     1.3311E-05    47.8921   0.5970   121.7847
 60      0.6374     3.0829E-02    3.8178E-02    5.088000E+08  0.05000  3.819E-04    0   0.6372   age130_m72            0.0000     1.2468E-05    46.3718   0.0643   126.2427
 61      0.9843     1.0849E-01    1.2882E-01    9.047900E+08  0.05000  1.676E-04    0   0.6110   age135_m72            0.0000     1.1418E-05    45.1047  -0.6702   126.9696
 62      0.0000     0.0000E+00    0.0000E+00    1.434000E+09  0.05000  8.837E-05    0   0.5874   age139_m72            0.0000     1.1399E-05    43.6229  -1.0000   117.5449
 63      0.0000     0.0000E+00    0.0000E+00    2.500000E+09  0.05000  4.233E-05    0   0.5598   age150_m72            0.0000     1.3261E-05    42.2389  -1.0000    98.6586
 64     27.9277     3.5951E+01    3.6674E+01    6.250000E+09  0.05000  1.435E-05    0   0.5249   age166_m72            0.0000     1.7900E-05    42.9226  -1.0000    76.5989
 65      9.7941     2.7779E+01    2.7188E+01    1.300000E+10  0.05000  6.513E-06    0   0.5036   age193_m72            0.0000     2.1695E-05    44.1084  -1.0000    66.7369
 66      0.0000     0.0000E+00    0.0000E+00    1.800000E+10  0.05000  4.527E-06    0   0.4945   age213_m72            0.0000     2.3844E-05    44.9611  -1.0000    61.2107


## Synthesis Results - Average & Chains ##

# j      x_j: min, <> & last-chain-values for 1 ...  7 chains
  1     27.2715     27.6351     25.4525     25.8783     26.0843     26.6472     27.6434     25.9144     26.7122
  2      0.0000      0.1021      0.0000      0.0000      0.0000      0.2292      0.0000      0.3794      0.7944
  3      0.0000      0.1196      0.0000      0.0161      0.0000      0.1435      0.1909      0.4118      0.0000
  4      0.0000      0.0897      0.0000      0.0138      0.0819      0.1621      0.1695      0.2668      0.0000
  5      0.0000      0.1341      0.1593      0.4987      0.0000      0.0000      0.0000      0.0000      0.0000
  6      0.0000      0.0570      0.0000      0.0000      0.0000      0.0000      0.0000      0.0000      0.3197
  7      0.0000      0.0936      0.0000      0.0000      0.0000      0.2763      0.1244      0.3391      0.0000
  8      0.0000      0.1256      0.2755      0.0522      0.7889      0.2566      0.0347      0.0000      0.0000
  9      0.0000      0.2583      0.2163      0.3371      0.6297      0.0239      0.6431      0.0000      0.3662
 10      0.0000      0.0890      0.0000      0.6416      0.0000      0.0000      0.3157      0.0000      0.0000
 11      0.3925      0.1674      0.6137      0.0000      0.1231      0.0000      0.0000      0.0240      0.1543
 12      0.6562      0.0733      0.4379      0.0000      0.0000      0.0000      0.0000      0.3859      0.0304
 13      2.3297      0.5699      1.9504      0.4543      1.1862      0.5983      0.0000      0.5146      1.6936
 14      1.4209      1.7192      6.2857      3.8613      0.9686      3.5109      0.6688      1.6581      2.0594
 15      0.6703      1.7520      1.2868      2.2815      3.4297      0.6974      1.0993      2.0501      2.2397
 16      0.5079      0.5357      0.5226      1.2143      0.0000      0.0000      1.2289      0.0000      0.1006
 17      0.7365      0.3517      0.3719      0.4224      0.0000      0.2753      0.2276      0.2306      1.0569
 18      2.2258      2.2804      2.2669      1.6136      2.1584      2.2947      2.2118      2.6303      1.8872
 19      0.4512      0.1737      0.5282      0.5168      0.0000      0.0000      0.0000      0.0000      0.4713
 20      0.0000      0.1269      0.2479      0.0000      0.0000      0.0856      0.0000      0.0000      0.7858
 21      0.2262      0.1362      0.5002      0.0230      0.0258      0.4721      0.0356      0.0000      0.0644
 22      0.8193      0.1230      1.2015      0.0000      0.0000      0.0316      0.1284      0.0000      0.0000
 23      0.0000      0.0497      0.0000      0.1689      0.0000      0.0000      0.0000      0.0000      0.0415
 24      0.0000      0.0686      0.0000      0.0000      0.1865      0.2784      0.0000      0.0700      0.0000
 25      0.0000      0.0729      0.0000      0.0000      0.0000      0.0000      0.0000      0.0000      0.0000
 26      0.0000      0.0620      0.0000      0.0618      0.0000      0.0000      0.1851      0.0000      0.0000
 27      0.0000      0.1819      0.2723      0.5052      0.3707      0.0000      0.0000      0.2728      0.0000
 28      0.0000      0.3987      0.0187      0.2912      0.5691      0.3677      0.3952      1.9290      0.0000
 29      0.5229      1.6870      1.2704      1.1566      1.3072      2.7801      1.0175      1.5535      3.0917
 30      2.0029      1.4104      2.8576      2.1281      1.5149      1.7569      6.8298      2.0275      1.7648
 31      1.3933      1.3412      0.3961      0.9573      1.5234      1.3227      0.5820      1.0682      0.6815
 32      2.5473      0.5642      1.5856      0.1559      3.1506      0.5611      0.6957      0.9045      0.6358
 33      0.1474      0.2047      0.6673      0.0000      0.2949      0.1075      0.0000      0.0000      0.4512
 34      3.5120      4.2626      4.4810      4.0961      3.4453      3.9615      4.1925      4.0745      4.3219
 35      0.0000      0.1445      0.0000      0.0000      0.0685      0.1966      0.0000      0.5769      0.0000
 36      0.0000      0.0600      0.0000      0.2940      0.1750      0.0001      0.0000      0.3092      0.0000
 37      0.0000      0.0752      0.0000      0.2295      0.0000      0.0000      0.1986      0.0000      0.0000
 38      0.8005      0.1214      0.4677      0.0058      0.2435      0.0000      0.3513      0.0000      0.0000
 39      0.0000      0.0863      0.0000      0.0000      0.4697      0.0000      0.0000      0.0000      0.0000
 40      0.0000      0.1763      0.0000      0.1688      0.0294      0.1210      0.0000      0.2684      0.0000
 41      0.6815      0.1633      0.4619      0.3647      0.4224      0.0000      0.2305      0.0000      0.0000
 42      0.0000      0.1713      0.0000      0.0945      0.1216      0.0000      0.2912      0.0684      0.4702
 43      0.0000      0.1795      0.3719      0.3129      0.0000      0.8167      1.0925      0.0359      0.1874
 44     27.8416     28.2851     26.1950     27.4277     26.6931     27.6914     28.0302     26.6953     28.8110
 45      0.0000      0.5740      0.0000      0.9001      0.8065      0.3196      0.0000      1.6822      0.6556
 46      0.0000      1.0981      0.0000      4.1562      1.7872      2.3047      1.7795      1.6408      0.8445
 47      2.5775      0.8771      0.3897      0.0000      0.4154      0.0000      0.0000      0.8710      0.7724
 48      1.3399      0.3672      1.1457      0.1832      0.0000      0.7673      0.0000      0.0677      0.0000
 49      0.2852      0.1769      0.4268      0.0000      0.1577      0.0000      0.5197      0.0000      0.0000
 50      8.2335      7.9285      7.3833      7.5615      7.2866      7.9918      7.9043      7.5966      7.8546
 51      0.0000      0.0483      0.0000      0.0000      0.0000      0.0000      0.0000      0.2524      0.2561
 52      0.0000      0.1425      0.0000      0.6382      0.0000      0.3161      0.5801      0.1286      0.2491
 53      0.0000      0.0894      0.0000      0.0000      0.0000      0.0000      0.1317      0.0000      0.0000
 54      0.5989      0.1603      0.4026      0.0000      0.0366      0.0000      0.0000      0.0863      0.2063
 55      0.0000      0.0518      0.0000      0.0693      0.0657      0.0000      0.0117      0.0000      0.0000
 56      0.0000      0.1366      0.0000      0.0000      0.1957      0.7701      0.0000      0.0000      0.0000
 57      0.0000      0.0820      0.0539      0.0000      0.0000      0.0527      0.1033      0.0000      0.0000
 58      0.4350      0.1499      0.6654      0.0885      1.0310      0.0000      0.0000      0.1451      0.0000
 59      0.0000      0.0883      0.2517      0.0000      0.0000      0.0000      0.2026      0.0000      0.0000
 60      0.6374      0.2264      0.5173      0.0812      0.7644      0.0000      0.2225      0.0000      0.0228
 61      0.9843      0.8861      0.8556      0.8755      1.1226      1.1098      0.3209      1.4652      0.0000
 62      0.0000      1.1661      0.3162      1.8827      1.5453      3.3423      1.7243      3.3794      1.6422
 63      0.0000      0.5372      0.3278      0.0086      1.4866      0.0660      0.0000      0.5958      0.8119
 64     27.9277     28.3712     25.7390     27.3983     26.9901     27.3196     27.8580     27.0526     27.4023
 65      9.7941     10.2228      9.8000      9.7144     10.2460      9.8448      9.8274     10.3773     10.0890
 66      0.0000      0.0693      0.3619      0.1980      0.0000      0.1291      0.0000      0.0000      0.0000

# j      m_j: min, <> & last-chain-values for 1 ...  7 chains
  1  8.9494E-02  8.9775E-02  8.4280E-02  8.6260E-02  8.7580E-02  8.9114E-02  9.1531E-02  8.6658E-02  8.7802E-02
  2  0.0000E+00  9.0573E-05  0.0000E+00  0.0000E+00  0.0000E+00  2.0921E-04  0.0000E+00  3.4632E-04  7.1280E-04
  3  0.0000E+00  1.5888E-04  0.0000E+00  2.1956E-05  0.0000E+00  1.9613E-04  2.5838E-04  5.6292E-04  0.0000E+00
  4  0.0000E+00  1.1219E-04  0.0000E+00  1.7740E-05  1.0588E-04  2.0869E-04  2.1603E-04  3.4343E-04  0.0000E+00
  5  0.0000E+00  3.1940E-04  3.8682E-04  1.2190E-03  0.0000E+00  0.0000E+00  0.0000E+00  0.0000E+00  0.0000E+00
  6  0.0000E+00  2.2019E-04  0.0000E+00  0.0000E+00  0.0000E+00  0.0000E+00  0.0000E+00  0.0000E+00  1.2501E-03
  7  0.0000E+00  5.1780E-04  0.0000E+00  0.0000E+00  0.0000E+00  1.5736E-03  7.0168E-04  1.9311E-03  0.0000E+00
  8  0.0000E+00  9.6006E-04  2.1469E-03  4.0957E-04  6.2348E-03  2.0197E-03  2.7020E-04  0.0000E+00  0.0000E+00
  9  0.0000E+00  2.2610E-03  1.9292E-03  3.0267E-03  5.6958E-03  2.1490E-04  5.7364E-03  0.0000E+00  3.2429E-03
 10  0.0000E+00  1.0233E-03  0.0000E+00  7.5679E-03  0.0000E+00  0.0000E+00  3.6994E-03  0.0000E+00  0.0000E+00
 11  8.5698E-03  3.6196E-03  1.3521E-02  0.0000E+00  2.7503E-03  0.0000E+00  0.0000E+00  5.3374E-04  3.3749E-03
 12  2.2728E-02  2.5128E-03  1.5305E-02  0.0000E+00  0.0000E+00  0.0000E+00  0.0000E+00  1.3621E-02  1.0536E-03
 13  2.2745E-01  5.5083E-02  1.9214E-01  4.5053E-02  1.1850E-01  5.9524E-02  0.0000E+00  5.1198E-02  1.6562E-01
 14  4.6530E-01  5.5732E-01  2.0769E+00  1.2843E+00  3.2452E-01  1.1716E+00  2.2097E-01  5.5331E-01  6.7548E-01
 15  3.5735E-01  9.2458E-01  6.9217E-01  1.2354E+00  1.8707E+00  3.7885E-01  5.9130E-01  1.1137E+00  1.1959E+00
 16  4.5778E-01  4.7802E-01  4.7531E-01  1.1118E+00  0.0000E+00  0.0000E+00  1.1176E+00  0.0000E+00  9.0830E-02
 17  8.6120E-01  4.0711E-01  4.3879E-01  5.0175E-01  0.0000E+00  3.2802E-01  2.6858E-01  2.7479E-01  1.2378E+00
 18  6.4545E-03  6.5464E-03  6.6331E-03  4.7529E-03  6.4039E-03  6.7815E-03  6.4719E-03  7.7727E-03  5.4816E-03
 19  5.2521E-04  2.0014E-04  6.2035E-04  6.1104E-04  0.0000E+00  0.0000E+00  0.0000E+00  0.0000E+00  5.4947E-04
 20  0.0000E+00  1.5957E-04  3.1783E-04  0.0000E+00  0.0000E+00  1.1087E-04  0.0000E+00  0.0000E+00  1.0001E-03
 21  3.4882E-04  2.0802E-04  7.7852E-04  3.6035E-05  4.0776E-05  7.4207E-04  5.5404E-05  0.0000E+00  9.9524E-05
 22  2.1369E-03  3.1759E-04  3.1621E-03  0.0000E+00  0.0000E+00  8.4102E-05  3.3801E-04  0.0000E+00  0.0000E+00
 23  0.0000E+00  1.7332E-04  0.0000E+00  6.0436E-04  0.0000E+00  0.0000E+00  0.0000E+00  0.0000E+00  1.4657E-04
 24  0.0000E+00  3.5605E-04  0.0000E+00  0.0000E+00  9.9987E-04  1.4864E-03  0.0000E+00  3.7358E-04  0.0000E+00
 25  0.0000E+00  5.2169E-04  0.0000E+00  0.0000E+00  0.0000E+00  0.0000E+00  0.0000E+00  0.0000E+00  0.0000E+00
 26  0.0000E+00  7.4070E-04  0.0000E+00  7.5860E-04  0.0000E+00  0.0000E+00  2.2562E-03  0.0000E+00  0.0000E+00
 27  0.0000E+00  4.3525E-03  6.6422E-03  1.2405E-02  9.1692E-03  0.0000E+00  0.0000E+00  6.7200E-03  0.0000E+00
 28  0.0000E+00  2.7688E-02  1.3262E-03  2.0749E-02  4.0848E-02  2.6288E-02  2.7975E-02  1.3790E-01  0.0000E+00
 29  6.3919E-02  2.0414E-01  1.5669E-01  1.4361E-01  1.6349E-01  3.4632E-01  1.2550E-01  1.9351E-01  3.7854E-01
 30  5.1153E-01  3.5659E-01  7.3639E-01  5.5206E-01  3.9585E-01  4.5726E-01  1.7600E+00  5.2766E-01  4.5146E-01
 31  6.2596E-01  5.9646E-01  1.7957E-01  4.3687E-01  7.0026E-01  6.0557E-01  2.6381E-01  4.8903E-01  3.0667E-01
 32  1.5398E+00  3.3765E-01  9.6716E-01  9.5738E-02  1.9486E+00  3.4567E-01  4.2431E-01  5.5714E-01  3.8495E-01
 33  1.9726E-01  2.7116E-01  9.0107E-01  0.0000E+00  4.0372E-01  1.4657E-01  0.0000E+00  0.0000E+00  6.0471E-01
 34  6.3641E+00  7.6465E+00  8.1935E+00  7.5395E+00  6.3878E+00  7.3157E+00  7.6657E+00  7.5239E+00  7.8445E+00
 35  0.0000E+00  3.3257E-04  0.0000E+00  0.0000E+00  1.6303E-04  4.6591E-04  0.0000E+00  1.3669E-03  0.0000E+00
 36  0.0000E+00  5.5859E-05  0.0000E+00  2.8094E-04  1.6842E-04  6.1232E-08  0.0000E+00  2.9640E-04  0.0000E+00
 37  0.0000E+00  7.5735E-05  0.0000E+00  2.3719E-04  0.0000E+00  0.0000E+00  2.0389E-04  0.0000E+00  0.0000E+00
 38  2.2066E-03  3.3119E-04  1.3010E-03  1.6265E-05  6.8690E-04  0.0000E+00  9.7710E-04  0.0000E+00  0.0000E+00
 39  0.0000E+00  3.3896E-04  0.0000E+00  0.0000E+00  1.9074E-03  0.0000E+00  0.0000E+00  0.0000E+00  0.0000E+00
 40  0.0000E+00  1.1199E-03  0.0000E+00  1.1002E-03  1.9286E-04  7.9125E-04  0.0000E+00  1.7548E-03  0.0000E+00
 41  6.7991E-03  1.6127E-03  4.6504E-03  3.6956E-03  4.3116E-03  0.0000E+00  2.3208E-03  0.0000E+00  0.0000E+00
 42  0.0000E+00  3.1070E-03  0.0000E+00  1.7588E-03  2.2791E-03  0.0000E+00  5.3822E-03  1.2759E-03  8.6262E-03
 43  0.0000E+00  4.7510E-03  1.0037E-02  8.4988E-03  0.0000E+00  2.2258E-02  2.9479E-02  9.7873E-04  5.0199E-03
 44  1.2820E+00  1.2893E+00  1.2171E+00  1.2829E+00  1.2576E+00  1.2994E+00  1.3023E+00  1.2526E+00  1.3288E+00
 45  0.0000E+00  5.1917E-02  0.0000E+00  8.3531E-02  7.5392E-02  2.9754E-02  0.0000E+00  1.5661E-01  5.9997E-02
 46  0.0000E+00  1.8255E-01  0.0000E+00  7.0896E-01  3.0709E-01  3.9443E-01  3.0153E-01  2.8078E-01  1.4206E-01
 47  8.7710E-01  2.9546E-01  1.3382E-01  0.0000E+00  1.4462E-01  0.0000E+00  0.0000E+00  3.0202E-01  2.6325E-01
 48  8.0414E-01  2.1816E-01  6.9380E-01  1.1167E-01  0.0000E+00  4.6926E-01  0.0000E+00  4.1418E-02  0.0000E+00
 49  3.8904E-01  2.3892E-01  5.8745E-01  0.0000E+00  2.2005E-01  0.0000E+00  7.1527E-01  0.0000E+00  0.0000E+00
 50  2.0800E+01  1.9828E+01  1.8821E+01  1.9403E+01  1.8834E+01  2.0575E+01  2.0148E+01  1.9556E+01  1.9875E+01
 51  0.0000E+00  6.6182E-05  0.0000E+00  0.0000E+00  0.0000E+00  0.0000E+00  0.0000E+00  3.5620E-04  3.5518E-04
 52  0.0000E+00  1.0010E-04  0.0000E+00  4.6005E-04  0.0000E+00  2.2858E-04  4.1534E-04  9.3019E-05  1.7704E-04
 53  0.0000E+00  9.4571E-05  0.0000E+00  0.0000E+00  0.0000E+00  0.0000E+00  1.4209E-04  0.0000E+00  0.0000E+00
 54  1.3118E-03  3.4762E-04  8.8985E-04  0.0000E+00  8.2029E-05  0.0000E+00  0.0000E+00  1.9268E-04  4.5249E-04
 55  0.0000E+00  1.7282E-04  0.0000E+00  2.3737E-04  2.2658E-04  0.0000E+00  3.9709E-05  0.0000E+00  0.0000E+00
 56  0.0000E+00  9.0239E-04  0.0000E+00  0.0000E+00  1.3366E-03  5.2388E-03  0.0000E+00  0.0000E+00  0.0000E+00
 57  0.0000E+00  7.1894E-04  4.8146E-04  0.0000E+00  0.0000E+00  4.7604E-04  9.2318E-04  0.0000E+00  0.0000E+00
 58  6.5186E-03  2.2242E-03  1.0061E-02  1.3472E-03  1.5808E-02  0.0000E+00  0.0000E+00  2.2155E-03  0.0000E+00
 59  0.0000E+00  2.8193E-03  8.1913E-03  0.0000E+00  0.0000E+00  0.0000E+00  6.5921E-03  0.0000E+00  0.0000E+00
 60  3.8178E-02  1.3425E-02  3.1269E-02  4.9430E-03  4.6849E-02  0.0000E+00  1.3449E-02  0.0000E+00  1.3683E-03
 61  1.2882E-01  1.1481E-01  1.1300E-01  1.1639E-01  1.5032E-01  1.4802E-01  4.2381E-02  1.9542E-01  0.0000E+00
 62  0.0000E+00  2.7548E-01  7.6149E-02  4.5634E-01  3.7729E-01  8.1281E-01  4.1517E-01  8.2178E-01  3.9253E-01
 63  0.0000E+00  2.5248E-01  1.5704E-01  4.1531E-03  7.2213E-01  3.1928E-02  0.0000E+00  2.8824E-01  3.8608E-01
 64  3.6674E+01  3.6882E+01  3.4106E+01  3.6546E+01  3.6264E+01  3.6560E+01  3.6912E+01  3.6201E+01  3.6043E+01
 65  2.7188E+01  2.8092E+01  2.7450E+01  2.7391E+01  2.9101E+01  2.7850E+01  2.7526E+01  2.9355E+01  2.8052E+01
 66  0.0000E+00  2.6890E-01  1.4321E+00  7.8877E-01  0.0000E+00  5.1586E-01  0.0000E+00  0.0000E+00  0.0000E+00

# AV, chi2 & Mass for <> & i_chain = 1 ...  7 solutions
AV      -0.9973     -0.9979     -1.0000     -0.9990     -1.0000     -0.9942     -0.9936     -0.9962     -0.9988
chi2 1.0785E-05  1.0781E-05  1.0802E-05  1.1798E-05  1.1241E-05  1.5201E-05  1.6371E-05  1.2334E-05  1.0900E-05
Mass 4.4173E-14  4.4588E-14  4.3619E-14  4.3390E-14  4.3017E-14  4.3524E-14  4.3996E-14  4.3414E-14  4.4009E-14
   0.00                                  [v0_min (km/s) before EX0s...]
 190.39                                  [vd_min (km/s) before EX0s...]


## Synthetic spectrum (Best Model) ##l_obs f_obs f_syn wei
 3478    [Nl_obs]
 3741.00   -0.28153   0.89477    0.000
 3742.00   -0.50688   0.89074    0.000
 3743.00   -0.76145   0.87114    0.000
 3744.00    0.00371   0.84150    0.000
 3745.00    1.36301   0.80740    0.018
 3746.00    1.65472   0.77403    0.018
 3747.00    1.40429   0.74640    0.018
 3748.00    1.20385   0.72941    0.027
 3749.00    1.02538   0.72830    0.128
 3750.00    1.07454   0.74631   -1.000
 3751.00    1.20964   0.78152   -1.000
 3752.00    1.32545   0.82658   -1.000
 3753.00    1.43507   0.87176   -1.000
 3754.00    1.46047   0.90781   -1.000
 3755.00    1.46329   0.92830   -1.000
 3756.00    1.11605   0.93182   -1.000
 3757.00    0.69197   0.92308   -1.000
 3758.00    0.02220   0.91075   -1.000
 3759.00   -0.69046   0.90238    0.000
 3760.00    0.33465   0.90027   -1.000
 3761.00    1.59062   0.90194   -1.000
 3762.00    1.12117   0.90311   -1.000
 3763.00    0.48957   0.90047   -1.000
 3764.00    0.18406   0.89303   -1.000
 3765.00   -0.10265   0.88153    0.000
 3766.00    0.54450   0.86756   -1.000
 3767.00    1.20414   0.85427   -1.000
 3768.00    0.69095   0.84540   -1.000
 3769.00    0.18684   0.84340   -1.000
 3770.00   -0.09676   0.84955    0.000
 3771.00   -0.31781   0.86441    0.000
 3772.00    0.28068   0.88649   -1.000
 3773.00    0.89503   0.91238   -1.000
 3774.00    1.64853   0.93896   -1.000
 3775.00    2.16893   0.96477   -1.000
 3776.00    1.17796   0.98975   -1.000
 3777.00    0.32574   1.01407   -1.000
 3778.00    0.17579   1.03758   -1.000
 3779.00    0.12740   1.05959   -1.000
 3780.00    0.49473   1.07832   -1.000
 3781.00    0.87964   1.09126   -1.000
 3782.00    1.32420   1.09629   -1.000
 3783.00    1.69874   1.09186   -1.000
 3784.00    1.87299   1.07715   -1.000
 3785.00    1.72035   1.05291   -1.000
 3786.00    0.76901   1.02266   -1.000
 3787.00    0.33119   0.99186   -1.000
 3788.00    0.97573   0.96479   -1.000
 3789.00    1.43294   0.94298   -1.000
 3790.00    1.54702   0.92507   -1.000
 3791.00    1.18278   0.90742   -1.000
 3792.00    0.05289   0.88586   -1.000
 3793.00   -0.44801   0.85830    0.000
 3794.00   -0.06540   0.82606    0.000
 3795.00   -0.03137   0.79325    0.000
 3796.00   -0.42821   0.76545    0.000
 3797.00   -0.27447   0.74855    0.000
 3798.00    0.47912   0.74767   -1.000
 3799.00    1.24831   0.76529   -1.000
 3800.00    2.03249   0.79912   -1.000
 3801.00    1.86966   0.84256   -1.000
 3802.00    0.90435   0.88747   -1.000
 3803.00    0.41134   0.92689   -1.000
 3804.00    0.27076   0.95677   -1.000
 3805.00    0.46247   0.97708   -1.000
 3806.00    0.87201   0.99099   -1.000
 3807.00    0.71486   1.00266   -1.000
 3808.00    0.23252   1.01438   -1.000
 3809.00    0.20239   1.02471   -1.000
 3810.00    0.39829   1.02982   -1.000
 3811.00    0.14575   1.02623   -1.000
 3812.00   -0.30072   1.01324    0.000
 3813.00   -0.48439   0.99362    0.000
 3814.00   -0.57061   0.97227    0.000
 3815.00   -0.41653   0.95325    0.000
 3816.00   -0.18691   0.93814    0.000
 3817.00    0.04524   0.92597   -1.000
 3818.00    0.27805   0.91459   -1.000
 3819.00    0.69964   0.90307   -1.000
 3820.00    1.16169   0.89242   -1.000
 3821.00    1.24911   0.88360   -1.000
 3822.00    1.27296   0.87540   -1.000
 3823.00    1.46655   0.86522   -1.000
 3824.00    1.68192   0.85165   -1.000
 3825.00    0.98466   0.83566   -1.000
 3826.00    0.20548   0.81922   -1.000
 3827.00    0.07108   0.80344   -1.000
 3828.00   -0.02868   0.78759    0.000
 3829.00    0.74244   0.76968   -1.000
 3830.00    1.51910   0.74769   -1.000
 3831.00    1.29163   0.72121   -1.000
 3832.00    1.06336   0.69255   -1.000
 3833.00    0.81720   0.66627   -1.000
 3834.00    0.59434   0.64720   -1.000
 3835.00    0.66108   0.63861   -1.000
 3836.00    0.73685   0.64139   -1.000
 3837.00    0.88900   0.65451   -1.000
 3838.00    1.00450   0.67647   -1.000
 3839.00    0.88941   0.70619   -1.000
 3840.00    0.69963   0.74238   -1.000
 3841.00    0.14133   0.78297   -1.000
 3842.00   -0.31383   0.82463    0.000
 3843.00   -0.35609   0.86321    0.000
 3844.00   -0.23922   0.89543    0.000
 3845.00    0.40674   0.91980   -1.000
 3846.00    0.86780   0.93655   -1.000
 3847.00    0.80966   0.94711    0.000
 3848.00    0.59818   0.95331    0.000
 3849.00    0.01842   0.95715    0.000
 3850.00   -0.44787   0.96046    0.000
 3851.00   -0.67883   0.96388    0.000
 3852.00   -0.47823   0.96625    0.000
 3853.00    0.50077   0.96576    0.000
 3854.00    1.14941   0.96146    0.000
 3855.00    1.27706   0.95369    0.000
 3856.00    1.36517   0.94406    0.000
 3857.00    1.39854   0.93500    0.000
 3858.00    1.21164   0.92916    0.000
 3859.00    0.75635   0.92904    0.000
 3860.00    0.74191   0.93608    0.000
 3861.00    1.20103   0.94931    0.000
 3862.00    1.48523   0.96517    0.000
 3863.00    1.60368   0.97909    0.000
 3864.00    1.02658   0.98773    0.000
 3865.00   -0.13159   0.99001    0.000
 3866.00   -0.44408   0.98668    0.000
 3867.00   -0.13456   0.97913    0.000
 3868.00    0.22854   0.96868    0.000
 3869.00    0.62626   0.95671    0.000
 3870.00    0.87071   0.94525    0.000
 3871.00    1.02854   0.93688    0.000
 3872.00    1.01306   0.93358    0.000
 3873.00    0.91234   0.93512    0.000
 3874.00    0.88135   0.93841    0.000
 3875.00    0.88002   0.93888    0.000
 3876.00    0.80762   0.93323    0.000
 3877.00    0.70932   0.92130    0.000
 3878.00    0.38259   0.90573    0.000
 3879.00   -0.01456   0.88987    0.000
 3880.00   -0.24338   0.87543    0.000
 3881.00   -0.42899   0.86181    0.000
 3882.00    0.01226   0.84711    0.013
 3883.00    0.58456   0.82906    0.013
 3884.00    0.93902   0.80608    0.013
 3885.00    1.25756   0.77884    0.013
 3886.00    1.15621   0.75160    0.013
 3887.00    1.00286   0.73113    0.013
 3888.00    1.02773   0.72384    0.013
 3889.00    1.06786   0.73325    0.013
 3890.00    0.97013   0.75842    0.013
 3891.00    0.86554   0.79408    0.013
 3892.00    0.87090   0.83295    0.013
 3893.00    0.87898   0.86887    0.013
 3894.00    0.94714   0.89860    0.013
 3895.00    1.00705   0.92193    0.014
 3896.00    0.89819   0.94028    0.013
 3897.00    0.77440   0.95523    0.013
 3898.00    0.47412   0.96779    0.013
 3899.00    0.22008   0.97858    0.013
 3900.00    0.34272   0.98777    0.012
 3901.00    0.41200   0.99496    0.012
 3902.00    0.15530   0.99969    0.012
 3903.00    0.02333   1.00258    0.012
 3904.00    0.49152   1.00581    0.011
 3905.00    0.85679   1.01230    0.011
 3906.00    0.81902   1.02444    0.011
 3907.00    0.79956   1.04263    0.011
 3908.00    0.83977   1.06467    0.012
 3909.00    0.89164   1.08682    0.012
 3910.00    0.97569   1.10546    0.012
 3911.00    0.99270   1.11829    0.012
 3912.00    0.85141   1.12452    0.012
 3913.00    0.78418   1.12444    0.013
 3914.00    0.86811   1.11889    0.013
 3915.00    0.92942   1.10865    0.013
 3916.00    0.95056   1.09436    0.013
 3917.00    0.92871   1.07680    0.013
 3918.00    0.84008   1.05725    0.013
 3919.00    0.69137   1.03763    0.013
 3920.00    0.46068   1.02015    0.013
 3921.00    0.47619   1.00636    0.013
 3922.00    0.78743   0.99610    0.013
 3923.00    0.78087   0.98713    0.013
 3924.00    0.43773   0.97594    0.013
 3925.00    0.17835   0.95916    0.013
 3926.00   -0.00279   0.93491    0.000
 3927.00    0.04051   0.90328    0.013
 3928.00    0.26866   0.86593    0.013
 3929.00    0.32465   0.82545    0.013
 3930.00    0.25585   0.78500    0.013
 3931.00    0.17667   0.74837    0.013
 3932.00    0.09088   0.72001    0.013
 3933.00    0.11313   0.70443    0.013
 3934.00    0.19553   0.70482    0.013
 3935.00    0.52280   0.72175    0.013
 3936.00    0.96861   0.75248    0.013
 3937.00    1.04236   0.79167    0.013
 3938.00    0.96054   0.83291    0.013
 3939.00    0.86579   0.87050    0.013
 3940.00    0.76642   0.90094    0.013
 3941.00    1.05564   0.92354    0.013
 3942.00    1.46231   0.94022    0.013
 3943.00    1.31835   0.95433    0.013
 3944.00    1.03610   0.96889    0.014
 3945.00    1.14604   0.98525    0.014
 3946.00    1.33596   1.00278    0.013
 3947.00    1.19471   1.01976    0.013
 3948.00    1.00044   1.03469    0.013
 3949.00    0.94438   1.04679    0.013
 3950.00    0.90482   1.05572    0.013
 3951.00    0.54199   1.06133    0.013
 3952.00    0.15285   1.06349    0.013
 3953.00    0.60853   1.06211    0.013
 3954.00    1.10303   1.05701    0.013
 3955.00    1.19950   1.04786    0.013
 3956.00    1.28629   1.03434    0.013
 3957.00    1.13269   1.01597    0.013
 3958.00    0.97792   0.99180    0.013
 3959.00    0.80096   0.96064    0.013
 3960.00    0.65806   0.92214    0.000
 3961.00    0.89896   0.87741    0.000
 3962.00    1.10215   0.82867    0.000
 3963.00    1.00890   0.77792    0.000
 3964.00    0.91756   0.72623    0.000
 3965.00    0.83756   0.67450    0.000
 3966.00    0.68015   0.62494    0.000
 3967.00    0.15931   0.58183    0.000
 3968.00   -0.26240   0.55095    0.000
 3969.00   -0.30425   0.53783    0.000
 3970.00   -0.18092   0.54563    0.000
 3971.00    0.47032   0.57399    0.000
 3972.00    0.93294   0.61919    0.000
 3973.00    0.88469   0.67547    0.000
 3974.00    0.67007   0.73699    0.000
 3975.00    0.06914   0.79888    0.000
 3976.00   -0.29726   0.85775    0.000
 3977.00   -0.19258   0.91133    0.000
 3978.00    0.03250   0.95804    0.000
 3979.00    0.46818   0.99660    0.000
 3980.00    0.64832   1.02652    0.000
 3981.00    0.43724   1.04855    0.014
 3982.00    0.64891   1.06499    0.014
 3983.00    1.42913   1.07885    0.014
 3984.00    1.93219   1.09262    0.014
 3985.00    2.10706   1.10738    0.014
 3986.00    1.87818   1.12277    0.013
 3987.00    1.22772   1.13769    0.013
 3988.00    0.71981   1.15107    0.013
 3989.00    0.34320   1.16223    0.013
 3990.00    0.30005   1.17121    0.013
 3991.00    0.52764   1.17817    0.013
 3992.00    0.76224   1.18271    0.013
 3993.00    1.00184   1.18416    0.013
 3994.00    1.02009   1.18254    0.013
 3995.00    0.89955   1.17936    0.013
 3996.00    0.71635   1.17741    0.013
 3997.00    0.49881   1.17956    0.013
 3998.00    0.73863   1.18724    0.013
 3999.00    1.19632   1.19918    0.013
 4000.00    0.92387   1.21142    0.020
 4001.00    0.35133   1.21928    0.096
 4002.00    0.43712   1.21963   -1.000
 4003.00    0.75414   1.21228   -1.000
 4004.00    1.17151   1.20021   -1.000
 4005.00    1.61861   1.18888   -1.000
 4006.00    1.73915   1.18376   -1.000
 4007.00    1.77946   1.18721   -1.000
 4008.00    2.07738   1.19761   -1.000
 4009.00    2.42651   1.21131   -1.000
 4010.00    1.95562   1.22496   -1.000
 4011.00    1.35732   1.23661   -1.000
 4012.00    0.66776   1.24582    0.027
 4013.00   -0.03229   1.25300    0.000
 4014.00   -0.21961   1.25861    0.000
 4015.00   -0.36730   1.26291    0.000
 4016.00    0.54151   1.26601    0.013
 4017.00    1.49480   1.26797    0.013
 4018.00    1.24989   1.26894    0.012
 4019.00    1.00000   1.26838    0.012
 4020.00    1.01139   1.26513    0.012
 4021.00    1.04207   1.25878    0.013
 4022.00    1.41301   1.25026    0.013
 4023.00    1.73036   1.24151    0.013
 4024.00    1.47117   1.23465    0.013
 4025.00    1.22542   1.23098    0.013
 4026.00    1.08178   1.22956    0.013
 4027.00    0.93200   1.22688    0.013
 4028.00    0.74678   1.21882    0.013
 4029.00    0.66120   1.20329    0.013
 4030.00    1.03229   1.18225    0.013
 4031.00    1.36134   1.16166    0.013
 4032.00    1.53277   1.14853    0.012
 4033.00    1.55731   1.14772    0.012
 4034.00    1.12134   1.16065    0.012
 4035.00    0.78116   1.18465    0.012
 4036.00    0.69577   1.21378    0.012
 4037.00    0.75166   1.24082    0.012
 4038.00    1.13013   1.25960    0.012
 4039.00    1.26373   1.26673    0.012
 4040.00    0.91324   1.26162    0.012
 4041.00    0.82587   1.24561    0.013
 4042.00    1.19181   1.22113    0.013
 4043.00    1.21517   1.19172    0.012
 4044.00    0.72177   1.16330    0.012
 4045.00    0.54692   1.14374    0.012
 4046.00    0.79432   1.13957    0.012
 4047.00    1.04117   1.15190    0.012
 4048.00    1.28739   1.17521    0.012
 4049.00    1.30331   1.20087    0.012
 4050.00    1.08211   1.22122    0.012
 4051.00    0.91652   1.23153    0.012
 4052.00    0.80142   1.23092    0.012
 4053.00    0.76059   1.22188    0.012
 4054.00    0.77919   1.20834    0.012
 4055.00    0.82324   1.19420    0.012
 4056.00    0.88521   1.18239    0.012
 4057.00    0.90852   1.17399    0.012
 4058.00    0.90795   1.16860    0.012
 4059.00    0.95573   1.16438    0.012
 4060.00    1.02961   1.15827    0.012
 4061.00    0.89935   1.14816    0.012
 4062.00    0.67340   1.13503    0.012
 4063.00    0.70245   1.12323    0.012
 4064.00    0.83453   1.11804    0.012
 4065.00    1.35878   1.12165    0.012
 4066.00    2.01824   1.13167    0.012
 4067.00    1.75605   1.14391    0.012
 4068.00    1.22623   1.15448    0.012
 4069.00    0.83641   1.16024    0.012
 4070.00    0.48022   1.15993    0.012
 4071.00    0.66248   1.15521    0.012
 4072.00    0.94908   1.14928    0.012
 4073.00    1.37743   1.14347    0.012
 4074.00    1.82714   1.13646    0.012
 4075.00    1.40940   1.12772    0.012
 4076.00    0.89572   1.11968    0.012
 4077.00    0.67739   1.11682    0.012
 4078.00    0.48069   1.12285    0.012
 4079.00    0.80810   1.13750    0.012
 4080.00    1.15557   1.15635    0.012
 4081.00    1.15687   1.17350    0.012
 4082.00    1.16742   1.18472    0.012
 4083.00    1.59855   1.18984    0.012
 4084.00    1.98848   1.19209    0.012
 4085.00    1.69938   1.19517    0.012
 4086.00    1.39320   1.20091    0.012
 4087.00    0.91132   1.20829    0.012
 4088.00    0.52315   1.21395    0.012
 4089.00    0.82267   1.21430    0.012
 4090.00    1.07509   1.20747    0.012
 4091.00    1.06329   1.19343    0.012
 4092.00    1.01467   1.17297    0.000
 4093.00    0.80124   1.14711    0.000
 4094.00    0.73561   1.11623    0.000
 4095.00    1.21278   1.08048    0.000
 4096.00    1.51479   1.04126    0.000
 4097.00    1.27810   1.00051    0.000
 4098.00    1.08590   0.96003    0.000
 4099.00    1.00996   0.92248    0.000
 4100.00    0.89797   0.89197    0.000
 4101.00    0.70502   0.87406    0.000
 4102.00    0.65579   0.87364    0.000
 4103.00    0.88623   0.89138    0.000
 4104.00    1.02536   0.92279    0.000
 4105.00    1.00957   0.96081    0.000
 4106.00    0.99564   0.99821    0.000
 4107.00    0.98446   1.02953    0.000
 4108.00    1.13278   1.05286    0.000
 4109.00    1.48948   1.06958    0.000
 4110.00    1.68040   1.08280    0.000
 4111.00    1.68048   1.09569    0.000
 4112.00    1.36480   1.10993    0.000
 4113.00    0.72860   1.12512    0.011
 4114.00    0.62550   1.13910    0.011
 4115.00    0.99970   1.14936    0.011
 4116.00    1.32282   1.15448    0.011
 4117.00    1.60564   1.15441    0.011
 4118.00    1.49502   1.15073    0.016
 4119.00    1.11137   1.14665    0.060
 4120.00    1.12953   1.14497   -1.000
 4121.00    1.39219   1.14631   -1.000
 4122.00    1.28471   1.15007   -1.000
 4123.00    0.98058   1.15516   -1.000
 4124.00    1.08551   1.15980   -1.000
 4125.00    1.37907   1.16168   -1.000
 4126.00    1.61716   1.15899   -1.000
 4127.00    1.83322   1.15162   -1.000
 4128.00    1.51847   1.14076    0.030
 4129.00    1.02406   1.12812    0.013
 4130.00    1.05761   1.11555    0.011
 4131.00    1.24138   1.10536    0.011
 4132.00    1.41132   1.10044    0.011
 4133.00    1.57801   1.10349    0.012
 4134.00    1.29484   1.11477    0.012
 4135.00    0.92676   1.13206    0.012
 4136.00    0.96592   1.15094    0.012
 4137.00    1.06456   1.16620    0.012
 4138.00    1.08799   1.17421    0.012
 4139.00    1.10343   1.17271    0.012
 4140.00    1.60792   1.16118    0.012
 4141.00    2.14625   1.14194    0.012
 4142.00    1.94009   1.11988    0.012
 4143.00    1.70825   1.10176    0.012
 4144.00    1.16174   1.09355    0.012
 4145.00    0.63045   1.09621    0.012
 4146.00    0.62293   1.10537    0.012
 4147.00    0.64569   1.11548    0.012
 4148.00    1.13656   1.12253    0.012
 4149.00    1.55705   1.12479    0.012
 4150.00    1.28377   1.12303    0.012
 4151.00    1.06547   1.11907    0.012
 4152.00    1.23757   1.11428    0.012
 4153.00    1.38751   1.10999    0.012
 4154.00    1.41653   1.10757    0.012
 4155.00    1.49469   1.10859    0.012
 4156.00    1.78764   1.11387    0.012
 4157.00    1.92170   1.12347    0.012
 4158.00    1.48427   1.13664    0.012
 4159.00    1.21896   1.15119    0.011
 4160.00    1.47302   1.16455    0.011
 4161.00    1.58644   1.17494    0.011
 4162.00    1.33868   1.18135    0.011
 4163.00    1.17626   1.18274    0.011
 4164.00    1.20235   1.17888    0.011
 4165.00    1.26364   1.17132    0.011
 4166.00    1.39232   1.16177    0.012
 4167.00    1.46138   1.15143    0.012
 4168.00    1.43078   1.14123    0.011
 4169.00    1.42772   1.13051    0.011
 4170.00    1.46499   1.11762    0.011
 4171.00    1.41169   1.10235    0.011
 4172.00    1.24173   1.08696    0.011
 4173.00    1.08119   1.07517    0.011
 4174.00    0.93137   1.06929    0.011
 4175.00    1.01627   1.06880    0.011
 4176.00    1.33609   1.07189    0.011
 4177.00    1.55081   1.07690    0.011
 4178.00    1.67273   1.08308    0.011
 4179.00    1.79312   1.09010    0.011
 4180.00    1.91230   1.09712    0.011
 4181.00    1.80073   1.10341    0.011
 4182.00    1.53134   1.10914    0.011
 4183.00    1.34024   1.11451    0.011
 4184.00    1.19605   1.11870    0.011
 4185.00    1.26997   1.12066    0.011
 4186.00    1.45797   1.11995    0.011
 4187.00    1.41617   1.11829    0.011
 4188.00    1.27014   1.11909    0.011
 4189.00    0.98782   1.12343    0.011
 4190.00    0.65233   1.12931    0.011
 4191.00    0.65282   1.13438    0.011
 4192.00    0.76491   1.13687    0.011
 4193.00    0.87351   1.13436    0.011
 4194.00    0.98113   1.12436    0.011
 4195.00    0.92668   1.10745    0.011
 4196.00    0.83504   1.08731    0.011
 4197.00    0.81140   1.06811    0.011
 4198.00    0.80025   1.05301    0.011
 4199.00    0.68852   1.04453    0.011
 4200.00    0.56256   1.04351    0.011
 4201.00    0.53515   1.04884    0.011
 4202.00    0.51778   1.05991    0.011
 4203.00    0.43296   1.07623    0.011
 4204.00    0.34374   1.09558    0.011
 4205.00    0.70041   1.11532    0.011
 4206.00    1.07057   1.13339    0.011
 4207.00    1.30927   1.14775    0.011
 4208.00    1.53839   1.15707    0.011
 4209.00    1.48595   1.16092    0.011
 4210.00    1.44028   1.16011    0.011
 4211.00    1.49296   1.15614    0.011
 4212.00    1.54329   1.14973    0.011
 4213.00    1.57141   1.14167    0.011
 4214.00    1.53553   1.13433    0.011
 4215.00    1.05972   1.13135    0.011
 4216.00    0.67037   1.13618    0.011
 4217.00    0.74052   1.14843    0.011
 4218.00    0.82380   1.16257    0.011
 4219.00    0.96314   1.17199    0.011
 4220.00    1.10197   1.17167    0.011
 4221.00    1.23898   1.15828    0.011
 4222.00    1.26070   1.13102    0.011
 4223.00    0.94102   1.09352    0.011
 4224.00    0.71518   1.05288    0.011
 4225.00    0.72614   1.01769    0.011
 4226.00    0.76610   0.99644    0.011
 4227.00    0.86910   0.99536    0.011
 4228.00    0.96726   1.01424    0.011
 4229.00    1.05631   1.04460    0.011
 4230.00    1.11473   1.07559    0.011
 4231.00    1.12270   1.09935    0.011
 4232.00    0.99734   1.11172    0.011
 4233.00    0.67954   1.11376    0.011
 4234.00    0.68553   1.11051    0.011
 4235.00    1.10262   1.10597    0.011
 4236.00    1.28414   1.10326    0.011
 4237.00    1.20210   1.10550    0.011
 4238.00    1.06203   1.11310    0.011
 4239.00    0.86471   1.12496    0.010
 4240.00    0.91950   1.14021    0.010
 4241.00    1.19368   1.15699    0.010
 4242.00    1.15301   1.17200    0.010
 4243.00    0.87094   1.18265    0.011
 4244.00    0.92426   1.18721    0.011
 4245.00    1.20361   1.18316    0.011
 4246.00    1.30755   1.16991    0.011
 4247.00    1.30793   1.15045    0.011
 4248.00    1.48692   1.12938    0.011
 4249.00    1.75788   1.11038    0.011
 4250.00    1.63963   1.09585    0.011
 4251.00    1.34773   1.08799    0.011
 4252.00    1.08375   1.08640    0.011
 4253.00    0.83047   1.08779    0.011
 4254.00    0.81518   1.09039    0.011
 4255.00    0.87747   1.09456    0.011
 4256.00    1.12606   1.09941    0.011
 4257.00    1.42551   1.10203    0.011
 4258.00    1.15344   1.10078    0.011
 4259.00    0.75328   1.09851    0.011
 4260.00    0.58541   1.10033    0.011
 4261.00    0.45909   1.11028    0.011
 4262.00    0.92863   1.12860    0.011
 4263.00    1.47969   1.15015    0.011
 4264.00    1.41562   1.16793    0.011
 4265.00    1.29146   1.17675    0.011
 4266.00    1.32694   1.17329    0.011
 4267.00    1.37217   1.15633    0.011
 4268.00    1.39669   1.12843    0.011
 4269.00    1.41968   1.09444    0.011
 4270.00    1.25511   1.05949    0.011
 4271.00    1.09126   1.02972    0.011
 4272.00    0.94631   1.01199    0.011
 4273.00    0.83308   1.00940    0.010
 4274.00    1.15592   1.01967    0.011
 4275.00    1.43428   1.03976    0.011
 4276.00    1.30857   1.06588    0.011
 4277.00    1.19776   1.09153    0.011
 4278.00    1.18627   1.11077    0.011
 4279.00    1.19272   1.12078    0.011
 4280.00    1.29209   1.12243    0.011
 4281.00    1.36240   1.11942    0.011
 4282.00    1.31141   1.11410   -2.000
 4283.00    1.35450   1.10705   -2.000
 4284.00    1.72240   1.09806   -2.000
 4285.00    2.01049   1.08623   -2.000
 4286.00    2.06661   1.07219   -2.000
 4287.00    2.14859   1.05728   -2.000
 4288.00    2.29470   1.04235   -2.000
 4289.00    2.40258   1.02955   -2.000
 4290.00    2.42876   1.02290   -2.000
 4291.00    2.17530   1.02438   -2.000
 4292.00    1.40266   1.03095   -2.000
 4293.00    1.04370   1.03679   -2.000
 4294.00    1.35568   1.03691   -2.000
 4295.00    1.64369   1.02984   -2.000
 4296.00    1.89760   1.01515   -2.000
 4297.00    1.81644   0.99318   -2.000
 4298.00    1.31592   0.96690    0.011
 4299.00    1.00474   0.94072    0.011
 4300.00    0.90243   0.91975    0.011
 4301.00    0.84651   0.90649    0.011
 4302.00    0.83572   0.89897    0.011
 4303.00    0.68380   0.89466    0.011
 4304.00    0.41081   0.89153    0.011
 4305.00    0.51595   0.88727    0.011
 4306.00    0.90682   0.88187    0.010
 4307.00    1.09320   0.87779    0.010
 4308.00    1.14379   0.87883    0.011
 4309.00    1.18738   0.88908    0.011
 4310.00    1.22691   0.90990    0.011
 4311.00    1.37982   0.93999    0.011
 4312.00    1.59018   0.97723    0.011
 4313.00    1.42802   1.01936    0.011
 4314.00    1.10240   1.06379    0.011
 4315.00    1.08040   1.10813    0.011
 4316.00    1.17278   1.14831    0.011
 4317.00    1.40923   1.17749    0.011
 4318.00    1.69174   1.19121    0.011
 4319.00    1.64684   1.18905    0.011
 4320.00    1.51443   1.17226    0.011
 4321.00    1.26506   1.14375    0.011
 4322.00    0.99010   1.10829    0.011
 4323.00    0.70669   1.07091    0.010
 4324.00    0.42181   1.03870    0.010
 4325.00    0.62351   1.01955    0.010
 4326.00    0.88957   1.01874    0.011
 4327.00    1.01663   1.03572    0.011
 4328.00    1.13070   1.06260    0.011
 4329.00    1.13965   1.08939    0.011
 4330.00    1.14258   1.10980    0.000
 4331.00    0.92683   1.12207    0.000
 4332.00    0.71082   1.12543    0.000
 4333.00    1.04928   1.11807    0.000
 4334.00    1.36696   1.09892    0.000
 4335.00    1.18569   1.06783    0.000
 4336.00    1.02342   1.02528    0.000
 4337.00    1.10854   0.97552    0.000
 4338.00    1.19819   0.92822    0.000
 4339.00    1.32738   0.89265    0.000
 4340.00    1.46057   0.87461    0.000
 4341.00    1.61971   0.87798    0.000
 4342.00    1.72106   0.90090    0.000
 4343.00    1.53088   0.93521    0.000
 4344.00    1.34760   0.97376    0.000
 4345.00    1.19245   1.01208    0.000
 4346.00    1.09219   1.04494    0.000
 4347.00    1.17762   1.06878    0.000
 4348.00    1.30883   1.08341    0.000
 4349.00    1.57065   1.08872    0.000
 4350.00    1.68535   1.08463    0.000
 4351.00    1.44135   1.07534    0.011
 4352.00    1.31306   1.06952    0.011
 4353.00    1.42813   1.07293    0.011
 4354.00    1.44787   1.08409    0.013
 4355.00    1.29332   1.09922    0.035
 4356.00    1.06801   1.11601   -1.000
 4357.00    0.72963   1.13181   -1.000
 4358.00    0.60176   1.14442   -1.000
 4359.00    0.76905   1.15531   -1.000
 4360.00    0.91581   1.16775   -1.000
 4361.00    1.03721   1.18187   -1.000
 4362.00    1.30190   1.19480    0.046
 4363.00    1.72241   1.20437    0.015
 4364.00    1.71817   1.21004    0.011
 4365.00    1.30649   1.21025    0.011
 4366.00    1.43664   1.20339    0.011
 4367.00    2.02510   1.19120    0.011
 4368.00    1.85948   1.17785    0.011
 4369.00    1.13215   1.16575    0.011
 4370.00    0.78111   1.15438    0.011
 4371.00    0.67629   1.14325    0.011
 4372.00    0.87564   1.13228    0.011
 4373.00    1.24920   1.12154    0.011
 4374.00    1.14823   1.11284    0.011
 4375.00    0.81054   1.10944    0.011
 4376.00    0.85030   1.11227    0.011
 4377.00    1.05294   1.11741    0.011
 4378.00    1.42712   1.11794    0.011
 4379.00    1.86477   1.10867    0.011
 4380.00    1.58117   1.08856    0.011
 4381.00    1.07140   1.06002    0.011
 4382.00    1.08276   1.02722    0.011
 4383.00    1.23045   0.99731    0.011
 4384.00    1.03651   0.98015    0.011
 4385.00    0.76960   0.98068    0.011
 4386.00    1.05979   0.99481    0.011
 4387.00    1.44418   1.01438    0.011
 4388.00    1.03573   1.03416    0.011
 4389.00    0.52599   1.05228    0.010
 4390.00    0.51060   1.06791    0.011
 4391.00    0.53931   1.08182    0.011
 4392.00    0.85996   1.09496    0.011
 4393.00    1.19616   1.10694    0.010
 4394.00    1.11746   1.11752    0.011
 4395.00    1.02989   1.12782    0.011
 4396.00    0.88100   1.13843    0.011
 4397.00    0.74782   1.14623    0.011
 4398.00    0.96015   1.14690    0.011
 4399.00    1.14571   1.13956    0.011
 4400.00    1.00043   1.12621    0.011
 4401.00    0.84891   1.11047    0.011
 4402.00    0.64500   1.09440    0.011
 4403.00    0.52645   1.07672    0.011
 4404.00    0.94291   1.05946    0.011
 4405.00    1.34592   1.05020    0.011
 4406.00    1.68277   1.05317    0.011
 4407.00    1.92010   1.06522    0.011
 4408.00    1.76013   1.08304    0.011
 4409.00    1.57833   1.10536    0.011
 4410.00    1.32411   1.12801    0.010
 4411.00    1.13879   1.14478    0.010
 4412.00    1.14651   1.15262    0.011
 4413.00    1.17110   1.15143    0.011
 4414.00    1.23615   1.14330    0.011
 4415.00    1.13975   1.13480    0.010
 4416.00    0.70921   1.13318    0.011
 4417.00    0.64602   1.13895    0.011
 4418.00    1.24412   1.14874    0.011
 4419.00    1.50131   1.15892    0.011
 4420.00    1.22187   1.16528    0.011
 4421.00    1.17925   1.16557    0.010
 4422.00    1.46390   1.16148    0.010
 4423.00    1.49727   1.15709    0.010
 4424.00    1.22501   1.15461    0.010
 4425.00    1.31488   1.15313    0.011
 4426.00    1.79307   1.15204    0.011
 4427.00    2.00752   1.15139    0.011
 4428.00    1.97253   1.15055    0.011
 4429.00    1.69408   1.14763    0.011
 4430.00    1.21262   1.14170    0.011
 4431.00    1.30819   1.13531    0.011
 4432.00    1.82740   1.12951    0.011
 4433.00    1.89931   1.12329    0.011
 4434.00    1.68283   1.11851    0.011
 4435.00    1.43322   1.11895    0.010
 4436.00    1.16492   1.12680    0.010
 4437.00    1.28292   1.13986    0.010
 4438.00    1.59057   1.15253    0.010
 4439.00    1.80415   1.16026    0.011
 4440.00    1.97782   1.16104    0.011
 4441.00    1.67280   1.15665    0.011
 4442.00    1.19380   1.15193    0.011
 4443.00    1.29579   1.15166    0.011
 4444.00    1.57645   1.15814    0.011
 4445.00    1.89846   1.16970    0.011
 4446.00    2.23107   1.18133    0.011
 4447.00    1.85325   1.18931    0.010
 4448.00    1.32737   1.19339    0.010
 4449.00    1.13617   1.19221    0.010
 4450.00    0.99994   1.18424    0.010
 4451.00    1.33292   1.17127    0.010
 4452.00    1.72374   1.15450    0.010
 4453.00    1.63893   1.13390    0.010
 4454.00    1.51367   1.11137    0.010
 4455.00    1.75548   1.09094    0.010
 4456.00    2.01540   1.07626    0.010
 4457.00    1.86128   1.06706    0.010
 4458.00    1.69737   1.06146    0.010
 4459.00    1.33252   1.05955    0.010
 4460.00    0.98212   1.06193    0.010
 4461.00    0.92446   1.06783    0.000
 4462.00    0.88060   1.07763    0.000
 4463.00    0.99906   1.09136    0.000
 4464.00    1.12588   1.10467    0.000
 4465.00    1.32060   1.11412    0.000
 4466.00    1.51347   1.12032    0.000
 4467.00    1.69513   1.12458    0.000
 4468.00    1.73499   1.12781    0.000
 4469.00    1.09464   1.13183    0.000
 4470.00    0.60836   1.13965    0.000
 4471.00    0.72379   1.15230    0.000
 4472.00    0.85958   1.16857    0.000
 4473.00    1.06156   1.18614    0.000
 4474.00    1.16680   1.20141    0.000
 4475.00    1.00584   1.21147    0.000
 4476.00    0.90545   1.21595    0.000
 4477.00    0.94775   1.21466    0.000
 4478.00    1.02018   1.20634    0.000
 4479.00    1.15396   1.19200    0.000
 4480.00    1.39462   1.17654    0.000
 4481.00    1.82476   1.16622    0.000
 4482.00    1.99504   1.16497    0.010
 4483.00    1.76231   1.17254    0.010
 4484.00    1.53376   1.18426    0.010
 4485.00    1.31091   1.19452    0.010
 4486.00    1.15832   1.19975    0.010
 4487.00    1.08998   1.19808    0.010
 4488.00    1.02596   1.19020    0.010
 4489.00    0.96652   1.17964    0.010
 4490.00    0.94130   1.17059    0.010
 4491.00    0.94799   1.16493    0.010
 4492.00    1.17608   1.16146    0.010
 4493.00    1.58618   1.15806    0.010
 4494.00    1.70296   1.15485    0.010
 4495.00    1.60748   1.15511    0.010
 4496.00    1.48633   1.16084    0.010
 4497.00    1.34888   1.17139    0.010
 4498.00    1.14987   1.18507    0.010
 4499.00    0.91667   1.19960    0.010
 4500.00    0.95904   1.21334    0.010
 4501.00    1.13455   1.22620    0.010
 4502.00    1.18168   1.24029    0.010
 4503.00    1.17526   1.25542    0.010
 4504.00    1.16457   1.26737    0.010
 4505.00    1.15236   1.27372    0.010
 4506.00    1.37464   1.27496    0.010
 4507.00    1.66761   1.27251    0.010
 4508.00    1.56239   1.26799    0.010
 4509.00    1.35744   1.26243    0.010
 4510.00    1.23745   1.25567    0.010
 4511.00    1.13474   1.24678    0.009
 4512.00    1.06685   1.23574    0.010
 4513.00    1.00452   1.22446    0.010
 4514.00    0.95355   1.21500    0.010
 4515.00    0.90392   1.20877    0.010
 4516.00    1.13929   1.20595    0.010
 4517.00    1.39772   1.20491    0.010
 4518.00    1.29473   1.20503    0.010
 4519.00    1.17532   1.20639    0.010
 4520.00    1.09940   1.20660    0.010
 4521.00    1.02840   1.20255    0.010
 4522.00    1.18080   1.19188    0.010
 4523.00    1.32089   1.17569    0.010
 4524.00    1.23022   1.15676    0.010
 4525.00    1.14178   1.13549    0.010
 4526.00    1.07845   1.11352    0.010
 4527.00    1.00342   1.09415    0.009
 4528.00    0.83691   1.07986    0.010
 4529.00    0.70495   1.07212    0.010
 4530.00    0.77724   1.07075    0.010
 4531.00    0.87539   1.07406    0.010
 4532.00    1.09465   1.08062    0.010
 4533.00    1.25990   1.08812    0.010
 4534.00    1.21872   1.09635    0.010
 4535.00    1.21657   1.10754    0.010
 4536.00    1.33885   1.12299    0.010
 4537.00    1.41901   1.14016    0.010
 4538.00    1.38533   1.15302    0.010
 4539.00    1.35501   1.15924    0.010
 4540.00    1.33251   1.16074    0.010
 4541.00    1.31932   1.16024    0.010
 4542.00    1.32480   1.15979    0.009
 4543.00    1.37950   1.15875    0.009
 4544.00    1.52011   1.15528    0.009
 4545.00    1.48356   1.15039    0.009
 4546.00    1.17626   1.14632    0.010
 4547.00    0.84555   1.14259    0.010
 4548.00    0.48339   1.13784    0.009
 4549.00    0.42018   1.13257    0.009
 4550.00    0.71034   1.12976    0.000
 4551.00    0.97579   1.12992    0.000
 4552.00    1.21549   1.13055    0.000
 4553.00    1.27703   1.13216    0.000
 4554.00    1.17476   1.13662    0.000
 4555.00    1.17077   1.14517    0.000
 4556.00    1.24642   1.15832    0.000
 4557.00    1.18259   1.17386    0.000
 4558.00    1.01928   1.18753    0.000
 4559.00    0.87823   1.19681    0.000
 4560.00    0.75112   1.20112    0.000
 4561.00    0.77602   1.20108    0.000
 4562.00    0.88406   1.19731    0.000
 4563.00    1.04751   1.19037    0.000
 4564.00    1.23729   1.18339    0.000
 4565.00    1.18227   1.18028    0.000
 4566.00    1.02685   1.18244    0.000
 4567.00    1.01216   1.18808    0.000
 4568.00    1.04680   1.19318    0.000
 4569.00    1.24529   1.19580    0.000
 4570.00    1.49219   1.19606    0.000
 4571.00    1.41122   1.19442    0.000
 4572.00    1.24993   1.19426    0.000
 4573.00    0.77825   1.19689    0.000
 4574.00    0.24506   1.19781    0.000
 4575.00    0.55781   1.19490    0.000
 4576.00    1.00150   1.18944    0.000
 4577.00    1.12639   1.18129    0.000
 4578.00    1.21479   1.16993    0.000
 4579.00    1.07421   1.15648    0.000
 4580.00    0.91603   1.14399    0.000
 4581.00    0.89696   1.13570    0.000
 4582.00    0.88369   1.13242    0.000
 4583.00    1.30992   1.13239    0.000
 4584.00    1.72049   1.13471    0.000
 4585.00    1.29472   1.13960    0.000
 4586.00    0.88587   1.14653    0.000
 4587.00    0.77267   1.15501    0.000
 4588.00    0.70006   1.16286    0.000
 4589.00    1.06158   1.16703    0.000
 4590.00    1.38557   1.16597    0.000
 4591.00    1.42588   1.16036    0.000
 4592.00    1.46077   1.15283    0.000
 4593.00    1.46452   1.14579    0.000
 4594.00    1.41043   1.13972    0.000
 4595.00    1.09208   1.13486    0.000
 4596.00    0.89743   1.13233    0.000
 4597.00    1.16556   1.13201    0.000
 4598.00    1.41266   1.13309    0.000
 4599.00    1.59402   1.13482    0.000
 4600.00    1.73237   1.13573    0.000
 4601.00    1.75659   1.13722    0.000
 4602.00    1.74098   1.14096    0.000
 4603.00    1.63460   1.14604    0.000
 4604.00    1.46059   1.15252    0.000
 4605.00    1.15312   1.16090    0.000
 4606.00    0.98050   1.17188    0.000
 4607.00    1.03973   1.18491    0.000
 4608.00    1.09203   1.19779    0.000
 4609.00    1.13388   1.20735    0.000
 4610.00    1.18495   1.21145    0.000
 4611.00    1.24822   1.21134    0.000
 4612.00    1.27388   1.20953    0.000
 4613.00    1.25572   1.20735    0.000
 4614.00    1.22983   1.20637    0.000
 4615.00    1.19599   1.20667    0.000
 4616.00    1.20757   1.20666    0.000
 4617.00    1.26033   1.20708    0.000
 4618.00    1.23020   1.20747    0.000
 4619.00    1.13386   1.20692    0.000
 4620.00    0.99790   1.20744    0.000
 4621.00    0.83410   1.20898    0.000
 4622.00    0.94557   1.20891    0.000
 4623.00    1.22675   1.20761    0.000
 4624.00    1.31606   1.20604    0.000
 4625.00    1.30204   1.20335    0.000
 4626.00    1.37655   1.20034    0.000
 4627.00    1.49247   1.19823    0.000
 4628.00    1.63319   1.19590    0.000
 4629.00    1.78390   1.19251    0.000
 4630.00    1.63589   1.18961    0.000
 4631.00    1.38510   1.18709    0.000
 4632.00    1.22803   1.18186    0.000
 4633.00    1.09810   1.17334    0.000
 4634.00    1.21843   1.16428    0.000
 4635.00    1.39871   1.15585    0.000
 4636.00    1.21440   1.14758    0.000
 4637.00    0.95968   1.13944    0.000
 4638.00    0.94854   1.13263    0.000
 4639.00    0.97396   1.12790    0.000
 4640.00    0.90823   1.12476    0.000
 4641.00    0.83246   1.12301    0.000
 4642.00    0.58212   1.12014    0.000
 4643.00    0.31909   1.11369    0.000
 4644.00    0.67980   1.10482    0.000
 4645.00    1.06409   1.09530    0.000
 4646.00    1.37656   1.08663    0.000
 4647.00    1.67207   1.08227    0.000
 4648.00    1.35295   1.08418    0.000
 4649.00    1.05901   1.09107    0.000
 4650.00    1.17684   1.10064    0.000
 4651.00    1.27980   1.11037    0.000
 4652.00    1.23062   1.11885    0.000
 4653.00    1.11731   1.12548    0.000
 4654.00    0.53538   1.12971    0.000
 4655.00    0.12941   1.13378    0.000
 4656.00    0.70718   1.14002    0.000
 4657.00    1.21224   1.14873    0.000
 4658.00    1.39294   1.15871    0.000
 4659.00    1.42761   1.16628    0.000
 4660.00    0.92734   1.16734    0.000
 4661.00    0.53790   1.16020    0.000
 4662.00    0.48847   1.14599    0.000
 4663.00    0.55079   1.12741    0.000
 4664.00    0.90455   1.10766    0.000
 4665.00    1.02707   1.08837    0.000
 4666.00    0.63137   1.07016    0.000
 4667.00    0.44110   1.05681    0.000
 4668.00    0.64981   1.05335    0.000
 4669.00    0.81633   1.06003    0.000
 4670.00    0.91142   1.07267    0.000
 4671.00    0.93528   1.08698    0.000
 4672.00    0.85345   1.09967    0.000
 4673.00    1.00675   1.10961    0.000
 4674.00    1.46673   1.11710    0.000
 4675.00    1.51046   1.12217    0.000
 4676.00    1.07593   1.12428    0.000
 4677.00    0.79101   1.12205    0.000
 4678.00    0.65768   1.11585    0.000
 4679.00    0.63905   1.10864    0.000
 4680.00    0.72291   1.10265    0.000
 4681.00    0.83295   1.09862    0.000
 4682.00    0.96360   1.09728    0.000
 4683.00    1.08013   1.09865    0.000
 4684.00    1.18689   1.10055    0.000
 4685.00    1.17520   1.10170    0.000
 4686.00    1.09158   1.10274    0.000
 4687.00    1.03158   1.10342    0.000
 4688.00    0.98411   1.10393    0.000
 4689.00    0.98101   1.10524    0.000
 4690.00    0.99833   1.10691    0.000
 4691.00    1.06628   1.10862    0.000
 4692.00    1.15429   1.11134    0.000
 4693.00    1.33220   1.11453    0.000
 4694.00    1.54047   1.11691    0.000
 4695.00    1.38657   1.11765    0.000
 4696.00    1.12988   1.11512    0.000
 4697.00    0.94492   1.10791    0.000
 4698.00    0.77674   1.09723    0.000
 4699.00    0.83099   1.08690    0.000
 4700.00    0.92709   1.07904    0.000
 4701.00    0.92454   1.07252    0.000
 4702.00    0.90764   1.06698    0.000
 4703.00    0.94879   1.06374    0.000
 4704.00    0.99609   1.06420    0.000
 4705.00    1.16034   1.06675    0.000
 4706.00    1.33263   1.06862    0.000
 4707.00    1.12903   1.06950    0.000
 4708.00    0.91264   1.07107    0.000
 4709.00    0.90136   1.07418    0.000
 4710.00    0.89768   1.07938    0.000
 4711.00    1.13072   1.08598    0.000
 4712.00    1.34376   1.09153    0.000
 4713.00    1.24983   1.09607    0.000
 4714.00    1.14439   1.10164    0.000
 4715.00    0.92622   1.11056    0.000
 4716.00    0.74291   1.12303    0.000
 4717.00    0.80603   1.13588    0.000
 4718.00    0.91487   1.14721    0.000
 4719.00    1.27239   1.15733    0.000
 4720.00    1.52752   1.16493    0.000
 4721.00    1.33646   1.16811    0.000
 4722.00    1.18143   1.16648    0.000
 4723.00    1.15567   1.16136    0.000
 4724.00    1.16746   1.15378    0.000
 4725.00    1.29230   1.14283    0.000
 4726.00    1.35990   1.12762    0.000
 4727.00    1.28085   1.10965    0.000
 4728.00    1.12750   1.09367    0.000
 4729.00    0.81035   1.08357    0.000
 4730.00    0.74885   1.07899    0.000
 4731.00    1.17608   1.07877    0.000
 4732.00    1.35169   1.08271    0.000
 4733.00    1.10755   1.08913    0.000
 4734.00    1.03044   1.09624    0.000
 4735.00    1.19757   1.10309    0.000
 4736.00    1.20730   1.10776    0.000
 4737.00    1.01467   1.11195    0.000
 4738.00    0.86643   1.11815    0.000
 4739.00    0.76848   1.12354    0.000
 4740.00    0.88321   1.12628    0.000
 4741.00    1.21041   1.12872    0.000
 4742.00    1.29388   1.13250    0.000
 4743.00    1.16261   1.13703    0.000
 4744.00    1.18509   1.14071    0.000
 4745.00    1.32694   1.14337    0.000
 4746.00    1.32060   1.14653    0.000
 4747.00    1.21311   1.14909    0.000
 4748.00    1.01147   1.14906    0.000
 4749.00    0.75352   1.14690    0.000
 4750.00    0.67966   1.14320    0.000
 4751.00    0.70190   1.13747    0.000
 4752.00    1.06545   1.13002    0.000
 4753.00    1.58349   1.12260    0.000
 4754.00    1.66964   1.11629    0.000
 4755.00    1.58762   1.11174    0.000
 4756.00    1.67154   1.10859    0.000
 4757.00    1.81043   1.10622    0.000
 4758.00    1.76299   1.10397    0.000
 4759.00    1.66375   1.10088    0.000
 4760.00    1.32827   1.09566    0.000
 4761.00    0.93875   1.08706    0.009
 4762.00    1.01453   1.07659    0.009
 4763.00    1.17553   1.06767    0.010
 4764.00    1.21399   1.06126    0.009
 4765.00    1.23520   1.05714    0.009
 4766.00    1.09211   1.05679    0.009
 4767.00    0.93235   1.06159    0.009
 4768.00    1.22150   1.07037    0.009
 4769.00    1.53967   1.08111    0.009
 4770.00    1.15784   1.09130    0.009
 4771.00    0.75561   1.09919    0.009
 4772.00    0.74375   1.10659    0.009
 4773.00    0.74021   1.11518    0.009
 4774.00    0.97783   1.12384    0.009
 4775.00    1.18531   1.12996    0.009
 4776.00    0.95716   1.13285    0.009
 4777.00    0.78759   1.13413    0.009
 4778.00    1.16905   1.13319    0.009
 4779.00    1.44273   1.12888    0.009
 4780.00    0.97843   1.12227    0.009
 4781.00    0.62852   1.11434    0.009
 4782.00    0.88453   1.10515    0.009
 4783.00    1.05776   1.09585    0.009
 4784.00    0.87848   1.08898    0.009
 4785.00    0.79338   1.08437    0.009
 4786.00    1.03924   1.08023    0.009
 4787.00    1.28236   1.07893    0.009
 4788.00    1.51739   1.08162    0.009
 4789.00    1.59686   1.08645    0.009
 4790.00    1.28465   1.09376    0.009
 4791.00    0.98294   1.10342    0.009
 4792.00    0.70399   1.11386    0.009
 4793.00    0.64610   1.12412    0.009
 4794.00    1.00425   1.13239    0.009
 4795.00    1.25930   1.13641    0.009
 4796.00    1.34494   1.13584    0.009
 4797.00    1.35220   1.13222    0.009
 4798.00    1.24655   1.12699    0.009
 4799.00    1.16781   1.12163    0.009
 4800.00    1.12320   1.11809    0.009
 4801.00    1.09228   1.11718    0.009
 4802.00    1.07665   1.11724    0.009
 4803.00    0.99011   1.11570    0.009
 4804.00    0.83373   1.11174    0.009
 4805.00    0.76170   1.10672    0.009
 4806.00    0.76296   1.10262    0.009
 4807.00    0.84381   1.09896    0.009
 4808.00    0.98556   1.09612    0.009
 4809.00    1.01182   1.09603    0.009
 4810.00    0.96038   1.09848    0.009
 4811.00    0.96659   1.10204    0.009
 4812.00    1.00677   1.10627    0.009
 4813.00    1.12716   1.11124    0.009
 4814.00    1.28875   1.11702    0.009
 4815.00    1.14876   1.12297    0.009
 4816.00    0.87451   1.12836    0.009
 4817.00    0.84735   1.13211    0.009
 4818.00    0.91472   1.13314    0.009
 4819.00    0.99852   1.13153    0.009
 4820.00    1.08765   1.12721    0.009
 4821.00    1.14947   1.12047    0.009
 4822.00    1.20385   1.11166    0.009
 4823.00    1.24961   1.10146    0.009
 4824.00    1.29345   1.09402    0.009
 4825.00    1.15978   1.09126    0.009
 4826.00    0.99447   1.08981    0.009
 4827.00    1.11345   1.08712    0.009
 4828.00    1.27118   1.08396    0.009
 4829.00    1.39049   1.08208    0.009
 4830.00    1.50607   1.08142    0.009
 4831.00    1.37264   1.07966    0.009
 4832.00    1.22410   1.07738    0.009
 4833.00    1.16956   1.07748    0.009
 4834.00    1.11697   1.07883    0.009
 4835.00    0.96555   1.07862    0.009
 4836.00    0.82109   1.07648    0.009
 4837.00    0.85797   1.07348    0.009
 4838.00    0.90265   1.06907    0.009
 4839.00    1.05388   1.06324    0.009
 4840.00    1.19635   1.05839    0.009
 4841.00    1.25966   1.05620    0.009
 4842.00    1.29985   1.05513    0.009
 4843.00    1.18662   1.05359    0.009
 4844.00    1.09153   1.05356    0.009
 4845.00    1.09003   1.05542    0.009
 4846.00    1.06609   1.05584    0.009
 4847.00    0.94874   1.05275    0.009
 4848.00    0.88014   1.04686    0.000
 4849.00    0.97941   1.04054    0.000
 4850.00    1.01643   1.03408    0.000
 4851.00    0.87292   1.02471    0.000
 4852.00    0.79350   1.01207    0.000
 4853.00    0.87272   0.99696    0.000
 4854.00    0.96745   0.97762    0.000
 4855.00    1.09525   0.95391    0.000
 4856.00    1.09262   0.92957    0.000
 4857.00    0.84830   0.90668    0.000
 4858.00    0.84124   0.88361    0.000
 4859.00    1.21826   0.86027    0.000
 4860.00    1.42433   0.84026    0.000
 4861.00    1.38763   0.82928    0.000
 4862.00    1.34410   0.83203    0.000
 4863.00    1.29205   0.84558    0.000
 4864.00    1.18765   0.86313    0.000
 4865.00    1.02560   0.88242    0.000
 4866.00    0.90619   0.90151    0.000
 4867.00    0.82821   0.91767    0.000
 4868.00    0.76805   0.92957    0.000
 4869.00    0.72315   0.93723    0.000
 4870.00    0.60251   0.94010    0.000
 4871.00    0.42472   0.94035    0.000
 4872.00    0.57551   0.94439    0.000
 4873.00    0.94411   0.95455    0.000
 4874.00    1.03643   0.96724    0.000
 4875.00    0.96840   0.97972    0.009
 4876.00    1.09631   0.99250    0.009
 4877.00    1.32333   1.00561    0.009
 4878.00    1.24332   1.01726    0.009
 4879.00    1.02888   1.02634    0.009
 4880.00    1.00576   1.02971    0.009
 4881.00    1.05455   1.02655    0.009
 4882.00    1.21786   1.02159    0.009
 4883.00    1.41769   1.01681    0.009
 4884.00    1.28175   1.00959    0.009
 4885.00    1.05630   0.99911    0.009
 4886.00    1.04643   0.98890    0.009
 4887.00    1.08359   0.98334    0.009
 4888.00    0.95923   0.98236    0.009
 4889.00    0.80686   0.98387    0.009
 4890.00    0.97421   0.98769    0.009
 4891.00    1.18367   0.99644    0.009
 4892.00    1.04782   1.01420    0.009
 4893.00    0.87988   1.03727    0.009
 4894.00    1.14382   1.05863    0.009
 4895.00    1.43225   1.07586    0.009
 4896.00    1.38499   1.08853    0.010
 4897.00    1.32989   1.09656    0.010
 4898.00    1.25476   1.09894    0.010
 4899.00    1.17891   1.09531    0.009
 4900.00    1.08590   1.08953    0.009
 4901.00    0.98269   1.08558    0.009
 4902.00    0.74747   1.08211    0.009
 4903.00    0.54297   1.07779    0.009
 4904.00    0.60570   1.07472    0.009
 4905.00    0.68705   1.07383    0.009
 4906.00    0.88821   1.07261    0.009
 4907.00    1.07802   1.06814    0.009
 4908.00    1.21075   1.06115    0.009
 4909.00    1.32197   1.05423    0.009
 4910.00    1.34563   1.04924    0.009
 4911.00    1.30035   1.04747    0.009
 4912.00    1.02243   1.04774    0.009
 4913.00    0.86354   1.04695    0.009
 4914.00    1.04352   1.04344    0.009
 4915.00    1.21580   1.03699    0.009
 4916.00    1.36934   1.02650    0.009
 4917.00    1.32019   1.01126    0.009
 4918.00    0.84554   0.99237    0.009
 4919.00    0.59937   0.97407    0.009
 4920.00    0.77007   0.96211    0.009
 4921.00    0.87922   0.96016    0.009
 4922.00    0.89021   0.96724    0.009
 4923.00    0.95219   0.97879    0.009
 4924.00    1.08551   0.99313    0.009
 4925.00    1.19380   1.01155    0.009
 4926.00    1.27124   1.03295    0.009
 4927.00    1.33772   1.05181    0.009
 4928.00    1.39231   1.06471    0.009
 4929.00    1.36283   1.07279    0.009
 4930.00    1.25286   1.07633    0.009
 4931.00    1.01781   1.07513    0.009
 4932.00    0.67716   1.06805    0.008
 4933.00    0.61493   1.05496    0.008
 4934.00    0.75971   1.04172    0.008
 4935.00    0.95237   1.03288    0.008
 4936.00    1.17630   1.02582    0.008
 4937.00    1.29849   1.01847    0.008
 4938.00    1.36252   1.01390    0.009
 4939.00    1.25450   1.01689    0.009
 4940.00    1.06082   1.02772    0.000
 4941.00    1.11071   1.04098    0.000
 4942.00    1.26550   1.05297    0.000
 4943.00    1.19454   1.06489    0.000
 4944.00    1.04024   1.07629    0.000
 4945.00    0.98529   1.08448    0.000
 4946.00    0.96142   1.09004    0.000
 4947.00    0.98167   1.09498    0.000
 4948.00    1.01342   1.09825    0.000
 4949.00    1.22093   1.09854    0.000
 4950.00    1.46588   1.09642    0.000
 4951.00    1.57431   1.09168    0.000
 4952.00    1.65974   1.08160    0.000
 4953.00    1.42251   1.06683    0.000
 4954.00    1.14425   1.05195    0.000
 4955.00    1.19371   1.03849    0.000
 4956.00    1.27225   1.02451    0.000
 4957.00    1.07316   1.01088    0.000
 4958.00    0.85943   1.00644    0.000
 4959.00    0.93557   1.01344    0.000
 4960.00    1.01739   1.02223    0.000
 4961.00    1.11082   1.02738    0.000
 4962.00    1.20180   1.03089    0.000
 4963.00    1.23973   1.03461    0.000
 4964.00    1.26926   1.03521    0.000
 4965.00    1.19585   1.03062    0.000
 4966.00    1.11953   1.02546    0.000
 4967.00    1.01886   1.02348    0.000
 4968.00    0.92124   1.02393    0.000
 4969.00    0.84276   1.02649    0.000
 4970.00    0.79702   1.03100    0.000
 4971.00    0.91186   1.03727    0.000
 4972.00    1.01729   1.04388    0.000
 4973.00    1.08525   1.04793    0.000
 4974.00    1.13065   1.04875    0.000
 4975.00    1.10142   1.04577    0.000
 4976.00    1.09317   1.03852    0.000
 4977.00    1.14362   1.02677    0.000
 4978.00    1.22691   1.01075    0.000
 4979.00    1.38877   0.99399    0.000
 4980.00    1.48030   0.97888    0.000
 4981.00    1.42657   0.96455    0.000
 4982.00    1.29743   0.95203    0.000
 4983.00    1.03280   0.94578    0.000
 4984.00    0.93181   0.94760    0.000
 4985.00    1.08795   0.95423    0.000
 4986.00    1.16021   0.96343    0.000
 4987.00    1.11677   0.97513    0.000
 4988.00    1.13215   0.98643    0.000
 4989.00    1.21894   0.99462    0.000
 4990.00    1.24588   1.00003    0.000
 4991.00    1.20874   1.00400    0.000
 4992.00    1.16735   1.00764    0.000
 4993.00    1.12195   1.00878    0.000
 4994.00    1.10049   1.00706    0.000
 4995.00    1.09896   1.00509    0.000
 4996.00    1.18833   1.00180    0.000
 4997.00    1.34432   0.99577    0.000
 4998.00    1.19004   0.98743    0.000
 4999.00    0.83610   0.97688    0.000
 5000.00    0.85042   0.96561    0.000
 5001.00    1.07207   0.95496    0.000
 5002.00    0.99620   0.94578    0.000
 5003.00    0.77456   0.93934    0.000
 5004.00    0.68655   0.93499    0.000
 5005.00    0.65512   0.93128    0.000
 5006.00    0.88943   0.92934    0.000
 5007.00    1.22009   0.93135    0.000
 5008.00    1.25282   0.93520    0.000
 5009.00    1.19414   0.93585    0.000
 5010.00    1.22526   0.93276    0.000
 5011.00    1.27930   0.92822    0.000
 5012.00    1.25206   0.92202    0.000
 5013.00    1.20793   0.91474    0.000
 5014.00    1.07024   0.90871    0.000
 5015.00    0.91725   0.90662    0.000
 5016.00    0.88348   0.90782    0.000
 5017.00    0.86433   0.90900    0.000
 5018.00    0.85049   0.91115    0.000
 5019.00    0.83710   0.91696    0.000
 5020.00    1.11080   0.92454    0.000
 5021.00    1.39852   0.93032    0.000
 5022.00    1.23655   0.93423    0.000
 5023.00    1.07240   0.93964    0.000
 5024.00    1.19912   0.94705    0.000
 5025.00    1.32249   0.95366    0.000
 5026.00    1.37858   0.95888    0.000
 5027.00    1.41167   0.96347    0.000
 5028.00    1.17609   0.97041    0.000
 5029.00    0.96087   0.97995    0.008
 5030.00    0.91000   0.98721    0.008
 5031.00    0.86203   0.99077    0.008
 5032.00    0.83158   0.99280    0.008
 5033.00    0.80075   0.99298    0.008
 5034.00    0.76815   0.98731    0.008
 5035.00    0.71424   0.97392    0.008
 5036.00    0.57735   0.95752    0.008
 5037.00    0.48825   0.94391    0.008
 5038.00    0.55416   0.93237    0.008
 5039.00    0.63363   0.92151    0.008
 5040.00    0.75028   0.91410    0.008
 5041.00    0.84785   0.91427    0.008
 5042.00    0.90054   0.92441    0.008
 5043.00    0.93380   0.93920    0.008
 5044.00    0.92756   0.95199    0.008
 5045.00    0.91785   0.96295    0.008
 5046.00    0.90199   0.97205    0.008
 5047.00    0.97271   0.97552    0.008
 5048.00    1.17749   0.97259    0.008
 5049.00    1.24408   0.96845    0.008
 5050.00    1.12281   0.96693    0.008
 5051.00    0.97153   0.96712    0.008
 5052.00    0.78434   0.96912    0.008
 5053.00    0.71932   0.97534    0.008
 5054.00    0.78323   0.98510    0.008
 5055.00    0.75424   0.99508    0.008
 5056.00    0.63879   1.00361    0.008
 5057.00    0.61969   1.01141    0.008
 5058.00    0.67968   1.01789    0.009
 5059.00    0.78531   1.02045    0.009
 5060.00    0.92390   1.01873    0.009
 5061.00    0.93755   1.01483    0.009
 5062.00    0.87198   1.00887    0.008
 5063.00    0.76983   0.99914    0.008
 5064.00    0.64738   0.98593    0.008
 5065.00    0.72457   0.97456    0.008
 5066.00    0.89800   0.96855    0.008
 5067.00    0.97138   0.96356    0.008
 5068.00    1.00312   0.95793    0.008
 5069.00    0.95026   0.95610    0.008
 5070.00    0.86727   0.95829    0.008
 5071.00    0.95441   0.95856    0.008
 5072.00    1.09271   0.95596    0.009
 5073.00    1.05485   0.95519    0.009
 5074.00    0.97299   0.95430    0.009
 5075.00    0.67639   0.94830    0.009
 5076.00    0.33628   0.93996    0.008
 5077.00    0.53136   0.93371    0.008
 5078.00    0.81150   0.92654    0.008
 5079.00    0.91556   0.91587    0.008
 5080.00    0.99878   0.90842    0.008
 5081.00    0.62358   0.90898    0.008
 5082.00    0.21151   0.91309    0.008
 5083.00    0.29994   0.91728    0.008
 5084.00    0.41089   0.92466    0.008
 5085.00    0.63670   0.93620    0.008
 5086.00    0.85948   0.94747    0.008
 5087.00    0.86334   0.95619    0.008
 5088.00    0.87448   0.96434    0.008
 5089.00    1.02099   0.97254    0.008
 5090.00    1.14076   0.97830    0.008
 5091.00    0.96279   0.98083    0.008
 5092.00    0.83081   0.98168    0.008
 5093.00    1.05716   0.98035    0.008
 5094.00    1.21260   0.97467    0.008
 5095.00    0.95031   0.96545    0.008
 5096.00    0.72782   0.95600    0.008
 5097.00    0.69105   0.94740    0.008
 5098.00    0.70126   0.93893    0.008
 5099.00    0.89060   0.93227    0.008
 5100.00    0.98343   0.93093    0.008
 5101.00    0.76928   0.93327    0.008
 5102.00    0.63821   0.93475    0.008
 5103.00    0.73115   0.93411    0.008
 5104.00    0.85245   0.93325    0.008
 5105.00    1.03934   0.93238    0.008
 5106.00    1.13315   0.92977    0.008
 5107.00    1.04073   0.92604    0.008
 5108.00    1.03796   0.92443    0.008
 5109.00    1.19139   0.92554    0.008
 5110.00    1.17572   0.92813    0.008
 5111.00    0.90212   0.93384    0.008
 5112.00    0.78098   0.94243    0.008
 5113.00    0.86414   0.95126    0.008
 5114.00    0.93421   0.95961    0.008
 5115.00    0.98883   0.96678    0.008
 5116.00    0.88042   0.97161    0.008
 5117.00    0.60235   0.97362    0.008
 5118.00    0.60701   0.97156    0.008
 5119.00    0.87114   0.96455    0.008
 5120.00    0.90530   0.95389    0.008
 5121.00    0.75342   0.94183    0.008
 5122.00    0.73474   0.92911    0.008
 5123.00    0.81088   0.91554    0.008
 5124.00    0.83121   0.90390    0.008
 5125.00    0.81667   0.89686    0.008
 5126.00    0.78996   0.89351    0.008
 5127.00    0.75661   0.89248    0.008
 5128.00    0.66584   0.89398    0.008
 5129.00    0.54785   0.89802    0.008
 5130.00    0.62305   0.90421    0.008
 5131.00    0.77731   0.91181    0.008
 5132.00    0.93339   0.91812    0.008
 5133.00    1.09010   0.92172    0.008
 5134.00    0.89904   0.92389    0.008
 5135.00    0.60546   0.92510    0.008
 5136.00    0.52720   0.92324    0.008
 5137.00    0.50154   0.91808    0.008
 5138.00    0.63274   0.91134    0.008
 5139.00    0.79493   0.90503    0.008
 5140.00    0.76908   0.90199    0.008
 5141.00    0.71423   0.89946    0.008
 5142.00    0.75319   0.89391    0.008
 5143.00    0.80283   0.89018    0.008
 5144.00    0.89429   0.89108    0.008
 5145.00    0.98893   0.89122    0.008
 5146.00    0.84759   0.88839    0.008
 5147.00    0.69655   0.88627    0.008
 5148.00    0.67914   0.88662    0.008
 5149.00    0.66475   0.88772    0.008
 5150.00    0.73097   0.88771    0.008
 5151.00    0.78394   0.88812    0.008
 5152.00    0.60762   0.89127    0.008
 5153.00    0.46041   0.89682    0.008
 5154.00    0.62302   0.90328    0.008
 5155.00    0.78057   0.91098    0.009
 5156.00    0.90011   0.91987    0.009
 5157.00    0.97904   0.92776    0.009
 5158.00    0.82537   0.93162    0.009
 5159.00    0.67692   0.93092    0.008
 5160.00    0.55225   0.92626    0.008
 5161.00    0.49893   0.91514    0.008
 5162.00    0.71183   0.89565    0.008
 5163.00    0.87888   0.87129    0.008
 5164.00    0.90291   0.84521    0.008
 5165.00    0.90708   0.81763    0.008
 5166.00    0.85866   0.78989    0.008
 5167.00    0.81144   0.76429    0.008
 5168.00    0.76696   0.74475    0.008
 5169.00    0.75640   0.73521    0.008
 5170.00    0.81262   0.73476    0.008
 5171.00    0.82553   0.73693    0.008
 5172.00    0.76412   0.74132    0.008
 5173.00    0.73320   0.75525    0.008
 5174.00    0.74811   0.77847    0.008
 5175.00    0.81565   0.80018    0.008
 5176.00    0.95269   0.81510    0.008
 5177.00    1.07539   0.82676    0.008
 5178.00    1.18139   0.83414    0.008
 5179.00    1.10874   0.83177    0.008
 5180.00    0.85281   0.82218    0.008
 5181.00    0.65563   0.81214    0.008
 5182.00    0.51161   0.80217    0.008
 5183.00    0.59079   0.79249    0.008
 5184.00    0.84796   0.79095    0.008
 5185.00    0.93506   0.80227    0.008
 5186.00    0.90285   0.81873    0.008
 5187.00    0.81166   0.83192    0.008
 5188.00    0.68418   0.84268    0.008
 5189.00    0.75889   0.85554    0.008
 5190.00    0.94226   0.86632    0.000
 5191.00    0.88259   0.86750    0.000
 5192.00    0.70947   0.86438    0.000
 5193.00    0.69704   0.86698    0.000
 5194.00    0.74924   0.87290    0.000
 5195.00    0.80302   0.87641    0.000
 5196.00    0.85734   0.88115    0.000
 5197.00    0.70844   0.88947    0.000
 5198.00    0.50083   0.89687    0.000
 5199.00    0.56810   0.90070    0.000
 5200.00    0.70102   0.90027    0.000
 5201.00    0.84462   0.89470    0.000
 5202.00    0.99028   0.88552    0.000
 5203.00    0.93239   0.87456    0.000
 5204.00    0.84406   0.86013    0.000
 5205.00    0.76477   0.84496    0.000
 5206.00    0.68648   0.83593    0.000
 5207.00    0.67766   0.83339    0.000
 5208.00    0.67386   0.83367    0.000
 5209.00    0.53339   0.83931    0.000
 5210.00    0.38782   0.85167    0.000
 5211.00    0.54121   0.86588    0.008
 5212.00    0.69617   0.87915    0.008
 5213.00    0.85771   0.89176    0.008
 5214.00    1.00426   0.90254    0.008
 5215.00    0.90759   0.90964    0.008
 5216.00    0.80590   0.91487    0.008
 5217.00    0.65305   0.92031    0.008
 5218.00    0.54503   0.92491    0.008
 5219.00    0.76323   0.92639    0.008
 5220.00    0.94127   0.92437    0.008
 5221.00    0.89561   0.91968    0.008
 5222.00    0.84704   0.91107    0.008
 5223.00    0.78552   0.89872    0.008
 5224.00    0.74682   0.88636    0.008
 5225.00    0.79148   0.87601    0.008
 5226.00    0.81304   0.86743    0.008
 5227.00    0.76390   0.86396    0.008
 5228.00    0.68497   0.86841    0.008
 5229.00    0.52857   0.87596    0.008
 5230.00    0.52018   0.88327    0.008
 5231.00    0.84281   0.89211    0.008
 5232.00    1.10441   0.90126    0.009
 5233.00    1.24771   0.90867    0.009
 5234.00    1.27814   0.91612    0.009
 5235.00    1.11780   0.92443    0.008
 5236.00    1.04811   0.93314    0.008
 5237.00    1.11267   0.94187    0.008
 5238.00    1.12151   0.94932    0.008
 5239.00    1.05781   0.95456    0.008
 5240.00    1.02722   0.95907    0.008
 5241.00    1.03461   0.96230    0.008
 5242.00    0.91308   0.96059    0.008
 5243.00    0.66114   0.95492    0.008
 5244.00    0.57201   0.95034    0.008
 5245.00    0.62812   0.94516    0.008
 5246.00    0.72176   0.93416    0.008
 5247.00    0.84491   0.92185    0.008
 5248.00    0.86237   0.91574    0.008
 5249.00    0.80675   0.91217    0.008
 5250.00    0.80333   0.90601    0.008
 5251.00    0.83155   0.90269    0.008
 5252.00    0.81528   0.90695    0.008
 5253.00    0.77546   0.91377    0.008
 5254.00    0.74600   0.91833    0.008
 5255.00    0.72130   0.92274    0.008
 5256.00    0.80128   0.92947    0.008
 5257.00    0.92264   0.93405    0.008
 5258.00    0.86016   0.93160    0.008
 5259.00    0.73574   0.92306    0.008
 5260.00    0.64627   0.91033    0.008
 5261.00    0.56668   0.89232    0.008
 5262.00    0.57539   0.86960    0.008
 5263.00    0.60471   0.84771    0.008
 5264.00    0.70746   0.82832    0.008
 5265.00    0.82397   0.80885    0.008
 5266.00    0.63553   0.79341    0.008
 5267.00    0.40290   0.78931    0.008
 5268.00    0.43420   0.79056    0.008
 5269.00    0.49326   0.78965    0.008
 5270.00    0.70406   0.79476    0.008
 5271.00    0.92520   0.81119    0.008
 5272.00    0.85070   0.82931    0.008
 5273.00    0.76629   0.84455    0.008
 5274.00    0.83396   0.86163    0.008
 5275.00    0.89347   0.87921    0.008
 5276.00    0.68613   0.89404    0.008
 5277.00    0.51348   0.90699    0.008
 5278.00    0.86896   0.91659    0.008
 5279.00    1.15894   0.92081    0.008
 5280.00    0.81012   0.92200    0.008
 5281.00    0.49415   0.92427    0.008
 5282.00    0.40953   0.92760    0.008
 5283.00    0.37420   0.93052    0.008
 5284.00    0.60612   0.93506    0.008
 5285.00    0.78162   0.94484    0.008
 5286.00    0.71194   0.95729    0.008
 5287.00    0.70428   0.96719    0.008
 5288.00    0.91849   0.97407    0.008
 5289.00    1.06556   0.97977    0.008
 5290.00    1.01093   0.98322    0.008
 5291.00    0.98332   0.98175    0.008
 5292.00    1.02481   0.97474    0.008
 5293.00    1.01272   0.96380    0.008
 5294.00    0.88281   0.95193    0.008
 5295.00    0.82133   0.94065    0.008
 5296.00    0.89042   0.92868    0.008
 5297.00    0.92349   0.91653    0.008
 5298.00    0.89657   0.90954    0.008
 5299.00    0.91631   0.91108    0.008
 5300.00    1.00417   0.91659    0.008
 5301.00    0.92866   0.92260    0.008
 5302.00    0.64349   0.93195    0.008
 5303.00    0.52667   0.94509    0.008
 5304.00    0.60023   0.95807    0.008
 5305.00    0.70665   0.96852    0.008
 5306.00    0.84584   0.97651    0.008
 5307.00    1.00133   0.98228    0.008
 5308.00    1.17116   0.98670    0.008
 5309.00    1.09855   0.98954    0.008
 5310.00    0.83805   0.98973    0.008
 5311.00    0.76442   0.98769    0.008
 5312.00    0.81813   0.98426    0.007
 5313.00    0.95231   0.97982    0.008
 5314.00    1.13455   0.97526    0.008
 5315.00    1.05830   0.97019    0.008
 5316.00    0.84739   0.96384    0.008
 5317.00    0.82843   0.95807    0.008
 5318.00    0.89619   0.95383    0.007
 5319.00    0.93087   0.94796    0.007
 5320.00    0.95271   0.93927    0.007
 5321.00    0.96374   0.93032    0.007
 5322.00    0.97121   0.92124    0.008
 5323.00    0.92926   0.90804    0.008
 5324.00    0.87361   0.89092    0.008
 5325.00    0.81939   0.87771    0.008
 5326.00    0.76549   0.86974    0.008
 5327.00    0.82382   0.86107    0.008
 5328.00    0.90262   0.85351    0.008
 5329.00    0.94460   0.85679    0.008
 5330.00    0.98142   0.86954    0.008
 5331.00    1.02317   0.88253    0.008
 5332.00    1.06541   0.89376    0.008
 5333.00    0.99808   0.90661    0.008
 5334.00    0.92373   0.92039    0.008
 5335.00    0.98208   0.92915    0.008
 5336.00    1.04405   0.93054    0.008
 5337.00    0.96587   0.92905    0.008
 5338.00    0.88625   0.92831    0.008
 5339.00    0.76518   0.92529    0.008
 5340.00    0.66769   0.91928    0.008
 5341.00    0.90847   0.91598    0.008
 5342.00    1.11635   0.91714    0.008
 5343.00    1.01618   0.91854    0.008
 5344.00    0.93336   0.91896    0.008
 5345.00    0.96883   0.91952    0.008
 5346.00    0.99827   0.92160    0.008
 5347.00    0.99581   0.92584    0.008
 5348.00    0.96088   0.92947    0.008
 5349.00    0.78811   0.93273    0.008
 5350.00    0.68590   0.94007    0.008
 5351.00    0.83104   0.95118    0.008
 5352.00    0.94357   0.96129    0.008
 5353.00    0.95997   0.97004    0.008
 5354.00    0.95397   0.97997    0.008
 5355.00    0.89169   0.98922    0.008
 5356.00    0.85788   0.99435    0.008
 5357.00    0.88571   0.99587    0.008
 5358.00    0.88798   0.99487    0.008
 5359.00    0.84224   0.99141    0.007
 5360.00    0.79480   0.98502    0.007
 5361.00    0.74456   0.97558    0.007
 5362.00    0.71072   0.96489    0.007
 5363.00    0.70048   0.95466    0.007
 5364.00    0.76618   0.94378    0.007
 5365.00    0.92795   0.93193    0.007
 5366.00    0.95305   0.92101    0.007
 5367.00    0.82578   0.91097    0.007
 5368.00    0.82439   0.90291   -2.000
 5369.00    0.94678   0.89786   -2.000
 5370.00    1.08640   0.89481   -2.000
 5371.00    1.24096   0.89537   -2.000
 5372.00    1.20853   0.90214   -2.000
 5373.00    1.03326   0.91286   -2.000
 5374.00    0.90995   0.92332   -2.000
 5375.00    0.82152   0.93386   -2.000
 5376.00    0.77922   0.94317   -2.000
 5377.00    0.76405   0.94941   -2.000
 5378.00    0.74823   0.95354   -2.000
 5379.00    0.73208   0.95512   -2.000
 5380.00    0.78676   0.95372   -2.000
 5381.00    0.87290   0.95185   -2.000
 5382.00    0.94697   0.95005   -2.000
 5383.00    1.01644   0.94690    0.008
 5384.00    0.96276   0.94429    0.008
 5385.00    0.86915   0.94231    0.008
 5386.00    0.85681   0.93831    0.008
 5387.00    0.86653   0.93306    0.007
 5388.00    0.83477   0.92779    0.007
 5389.00    0.79376   0.92087    0.007
 5390.00    0.82015   0.91252    0.007
 5391.00    0.85853   0.90516    0.007
 5392.00    0.82130   0.89813    0.008
 5393.00    0.77382   0.89011    0.008
 5394.00    0.82589   0.88390    0.008
 5395.00    0.88758   0.88124    0.008
 5396.00    0.81993   0.87794    0.008
 5397.00    0.74450   0.87378    0.007
 5398.00    0.70808   0.87467    0.008
 5399.00    0.67329   0.87732    0.008
 5400.00    0.73977   0.87509    0.008
 5401.00    0.80630   0.87109    0.007
 5402.00    0.87420   0.86870    0.008
 5403.00    0.93211   0.86422    0.008
 5404.00    0.85465   0.85685    0.007
 5405.00    0.79035   0.85030    0.007
 5406.00    0.84454   0.84691    0.007
 5407.00    0.89219   0.84784    0.007
 5408.00    0.89667   0.85197    0.007
 5409.00    0.90918   0.85709    0.007
 5410.00    0.96301   0.86438    0.007
 5411.00    1.00692   0.87594    0.007
 5412.00    1.00966   0.88891    0.007
 5413.00    1.03874   0.89998    0.007
 5414.00    1.15829   0.90938    0.007
 5415.00    1.18644   0.91818    0.007
 5416.00    0.95014   0.92565    0.007
 5417.00    0.76867   0.93015    0.007
 5418.00    0.72262   0.93203    0.007
 5419.00    0.66663   0.93217    0.007
 5420.00    0.58948   0.93003    0.007
 5421.00    0.60266   0.92736    0.007
 5422.00    0.78289   0.92600    0.007
 5423.00    0.86201   0.92349    0.007
 5424.00    0.77775   0.91915    0.007
 5425.00    0.75876   0.91562    0.007
 5426.00    0.83227   0.91259    0.007
 5427.00    0.81215   0.90904    0.007
 5428.00    0.67529   0.90331    0.007
 5429.00    0.57293   0.89425    0.007
 5430.00    0.50850   0.88754    0.007
 5431.00    0.59870   0.88531    0.007
 5432.00    0.83881   0.88186    0.007
 5433.00    0.80499   0.87900    0.007
 5434.00    0.53697   0.88178    0.007
 5435.00    0.44425   0.88870    0.007
 5436.00    0.48353   0.89713    0.007
 5437.00    0.56322   0.90735    0.007
 5438.00    0.66965   0.91905    0.007
 5439.00    0.78276   0.92923    0.007
 5440.00    0.89976   0.93603    0.007
 5441.00    0.92913   0.93894    0.007
 5442.00    0.91428   0.93752    0.007
 5443.00    0.79332   0.93215    0.007
 5444.00    0.62598   0.92468    0.007
 5445.00    0.69524   0.91651    0.007
 5446.00    0.85323   0.90773    0.007
 5447.00    0.76744   0.90113    0.007
 5448.00    0.60410   0.89931    0.007
 5449.00    0.80265   0.89897    0.007
 5450.00    1.09741   0.89791    0.007
 5451.00    1.03053   0.89666    0.007
 5452.00    0.88499   0.89538    0.007
 5453.00    0.85346   0.89414    0.007
 5454.00    0.84163   0.89233    0.007
 5455.00    0.89579   0.88947    0.007
 5456.00    0.95860   0.88886    0.007
 5457.00    0.86219   0.89185    0.007
 5458.00    0.75107   0.89445    0.007
 5459.00    0.76157   0.89510    0.007
 5460.00    0.77889   0.89594    0.007
 5461.00    0.76898   0.89776    0.007
 5462.00    0.75941   0.89771    0.007
 5463.00    0.84892   0.89582    0.007
 5464.00    0.93636   0.89678    0.007
 5465.00    0.97512   0.89912    0.007
 5466.00    1.01301   0.89853    0.007
 5467.00    1.03971   0.89789    0.007
 5468.00    1.05019   0.89902    0.007
 5469.00    0.92026   0.89707    0.007
 5470.00    0.79983   0.89160    0.007
 5471.00    0.74033   0.88741    0.007
 5472.00    0.68796   0.88264    0.007
 5473.00    0.67137   0.87384    0.007
 5474.00    0.68135   0.86688    0.007
 5475.00    0.79915   0.86398    0.007
 5476.00    0.91034   0.85906    0.007
 5477.00    0.99922   0.85468    0.007
 5478.00    1.05563   0.85691   -2.000
 5479.00    1.01985   0.86139   -2.000
 5480.00    1.04578   0.86355   -2.000
 5481.00    1.22157   0.86682   -2.000
 5482.00    1.33836   0.87353   -2.000
 5483.00    1.33159   0.87923   -2.000
 5484.00    1.47478   0.88303   -2.000
 5485.00    1.89109   0.88779   -2.000
 5486.00    2.20839   0.89118   -2.000
 5487.00    2.36809   0.89155   -2.000
 5488.00    2.34646   0.89281   -2.000
 5489.00    2.07153   0.89491   -2.000
 5490.00    1.58289   0.89437   -2.000
 5491.00    0.83153   0.89444   -2.000
 5492.00    0.51668   0.89638   -2.000
 5493.00    0.67488   0.89575   -2.000
 5494.00    0.72567   0.89424   -2.000
 5495.00    0.67381   0.89557   -2.000
 5496.00    0.72653   0.89605   -2.000
 5497.00    0.86740   0.89313   -2.000
 5498.00    0.92008   0.89158   -2.000
 5499.00    0.90728   0.89192   -2.000
 5500.00    0.91601   0.88954   -2.000
 5501.00    0.93876   0.88533   -2.000
 5502.00    0.85628   0.88238    0.007
 5503.00    0.71377   0.87992    0.007
 5504.00    0.71313   0.87751    0.007
 5505.00    0.78298   0.87530    0.007
 5506.00    0.85185   0.87235    0.007
 5507.00    0.92030   0.87089    0.007
 5508.00    0.88580   0.87079    0.007
 5509.00    0.81339   0.86867    0.007
 5510.00    0.73018   0.86649    0.007
 5511.00    0.64359   0.86599    0.007
 5512.00    0.73219   0.86518    0.007
 5513.00    0.86636   0.86549    0.007
 5514.00    0.91030   0.86870    0.006
 5515.00    0.93508   0.87381    0.006
 5516.00    0.93537   0.87960    0.007
 5517.00    0.93154   0.88608    0.007
 5518.00    0.81414   0.89341    0.007
 5519.00    0.68236   0.89934    0.007
 5520.00    0.69701   0.90250    0.007
 5521.00    0.72457   0.90371    0.007
 5522.00    0.76374   0.90312    0.007
 5523.00    0.80352   0.90032    0.007
 5524.00    0.84954   0.89537    0.007
 5525.00    0.89266   0.88955    0.007
 5526.00    0.70748   0.88485    0.007
 5527.00    0.53436   0.88064    0.007
 5528.00    0.62060   0.87647    0.007
 5529.00    0.69759   0.87560    0.007
 5530.00    0.66164   0.87764    0.007
 5531.00    0.63589   0.87873    0.007
 5532.00    0.69516   0.87986    0.007
 5533.00    0.75244   0.88296    0.007
 5534.00    0.79733   0.88554    0.007
 5535.00    0.86115   0.88661    0.007
 5536.00    1.01746   0.88931    0.007
 5537.00    1.11822   0.89278    0.007
 5538.00    0.99841   0.89480    0.007
 5539.00    0.86935   0.89694    0.007
 5540.00    0.70978   0.89964    0.007
 5541.00    0.63010   0.90181    0.007
 5542.00    0.77320   0.90263    0.007
 5543.00    0.84295   0.90271    0.007
 5544.00    0.73763   0.90419    0.007
 5545.00    0.65984   0.90628    0.007
 5546.00    0.63881   0.90716    0.007
 5547.00    0.61425   0.90894    0.007
 5548.00    0.58337   0.91214    0.007
 5549.00    0.54941   0.91372    0.007
 5550.00    0.51061   0.91367    0.007
 5551.00    0.52375   0.91348    0.007
 5552.00    0.60838   0.91245    0.007
 5553.00    0.69787   0.90984    0.007
 5554.00    0.79324   0.90649    0.007
 5555.00    0.82325   0.90387    0.007
 5556.00    0.78343   0.90163    0.007
 5557.00    0.75494   0.89859    0.007
 5558.00    0.73712   0.89553    0.006
 5559.00    0.69588   0.89296    0.006
 5560.00    0.63518   0.88990    0.006
 5561.00    0.62528   0.88655    0.006
 5562.00    0.65255   0.88252    0.006
 5563.00    0.71310   0.87835    0.006
 5564.00    0.79503   0.87575    0.006
 5565.00    0.81105   0.87281    0.006
 5566.00    0.79003   0.86901    0.007
 5567.00    0.74331   0.86788    0.007
 5568.00    0.68401   0.86820    0.006
 5569.00    0.68231   0.86637    0.007
 5570.00    0.70496   0.86631    0.007
 5571.00    0.77661   0.86988    0.007
 5572.00    0.86599   0.87073    0.007
 5573.00    0.81184   0.87096    0.007
 5574.00    0.71376   0.87574    0.007
 5575.00    0.69131   0.87912    0.007
 5576.00    0.68810   0.87975    0.007
 5577.00    0.73539   0.88266    0.007
 5578.00    0.79313   0.88450    0.007
 5579.00    0.82914   0.88301    0.007
 5580.00    0.86160   0.88151    0.007
 5581.00    0.87323   0.87811    0.007
 5582.00    0.88232   0.87134    0.007
 5583.00    0.88178   0.86377    0.007
 5584.00    0.88044   0.85525    0.007
 5585.00    0.81089   0.84556    0.007
 5586.00    0.73804   0.83633    0.007
 5587.00    0.78485   0.82885    0.007
 5588.00    0.83311   0.82414    0.007
 5589.00    0.86150   0.82225    0.007
 5590.00    0.88420   0.82318    0.007
 5591.00    0.79379   0.82634    0.007
 5592.00    0.71397   0.83107    0.007
 5593.00    0.75718   0.83669    0.007
 5594.00    0.80148   0.84057    0.007
 5595.00    0.85456   0.84365    0.007
 5596.00    0.88383   0.84736    0.007
 5597.00    0.76924   0.84796    0.007
 5598.00    0.66309   0.84568    0.007
 5599.00    0.59720   0.84534    0.007
 5600.00    0.54097   0.84620    0.007
 5601.00    0.52230   0.84700    0.007
 5602.00    0.51707   0.85017    0.007
 5603.00    0.55531   0.85626    0.007
 5604.00    0.59282   0.86450    0.007
 5605.00    0.62833   0.87327    0.007
 5606.00    0.67278   0.88148    0.007
 5607.00    0.73819   0.88865    0.007
 5608.00    0.80862   0.89333    0.007
 5609.00    0.88922   0.89514    0.007
 5610.00    0.93502   0.89427    0.007
 5611.00    0.91935   0.88999    0.007
 5612.00    0.90388   0.88300    0.007
 5613.00    0.88871   0.87601    0.007
 5614.00    0.89122   0.86821    0.007
 5615.00    0.91773   0.85881    0.007
 5616.00    0.92298   0.85297    0.006
 5617.00    0.90283   0.85117    0.006
 5618.00    0.90985   0.84901    0.007
 5619.00    0.94548   0.84782    0.007
 5620.00    0.94008   0.84869    0.007
 5621.00    0.89654   0.84919    0.007
 5622.00    0.89634   0.84962    0.007
 5623.00    0.93163   0.85041    0.007
 5624.00    0.93949   0.85011    0.007
 5625.00    0.92758   0.85114    0.007
 5626.00    0.86707   0.85529    0.007
 5627.00    0.77579   0.85921    0.007
 5628.00    0.72329   0.86286    0.007
 5629.00    0.69226   0.86811    0.007
 5630.00    0.58384   0.87234    0.007
 5631.00    0.43817   0.87401    0.007
 5632.00    0.50555   0.87450    0.006
 5633.00    0.66143   0.87332    0.006
 5634.00    0.78056   0.86995    0.006
 5635.00    0.88663   0.86610    0.006
 5636.00    0.84527   0.86231    0.006
 5637.00    0.75968   0.85791    0.006
 5638.00    0.63420   0.85433    0.006
 5639.00    0.49878   0.85286    0.006
 5640.00    0.39622   0.85180    0.006
 5641.00    0.30029   0.85070    0.006
 5642.00    0.39990   0.85174    0.006
 5643.00    0.53046   0.85387    0.006
 5644.00    0.65607   0.85551    0.006
 5645.00    0.78110   0.85781    0.006
 5646.00    0.78305   0.86036    0.006
 5647.00    0.77516   0.86247    0.006
 5648.00    0.61311   0.86416    0.006
 5649.00    0.44419   0.86503    0.006
 5650.00    0.52153   0.86514    0.006
 5651.00    0.60085   0.86402    0.006
 5652.00    0.63976   0.86169    0.006
 5653.00    0.67749   0.85897    0.006
 5654.00    0.69329   0.85390    0.006
 5655.00    0.70752   0.84682    0.006
 5656.00    0.70446   0.84238    0.006
 5657.00    0.69883   0.83838    0.006
 5658.00    0.67333   0.83168    0.006
 5659.00    0.64052   0.82856    0.006
 5660.00    0.56487   0.83037    0.006
 5661.00    0.50673   0.83115    0.006
 5662.00    0.53010   0.83214    0.006
 5663.00    0.56166   0.83647    0.006
 5664.00    0.62440   0.84128    0.006
 5665.00    0.66209   0.84496    0.006
 5666.00    0.62029   0.84883    0.006
 5667.00    0.62280   0.85246    0.006
 5668.00    0.74452   0.85588    0.006
 5669.00    0.82546   0.85993    0.006
 5670.00    0.81231   0.86417    0.007
 5671.00    0.80110   0.86801    0.007
 5672.00    0.79377   0.87209    0.006
 5673.00    0.77899   0.87660    0.006
 5674.00    0.75128   0.87966    0.006
 5675.00    0.73370   0.88054    0.006
 5676.00    0.73157   0.88098    0.007
 5677.00    0.71843   0.88072    0.006
 5678.00    0.69059   0.87784    0.006
 5679.00    0.67479   0.87335    0.006
 5680.00    0.67317   0.86950    0.006
 5681.00    0.63552   0.86550    0.006
 5682.00    0.56044   0.86014    0.006
 5683.00    0.48485   0.85573    0.006
 5684.00    0.40879   0.85336    0.006
 5685.00    0.44027   0.85158    0.006
 5686.00    0.55859   0.85052    0.006
 5687.00    0.61257   0.85112    0.006
 5688.00    0.62083   0.85311    0.006
 5689.00    0.60922   0.85632    0.006
 5690.00    0.58521   0.86017    0.006
 5691.00    0.55405   0.86342    0.006
 5692.00    0.51899   0.86657    0.006
 5693.00    0.50065   0.86908    0.006
 5694.00    0.49023   0.86916    0.006
 5695.00    0.53221   0.86727    0.006
 5696.00    0.59559   0.86504    0.007
 5697.00    0.65448   0.86134    0.007
 5698.00    0.71180   0.85522    0.007
 5699.00    0.73240   0.84985    0.007
 5700.00    0.74221   0.84537    0.007
 5701.00    0.70543   0.83959    0.007
 5702.00    0.65731   0.83416    0.007
 5703.00    0.73311   0.82990    0.007
 5704.00    0.83331   0.82583    0.007
 5705.00    0.86510   0.82092    0.007
 5706.00    0.88638   0.81590    0.007
 5707.00    0.80078   0.81309    0.006
 5708.00    0.70307   0.81066    0.006
 5709.00    0.74798   0.80870    0.006
 5710.00    0.80371   0.81144    0.006
 5711.00    0.84448   0.81574    0.006
 5712.00    0.88464   0.82030    0.006
 5713.00    0.83670   0.82912    0.006
 5714.00    0.78895   0.83839    0.006
 5715.00    0.77735   0.84604    0.006
 5716.00    0.76517   0.85521    0.006
 5717.00    0.74303   0.86331    0.006
 5718.00    0.73291   0.86914    0.006
 5719.00    0.84996   0.87523    0.006
 5720.00    0.94036   0.87978    0.006
 5721.00    0.83103   0.88217    0.006
 5722.00    0.70803   0.88447    0.006
 5723.00    0.50704   0.88526    0.006
 5724.00    0.36893   0.88378    0.006
 5725.00    0.51642   0.88253    0.006
 5726.00    0.61643   0.88102    0.006
 5727.00    0.53974   0.87786    0.006
 5728.00    0.48790   0.87549    0.006
 5729.00    0.51340   0.87489    0.006
 5730.00    0.55332   0.87408    0.006
 5731.00    0.63138   0.87296    0.006
 5732.00    0.68030   0.87349    0.006
 5733.00    0.66314   0.87501    0.007
 5734.00    0.67842   0.87555    0.007
 5735.00    0.75746   0.87610    0.007
 5736.00    0.79710   0.87696    0.006
 5737.00    0.76925   0.87692    0.007
 5738.00    0.73946   0.87670    0.007
 5739.00    0.70674   0.87644    0.007
 5740.00    0.66499   0.87579    0.000
 5741.00    0.61131   0.87540    0.000
 5742.00    0.62642   0.87504    0.000
 5743.00    0.72141   0.87442    0.000
 5744.00    0.73753   0.87377    0.000
 5745.00    0.67287   0.87282    0.000
 5746.00    0.67666   0.87175    0.000
 5747.00    0.74228   0.86990    0.000
 5748.00    0.83555   0.86695    0.000
 5749.00    0.95084   0.86462    0.000
 5750.00    0.99964   0.86239    0.000
 5751.00    1.00188   0.85942    0.000
 5752.00    0.95818   0.85746    0.000
 5753.00    0.88626   0.85638    0.000
 5754.00    0.81811   0.85543    0.000
 5755.00    0.75198   0.85601    0.000
 5756.00    0.77579   0.85700    0.000
 5757.00    0.84150   0.85705    0.000
 5758.00    0.83669   0.85745    0.000
 5759.00    0.80358   0.85724    0.000
 5760.00    0.75674   0.85624    0.000
 5761.00    0.70521   0.85656    0.000
 5762.00    0.66775   0.85719    0.000
 5763.00    0.63435   0.85816    0.000
 5764.00    0.64845   0.86178    0.000
 5765.00    0.67386   0.86565    0.000
 5766.00    0.76297   0.86836    0.000
 5767.00    0.86429   0.87178    0.000
 5768.00    0.82478   0.87426    0.000
 5769.00    0.76430   0.87442    0.000
 5770.00    0.66341   0.87433    0.000
 5771.00    0.55812   0.87329    0.000
 5772.00    0.57846   0.87064    0.000
 5773.00    0.60782   0.86848    0.000
 5774.00    0.60031   0.86554    0.000
 5775.00    0.59145   0.86110    0.000
 5776.00    0.57379   0.85698    0.000
 5777.00    0.55801   0.85152    0.000
 5778.00    0.61084   0.84405    0.000
 5779.00    0.66048   0.83691    0.000
 5780.00    0.65886   0.82973    0.000
 5781.00    0.65535   0.82185    0.000
 5782.00    0.63265   0.81588    0.000
 5783.00    0.60902   0.81328    0.000
 5784.00    0.57852   0.81208    0.000
 5785.00    0.55332   0.81219    0.000
 5786.00    0.55747   0.81627    0.000
 5787.00    0.56992   0.82181    0.000
 5788.00    0.61915   0.82638    0.000
 5789.00    0.67955   0.83295    0.000
 5790.00    0.78063   0.83933    0.000
 5791.00    0.86004   0.84347   -2.000
 5792.00    0.87327   0.84878   -2.000
 5793.00    0.85539   0.85360   -2.000
 5794.00    0.75673   0.85611   -2.000
 5795.00    0.67757   0.85931   -2.000
 5796.00    0.64192   0.86292   -2.000
 5797.00    0.59373   0.86470   -2.000
 5798.00    0.52130   0.86617   -2.000
 5799.00    0.45156   0.86903   -2.000
 5800.00    0.38638   0.87066   -2.000
 5801.00    0.43048   0.87042   -2.000
 5802.00    0.63613   0.87093   -2.000
 5803.00    0.78835   0.87069   -2.000
 5804.00    0.87114   0.86868   -2.000
 5805.00    0.89082   0.86739   -2.000
 5806.00    0.83826   0.86648   -2.000
 5807.00    0.75216   0.86545   -2.000
 5808.00    0.63220   0.86517   -2.000
 5809.00    0.58516   0.86496   -2.000
 5810.00    0.60304   0.86498   -2.000
 5811.00    0.67135   0.86519    0.000
 5812.00    0.77922   0.86462    0.000
 5813.00    0.87768   0.86399    0.000
 5814.00    0.96963   0.86401    0.000
 5815.00    0.93880   0.86410    0.000
 5816.00    0.83368   0.86432    0.000
 5817.00    0.79226   0.86584    0.000
 5818.00    0.78449   0.86839    0.000
 5819.00    0.76794   0.87056    0.000
 5820.00    0.74736   0.87280    0.000
 5821.00    0.73544   0.87538    0.000
 5822.00    0.72692   0.87718    0.000
 5823.00    0.76443   0.87819    0.000
 5824.00    0.81741   0.87908    0.000
 5825.00    0.79953   0.87965    0.000
 5826.00    0.76165   0.87980    0.000
 5827.00    0.72019   0.87977    0.000
 5828.00    0.67789   0.87934    0.000
 5829.00    0.67396   0.87885    0.000
 5830.00    0.67720   0.87828    0.000
 5831.00    0.74678   0.87674    0.000
 5832.00    0.82593   0.87515    0.000
 5833.00    0.87314   0.87435    0.000
 5834.00    0.91700   0.87290    0.000
 5835.00    0.85543   0.87123    0.000
 5836.00    0.78672   0.87133    0.000
 5837.00    0.72163   0.87176    0.000
 5838.00    0.65666   0.87145    0.000
 5839.00    0.65676   0.87234    0.000
 5840.00    0.65661   0.87368    0.000
 5841.00    0.64740   0.87363    0.000
 5842.00    0.63581   0.87320    0.000
 5843.00    0.58825   0.87241    0.000
 5844.00    0.54321   0.87008    0.000
 5845.00    0.52273   0.86696    0.000
 5846.00    0.49830   0.86344    0.000
 5847.00    0.44612   0.85895    0.000
 5848.00    0.42557   0.85433    0.000
 5849.00    0.57589   0.84974    0.000
 5850.00    0.69227   0.84444    0.000
 5851.00    0.66165   0.83927    0.000
 5852.00    0.62849   0.83456    0.000
 5853.00    0.58626   0.82928    0.000
 5854.00    0.59429   0.82428    0.000
 5855.00    0.75286   0.82096    0.000
 5856.00    0.82291   0.81819    0.000
 5857.00    0.66708   0.81570    0.000
 5858.00    0.50561   0.81568    0.000
 5859.00    0.33176   0.81701    0.000
 5860.00    0.24286   0.81826    0.000
 5861.00    0.31571   0.82118    0.000
 5862.00    0.39533   0.82453    0.000
 5863.00    0.48622   0.82694    0.000
 5864.00    0.56488   0.83006    0.000
 5865.00    0.62572   0.83335    0.000
 5866.00    0.64706   0.83541    0.000
 5867.00    0.61782   0.83760    0.000
 5868.00    0.58778   0.84037    0.000
 5869.00    0.55686   0.84213    0.000
 5870.00    0.53461   0.84307    0.000
 5871.00    0.52101   0.84413    0.000
 5872.00    0.55810   0.84432    0.000
 5873.00    0.63969   0.84302    0.000
 5874.00    0.66215   0.84137    0.000
 5875.00    0.63886   0.83946    0.000
 5876.00    0.62155   0.83629    0.000
 5877.00    0.60830   0.83249    0.000
 5878.00    0.59124   0.82903    0.000
 5879.00    0.57192   0.82510    0.000
 5880.00    0.60930   0.81968    0.000
 5881.00    0.67616   0.81385    0.000
 5882.00    0.70698   0.80749    0.000
 5883.00    0.72154   0.79766    0.000
 5884.00    0.70265   0.78514    0.000
 5885.00    0.67078   0.77189    0.000
 5886.00    0.60339   0.75434    0.000
 5887.00    0.52429   0.73440    0.000
 5888.00    0.47887   0.71794    0.000
 5889.00    0.44275   0.70048    0.000
 5890.00    0.52777   0.68383    0.000
 5891.00    0.64033   0.67674    0.000
 5892.00    0.67963   0.67165    0.000
 5893.00    0.70561   0.66736    0.000
 5894.00    0.65746   0.67370    0.000
 5895.00    0.59897   0.68196    0.000
 5896.00    0.63731   0.68885    0.000
 5897.00    0.68536   0.70426    0.000
 5898.00    0.67086   0.72118    0.000
 5899.00    0.65238   0.73456    0.000
 5900.00    0.63673   0.75152    0.000
 5901.00    0.62117   0.76832    0.006
 5902.00    0.60980   0.78011    0.006
 5903.00    0.59972   0.79091    0.006
 5904.00    0.62633   0.80060    0.006
 5905.00    0.64938   0.80662    0.006
 5906.00    0.62187   0.81086    0.006
 5907.00    0.58588   0.81434    0.006
 5908.00    0.47101   0.81623    0.006
 5909.00    0.37577   0.81697    0.006
 5910.00    0.41386   0.81670    0.006
 5911.00    0.46104   0.81575    0.006
 5912.00    0.55599   0.81468    0.006
 5913.00    0.63668   0.81270    0.006
 5914.00    0.65701   0.81101    0.006
 5915.00    0.67499   0.81063    0.006
 5916.00    0.68480   0.81006    0.006
 5917.00    0.70172   0.81065    0.006
 5918.00    0.73952   0.81248    0.006
 5919.00    0.74568   0.81370    0.006
 5920.00    0.67251   0.81587    0.006
 5921.00    0.61240   0.81807    0.006
 5922.00    0.58051   0.81889    0.006
 5923.00    0.60106   0.82020    0.006
 5924.00    0.71993   0.82089    0.006
 5925.00    0.82539   0.82033    0.006
 5926.00    0.90891   0.82011    0.006
 5927.00    0.91920   0.81914    0.006
 5928.00    0.82438   0.81787    0.006
 5929.00    0.77513   0.81719    0.006
 5930.00    0.78341   0.81614    0.006
 5931.00    0.79897   0.81545    0.006
 5932.00    0.82265   0.81557    0.006
 5933.00    0.77360   0.81597    0.006
 5934.00    0.65318   0.81618    0.006
 5935.00    0.57457   0.81663    0.006
 5936.00    0.53216   0.81808    0.006
 5937.00    0.53239   0.81863    0.006
 5938.00    0.56513   0.81846    0.006
 5939.00    0.60052   0.81949    0.006
 5940.00    0.63768   0.81980    0.006
 5941.00    0.57803   0.81904    0.006
 5942.00    0.46153   0.81931    0.006
 5943.00    0.38930   0.81942    0.006
 5944.00    0.33973   0.81877    0.006
 5945.00    0.35898   0.81837    0.006
 5946.00    0.40874   0.81752    0.006
 5947.00    0.42948   0.81636    0.006
 5948.00    0.43918   0.81518    0.006
 5949.00    0.46572   0.81315    0.006
 5950.00    0.49772   0.81140    0.006
 5951.00    0.47495   0.81069    0.006
 5952.00    0.43736   0.80928    0.006
 5953.00    0.46542   0.80790    0.006
 5954.00    0.50808   0.80838    0.006
 5955.00    0.56801   0.80908    0.006
 5956.00    0.63100   0.80941    0.006
 5957.00    0.63737   0.81117    0.006
 5958.00    0.63609   0.81381    0.006
 5959.00    0.61805   0.81608    0.006
 5960.00    0.59840   0.81860    0.006
 5961.00    0.60581   0.82164    0.006
 5962.00    0.61483   0.82394    0.006
 5963.00    0.61456   0.82549    0.006
 5964.00    0.61366   0.82755    0.006
 5965.00    0.55222   0.82890    0.006
 5966.00    0.49269   0.82937    0.006
 5967.00    0.48178   0.83082    0.006
 5968.00    0.47392   0.83179    0.006
 5969.00    0.50719   0.83165    0.006
 5970.00    0.53707   0.83184    0.006
 5971.00    0.53648   0.83132    0.006
 5972.00    0.53360   0.82936    0.006
 5973.00    0.51556   0.82697    0.006
 5974.00    0.50209   0.82433    0.006
 5975.00    0.51205   0.82094    0.006
 5976.00    0.52209   0.81746    0.006
 5977.00    0.53244   0.81486    0.006
 5978.00    0.53575   0.81222    0.006
 5979.00    0.51488   0.80982    0.006
 5980.00    0.49913   0.80838    0.006
 5981.00    0.49815   0.80641    0.006
 5982.00    0.47496   0.80488    0.006
 5983.00    0.39708   0.80431    0.006
 5984.00    0.37022   0.80307    0.006
 5985.00    0.45174   0.80301    0.006
 5986.00    0.53792   0.80455    0.006
 5987.00    0.63271   0.80573    0.006
 5988.00    0.67980   0.80742    0.006
 5989.00    0.64995   0.81008    0.006
 5990.00    0.63036   0.81254    0.006
 5991.00    0.62529   0.81406    0.006
 5992.00    0.64851   0.81525    0.005
 5993.00    0.70695   0.81641    0.006
 5994.00    0.72062   0.81616    0.006
 5995.00    0.68517   0.81517    0.006
 5996.00    0.62885   0.81425    0.006
 5997.00    0.55232   0.81235    0.006
 5998.00    0.50579   0.81052    0.006
 5999.00    0.48488   0.80888    0.006
 6000.00    0.47104   0.80669    0.006
 6001.00    0.46252   0.80531    0.006
 6002.00    0.51951   0.80349    0.006
 6003.00    0.61975   0.80106    0.006
 6004.00    0.64473   0.79995    0.006
 6005.00    0.62618   0.79805    0.006
 6006.00    0.62000   0.79608    0.006
 6007.00    0.62005   0.79558    0.006
 6008.00    0.64483   0.79430    0.006
 6009.00    0.68041   0.79376    0.006
 6010.00    0.67942   0.79422    0.006
 6011.00    0.66476   0.79386    0.006
 6012.00    0.69487   0.79381    0.006
 6013.00    0.73920   0.79328    0.006
 6014.00    0.77114   0.79245    0.006
 6015.00    0.79981   0.79237    0.006
 6016.00    0.80477   0.79107    0.006
 6017.00    0.80460   0.78970    0.006
 6018.00    0.81857   0.78986    0.006
 6019.00    0.83497   0.78961    0.006
 6020.00    0.79597   0.78946    0.006
 6021.00    0.74974   0.79062    0.006
 6022.00    0.72965   0.79266    0.006
 6023.00    0.71196   0.79515    0.006
 6024.00    0.72349   0.79763    0.006
 6025.00    0.73664   0.80148    0.006
 6026.00    0.80069   0.80567    0.006
 6027.00    0.86480   0.80869    0.006
 6028.00    0.82339   0.81249    0.006
 6029.00    0.77870   0.81641    0.006
 6030.00    0.65784   0.81905    0.006
 6031.00    0.54951   0.82144    0.006
 6032.00    0.60113   0.82381    0.006
 6033.00    0.64413   0.82540    0.006
 6034.00    0.61301   0.82625    0.006
 6035.00    0.58903   0.82695    0.006
 6036.00    0.61062   0.82718    0.006
 6037.00    0.63109   0.82693    0.006
 6038.00    0.64592   0.82689    0.006
 6039.00    0.66506   0.82653    0.006
 6040.00    0.70164   0.82634    0.006
 6041.00    0.71443   0.82693    0.006
 6042.00    0.64736   0.82723    0.006
 6043.00    0.61089   0.82801    0.006
 6044.00    0.66114   0.82945    0.006
 6045.00    0.69920   0.83020    0.006
 6046.00    0.70775   0.83080    0.006
 6047.00    0.72348   0.83149    0.006
 6048.00    0.75423   0.83126    0.006
 6049.00    0.74946   0.83023    0.006
 6050.00    0.68012   0.82897    0.006
 6051.00    0.62860   0.82718    0.005
 6052.00    0.60540   0.82481    0.005
 6053.00    0.59869   0.82218    0.005
 6054.00    0.61496   0.81990    0.006
 6055.00    0.61143   0.81793    0.006
 6056.00    0.58358   0.81590    0.006
 6057.00    0.56217   0.81448    0.006
 6058.00    0.54774   0.81356    0.006
 6059.00    0.56735   0.81239    0.006
 6060.00    0.61945   0.81135    0.006
 6061.00    0.63494   0.81065    0.006
 6062.00    0.61962   0.80944    0.006
 6063.00    0.61043   0.80882    0.006
 6064.00    0.60578   0.80967    0.006
 6065.00    0.60928   0.81020    0.006
 6066.00    0.61808   0.81210    0.006
 6067.00    0.61768   0.81600    0.006
 6068.00    0.61204   0.81931    0.006
 6069.00    0.61111   0.82273    0.006
 6070.00    0.61252   0.82621    0.006
 6071.00    0.62690   0.82847    0.006
 6072.00    0.64684   0.82962    0.006
 6073.00    0.58909   0.82933    0.006
 6074.00    0.50279   0.82787    0.006
 6075.00    0.48381   0.82510    0.006
 6076.00    0.48580   0.82115    0.006
 6077.00    0.52170   0.81735    0.006
 6078.00    0.56641   0.81278    0.006
 6079.00    0.61754   0.80791    0.006
 6080.00    0.67003   0.80493    0.006
 6081.00    0.72272   0.80197    0.006
 6082.00    0.77544   0.79871    0.005
 6083.00    0.78079   0.79751    0.005
 6084.00    0.78018   0.79685    0.005
 6085.00    0.77874   0.79570    0.006
 6086.00    0.77722   0.79533    0.006
 6087.00    0.77230   0.79512    0.006
 6088.00    0.76720   0.79501    0.006
 6089.00    0.72518   0.79503    0.006
 6090.00    0.68256   0.79461    0.006
 6091.00    0.64543   0.79506    0.006
 6092.00    0.60659   0.79623    0.006
 6093.00    0.53124   0.79668    0.006
 6094.00    0.46193   0.79739    0.006
 6095.00    0.46582   0.79875    0.006
 6096.00    0.47371   0.79872    0.006
 6097.00    0.51472   0.79760    0.006
 6098.00    0.55305   0.79664    0.006
 6099.00    0.57480   0.79420    0.006
 6100.00    0.59387   0.79107    0.006
 6101.00    0.59986   0.78944    0.006
 6102.00    0.59117   0.78667    0.006
 6103.00    0.52438   0.78454    0.006
 6104.00    0.47525   0.78620    0.006
 6105.00    0.48422   0.78749    0.006
 6106.00    0.50876   0.78926    0.006
 6107.00    0.57662   0.79294    0.006
 6108.00    0.62672   0.79550    0.006
 6109.00    0.63455   0.79853    0.005
 6110.00    0.64017   0.80170    0.005
 6111.00    0.64126   0.80278    0.005
 6112.00    0.64871   0.80385    0.005
 6113.00    0.66752   0.80435    0.005
 6114.00    0.67872   0.80328    0.005
 6115.00    0.67801   0.80185    0.005
 6116.00    0.66912   0.79869    0.006
 6117.00    0.64899   0.79485    0.006
 6118.00    0.61088   0.79173    0.006
 6119.00    0.55103   0.78695    0.006
 6120.00    0.54407   0.78286    0.006
 6121.00    0.59354   0.78080    0.006
 6122.00    0.66540   0.77780    0.006
 6123.00    0.75831   0.77705    0.006
 6124.00    0.76272   0.77879    0.006
 6125.00    0.69372   0.77929    0.006
 6126.00    0.61091   0.78076    0.006
 6127.00    0.51802   0.78326    0.006
 6128.00    0.47224   0.78432    0.006
 6129.00    0.45667   0.78473    0.006
 6130.00    0.43632   0.78473    0.006
 6131.00    0.41329   0.78286    0.006
 6132.00    0.45717   0.77943    0.006
 6133.00    0.53369   0.77535    0.005
 6134.00    0.56394   0.77015    0.005
 6135.00    0.57468   0.76530    0.005
 6136.00    0.58300   0.76157    0.006
 6137.00    0.59046   0.75839    0.006
 6138.00    0.56307   0.75821    0.006
 6139.00    0.52504   0.76093    0.006
 6140.00    0.47676   0.76461    0.006
 6141.00    0.42587   0.76883    0.005
 6142.00    0.45300   0.77350    0.005
 6143.00    0.49624   0.77890    0.005
 6144.00    0.51985   0.78322    0.005
 6145.00    0.54026   0.78557    0.006
 6146.00    0.56254   0.78724    0.010
 6147.00    0.58504   0.78785    0.143
 6148.00    0.64303   0.78714   -1.000
 6149.00    0.70399   0.78583   -1.000
 6150.00    0.74361   0.78423   -1.000
 6151.00    0.78221   0.78221 2764.979
 6152.00    0.82714   0.77982   -1.000
 6153.00    0.86964   0.77739   -1.000
 6154.00    0.76590   0.77370   -1.000
 6155.00    0.67074   0.76868    0.239
 6156.00    0.74429   0.76358    0.011
 6157.00    0.81329   0.75698    0.006
 6158.00    0.82984   0.74866    0.006
 6159.00    0.83963   0.74085    0.006
 6160.00    0.79533   0.73338    0.006
 6161.00    0.75418   0.72567    0.006
 6162.00    0.73201   0.71998    0.006
 6163.00    0.70826   0.71687    0.006
 6164.00    0.67703   0.71574    0.006
 6165.00    0.66035   0.71646    0.006
 6166.00    0.70002   0.71769    0.005
 6167.00    0.73190   0.72042    0.005
 6168.00    0.73863   0.72445    0.005
 6169.00    0.71968   0.72712    0.006
 6170.00    0.63050   0.73001    0.005
 6171.00    0.55389   0.73489    0.005
 6172.00    0.50668   0.73926    0.005
 6173.00    0.49231   0.74254    0.005
 6174.00    0.54442   0.74660    0.005
 6175.00    0.59128   0.75091    0.006
 6176.00    0.62889   0.75433    0.006
 6177.00    0.61183   0.75705    0.006
 6178.00    0.51045   0.76013    0.006
 6179.00    0.45564   0.76274    0.006
 6180.00    0.46390   0.76359    0.006
 6181.00    0.51082   0.76439    0.006
 6182.00    0.60382   0.76474    0.006
 6183.00    0.62872   0.76290    0.006
 6184.00    0.58200   0.76055    0.006
 6185.00    0.52848   0.75770    0.006
 6186.00    0.46866   0.75326    0.006
 6187.00    0.43690   0.74907    0.006
 6188.00    0.42810   0.74492    0.006
 6189.00    0.41122   0.74143    0.006
 6190.00    0.38854   0.73997    0.006
 6191.00    0.39134   0.73819    0.006
 6192.00    0.41023   0.73825    0.005
 6193.00    0.43564   0.74137    0.005
 6194.00    0.46466   0.74374    0.005
 6195.00    0.60071   0.74631    0.006
 6196.00    0.78816   0.74956   -2.000
 6197.00    1.18208   0.75209   -2.000
 6198.00    1.66158   0.75451   -2.000
 6199.00    1.74700   0.75607   -2.000
 6200.00    1.69273   0.75720   -2.000
 6201.00    1.21214   0.75924   -2.000
 6202.00    0.60398   0.76107   -2.000
 6203.00    0.32741   0.76238   -2.000
 6204.00    0.13320   0.76360   -2.000
 6205.00    0.29502   0.76411   -2.000
 6206.00    0.52853   0.76400   -2.000
 6207.00    0.67857   0.76274   -2.000
 6208.00    0.81545   0.75995    0.006
 6209.00    0.77303   0.75648    0.006
 6210.00    0.70960   0.75160    0.006
 6211.00    0.74100   0.74575    0.006
 6212.00    0.77992   0.74035    0.006
 6213.00    0.73919   0.73430    0.006
 6214.00    0.69496   0.72880    0.006
 6215.00    0.55678   0.72502    0.006
 6216.00    0.42130   0.72163    0.005
 6217.00    0.46327   0.71996    0.005
 6218.00    0.50663   0.71975    0.005
 6219.00    0.57569   0.71930    0.005
 6220.00    0.64479   0.72007    0.005
 6221.00    0.71447   0.72143    0.005
 6222.00    0.77579   0.72254    0.005
 6223.00    0.77250   0.72380    0.005
 6224.00    0.76798   0.72387    0.005
 6225.00    0.75627   0.72349    0.005
 6226.00    0.74819   0.72299    0.005
 6227.00    0.75695   0.72108    0.006
 6228.00    0.74825   0.71928    0.006
 6229.00    0.67337   0.71813    0.006
 6230.00    0.62035   0.71627    0.006
 6231.00    0.63656   0.71580    0.006
 6232.00    0.64714   0.71725    0.006
 6233.00    0.64260   0.71830    0.006
 6234.00    0.59806   0.72012    0.006
 6235.00    0.46142   0.72198    0.006
 6236.00    0.38423   0.72263    0.006
 6237.00    0.42549   0.72230    0.006
 6238.00    0.48592   0.72094    0.006
 6239.00    0.57964   0.71905    0.006
 6240.00    0.63428   0.71586    0.006
 6241.00    0.62952   0.71341    0.006
 6242.00    0.62709   0.71199    0.006
 6243.00    0.62779   0.70952    0.006
 6244.00    0.62114   0.70900    0.005
 6245.00    0.60588   0.70999    0.005
 6246.00    0.60441   0.70995    0.005
 6247.00    0.61724   0.71085    0.005
 6248.00    0.59664   0.71191    0.005
 6249.00    0.54546   0.71112    0.005
 6250.00    0.49269   0.70987    0.005
 6251.00    0.43862   0.70783    0.005
 6252.00    0.46566   0.70423    0.005
 6253.00    0.55023   0.70073    0.005
 6254.00    0.59744   0.69770    0.005
 6255.00    0.62141   0.69527    0.006
 6256.00    0.59702   0.69377    0.006
 6257.00    0.54633   0.69379    0.006
 6258.00    0.57425   0.69513    0.006
 6259.00    0.63932   0.69795    0.006
 6260.00    0.76983   0.70272    0.007
 6261.00    0.92701   0.70717    0.007
 6262.00    1.02324   0.71163    0.007
 6263.00    1.09826   0.71689    0.008
 6264.00    1.04450   0.72094    0.008
 6265.00    0.95297   0.72352    0.007
 6266.00    0.83103   0.72609    0.007
 6267.00    0.70170   0.72858    0.006
 6268.00    0.73126   0.73008    0.006
 6269.00    0.79201   0.73106    0.006
 6270.00    0.77005   0.73227    0.006
 6271.00    0.73544   0.73331    0.005
 6272.00    0.68659   0.73414    0.005
 6273.00    0.63613   0.73495    0.005
 6274.00    0.58789   0.73501    0.005
 6275.00    0.53983   0.73482    0.005
 6276.00    0.53322   0.73477    0.005
 6277.00    0.52828   0.73379    0.005
 6278.00    0.51732   0.73308    0.005
 6279.00    0.50705   0.73294    0.005
 6280.00    0.52665   0.73224    0.000
 6281.00    0.55086   0.73283    0.000
 6282.00    0.65376   0.73421    0.000
 6283.00    0.74632   0.73566    0.000
 6284.00    0.73008   0.73827    0.000
 6285.00    0.70818   0.74018    0.000
 6286.00    0.64396   0.74207    0.000
 6287.00    0.58923   0.74406    0.000
 6288.00    0.58854   0.74459    0.000
 6289.00    0.58102   0.74478    0.000
 6290.00    0.54264   0.74380    0.000
 6291.00    0.51741   0.74173    0.000
 6292.00    0.54098   0.73967    0.000
 6293.00    0.55560   0.73645    0.000
 6294.00    0.54246   0.73334    0.000
 6295.00    0.52070   0.73067    0.000
 6296.00    0.47624   0.72723    0.000
 6297.00    0.43973   0.72428    0.000
 6298.00    0.42122   0.72227    0.000
 6299.00    0.40774   0.72107    0.000
 6300.00    0.40415   0.72070    0.000
 6301.00    0.40313   0.72062    0.000
 6302.00    0.40653   0.72146    0.000
 6303.00    0.43877   0.72370    0.000
 6304.00    0.51422   0.72649    0.000
 6305.00    0.55387   0.72889    0.000
 6306.00    0.54640   0.73101    0.000
 6307.00    0.51245   0.73320    0.000
 6308.00    0.44780   0.73458    0.000
 6309.00    0.41797   0.73449    0.000
 6310.00    0.42374   0.73319    0.000
 6311.00    0.47282   0.73119    0.000
 6312.00    0.56096   0.72848    0.000
 6313.00    0.55919   0.72570    0.000
 6314.00    0.48597   0.72271    0.000
 6315.00    0.42063   0.71924    0.000
 6316.00    0.36080   0.71767    0.000
 6317.00    0.40090   0.71716    0.000
 6318.00    0.50227   0.71630    0.000
 6319.00    0.53554   0.71748    0.000
 6320.00    0.53236   0.72015    0.000
 6321.00    0.50715   0.72319    0.005
 6322.00    0.47168   0.72634    0.005
 6323.00    0.43863   0.72973    0.005
 6324.00    0.40654   0.73362    0.005
 6325.00    0.39675   0.73659    0.005
 6326.00    0.39457   0.73907    0.005
 6327.00    0.40191   0.74051    0.005
 6328.00    0.41199   0.74126    0.005
 6329.00    0.43889   0.74198    0.005
 6330.00    0.46979   0.74072    0.005
 6331.00    0.51580   0.73897    0.005
 6332.00    0.56470   0.73732    0.005
 6333.00    0.55693   0.73499    0.005
 6334.00    0.54075   0.73264    0.005
 6335.00    0.50174   0.72984    0.005
 6336.00    0.46026   0.72743    0.005
 6337.00    0.49873   0.72664    0.005
 6338.00    0.54289   0.72630    0.005
 6339.00    0.62514   0.72553    0.006
 6340.00    0.70878   0.72592    0.006
 6341.00    0.69623   0.72679    0.006
 6342.00    0.68182   0.72730    0.006
 6343.00    0.61476   0.72812    0.006
 6344.00    0.54867   0.72864    0.006
 6345.00    0.49784   0.73009    0.005
 6346.00    0.45980   0.73191    0.005
 6347.00    0.55057   0.73285    0.005
 6348.00    0.63047   0.73418    0.005
 6349.00    0.63193   0.73510    0.005
 6350.00    0.62408   0.73488    0.005
 6351.00    0.56478   0.73417    0.005
 6352.00    0.50575   0.73238    0.005
 6353.00    0.44796   0.72952    0.005
 6354.00    0.40240   0.72565    0.005
 6355.00    0.40129   0.72090    0.005
 6356.00    0.40168   0.71651    0.005
 6357.00    0.40665   0.71221    0.005
 6358.00    0.41912   0.70739    0.005
 6359.00    0.45106   0.70352    0.005
 6360.00    0.47622   0.70144    0.005
 6361.00    0.48628   0.70033    0.006
 6362.00    0.48808   0.70029    0.006
 6363.00    0.47390   0.70205    0.006
 6364.00    0.46154   0.70526    0.006
 6365.00    0.45224   0.70953    0.006
 6366.00    0.44842   0.71433    0.006
 6367.00    0.45271   0.71937    0.006
 6368.00    0.42548   0.72485    0.006
 6369.00    0.35739   0.72977    0.006
 6370.00    0.33615   0.73371    0.005
 6371.00    0.36847   0.73720    0.005
 6372.00    0.42578   0.74023    0.005
 6373.00    0.50825   0.74231    0.005
 6374.00    0.55198   0.74327    0.005
 6375.00    0.56127   0.74342    0.005
 6376.00    0.53348   0.74315    0.005
 6377.00    0.47665   0.74270    0.005
 6378.00    0.44917   0.74150    0.005
 6379.00    0.44192   0.74026    0.005
 6380.00    0.48094   0.73953    0.005
 6381.00    0.54791   0.73877    0.005
 6382.00    0.54109   0.73866    0.005
 6383.00    0.49537   0.73875    0.005
 6384.00    0.47759   0.73855    0.005
 6385.00    0.47258   0.73857    0.005
 6386.00    0.47437   0.73870    0.005
 6387.00    0.47884   0.73837    0.005
 6388.00    0.45754   0.73715    0.005
 6389.00    0.42761   0.73565    0.005
 6390.00    0.40571   0.73402    0.005
 6391.00    0.38608   0.73213    0.005
 6392.00    0.40527   0.73011    0.005
 6393.00    0.43347   0.72767    0.005
 6394.00    0.39259   0.72602    0.006
 6395.00    0.33884   0.72538    0.006
 6396.00    0.32643   0.72498    0.006
 6397.00    0.31996   0.72473    0.005
 6398.00    0.41107   0.72501    0.005
 6399.00    0.51234   0.72544    0.005
 6400.00    0.51737   0.72531    0.005
 6401.00    0.51594   0.72697    0.005
 6402.00    0.52059   0.72906    0.005
 6403.00    0.52544   0.72965    0.005
 6404.00    0.53063   0.73066    0.005
 6405.00    0.53466   0.73096    0.005
 6406.00    0.50274   0.73071    0.005
 6407.00    0.47434   0.73036    0.005
 6408.00    0.49883   0.72890    0.005
 6409.00    0.52158   0.72824    0.005
 6410.00    0.52751   0.72800    0.005
 6411.00    0.53526   0.72655    0.005
 6412.00    0.55571   0.72586    0.005
 6413.00    0.57074   0.72608    0.005
 6414.00    0.55656   0.72577    0.005
 6415.00    0.54489   0.72556    0.005
 6416.00    0.54406   0.72539    0.006
 6417.00    0.54343   0.72509    0.006
 6418.00    0.54353   0.72532    0.005
 6419.00    0.54916   0.72547    0.005
 6420.00    0.57133   0.72562    0.005
 6421.00    0.60370   0.72654    0.005
 6422.00    0.66199   0.72830    0.005
 6423.00    0.70085   0.73061    0.005
 6424.00    0.69710   0.73227    0.005
 6425.00    0.69191   0.73307    0.005
 6426.00    0.68398   0.73368    0.005
 6427.00    0.65591   0.73408    0.005
 6428.00    0.59441   0.73364    0.005
 6429.00    0.53950   0.73264    0.005
 6430.00    0.49413   0.73090    0.005
 6431.00    0.45806   0.72921    0.005
 6432.00    0.43386   0.72898    0.005
 6433.00    0.40646   0.72866    0.005
 6434.00    0.37546   0.72833    0.005
 6435.00    0.33417   0.72875    0.005
 6436.00    0.28266   0.72930    0.005
 6437.00    0.28345   0.73053    0.005
 6438.00    0.33009   0.73162    0.005
 6439.00    0.34557   0.73232    0.005
 6440.00    0.33699   0.73455    0.005
 6441.00    0.32065   0.73687    0.005
 6442.00    0.29903   0.73807    0.005
 6443.00    0.26810   0.73881    0.005
 6444.00    0.23162   0.73805    0.005
 6445.00    0.23792   0.73650    0.005
 6446.00    0.26642   0.73463    0.005
 6447.00    0.33219   0.73143    0.005
 6448.00    0.41474   0.72807    0.005
 6449.00    0.43217   0.72421    0.005
 6450.00    0.42442   0.72059    0.005
 6451.00    0.42593   0.71977    0.005
 6452.00    0.43048   0.71984    0.005
 6453.00    0.45115   0.72051    0.005
 6454.00    0.47626   0.72201    0.005
 6455.00    0.45610   0.72319    0.005
 6456.00    0.42568   0.72496    0.005
 6457.00    0.36494   0.72665    0.005
 6458.00    0.29871   0.72775    0.005
 6459.00    0.25751   0.72844    0.005
 6460.00    0.21978   0.72832    0.005
 6461.00    0.25704   0.72806    0.005
 6462.00    0.30178   0.72708    0.005
 6463.00    0.38842   0.72658    0.005
 6464.00    0.47771   0.72753    0.005
 6465.00    0.50259   0.72825    0.005
 6466.00    0.52551   0.72888    0.006
 6467.00    0.51536   0.72963    0.005
 6468.00    0.50617   0.73057    0.005
 6469.00    0.52354   0.73122    0.005
 6470.00    0.54446   0.73159    0.005
 6471.00    0.61568   0.73150    0.005
 6472.00    0.68026   0.73131    0.005
 6473.00    0.68338   0.73153    0.005
 6474.00    0.67690   0.73107    0.005
 6475.00    0.60546   0.73012    0.005
 6476.00    0.55206   0.72915    0.005
 6477.00    0.59334   0.72817    0.005
 6478.00    0.62213   0.72675    0.005
 6479.00    0.59818   0.72511    0.005
 6480.00    0.56329   0.72351    0.005
 6481.00    0.49021   0.72166    0.005
 6482.00    0.44933   0.71986    0.005
 6483.00    0.50293   0.71868    0.005
 6484.00    0.52652   0.71790    0.005
 6485.00    0.47504   0.71684    0.005
 6486.00    0.45560   0.71512    0.005
 6487.00    0.50517   0.71256    0.005
 6488.00    0.54461   0.70904    0.005
 6489.00    0.56507   0.70383    0.005
 6490.00    0.52034   0.69727    0.005
 6491.00    0.36908   0.68989    0.005
 6492.00    0.26420   0.68227    0.005
 6493.00    0.22576   0.67511    0.005
 6494.00    0.24784   0.66778    0.005
 6495.00    0.34617   0.66300    0.005
 6496.00    0.41400   0.66132    0.005
 6497.00    0.44792   0.66169    0.005
 6498.00    0.43765   0.66501    0.005
 6499.00    0.38407   0.66926    0.005
 6500.00    0.39517   0.67550    0.005
 6501.00    0.46214   0.68330    0.005
 6502.00    0.54153   0.69044    0.005
 6503.00    0.63036   0.69745    0.005
 6504.00    0.62538   0.70337    0.005
 6505.00    0.55763   0.70842    0.005
 6506.00    0.52179   0.71273    0.005
 6507.00    0.50464   0.71551    0.005
 6508.00    0.49379   0.71721    0.005
 6509.00    0.48615   0.71818    0.006
 6510.00    0.47685   0.71857    0.005
 6511.00    0.46683   0.71846    0.005
 6512.00    0.49476   0.71763    0.005
 6513.00    0.53712   0.71639    0.005
 6514.00    0.50191   0.71511    0.005
 6515.00    0.44166   0.71391    0.005
 6516.00    0.41086   0.71277    0.005
 6517.00    0.38801   0.71217    0.005
 6518.00    0.40883   0.71175    0.005
 6519.00    0.43933   0.71183    0.005
 6520.00    0.42042   0.71291    0.005
 6521.00    0.39280   0.71374    0.005
 6522.00    0.46073   0.71451    0.005
 6523.00    0.54151   0.71521    0.005
 6524.00    0.56343   0.71570    0.005
 6525.00    0.57972   0.71628    0.005
 6526.00    0.53483   0.71607    0.005
 6527.00    0.48632   0.71524    0.005
 6528.00    0.43425   0.71480    0.000
 6529.00    0.38209   0.71461    0.000
 6530.00    0.32901   0.71455    0.000
 6531.00    0.27828   0.71442    0.000
 6532.00    0.28675   0.71406    0.000
 6533.00    0.29887   0.71429    0.000
 6534.00    0.35996   0.71513    0.000
 6535.00    0.42805   0.71612    0.000
 6536.00    0.55860   0.71670    0.000
 6537.00    0.67557   0.71661    0.000
 6538.00    0.70343   0.71628    0.000
 6539.00    0.71824   0.71586    0.000
 6540.00    0.66630   0.71479    0.000
 6541.00    0.60951   0.71235    0.000
 6542.00    0.53268   0.70948    0.000
 6543.00    0.46723   0.70639    0.000
 6544.00    0.44071   0.70319    0.000
 6545.00    0.43270   0.70000    0.000
 6546.00    0.47802   0.69603    0.000
 6547.00    0.50984   0.69287    0.000
 6548.00    0.50846   0.69025    0.000
 6549.00    0.50689   0.68719    0.000
 6550.00    0.50492   0.68389    0.000
 6551.00    0.48965   0.67977    0.000
 6552.00    0.44990   0.67541    0.000
 6553.00    0.40069   0.67059    0.000
 6554.00    0.33624   0.66450    0.000
 6555.00    0.30094   0.65733    0.000
 6556.00    0.30680   0.64918    0.000
 6557.00    0.33351   0.63967    0.000
 6558.00    0.38612   0.62957    0.000
 6559.00    0.42900   0.62075    0.000
 6560.00    0.46123   0.61260    0.000
 6561.00    0.51710   0.60589    0.000
 6562.00    0.59580   0.60048    0.000
 6563.00    0.61827   0.59777    0.000
 6564.00    0.59282   0.60123    0.000
 6565.00    0.54791   0.60761    0.000
 6566.00    0.48841   0.61497    0.000
 6567.00    0.46338   0.62303    0.000
 6568.00    0.46109   0.63103    0.000
 6569.00    0.48388   0.63956    0.000
 6570.00    0.52113   0.64742    0.000
 6571.00    0.51819   0.65389    0.000
 6572.00    0.49504   0.65892    0.000
 6573.00    0.46224   0.66291    0.000
 6574.00    0.42524   0.66653    0.000
 6575.00    0.42429   0.66991    0.000
 6576.00    0.43679   0.67363    0.000
 6577.00    0.47016   0.67730    0.000
 6578.00    0.51015   0.68040    0.000
 6579.00    0.51079   0.68320    0.000
 6580.00    0.50104   0.68556    0.000
 6581.00    0.51466   0.68744    0.000
 6582.00    0.53334   0.68951    0.000
 6583.00    0.56204   0.69118    0.000
 6584.00    0.59245   0.69211    0.000
 6585.00    0.54398   0.69266    0.000
 6586.00    0.48525   0.69239    0.000
 6587.00    0.37672   0.69171    0.000
 6588.00    0.26365   0.69061    0.000
 6589.00    0.21264   0.68886    0.000
 6590.00    0.16506   0.68703    0.000
 6591.00    0.19663   0.68479    0.000
 6592.00    0.22991   0.68235    0.000
 6593.00    0.26521   0.68018    0.000
 6594.00    0.30189   0.67942    0.000
 6595.00    0.37029   0.68025    0.000
 6596.00    0.43819   0.68132    0.000
 6597.00    0.49962   0.68261    0.000
 6598.00    0.55339   0.68408    0.000
 6599.00    0.54148   0.68590    0.000
 6600.00    0.53558   0.68811    0.000
 6601.00    0.56800   0.68958    0.000
 6602.00    0.59393   0.69000    0.000
 6603.00    0.58761   0.68968    0.000
 6604.00    0.58551   0.68870    0.000
 6605.00    0.60047   0.68775    0.000
 6606.00    0.61214   0.68702    0.000
 6607.00    0.61276   0.68619    0.000
 6608.00    0.60956   0.68566    0.000
 6609.00    0.59554   0.68544    0.005
 6610.00    0.59169   0.68656    0.005
 6611.00    0.61244   0.68861    0.005
 6612.00    0.60703   0.69053    0.005
 6613.00    0.54706   0.69241    0.005
 6614.00    0.49886   0.69412    0.005
 6615.00    0.47201   0.69636    0.005
 6616.00    0.47318   0.69821    0.005
 6617.00    0.51878   0.69904    0.005
 6618.00    0.53625   0.69928    0.005
 6619.00    0.51458   0.69893    0.005
 6620.00    0.49968   0.69825    0.005
 6621.00    0.49308   0.69722    0.005
 6622.00    0.47887   0.69553    0.005
 6623.00    0.45644   0.69345    0.005
 6624.00    0.46847   0.69117    0.005
 6625.00    0.51333   0.68881    0.005
 6626.00    0.51942   0.68711    0.005
 6627.00    0.49295   0.68522    0.005
 6628.00    0.45290   0.68309    0.005
 6629.00    0.40283   0.68115    0.005
 6630.00    0.40066   0.67941    0.005
 6631.00    0.42959   0.67822    0.005
 6632.00    0.44560   0.67720    0.005
 6633.00    0.45427   0.67620    0.005
 6634.00    0.43050   0.67567    0.005
 6635.00    0.39068   0.67602    0.005
 6636.00    0.36300   0.67687    0.005
 6637.00    0.34050   0.67773    0.005
 6638.00    0.35184   0.67821    0.005
 6639.00    0.37560   0.67864    0.005
 6640.00    0.35537   0.67916    0.005
 6641.00    0.32150   0.67982    0.005
 6642.00    0.31009   0.68017    0.005
 6643.00    0.30449   0.67972    0.005
 6644.00    0.27072   0.67964    0.005
 6645.00    0.23100   0.68011    0.005
 6646.00    0.27206   0.68053    0.005
 6647.00    0.32658   0.68080    0.005
 6648.00    0.38372   0.68091    0.005
 6649.00    0.44118   0.68127    0.005
 6650.00    0.42300   0.68169    0.005
 6651.00    0.39823   0.68173    0.005
 6652.00    0.36696   0.68148    0.005
 6653.00    0.33535   0.68119    0.005
 6654.00    0.36382   0.68064    0.005
 6655.00    0.39325   0.67990    0.005
 6656.00    0.41486   0.67872    0.005
 6657.00    0.43427   0.67717    0.005
 6658.00    0.40718   0.67543    0.005
 6659.00    0.37375   0.67352    0.005
 6660.00    0.26399   0.67158    0.005
 6661.00    0.16537   0.66954    0.005
 6662.00    0.15867   0.66787    0.005
 6663.00    0.14837   0.66625    0.005
 6664.00    0.11587   0.66556    0.005
 6665.00    0.06250   0.66593    0.005
 6666.00   -0.09220   0.66647    0.000
 6667.00   -0.23156   0.66750    0.000
 6668.00   -0.31037   0.66876    0.000
 6669.00   -0.35684   0.67033    0.000
 6670.00   -0.29716   0.67189    0.000
 6671.00   -0.23777   0.67271    0.000
 6672.00   -0.17919   0.67275    0.000
 6673.00   -0.10052   0.67206    0.000
 6674.00    0.02589   0.67109    0.005
 6675.00    0.14374   0.66986    0.005
 6676.00    0.24399   0.66816    0.005
 6677.00    0.32782   0.66632    0.005
 6678.00    0.38233   0.66451    0.005
 6679.00    0.44116   0.66421    0.005
 6680.00    0.50674   0.66488    0.005
 6681.00    0.53881   0.66541    0.005
 6682.00    0.52492   0.66652    0.005
 6683.00    0.49317   0.66778    0.005
 6684.00    0.43986   0.66943    0.005
 6685.00    0.44137   0.67104    0.005
 6686.00    0.50124   0.67208    0.005
 6687.00    0.53715   0.67290    0.005
 6688.00    0.55057   0.67313    0.005
 6689.00    0.56533   0.67314    0.005
 6690.00    0.58119   0.67275    0.005
 6691.00    0.58173   0.67183    0.005
 6692.00    0.57109   0.67072    0.005
 6693.00    0.55203   0.66946    0.005
 6694.00    0.52757   0.66814    0.005
 6695.00    0.50651   0.66692    0.005
 6696.00    0.48736   0.66546    0.000
 6697.00    0.50313   0.66459    0.000
 6698.00    0.53590   0.66409    0.000
 6699.00    0.54647   0.66372    0.000
 6700.00    0.54769   0.66381    0.000
 6701.00    0.54208   0.66369    0.000
 6702.00    0.53400   0.66361    0.000
 6703.00    0.52426   0.66336    0.000
 6704.00    0.51400   0.66300    0.000
 6705.00    0.47571   0.66265    0.000
 6706.00    0.43033   0.66223    0.000
 6707.00    0.42320   0.66148    0.000
 6708.00    0.42395   0.66024    0.000
 6709.00    0.42701   0.65893    0.000
 6710.00    0.43044   0.65699    0.000
 6711.00    0.43025   0.65495    0.000
 6712.00    0.42963   0.65291    0.000
 6713.00    0.39562   0.65049    0.000
 6714.00    0.35883   0.64859    0.000
 6715.00    0.37578   0.64678    0.000
 6716.00    0.39527   0.64551    0.000
 6717.00    0.46443   0.64488    0.000
 6718.00    0.53159   0.64499    0.000
 6719.00    0.44672   0.64635    0.000
 6720.00    0.36646   0.64782    0.000
 6721.00    0.37632   0.64936    0.000
 6722.00    0.39013   0.65102    0.000
 6723.00    0.44931   0.65293    0.000
 6724.00    0.49927   0.65481    0.000
 6725.00    0.47585   0.65620    0.000
 6726.00    0.46550   0.65714    0.000
 6727.00    0.53357   0.65810    0.000
 6728.00    0.57109   0.65893    0.000
 6729.00    0.46385   0.65949    0.000
 6730.00    0.37526   0.65985    0.000
 6731.00    0.35876   0.65988    0.000
 6732.00    0.35049   0.65964    0.000
 6733.00    0.36879   0.65902    0.000
 6734.00    0.38591   0.65830    0.000
 6735.00    0.39985   0.65740    0.000
 6736.00    0.42331   0.65643    0.000
 6737.00    0.46902   0.65515    0.000
 6738.00    0.47190   0.65363    0.000
 6739.00    0.38823   0.65234    0.000
 6740.00    0.34097   0.65127    0.000
 6741.00    0.35779   0.65040    0.000
 6742.00    0.40665   0.64940    0.000
 6743.00    0.50487   0.64824    0.000
 6744.00    0.55688   0.64754    0.000
 6745.00    0.54641   0.64693    0.000
 6746.00    0.51189   0.64619    0.000
 6747.00    0.44875   0.64569    0.000
 6748.00    0.42739   0.64508    0.000
 6749.00    0.44990   0.64502    0.000
 6750.00    0.49103   0.64503    0.000
 6751.00    0.54938   0.64563    0.000
 6752.00    0.62972   0.64679    0.000
 6753.00    0.72802   0.64777    0.006
 6754.00    0.75639   0.64967    0.006
 6755.00    0.73451   0.65155    0.006
 6756.00    0.61278   0.65354    0.006
 6757.00    0.42808   0.65556    0.006
 6758.00    0.28061   0.65724    0.006
 6759.00    0.15365   0.65856    0.006
 6760.00    0.26171   0.65928    0.006
 6761.00    0.48240   0.65948    0.006
 6762.00    0.56998   0.65901    0.006
 6763.00    0.60248   0.65823    0.006
 6764.00    0.50934   0.65712    0.006
 6765.00    0.37175   0.65575    0.006
 6766.00    0.36901   0.65424    0.006
 6767.00    0.40653   0.65285    0.006
 6768.00    0.49281   0.65201    0.006
 6769.00    0.59118   0.65194    0.006
 6770.00    0.60761   0.65219    0.006
 6771.00    0.60760   0.65271    0.006
 6772.00    0.52690   0.65384    0.006
 6773.00    0.43353   0.65534    0.006
 6774.00    0.41569   0.65698    0.006
 6775.00    0.40665   0.65827    0.006
 6776.00    0.41090   0.65916    0.006
 6777.00    0.41619   0.65941    0.006
 6778.00    0.44440   0.65896    0.006
 6779.00    0.47360   0.65811    0.006
 6780.00    0.47019   0.65655    0.006
 6781.00    0.46595   0.65462    0.006
 6782.00    0.43894   0.65233    0.006
 6783.00    0.41265   0.65010    0.006
 6784.00    0.39941   0.64818    0.006
 6785.00    0.39032   0.64690    0.005
 6786.00    0.42656   0.64614    0.005
 6787.00    0.46328   0.64580    0.006
 6788.00    0.50364   0.64605    0.006
 6789.00    0.53819   0.64618    0.006
 6790.00    0.53896   0.64652    0.006
 6791.00    0.53036   0.64692    0.006
 6792.00    0.47839   0.64735    0.006
 6793.00    0.43103   0.64753    0.006
 6794.00    0.40105   0.64762    0.006
 6795.00    0.38005   0.64803    0.006
 6796.00    0.38744   0.64826    0.006
 6797.00    0.42435   0.64872    0.006
 6798.00    0.54033   0.64923    0.006
 6799.00    0.60862   0.64960    0.006
 6800.00    0.56735   0.65010    0.006
 6801.00    0.53259   0.65042    0.006
 6802.00    0.51077   0.65063    0.006
 6803.00    0.51683   0.65064    0.006
 6804.00    0.57120   0.65035    0.006
 6805.00    0.56294   0.65019    0.006
 6806.00    0.45966   0.64993    0.006
 6807.00    0.37096   0.64937    0.005
 6808.00    0.30169   0.64909    0.005
 6809.00    0.31497   0.64880    0.005
 6810.00    0.42516   0.64836    0.005
 6811.00    0.51725   0.64832    0.006
 6812.00    0.59060   0.64834    0.006
 6813.00    0.56334   0.64837    0.006
 6814.00    0.44424   0.64849    0.006
 6815.00    0.37949   0.64856    0.006
 6816.00    0.35849   0.64918    0.006
 6817.00    0.37877   0.64991    0.006
 6818.00    0.42827   0.65049    0.006
 6819.00    0.46331   0.65108    0.006
 6820.00    0.48936   0.65148    0.005
 6821.00    0.48866   0.65200    0.005
 6822.00    0.47344   0.65254    0.005
 6823.00    0.45220   0.65289    0.005
 6824.00    0.42812   0.65298    0.005
 6825.00    0.42900   0.65286    0.005
 6826.00    0.44004   0.65253    0.005
 6827.00    0.43694   0.65216    0.005
 6828.00    0.42893   0.65157    0.005
 6829.00    0.46223   0.65120    0.005
 6830.00    0.50761   0.65100    0.006
 6831.00    0.43487   0.65065    0.006
 6832.00    0.33352   0.65002    0.005
 6833.00    0.34777   0.64907    0.006
 6834.00    0.38464   0.64792    0.006
 6835.00    0.51280   0.64652    0.006
 6836.00    0.65488   0.64467    0.006
 6837.00    0.72137   0.64254    0.006
 6838.00    0.77938   0.64048    0.006
 6839.00    0.76842   0.63831    0.006
 6840.00    0.75232   0.63669    0.006
 6841.00    0.72066   0.63553    0.006
 6842.00    0.68839   0.63511    0.006
 6843.00    0.57950   0.63555    0.006
 6844.00    0.47392   0.63654    0.006
 6845.00    0.52051   0.63797    0.005
 6846.00    0.56098   0.63933    0.005
 6847.00    0.49775   0.64053    0.005
 6848.00    0.44520   0.64143    0.005
 6849.00    0.50431   0.64187    0.005
 6850.00    0.55699   0.64177    0.005
 6851.00    0.56185   0.64116    0.005
 6852.00    0.56009   0.64013    0.005
 6853.00    0.52069   0.63873    0.005
 6854.00    0.48784   0.63700    0.005
 6855.00    0.48449   0.63502    0.006
 6856.00    0.48470   0.63364    0.006
 6857.00    0.49808   0.63274    0.006
 6858.00    0.50122   0.63188    0.006
 6859.00    0.47268   0.63157    0.006
 6860.00    0.43884   0.63139    0.006
 6861.00    0.39104   0.63121    0.006
 6862.00    0.36794   0.63139    0.006
 6863.00    0.40062   0.63204    0.006
 6864.00    0.41888   0.63270    0.005
 6865.00    0.40890   0.63279    0.005
 6866.00    0.40878   0.63274    0.005
 6867.00    0.42548   0.63254    0.005
 6868.00    0.44605   0.63214    0.006
 6869.00    0.47243   0.63205    0.005
 6870.00    0.47893   0.63231    0.005
 6871.00    0.45934   0.63246    0.005
 6872.00    0.44961   0.63242    0.005
 6873.00    0.45130   0.63271    0.005
 6874.00    0.46052   0.63326    0.005
 6875.00    0.47743   0.63368    0.005
 6876.00    0.41943   0.63412    0.005
 6877.00    0.29401   0.63470    0.005
 6878.00    0.30871   0.63517    0.005
 6879.00    0.43458   0.63526    0.006
 6880.00    0.48424   0.63540    0.006
 6881.00    0.48074   0.63558    0.006
 6882.00    0.45591   0.63580    0.005
 6883.00    0.41803   0.63630    0.005
 6884.00    0.40021   0.63742    0.005
 6885.00    0.39311   0.63873    0.005
 6886.00    0.44055   0.63997    0.005
 6887.00    0.51329   0.64149    0.005
 6888.00    0.46245   0.64317    0.005
 6889.00    0.36222   0.64457    0.005
 6890.00    0.28911   0.64576    0.005
 6891.00    0.22524   0.64688    0.005
 6892.00    0.22323   0.64753    0.005
 6893.00    0.23895   0.64768    0.005
 6894.00    0.31918   0.64786    0.005
 6895.00    0.41468   0.64788    0.006
 6896.00    0.46623   0.64776    0.006
 6897.00    0.50940   0.64770    0.006
 6898.00    0.49156   0.64784    0.006
 6899.00    0.46471   0.64802    0.006
 6900.00    0.37587   0.64812    0.006
 6901.00    0.28034   0.64848    0.006
 6902.00    0.30133   0.64909    0.006
 6903.00    0.33055   0.64956    0.006
 6904.00    0.26305   0.64988    0.006
 6905.00    0.19207   0.65011    0.005
 6906.00    0.24707   0.65017    0.005
 6907.00    0.30183   0.65007    0.005
 6908.00    0.33368   0.64954    0.005
 6909.00    0.36454   0.64885    0.005
 6910.00    0.37991   0.64778    0.005
 6911.00    0.38977   0.64658    0.005
 6912.00    0.34444   0.64521    0.005
 6913.00    0.31057   0.64405    0.005
 6914.00    0.35902   0.64292    0.005
 6915.00    0.40311   0.64214    0.005
 6916.00    0.42313   0.64191    0.005
 6917.00    0.44277   0.64140    0.005
 6918.00    0.46079   0.64145    0.005
 6919.00    0.48108   0.64137    0.006
 6920.00    0.50964   0.64140    0.006
 6921.00    0.49608   0.64125    0.006
 6922.00    0.35453   0.64085    0.006
 6923.00    0.24033   0.64042    0.006
 6924.00    0.19682   0.63957    0.005
 6925.00    0.20535   0.63895    0.005
 6926.00    0.32951   0.63852    0.005
 6927.00    0.42867   0.63847    0.005
 6928.00    0.47966   0.63859    0.005
 6929.00    0.49351   0.63869    0.005
 6930.00    0.44491   0.63896    0.005
 6931.00    0.41551   0.63925    0.005
 6932.00    0.41438   0.63967    0.005
 6933.00    0.38715   0.64000    0.005
 6934.00    0.32614   0.64056    0.006
 6935.00    0.31497   0.64128    0.006
 6936.00    0.36067   0.64163    0.006
 6937.00    0.43401   0.64185    0.006
 6938.00    0.53516   0.64180    0.006
 6939.00    0.60231   0.64171    0.006
 6940.00    0.63930   0.64138    0.006
 6941.00    0.60055   0.64081    0.006
 6942.00    0.50259   0.64002    0.006
 6943.00    0.41564   0.63901    0.006
 6944.00    0.33626   0.63804    0.005
 6945.00    0.28929   0.63704    0.005
 6946.00    0.26184   0.63654    0.005
 6947.00    0.33725   0.63636    0.005
 6948.00    0.46678   0.63611    0.005
 6949.00    0.45041   0.63603    0.005
 6950.00    0.36747   0.63604    0.005
 6951.00    0.34324   0.63594    0.005
 6952.00    0.34207   0.63612    0.005
 6953.00    0.37864   0.63662    0.006
 6954.00    0.42785   0.63722    0.006
 6955.00    0.39173   0.63809    0.006
 6956.00    0.33164   0.63916    0.006
 6957.00    0.28152   0.64039    0.006
 6958.00    0.23370   0.64145    0.006
 6959.00    0.24464   0.64266    0.006
 6960.00    0.26648   0.64377    0.006
 6961.00    0.19757   0.64485    0.006
 6962.00    0.11567   0.64577    0.006
 6963.00    0.25873   0.64648    0.006
 6964.00    0.42509   0.64706    0.006
 6965.00    0.56002   0.64732    0.006
 6966.00    0.69287   0.64737    0.006
 6967.00    0.66323   0.64727    0.006
 6968.00    0.62834   0.64703    0.005
 6969.00    0.45783   0.64614    0.006
 6970.00    0.28950   0.64484    0.006
 6971.00    0.18804   0.64289    0.005
 6972.00    0.10424   0.64068    0.005
 6973.00    0.28340   0.63848    0.005
 6974.00    0.44734   0.63579    0.006
 6975.00    0.46508   0.63313    0.006
 6976.00    0.47380   0.63073    0.006
 6977.00    0.41983   0.62897    0.006
 6978.00    0.35951   0.62776    0.006
 6979.00    0.26514   0.62755    0.006
 6980.00    0.19093   0.62884    0.006
 6981.00    0.20363   0.63080    0.006
 6982.00    0.23815   0.63303    0.006
 6983.00    0.35014   0.63555    0.006
 6984.00    0.42754   0.63794    0.006
 6985.00    0.40183   0.64004    0.006
 6986.00    0.40400   0.64175    0.006
 6987.00    0.47698   0.64306    0.006
 6988.00    0.49060   0.64393    0.006
 6989.00    0.37441   0.64430    0.006
 6990.00    0.30713   0.64446    0.006
 6991.00    0.33263   0.64454    0.006
 6992.00    0.35731   0.64436    0.006
 6993.00    0.38064   0.64398    0.006
 6994.00    0.37014   0.64329    0.006
 6995.00    0.31056   0.64241    0.006
 6996.00    0.28180   0.64150    0.006
 6997.00    0.29240   0.64032    0.006
 6998.00    0.27850   0.63905    0.006
 6999.00    0.23702   0.63757    0.006
 7000.00    0.25798   0.63613    0.006
 7001.00    0.34087   0.63514    0.006
 7002.00    0.35652   0.63438    0.006
 7003.00    0.31335   0.63378    0.006
 7004.00    0.27937   0.63312    0.006
 7005.00    0.25249   0.63279    0.006
 7006.00    0.26366   0.63267    0.006
 7007.00    0.30062   0.63262    0.005
 7008.00    0.33096   0.63256    0.005
 7009.00    0.35736   0.63239    0.005
 7010.00    0.40038   0.63204    0.006
 7011.00    0.45202   0.63133    0.006
 7012.00    0.49783   0.63060    0.006
 7013.00    0.54103   0.62988    0.006
 7014.00    0.55723   0.62912    0.006
 7015.00    0.56299   0.62833    0.006
 7016.00    0.54101   0.62754    0.006
 7017.00    0.50992   0.62737    0.006
 7018.00    0.44307   0.62797    0.006
 7019.00    0.36638   0.62857    0.006
 7020.00    0.44946   0.62911    0.006
 7021.00    0.56866   0.62963    0.006
 7022.00    0.54247   0.63008    0.006
 7023.00    0.49001   0.63027    0.006
 7024.00    0.55962   0.63061    0.006
 7025.00    0.64613   0.63119    0.006
 7026.00    0.66079   0.63208    0.006
 7027.00    0.66831   0.63288    0.006
 7028.00    0.51912   0.63369    0.006
 7029.00    0.36011   0.63448    0.006
 7030.00    0.31697   0.63526    0.006
 7031.00    0.27756   0.63596    0.006
 7032.00    0.35199   0.63651    0.006
 7033.00    0.42140   0.63705    0.006
 7034.00    0.35285   0.63763    0.006
 7035.00    0.29187   0.63825    0.006
 7036.00    0.33725   0.63916    0.006
 7037.00    0.37585   0.64026    0.006
 7038.00    0.35188   0.64128    0.006
 7039.00    0.33861   0.64291    0.006
 7040.00    0.39745   0.64525    0.006
 7041.00    0.44032   0.64751    0.006
 7042.00    0.39970   0.64961    0.006
 7043.00    0.39820   0.65128    0.006
 7044.00    0.56138   0.65246    0.006
 7045.00    0.66036   0.65287    0.006
 7046.00    0.53603   0.65282    0.006
 7047.00    0.42631   0.65214    0.006
 7048.00    0.35936   0.65048    0.006
 7049.00    0.33670   0.64810    0.006
 7050.00    0.42458   0.64468   -2.000
 7051.00    0.47452   0.64074   -2.000
 7052.00    0.44286   0.63620   -2.000
 7053.00    0.39687   0.63139   -2.000
 7054.00    0.32415   0.62696   -2.000
 7055.00    0.25431   0.62280   -2.000
 7056.00    0.18916   0.61926   -2.000
 7057.00    0.18087   0.61611   -2.000
 7058.00    0.25391   0.61339   -2.000
 7059.00    0.27174   0.61090   -2.000
 7060.00    0.22009   0.60879   -2.000
 7061.00    0.28511   0.60722   -2.000
 7062.00    0.47950   0.60612   -2.000
 7063.00    0.52678   0.60515   -2.000
 7064.00    0.43016   0.60451   -2.000
 7065.00    0.36851   0.60417   -2.000
 7066.00    0.33703   0.60383   -2.000
 7067.00    0.37341   0.60392   -2.000
 7068.00    0.46135   0.60430   -2.000
 7069.00    0.48427   0.60529   -2.000
 7070.00    0.46378   0.60683   -2.000
 7071.00    0.40298   0.60863   -2.000
 7072.00    0.31861   0.61032   -2.000
 7073.00    0.42206   0.61193   -2.000
 7074.00    0.62127   0.61339   -2.000
 7075.00    0.68904   0.61434   -2.000
 7076.00    0.69878   0.61484   -2.000
 7077.00    0.62300   0.61474   -2.000
 7078.00    0.51479   0.61403   -2.000
 7079.00    0.45846   0.61251   -2.000
 7080.00    0.41884   0.61025   -2.000
 7081.00    0.46505   0.60738   -2.000
 7082.00    0.53438   0.60378   -2.000
 7083.00    0.58083   0.59976   -2.000
 7084.00    0.62222   0.59549   -2.000
 7085.00    0.58120   0.59134   -2.000
 7086.00    0.52570   0.58784   -2.000
 7087.00    0.43706   0.58456   -2.000
 7088.00    0.34398   0.58168   -2.000
 7089.00    0.38180   0.57944   -2.000
 7090.00    0.43206   0.57783   -2.000
 7091.00    0.39282   0.57668   -2.000
 7092.00    0.34834   0.57641   -2.000
 7093.00    0.44724   0.57622   -2.000
 7094.00    0.54836   0.57674   -2.000
 7095.00    0.46895   0.57753   -2.000
 7096.00    0.39609   0.57849   -2.000
 7097.00    0.48579   0.57980   -2.000
 7098.00    0.57065   0.58084   -2.000
 7099.00    0.59134   0.58234   -2.000
 7100.00    0.59243   0.58327   -2.000
 7101.00    0.41977   0.58424   -2.000
 7102.00    0.28435   0.58472   -2.000
 7103.00    0.39219   0.58509   -2.000
 7104.00    0.48702   0.58530   -2.000
 7105.00    0.51564   0.58536   -2.000
 7106.00    0.50601   0.58505   -2.000
 7107.00    0.33902   0.58456   -2.000
 7108.00    0.23296   0.58408   -2.000
 7109.00    0.33455   0.58376   -2.000
 7110.00    0.44046   0.58338   -2.000
 7111.00    0.55874   0.58305   -2.000
 7112.00    0.61177   0.58306   -2.000
 7113.00    0.50472   0.58328   -2.000
 7114.00    0.42508   0.58369   -2.000
 7115.00    0.40342   0.58394   -2.000
 7116.00    0.40417   0.58419   -2.000
 7117.00    0.44613   0.58426   -2.000
 7118.00    0.49435   0.58401   -2.000
 7119.00    0.55262   0.58364   -2.000
 7120.00    0.55384   0.58276   -2.000
 7121.00    0.47462   0.58179   -2.000
 7122.00    0.49487   0.58031   -2.000
 7123.00    0.63852   0.57880   -2.000
 7124.00    0.94684   0.57725   -2.000
 7125.00    1.43519   0.57535   -2.000
 7126.00    1.39938   0.57355   -2.000
 7127.00    0.85810   0.57183   -2.000
 7128.00    0.60901   0.57070   -2.000
 7129.00    0.60839   0.56971   -2.000
 7130.00    0.61814   0.56915   -2.000
 7131.00    0.63567   0.56897   -2.000
 7132.00    0.61337   0.56965   -2.000
 7133.00    0.56486   0.57066   -2.000
 7134.00    0.45056   0.57194   -2.000
 7135.00    0.29836   0.57339   -2.000
 7136.00    0.35502   0.57460   -2.000
 7137.00    0.51648   0.57597   -2.000
 7138.00    0.55524   0.57691   -2.000
 7139.00    0.54072   0.57746   -2.000
 7140.00    0.40218   0.57775   -2.000
 7141.00    0.21744   0.57793   -2.000
 7142.00    0.32457   0.57774   -2.000
 7143.00    0.52389   0.57718   -2.000
 7144.00    0.44065   0.57660   -2.000
 7145.00    0.28290   0.57591   -2.000
 7146.00    0.44527   0.57534   -2.000
 7147.00    0.67665   0.57503   -2.000
 7148.00    0.74182   0.57472   -2.000
 7149.00    0.77859   0.57516   -2.000
 7150.00    0.57449   0.57609   -2.000
 7151.00    0.33920   0.57719   -2.000
 7152.00    0.39196   0.57856   -2.000
 7153.00    0.47087   0.58005   -2.000
 7154.00    0.55679   0.58126   -2.000
 7155.00    0.64308   0.58218   -2.000
 7156.00    0.55389   0.58268   -2.000
 7157.00    0.46493   0.58315   -2.000
 7158.00    0.73204   0.58292   -2.000
 7159.00    0.98919   0.58223   -2.000
 7160.00    1.02014   0.58132   -2.000
 7161.00    1.06279   0.58028   -2.000
 7162.00    1.25269   0.57949   -2.000
 7163.00    1.37096   0.57865   -2.000
 7164.00    0.87816   0.57808   -2.000
 7165.00    0.38285   0.57783   -2.000
 7166.00   -0.12839   0.57851   -2.000
 7167.00   -0.47904   0.57959   -2.000
 7168.00   -0.03233   0.58096   -2.000
 7169.00    0.38645   0.58230   -2.000
 7170.00    0.69282   0.58356   -2.000
 7171.00    0.87861   0.58466   -2.000
 7172.00    0.66153   0.58554   -2.000
 7173.00    0.48770   0.58595   -2.000
 7174.00    0.43588   0.58581   -2.000
 7175.00    0.40478   0.58532   -2.000
 7176.00    0.42367   0.58431   -2.000
 7177.00    0.46212   0.58326   -2.000
 7178.00    0.54131   0.58217   -2.000
 7179.00    0.58666   0.58090   -2.000
 7180.00    0.57072   0.57940   -2.000
 7181.00    0.52667   0.57805   -2.000
 7182.00    0.43815   0.57690   -2.000
 7183.00    0.38269   0.57610   -2.000
 7184.00    0.37315   0.57518   -2.000
 7185.00    0.34552   0.57409   -2.000
 7186.00    0.29575   0.57312   -2.000
 7187.00    0.34868   0.57205   -2.000
 7188.00    0.51233   0.57125   -2.000
 7189.00    0.54995   0.57091   -2.000
 7190.00    0.46773   0.57072   -2.000
 7191.00    0.40616   0.57107   -2.000
 7192.00    0.36191   0.57138   -2.000
 7193.00    0.31292   0.57194   -2.000
 7194.00    0.26044   0.57267   -2.000
 7195.00    0.26207   0.57363   -2.000
 7196.00    0.29876   0.57449   -2.000
 7197.00    0.36449   0.57508   -2.000
 7198.00    0.44669   0.57573   -2.000
 7199.00    0.62546   0.57629   -2.000
 7200.00    0.85192   0.57657   -2.000
 7201.00    0.97389   0.57658   -2.000
 7202.00    1.05124   0.57628   -2.000
 7203.00    0.84925   0.57595   -2.000
 7204.00    0.54504   0.57560   -2.000
 7205.00    0.28558   0.57500   -2.000
 7206.00    0.03996   0.57447   -2.000
 7207.00   -0.00681   0.57377   -2.000
 7208.00   -0.00226   0.57367   -2.000
 7209.00    0.18358   0.57409   -2.000
 7210.00    0.40756   0.57472   -2.000
 7211.00    0.52505   0.57583   -2.000
 7212.00    0.62485   0.57679   -2.000
 7213.00    0.67694   0.57788   -2.000
 7214.00    0.72307   0.57894   -2.000
 7215.00    0.80430   0.58010   -2.000
 7216.00    0.88857   0.58119   -2.000
 7217.00    0.60479   0.58223   -2.000
 7218.00    0.30232   0.58329   -2.000
