###################################################################
## OUTPUT of StarlightChains_v04.for    [Cid@UFSC - 01/Apr/2007] ##
###################################################################

## Some input info
KUG0210-078._38_38.txt                   [arq_obs]
Base.CB07.vall.4m                        [arq_base]
Masks.EmLines.NEW.gm                     [arq_masks]
StCv04.C11.config                        [arq_config]
   66                                    [N_base]
    0                                    [N_YAV_components = # of components with extra extinction!]
    0                                    [i_FitPowerLaw (1/0 = Yes/No)]
-9.99                                    [alpha_PowerLaw]
CCM                                      [red_law_option]
 1.458241                                [q_norm = A(l_norm)/A(V)]

## (Re)Sampling Parameters
 3741.00                                 [l_ini (A)]
 7218.00                                 [l_fin (A)]
    1.00                                 [dl    (A)]     (OBS: dl_cushion =    50.00 A)

## Normalization info
 4020.00                                 [l_norm (A) - for base]
 4010.00                                 [llow_norm (A) - window for f_obs]
 4060.00                                 [lupp_norm (A) - window for f_obs]
1.707389E-17                             [fobs_norm (in input units)]

## S/N
 3691.00                                 [llow_SN (A) - window for S/N]
 7268.00                                 [lupp_SN (A) - window for S/N]
   4.584                                 [S/N in S/N window]
   3.889                                 [S/N in norm. window]
   0.023                                 [S/N_err in S/N window]
   0.020                                 [S/N_err in norm. window]
  1.0000                                 [fscale_chi2]

## etc...
    -2007663                             [idum_orig]
  2423                                   [NOl_eff]
  2414                                   [Nl_eff]
     9    NSIGMA                         [Ntot_cliped & clip_method]
   466480                                [Nglobal_steps]
   7                                     [N_chains]
   7                                     [NEX0s_base = N_base in EX0s-fits]
 0   0   1        9   2.0   2.108E+03    [Clip-Bug, RC-Crash & Burn-In warning-flags, n_censored_weights, wei_nsig_threshold & wei_limit]
    13     13.018     12.648      0.371  [idt_all, wdt_TotTime, wdt_UsrTime & wdt_SysTime (sec)]

## Synthesis Results - Best model ##

 1.44831E-05                             [chi2/Nl_eff]
    12.49594                             [adev (%)]

   102.91123                             [sum-of-x (%)]
 4.69373E-17                             [Flux_tot (units of input spectrum!)]
 2.80056E-13                             [Mini_tot (???)]
 1.71114E-13                             [Mcor_tot (???)]

 -83.59                                  [v0_min  (km/s)]
 132.13                                  [vd_min  (km/s)]
 0.7316                                  [AV_min  (mag)]
 0.0000                                  [YAV_min (mag)]

# j     x_j(%)      Mini_j(%)     Mcor_j(%)     age_j(yr)     Z_j      (L/M)_j    YAV?  Mstars   component_j        a/Fe...       SSP_chi2r SSP_adev(%)   SSP_AV   SSP_x(%)
  1      0.0000     0.0000E+00    0.0000E+00    1.000000E+06  0.00400  1.094E-02    0   1.0000   age020_m42            0.0000     2.7825E-05    18.7247   3.7583    85.1792
  2      0.0000     0.0000E+00    0.0000E+00    3.160000E+06  0.00400  4.007E-02    0   0.9999   age045_m42            0.0000     2.3617E-05    17.3616   3.0229    91.2651
  3      0.0000     0.0000E+00    0.0000E+00    5.010000E+06  0.00400  2.539E-02    0   0.9488   age055_m42            0.0000     2.5706E-05    18.0862   3.3496    88.8378
  4      0.0000     0.0000E+00    0.0000E+00    6.610000E+06  0.00400  2.620E-02    0   0.9220   age061_m42            0.0000     2.3844E-05    17.4530   2.9535    91.3072
  5      0.0000     0.0000E+00    0.0000E+00    1.000000E+07  0.00400  1.322E-02    0   0.8862   age070_m42            0.0000     2.6616E-05    19.0732   2.6932    92.4065
  6      0.0000     0.0000E+00    0.0000E+00    1.445000E+07  0.00400  7.883E-03    0   0.8571   age078_m42            0.0000     2.7562E-05    19.2996   3.0193    90.1164
  7      0.0000     0.0000E+00    0.0000E+00    2.512000E+07  0.00400  5.251E-03    0   0.8174   age090_m42            0.0000     2.6998E-05    19.3422   2.5670    92.7755
  8      0.0000     0.0000E+00    0.0000E+00    4.000000E+07  0.00400  3.649E-03    0   0.7851   age104_m42            0.0000     2.5828E-05    18.8681   2.3341    93.7556
  9      0.0000     0.0000E+00    0.0000E+00    5.500000E+07  0.00400  3.098E-03    0   0.7629   age110_m42            0.0000     2.4010E-05    17.8185   2.4766    94.1673
 10      0.0000     0.0000E+00    0.0000E+00    1.015200E+08  0.00400  2.228E-03    0   0.7207   age116_m42            0.0000     2.2839E-05    17.1088   2.4894    94.6166
 11      0.0000     0.0000E+00    0.0000E+00    2.861200E+08  0.00400  1.093E-03    0   0.6648   age125_m42            0.0000     2.2795E-05    17.2779   1.9194    97.2823
 12      0.0000     0.0000E+00    0.0000E+00    5.088000E+08  0.00400  6.597E-04    0   0.6365   age130_m42            0.0000     2.0683E-05    16.0569   1.8965    98.6443
 13      0.0000     0.0000E+00    0.0000E+00    1.434000E+09  0.00400  2.132E-04    0   0.5798   age139_m42            0.0000     1.7717E-05    15.0003   0.9172   101.0643
 14      0.0000     0.0000E+00    0.0000E+00    4.250000E+09  0.00400  5.895E-05    0   0.5377   age158_m42            0.0000     1.6743E-05    14.3576   0.4623    97.8334
 15      0.0000     0.0000E+00    0.0000E+00    7.500000E+09  0.00400  3.510E-05    0   0.5212   age171_m42            0.0000     1.6248E-05    13.8138   0.2654    97.5064
 16      0.0000     0.0000E+00    0.0000E+00    1.300000E+10  0.00400  2.005E-05    0   0.5034   age193_m42            0.0000     1.6047E-05    13.3514   0.0947    97.1729
 17      0.0000     0.0000E+00    0.0000E+00    1.800000E+10  0.00400  1.525E-05    0   0.4967   age213_m42            0.0000     1.6196E-05    13.5203   0.0726    96.7151
 18      0.0000     0.0000E+00    0.0000E+00    1.000000E+06  0.00800  1.238E-02    0   1.0000   age020_m52            0.0000     2.7789E-05    18.7265   3.7547    85.3524
 19      0.0000     0.0000E+00    0.0000E+00    3.160000E+06  0.00800  3.074E-02    0   0.9966   age045_m52            0.0000     2.7482E-05    18.6248   3.6766    86.1617
 20      0.0000     0.0000E+00    0.0000E+00    5.010000E+06  0.00800  2.668E-02    0   0.9443   age055_m52            0.0000     2.6345E-05    18.3343   3.4345    87.9839
 21      0.0000     0.0000E+00    0.0000E+00    6.610000E+06  0.00800  2.136E-02    0   0.9177   age061_m52            0.0000     2.5447E-05    18.8272   2.1907    93.6758
 22      0.0000     0.0000E+00    0.0000E+00    1.000000E+07  0.00800  1.215E-02    0   0.8827   age070_m52            0.0000     2.8218E-05    19.8220   2.8758    92.0121
 23      0.0000     0.0000E+00    0.0000E+00    1.445000E+07  0.00800  8.717E-03    0   0.8552   age078_m52            0.0000     2.7207E-05    19.2423   2.9845    91.3695
 24      0.0000     0.0000E+00    0.0000E+00    2.512000E+07  0.00800  5.592E-03    0   0.8162   age090_m52            0.0000     2.6958E-05    19.3944   2.6297    93.8735
 25      0.0000     0.0000E+00    0.0000E+00    4.000000E+07  0.00800  3.896E-03    0   0.7841   age104_m52            0.0000     2.5524E-05    18.7222   2.5328    94.8992
 26      0.0000     0.0000E+00    0.0000E+00    1.015200E+08  0.00800  2.148E-03    0   0.7226   age116_m52            0.0000     2.3408E-05    17.6090   2.4620    95.1491
 27      0.0000     0.0000E+00    0.0000E+00    2.861200E+08  0.00800  9.925E-04    0   0.6683   age125_m52            0.0000     2.0580E-05    16.0446   1.9623    99.5305
 28      0.0000     0.0000E+00    0.0000E+00    9.047900E+08  0.00800  3.141E-04    0   0.6138   age135_m52            0.0000     1.6718E-05    14.2418   1.1382   104.7083
 29      0.0000     0.0000E+00    0.0000E+00    1.434000E+09  0.00800  1.719E-04    0   0.5853   age139_m52            0.0000     1.6568E-05    14.4075   0.5575   102.6145
 30      0.0000     0.0000E+00    0.0000E+00    2.500000E+09  0.00800  7.872E-05    0   0.5600   age150_m52            0.0000     1.5287E-05    13.2314   0.2750   100.5873
 31      0.0000     0.0000E+00    0.0000E+00    4.250000E+09  0.00800  4.336E-05    0   0.5426   age158_m52            0.0000     1.5518E-05    13.2414   0.2595    99.6738
 32      0.0000     0.0000E+00    0.0000E+00    6.250000E+09  0.00800  3.159E-05    0   0.5319   age166_m52            0.0000     1.4780E-05    12.3930   0.0445   100.1742
 33      0.0000     0.0000E+00    0.0000E+00    1.300000E+10  0.00800  1.361E-05    0   0.5073   age193_m52            0.0000     1.4292E-05    11.5012  -0.4406   100.1599
 34      0.0000     0.0000E+00    0.0000E+00    1.800000E+10  0.00800  9.886E-06    0   0.4990   age213_m52            0.0000     1.4066E-05    10.8733  -0.5642   100.2467
 35      0.0000     0.0000E+00    0.0000E+00    1.000000E+06  0.02000  1.544E-02    0   1.0000   age020_m62            0.0000     2.7908E-05    18.7701   3.7501    85.5699
 36      0.0000     0.0000E+00    0.0000E+00    3.160000E+06  0.02000  3.762E-02    0   0.9858   age045_m62            0.0000     2.7915E-05    18.7509   3.6890    86.3256
 37      0.0000     0.0000E+00    0.0000E+00    5.010000E+06  0.02000  3.296E-02    0   0.9342   age055_m62            0.0000     2.4646E-05    17.6226   3.3052    90.0862
 38      0.0000     0.0000E+00    0.0000E+00    8.710000E+06  0.02000  1.154E-02    0   0.8861   age067_m62            0.0000     3.7444E-05    24.0193   2.3606    93.0718
 39      0.0000     0.0000E+00    0.0000E+00    1.445000E+07  0.02000  7.663E-03    0   0.8472   age078_m62            0.0000     3.0198E-05    20.9335   2.5292    93.7126
 40      0.0000     0.0000E+00    0.0000E+00    2.512000E+07  0.02000  4.532E-03    0   0.8099   age090_m62            0.0000     3.0687E-05    21.1089   2.5232    93.3275
 41      0.0000     0.0000E+00    0.0000E+00    5.500000E+07  0.02000  2.733E-03    0   0.7595   age110_m62            0.0000     2.5788E-05    18.8046   2.5182    94.1476
 42      0.0000     0.0000E+00    0.0000E+00    1.609000E+08  0.02000  1.369E-03    0   0.6985   age120_m62            0.0000     2.2439E-05    16.9744   2.3378    97.4547
 43      0.0000     0.0000E+00    0.0000E+00    2.861200E+08  0.02000  9.013E-04    0   0.6714   age125_m62            0.0000     2.0425E-05    15.8282   2.0755   100.7439
 44      0.0000     0.0000E+00    0.0000E+00    5.088000E+08  0.02000  5.028E-04    0   0.6449   age130_m62            0.0000     1.7277E-05    14.0499   1.6740   104.4016
 45      0.0000     0.0000E+00    0.0000E+00    9.047900E+08  0.02000  2.428E-04    0   0.6179   age135_m62            0.0000     1.5632E-05    13.5592   1.0761   104.3068
 46      0.0000     0.0000E+00    0.0000E+00    1.434000E+09  0.02000  1.263E-04    0   0.5908   age139_m62            0.0000     1.5387E-05    13.3973   0.6267   103.0339
 47      0.0000     0.0000E+00    0.0000E+00    2.500000E+09  0.02000  5.985E-05    0   0.5673   age150_m62            0.0000     1.4708E-05    12.4407   0.2460   102.2538
 48      0.0000     0.0000E+00    0.0000E+00    4.250000E+09  0.02000  3.271E-05    0   0.5468   age158_m62            0.0000     1.4012E-05    11.3425  -0.0795   102.1894
 49      0.0000     0.0000E+00    0.0000E+00    1.000000E+10  0.02000  1.360E-05    0   0.5167   age181_m62            0.0000     1.3970E-05    10.5095  -0.4528   102.7075
 50      0.0000     0.0000E+00    0.0000E+00    1.800000E+10  0.02000  7.124E-06    0   0.5013   age213_m62            0.0000     1.4355E-05    10.1805  -0.6855   102.7097
 51      0.0000     0.0000E+00    0.0000E+00    1.000000E+06  0.05000  2.592E-02    0   0.9998   age020_m72            0.0000     2.8401E-05    18.9811   3.7428    85.5715
 52      0.0000     0.0000E+00    0.0000E+00    3.160000E+06  0.05000  4.845E-02    0   0.9577   age045_m72            0.0000     2.6630E-05    18.2638   3.5683    87.5690
 53      0.0000     0.0000E+00    0.0000E+00    5.010000E+06  0.05000  3.072E-02    0   0.9147   age055_m72            0.0000     2.9513E-05    20.1277   3.1007    90.6286
 54      0.0000     0.0000E+00    0.0000E+00    6.610000E+06  0.05000  1.455E-02    0   0.8877   age061_m72            0.0000     4.4491E-05    26.6052   2.3925    93.5386
 55      0.0000     0.0000E+00    0.0000E+00    1.000000E+07  0.05000  9.074E-03    0   0.8524   age070_m72            0.0000     3.0883E-05    20.4431   3.2668    90.5165
 56      0.0000     0.0000E+00    0.0000E+00    2.512000E+07  0.05000  4.250E-03    0   0.7902   age090_m72            0.0000     2.8707E-05    19.8304   2.9763    92.1345
 57      0.0000     0.0000E+00    0.0000E+00    4.000000E+07  0.05000  3.087E-03    0   0.7618   age104_m72            0.0000     2.8489E-05    19.8529   2.7494    93.6133
 58      0.0000     0.0000E+00    0.0000E+00    1.015200E+08  0.05000  1.700E-03    0   0.7096   age116_m72            0.0000     2.3968E-05    17.7756   2.4857    96.7540
 59      0.0000     0.0000E+00    0.0000E+00    2.861200E+08  0.05000  7.384E-04    0   0.6633   age125_m72            0.0000     1.8611E-05    14.8642   1.9298   102.6895
 60      0.0000     0.0000E+00    0.0000E+00    5.088000E+08  0.05000  3.819E-04    0   0.6372   age130_m72            0.0000     1.5949E-05    13.6267   1.4191   105.2142
 61    102.9112     1.0000E+02    1.0000E+02    9.047900E+08  0.05000  1.676E-04    0   0.6110   age135_m72            0.0000     1.4441E-05    12.4514   0.7010   104.3495
 62      0.0000     0.0000E+00    0.0000E+00    1.434000E+09  0.05000  8.837E-05    0   0.5874   age139_m72            0.0000     1.4597E-05    12.2727   0.2374   104.0360
 63      0.0000     0.0000E+00    0.0000E+00    2.500000E+09  0.05000  4.233E-05    0   0.5598   age150_m72            0.0000     1.3913E-05    11.0697  -0.0894   103.4300
 64      0.0000     0.0000E+00    0.0000E+00    6.250000E+09  0.05000  1.435E-05    0   0.5249   age166_m72            0.0000     1.3962E-05    10.4588  -0.5599   102.6578
 65      0.0000     0.0000E+00    0.0000E+00    1.300000E+10  0.05000  6.513E-06    0   0.5036   age193_m72            0.0000     1.4851E-05    10.2708  -0.8649   104.4971
 66      0.0000     0.0000E+00    0.0000E+00    1.800000E+10  0.05000  4.527E-06    0   0.4945   age213_m72            0.0000     1.5707E-05    10.2777  -1.0000   103.5770


## Synthesis Results - Average & Chains ##

# j      x_j: min, <> & last-chain-values for 1 ...  7 chains
  1      0.0000      0.7544      0.0000      0.0000      0.0000      0.0000      0.0000      0.0000      0.0000
  2      0.0000      0.4072      0.0000      0.0000      0.0000      0.0000      0.0000      0.0000      0.0000
  3      0.0000      0.6563      0.0000      0.0000      0.0000      0.0016      0.0000      0.0000      0.0000
  4      0.0000      0.7070      0.0000      0.0000      0.0000      0.0000      0.0000      0.0000      0.0000
  5      0.0000      0.5204      0.0000      0.0000      0.0000      0.0000      0.0000      0.0000      0.0000
  6      0.0000      0.6370      0.0000      0.0000      0.0000      0.0000      0.0000      0.0000      0.0000
  7      0.0000      0.6981      0.0000      0.0000      0.0000      0.0000      0.0000      0.0000      0.0000
  8      0.0000      0.8341      0.0000      0.0000      0.0000      0.0000      0.0000      0.0000      0.0000
  9      0.0000      0.7425      0.0031      0.0000      0.0004      0.0000      0.0000      0.0008      0.0000
 10      0.0000      0.7921      0.0055      0.0000      0.0000      0.0004      0.0000      0.0000      0.0000
 11      0.0000      0.4641      0.0000      0.0000      0.0063      0.0000      0.0050      0.0000      0.0000
 12      0.0000      0.5124      0.0000      0.0000      0.0000      0.0026      0.0000      0.0000      0.0000
 13      0.0000      0.8099      0.0000      0.0000      0.0000      0.0000      0.0000      0.0000      0.0000
 14      0.0000      0.4753      0.0000      0.0015      0.0000      0.0000      0.0000      0.0000      0.0000
 15      0.0000      0.7088      0.0000      0.0000      0.0000      0.0000      0.0000      0.0000      0.0000
 16      0.0000      0.6047      0.0000      0.0000      0.0000      0.0000      0.0000      0.0000      0.0000
 17      0.0000      0.4787      0.0000      0.0000      0.0000      0.0002      0.0000      0.0000      0.0000
 18      0.0000      0.4823      0.0000      0.0000      0.0000      0.0029      0.0000      0.0000      0.0000
 19      0.0000      0.6674      0.0000      0.0000      0.0000      0.0000      0.0000      0.0000      0.0000
 20      0.0000      0.6378      0.0000      0.0000      0.0000      0.0000      0.0000      0.0000      0.0000
 21      0.0000      0.4627      0.0000      0.0000      0.0000      0.0000      0.0000      0.0000      0.0000
 22      0.0000      0.4623      0.0000      0.0000      0.0000      0.0000      0.0000      0.0000      0.0000
 23      0.0000      0.8676      0.0000      0.0000      0.0000      0.0000      0.0000      0.0000      0.0078
 24      0.0000      0.4708      0.0000      0.0000      0.0000      0.0000      0.0000      0.0000      0.0000
 25      0.0000      0.6908      0.0000      0.0000      0.0004      0.0000      0.0000      0.0000      0.0000
 26      0.0000      0.4037      0.0026      0.0000      0.0000      0.0000      0.0000      0.0016      0.0000
 27      0.0000      0.5610      0.0000      0.0000      0.0000      0.0000      0.0000      0.0000      0.0000
 28      0.0000      0.7430      0.0000      0.0000      0.0000      0.0164      0.0000      0.0000      0.0000
 29      0.0000      0.5206      0.0000      0.0000      0.0000      0.0000      0.0000      0.0000      0.0089
 30      0.0000      0.5507      0.0000      0.0000      0.0000      0.0018      0.0000      0.0000      0.0000
 31      0.0000      1.0473      0.0013      0.0000      0.0000      0.0000      0.0000      0.0000      0.0000
 32      0.0000      0.4798      0.0000      0.0000      0.0002      0.0000      0.0000      0.0000      0.0000
 33      0.0000      0.5002      0.0000      0.0000      0.0000      0.0000      0.0000      0.0000      0.0000
 34      0.0000      0.6018      0.0000      0.0000      0.0000      0.0000      0.0000      0.0000      0.0000
 35      0.0000      0.5600      0.0000      0.0000      0.0000      0.0000      0.0028      0.0000      0.0000
 36      0.0000      0.7079      0.0000      0.0000      0.0000      0.0000      0.0016      0.0000      0.0000
 37      0.0000      0.6476      0.0000      0.0013      0.0000      0.0000      0.0000      0.0000      0.0000
 38      0.0000      0.9211      0.0000      0.0000      0.0000      0.0000      0.0000      0.0000      0.0034
 39      0.0000      0.7878      0.0000      0.0000      0.0000      0.0000      0.0002      0.0000      0.0000
 40      0.0000      0.6069      0.0000      0.0000      0.0000      0.0000      0.0000      0.0000      0.0000
 41      0.0000      0.9121      0.0000      0.0000      0.0000      0.0000      0.0000      0.0000      0.0000
 42      0.0000      0.6209      0.0000      0.0000      0.0000      0.0000      0.0000      0.0000      0.0000
 43      0.0000      0.3928      0.0000      0.0003      0.0000      0.0000      0.0000      0.0000      0.0204
 44      0.0000      0.9694      0.0053      0.0000      0.0000      0.0000      0.0000      0.0000      0.0377
 45      0.0000      0.6641      0.0000      0.0000      0.0117      0.0000      0.0000      0.0000      0.0000
 46      0.0000      0.6449      0.0000      0.0091      0.0038      0.0000      0.0000      0.0000      0.0000
 47      0.0000      0.7585      0.0000      0.0000      0.0000      0.0000      0.0000      0.0000      0.0000
 48      0.0000      0.4883      0.0000      0.0000      0.0000      0.0000      0.0000      0.0000      0.0000
 49      0.0000      0.6628      0.0000      0.0000      0.0000      0.0000      0.0000      0.0000      0.0000
 50      0.0000      0.7820      0.0000      0.0000      0.0000      0.0000      0.0000      0.0000      0.0000
 51      0.0000      0.2813      0.0000      0.0000      0.0000      0.0000      0.0000      0.0000      0.0089
 52      0.0000      0.7985      0.0002      0.0014      0.0000      0.0000      0.0000      0.0000      0.0000
 53      0.0000      0.4545      0.0000      0.0000      0.0000      0.0000      0.0000      0.0000      0.0000
 54      0.0000      0.4916      0.0000      0.0000      0.0000      0.0000      0.0000      0.0000      0.0000
 55      0.0000      0.6600      0.0000      0.0000      0.0018      0.0000      0.0000      0.0000      0.0000
 56      0.0000      0.9115      0.0000      0.0000      0.0000      0.0000      0.0000      0.0000      0.0000
 57      0.0000      0.4300      0.0000      0.0036      0.0000      0.0014      0.0000      0.0055      0.0000
 58      0.0000      0.8958      0.0000      0.0000      0.0000      0.0000      0.0000      0.0006      0.0000
 59      0.0000      0.7114      0.0000      0.0011      0.0000      0.0000      0.0000      0.0000      0.0253
 60      0.0000      3.4301      5.6424      5.4101      1.6359      6.0321      6.0226      6.2229      0.0000
 61    102.9112     85.7550    124.3395    124.5716    128.3394    123.9407    123.9678    123.7684    129.8873
 62      0.0000      0.5075      0.0000      0.0000      0.0000      0.0000      0.0000      0.0000      0.0003
 63      0.0000      0.7666      0.0000      0.0000      0.0000      0.0000      0.0000      0.0000      0.0000
 64      0.0000      0.5603      0.0000      0.0000      0.0000      0.0000      0.0000      0.0000      0.0000
 65      0.0000      0.4043      0.0000      0.0000      0.0000      0.0000      0.0000      0.0000      0.0000
 66      0.0000      0.5226      0.0000      0.0000      0.0000      0.0000      0.0000      0.0000      0.0000

# j      m_j: min, <> & last-chain-values for 1 ...  7 chains
  1  0.0000E+00  1.0251E-02  0.0000E+00  0.0000E+00  0.0000E+00  0.0000E+00  0.0000E+00  0.0000E+00  0.0000E+00
  2  0.0000E+00  1.5104E-03  0.0000E+00  0.0000E+00  0.0000E+00  0.0000E+00  0.0000E+00  0.0000E+00  0.0000E+00
  3  0.0000E+00  3.6458E-03  0.0000E+00  0.0000E+00  0.0000E+00  1.3163E-05  0.0000E+00  0.0000E+00  0.0000E+00
  4  0.0000E+00  3.6983E-03  0.0000E+00  0.0000E+00  0.0000E+00  0.0000E+00  0.0000E+00  0.0000E+00  0.0000E+00
  5  0.0000E+00  5.1859E-03  0.0000E+00  0.0000E+00  0.0000E+00  0.0000E+00  0.0000E+00  0.0000E+00  0.0000E+00
  6  0.0000E+00  1.0295E-02  0.0000E+00  0.0000E+00  0.0000E+00  0.0000E+00  0.0000E+00  0.0000E+00  0.0000E+00
  7  0.0000E+00  1.6155E-02  0.0000E+00  0.0000E+00  0.0000E+00  0.0000E+00  0.0000E+00  0.0000E+00  0.0000E+00
  8  0.0000E+00  2.6678E-02  0.0000E+00  0.0000E+00  0.0000E+00  0.0000E+00  0.0000E+00  0.0000E+00  0.0000E+00
  9  0.0000E+00  2.7180E-02  1.6289E-04  0.0000E+00  2.0786E-05  0.0000E+00  0.0000E+00  4.4719E-05  0.0000E+00
 10  0.0000E+00  3.8086E-02  3.8725E-04  0.0000E+00  0.0000E+00  2.7791E-05  0.0000E+00  0.0000E+00  0.0000E+00
 11  0.0000E+00  4.1958E-02  0.0000E+00  0.0000E+00  8.1103E-04  0.0000E+00  6.5885E-04  0.0000E+00  0.0000E+00
 12  0.0000E+00  7.3497E-02  0.0000E+00  0.0000E+00  0.0000E+00  5.3360E-04  0.0000E+00  0.0000E+00  0.0000E+00
 13  0.0000E+00  3.2740E-01  0.0000E+00  0.0000E+00  0.0000E+00  0.0000E+00  0.0000E+00  0.0000E+00  0.0000E+00
 14  0.0000E+00  6.4449E-01  0.0000E+00  2.8836E-03  0.0000E+00  0.0000E+00  0.0000E+00  0.0000E+00  0.0000E+00
 15  0.0000E+00  1.5647E+00  0.0000E+00  0.0000E+00  0.0000E+00  0.0000E+00  0.0000E+00  0.0000E+00  0.0000E+00
 16  0.0000E+00  2.2569E+00  0.0000E+00  0.0000E+00  0.0000E+00  0.0000E+00  0.0000E+00  0.0000E+00  0.0000E+00
 17  0.0000E+00  2.3177E+00  0.0000E+00  0.0000E+00  0.0000E+00  1.3077E-03  0.0000E+00  0.0000E+00  0.0000E+00
 18  0.0000E+00  5.7918E-03  0.0000E+00  0.0000E+00  0.0000E+00  4.9974E-05  0.0000E+00  0.0000E+00  0.0000E+00
 19  0.0000E+00  3.2165E-03  0.0000E+00  0.0000E+00  0.0000E+00  0.0000E+00  0.0000E+00  1.2491E-07  0.0000E+00
 20  0.0000E+00  3.3557E-03  0.0000E+00  0.0000E+00  0.0000E+00  0.0000E+00  0.0000E+00  0.0000E+00  0.0000E+00
 21  0.0000E+00  2.9552E-03  0.0000E+00  0.0000E+00  0.0000E+00  0.0000E+00  0.0000E+00  0.0000E+00  0.0000E+00
 22  0.0000E+00  4.9928E-03  0.0000E+00  0.0000E+00  0.0000E+00  0.0000E+00  0.0000E+00  0.0000E+00  0.0000E+00
 23  0.0000E+00  1.2653E-02  0.0000E+00  0.0000E+00  0.0000E+00  0.0000E+00  0.0000E+00  0.0000E+00  1.6205E-04
 24  0.0000E+00  1.0215E-02  0.0000E+00  0.0000E+00  0.0000E+00  0.0000E+00  0.0000E+00  0.0000E+00  0.0000E+00
 25  0.0000E+00  2.0667E-02  0.0000E+00  0.0000E+00  1.9188E-05  0.0000E+00  0.0000E+00  0.0000E+00  0.0000E+00
 26  0.0000E+00  2.0186E-02  1.9140E-04  0.0000E+00  0.0000E+00  0.0000E+00  0.0000E+00  1.1717E-04  0.0000E+00
 27  0.0000E+00  5.6159E-02  0.0000E+00  0.0000E+00  0.0000E+00  0.0000E+00  0.0000E+00  0.0000E+00  0.0000E+00
 28  0.0000E+00  2.1585E-01  0.0000E+00  0.0000E+00  0.0000E+00  6.9433E-03  0.0000E+00  0.0000E+00  0.0000E+00
 29  0.0000E+00  2.6350E-01  0.0000E+00  0.0000E+00  0.0000E+00  0.0000E+00  0.0000E+00  0.0000E+00  6.3727E-03
 30  0.0000E+00  5.8235E-01  0.0000E+00  0.0000E+00  0.0000E+00  2.7876E-03  0.0000E+00  0.0000E+00  0.0000E+00
 31  0.0000E+00  1.9481E+00  3.5993E-03  0.0000E+00  0.0000E+00  0.0000E+00  0.0000E+00  0.0000E+00  0.0000E+00
 32  0.0000E+00  1.2009E+00  0.0000E+00  0.0000E+00  7.1137E-04  0.0000E+00  0.0000E+00  0.0000E+00  0.0000E+00
 33  0.0000E+00  2.7715E+00  0.0000E+00  0.0000E+00  0.0000E+00  0.0000E+00  0.0000E+00  0.0000E+00  0.0000E+00
 34  0.0000E+00  4.5154E+00  0.0000E+00  0.0000E+00  0.0000E+00  0.0000E+00  0.0000E+00  0.0000E+00  0.0000E+00
 35  0.0000E+00  5.3912E-03  0.0000E+00  0.0000E+00  0.0000E+00  0.0000E+00  3.8727E-05  0.0000E+00  0.0000E+00
 36  0.0000E+00  2.7574E-03  0.0000E+00  0.0000E+00  0.0000E+00  0.0000E+00  9.1084E-06  0.0000E+00  0.0000E+00
 37  0.0000E+00  2.7284E-03  0.0000E+00  8.0491E-06  0.0000E+00  0.0000E+00  0.0000E+00  0.0000E+00  0.0000E+00
 38  0.0000E+00  1.0514E-02  0.0000E+00  0.0000E+00  0.0000E+00  0.0000E+00  0.0000E+00  0.0000E+00  5.5399E-05
 39  0.0000E+00  1.2947E-02  0.0000E+00  0.0000E+00  0.0000E+00  0.0000E+00  3.6833E-06  0.0000E+00  0.0000E+00
 40  0.0000E+00  1.6122E-02  0.0000E+00  0.0000E+00  0.0000E+00  0.0000E+00  0.0000E+00  0.0000E+00  0.0000E+00
 41  0.0000E+00  3.7679E-02  0.0000E+00  0.0000E+00  0.0000E+00  0.0000E+00  0.0000E+00  0.0000E+00  0.0000E+00
 42  0.0000E+00  4.7095E-02  0.0000E+00  0.0000E+00  0.0000E+00  0.0000E+00  0.0000E+00  0.0000E+00  0.0000E+00
 43  0.0000E+00  4.3499E-02  0.0000E+00  5.1154E-05  0.0000E+00  0.0000E+00  0.0000E+00  0.0000E+00  3.2119E-03
 44  0.0000E+00  1.8483E-01  1.4773E-03  0.0000E+00  0.0000E+00  0.0000E+00  0.0000E+00  0.0000E+00  1.0216E-02
 45  0.0000E+00  2.5123E-01  0.0000E+00  0.0000E+00  6.3497E-03  0.0000E+00  0.0000E+00  0.0000E+00  0.0000E+00
 46  0.0000E+00  4.4843E-01  0.0000E+00  9.2314E-03  3.8242E-03  0.0000E+00  0.0000E+00  0.0000E+00  0.0000E+00
 47  0.0000E+00  1.0688E+00  0.0000E+00  0.0000E+00  0.0000E+00  0.0000E+00  0.0000E+00  0.0000E+00  0.0000E+00
 48  0.0000E+00  1.2134E+00  0.0000E+00  0.0000E+00  0.0000E+00  0.0000E+00  0.0000E+00  0.0000E+00  0.0000E+00
 49  0.0000E+00  3.7435E+00  0.0000E+00  0.0000E+00  0.0000E+00  0.0000E+00  0.0000E+00  0.0000E+00  0.0000E+00
 50  0.0000E+00  8.1802E+00  0.0000E+00  0.0000E+00  0.0000E+00  0.0000E+00  0.0000E+00  0.0000E+00  0.0000E+00
 51  0.0000E+00  1.6132E-03  0.0000E+00  0.0000E+00  0.0000E+00  0.0000E+00  0.0000E+00  0.0000E+00  7.2596E-05
 52  0.0000E+00  2.3463E-03  8.5925E-07  5.9822E-06  0.0000E+00  0.0000E+00  0.0000E+00  0.0000E+00  0.0000E+00
 53  0.0000E+00  2.0116E-03  0.0000E+00  0.0000E+00  0.0000E+00  0.0000E+00  0.0000E+00  0.0000E+00  0.0000E+00
 54  0.0000E+00  4.4582E-03  0.0000E+00  0.0000E+00  0.0000E+00  0.0000E+00  0.0000E+00  0.0000E+00  0.0000E+00
 55  0.0000E+00  9.2170E-03  0.0000E+00  0.0000E+00  3.6379E-05  0.0000E+00  0.0000E+00  0.0000E+00  0.0000E+00
 56  0.0000E+00  2.5193E-02  0.0000E+00  0.0000E+00  0.0000E+00  0.0000E+00  0.0000E+00  0.0000E+00  0.0000E+00
 57  0.0000E+00  1.5774E-02  0.0000E+00  1.9369E-04  0.0000E+00  7.6121E-05  0.0000E+00  2.9596E-04  0.0000E+00
 58  0.0000E+00  5.5581E-02  0.0000E+00  0.0000E+00  0.0000E+00  0.0000E+00  0.0000E+00  5.3345E-05  0.0000E+00
 59  0.0000E+00  9.4997E-02  0.0000E+00  2.0973E-04  0.0000E+00  0.0000E+00  0.0000E+00  0.0000E+00  4.7908E-03
 60  0.0000E+00  8.5077E-01  2.0345E+00  1.9487E+00  5.7993E-01  2.1787E+00  2.1751E+00  2.2494E+00  0.0000E+00
 61  1.0000E+02  4.6473E+01  9.7960E+01  9.8039E+01  9.9408E+01  9.7810E+01  9.7824E+01  9.7750E+01  9.9975E+01
 62  0.0000E+00  5.0148E-01  0.0000E+00  0.0000E+00  0.0000E+00  0.0000E+00  0.0000E+00  0.0000E+00  4.5496E-04
 63  0.0000E+00  1.5071E+00  0.0000E+00  0.0000E+00  0.0000E+00  0.0000E+00  0.0000E+00  0.0000E+00  0.0000E+00
 64  0.0000E+00  3.0466E+00  0.0000E+00  0.0000E+00  0.0000E+00  0.0000E+00  0.0000E+00  0.0000E+00  0.0000E+00
 65  0.0000E+00  4.6470E+00  0.0000E+00  0.0000E+00  0.0000E+00  0.0000E+00  0.0000E+00  0.0000E+00  0.0000E+00
 66  0.0000E+00  8.4864E+00  0.0000E+00  0.0000E+00  0.0000E+00  0.0000E+00  0.0000E+00  0.0000E+00  0.0000E+00

# AV, chi2 & Mass for <> & i_chain = 1 ...  7 solutions
AV       0.7316      0.2052      0.2150      0.2144      0.1951      0.2174      0.2173      0.2179      0.1882
chi2 1.4483E-05  3.5413E-05  2.8818E-05  2.8820E-05  2.8862E-05  2.8813E-05  2.8813E-05  2.8811E-05  2.8885E-05
Mass 1.7111E-13  1.5130E-13  1.0546E-13  1.0548E-13  1.0444E-13  1.0562E-13  1.0561E-13  1.0560E-13  1.0413E-13
 -83.59                                  [v0_min (km/s) before EX0s...]
 132.13                                  [vd_min (km/s) before EX0s...]


## Synthetic spectrum (Best Model) ##l_obs f_obs f_syn wei
 3478    [Nl_obs]
 3741.00    0.66071   0.52212    0.000
 3742.00    0.75056   0.50383    0.000
 3743.00    0.79170   0.47958    0.000
 3744.00    0.71999   0.45092    0.000
 3745.00    0.58253   0.41767    0.043
 3746.00    0.50078   0.38318    0.042
 3747.00    0.44733   0.35433    0.041
 3748.00    0.37209   0.34229    0.042
 3749.00    0.28726   0.35577    0.045
 3750.00    0.28336   0.39441    0.043
 3751.00    0.31002   0.44869    0.039
 3752.00    0.28447   0.50417    0.038
 3753.00    0.24220   0.54719    0.038
 3754.00    0.33747   0.56666    0.037
 3755.00    0.46961   0.55890    0.037
 3756.00    0.52737   0.53123    0.037
 3757.00    0.56882   0.50035    0.037
 3758.00    0.45830   0.48228    0.037
 3759.00    0.32126   0.48228    0.037
 3760.00    0.30097   0.49561    0.045
 3761.00    0.29618   0.51393    0.061
 3762.00    0.42095   0.52932    0.048
 3763.00    0.55790   0.53576    0.038
 3764.00    0.55266   0.53086    0.037
 3765.00    0.53921   0.51498    0.037
 3766.00    0.43634   0.49313    0.037
 3767.00    0.33354   0.47168    0.037
 3768.00    0.49484   0.45632    0.037
 3769.00    0.64848   0.45245    0.037
 3770.00    0.61585   0.46354    0.037
 3771.00    0.58089   0.48630    0.037
 3772.00    0.51528   0.51202    0.037
 3773.00    0.46425   0.53435    0.037
 3774.00    0.54129   0.55406    0.036
 3775.00    0.61660   0.57596    0.036
 3776.00    0.68074   0.60288    0.037
 3777.00    0.73129   0.63279    0.037
 3778.00    0.71306   0.66103    0.037
 3779.00    0.66720   0.68303    0.036
 3780.00    0.50826   0.69621    0.036
 3781.00    0.39100   0.70121    0.037
 3782.00    0.41511   0.69777    0.037
 3783.00    0.40869   0.68321    0.037
 3784.00    0.31501   0.65527    0.037
 3785.00    0.23338   0.61810    0.037
 3786.00    0.18121   0.58344    0.037
 3787.00    0.16629   0.56016    0.037
 3788.00    0.22987   0.55023    0.037
 3789.00    0.27320   0.54887    0.036
 3790.00    0.27946   0.54750    0.036
 3791.00    0.27173   0.53826    0.036
 3792.00    0.24163   0.51782    0.036
 3793.00    0.22190   0.48853    0.036
 3794.00    0.21672   0.45555    0.035
 3795.00    0.17122   0.42504    0.035
 3796.00    0.07590   0.40445    0.035
 3797.00   -0.00387   0.40306    0.000
 3798.00   -0.06670   0.42640    0.000
 3799.00   -0.09083   0.47092    0.000
 3800.00   -0.07778   0.52551    0.000
 3801.00   -0.07261   0.57722    0.000
 3802.00   -0.07412   0.61582    0.000
 3803.00   -0.01833   0.63573    0.000
 3804.00    0.08022   0.63931    0.036
 3805.00    0.24904   0.63666    0.037
 3806.00    0.46394   0.64042    0.037
 3807.00    0.53352   0.65715    0.037
 3808.00    0.51971   0.68091    0.036
 3809.00    0.50367   0.69734    0.037
 3810.00    0.48652   0.69357    0.038
 3811.00    0.42483   0.66749    0.038
 3812.00    0.34389   0.63008    0.038
 3813.00    0.48969   0.59919    0.038
 3814.00    0.71959   0.58735    0.038
 3815.00    0.69669   0.59430    0.037
 3816.00    0.59433   0.60909    0.036
 3817.00    0.49658   0.61782    0.036
 3818.00    0.40005   0.61563    0.037
 3819.00    0.46153   0.60776    0.037
 3820.00    0.55686   0.60102    0.036
 3821.00    0.54808   0.59464    0.036
 3822.00    0.52164   0.58143    0.036
 3823.00    0.39024   0.55913    0.035
 3824.00    0.24538   0.53461    0.035
 3825.00    0.11482   0.51603    0.034
 3826.00   -0.01445   0.50600    0.000
 3827.00    0.12822   0.50066    0.034
 3828.00    0.28551   0.49297    0.035
 3829.00    0.31898   0.47688    0.035
 3830.00    0.35036   0.45015    0.035
 3831.00    0.41508   0.41593    0.036
 3832.00    0.48098   0.38300    0.036
 3833.00    0.57293   0.36014    0.037
 3834.00    0.64477   0.35250    0.037
 3835.00    0.46665   0.35990    0.037
 3836.00    0.29686   0.37794    0.036
 3837.00    0.19758   0.40199    0.037
 3838.00    0.11270   0.43092    0.037
 3839.00    0.11838   0.46532    0.036
 3840.00    0.10785   0.50439    0.036
 3841.00    0.01736   0.54361    0.037
 3842.00   -0.02341   0.57627    0.000
 3843.00    0.13483   0.59999    0.037
 3844.00    0.31248   0.61631    0.037
 3845.00    0.55470   0.62852    0.038
 3846.00    0.70687   0.63782    0.038
 3847.00    0.60616   0.64340    0.000
 3848.00    0.55238   0.64672    0.000
 3849.00    0.61134   0.65261    0.000
 3850.00    0.64919   0.66365    0.000
 3851.00    0.64326   0.67604    0.000
 3852.00    0.58759   0.68330    0.000
 3853.00    0.44221   0.68266    0.000
 3854.00    0.39008   0.67530    0.000
 3855.00    0.48501   0.66483    0.000
 3856.00    0.55585   0.65440    0.000
 3857.00    0.59336   0.64630    0.000
 3858.00    0.56156   0.64588    0.000
 3859.00    0.44529   0.65801    0.000
 3860.00    0.38337   0.68016    0.000
 3861.00    0.37982   0.70365    0.000
 3862.00    0.45210   0.71981    0.000
 3863.00    0.59621   0.72639    0.000
 3864.00    0.64300   0.72685    0.000
 3865.00    0.60848   0.72647    0.000
 3866.00    0.64681   0.72754    0.000
 3867.00    0.73870   0.72708    0.000
 3868.00    0.67316   0.71932    0.000
 3869.00    0.50592   0.70087    0.000
 3870.00    0.46846   0.67614    0.000
 3871.00    0.50433   0.65587    0.000
 3872.00    0.57382   0.65063    0.000
 3873.00    0.65984   0.65990    0.000
 3874.00    0.62982   0.67163    0.000
 3875.00    0.55045   0.67333    0.000
 3876.00    0.62047   0.66264    0.000
 3877.00    0.74491   0.64774    0.000
 3878.00    0.69867   0.63838    0.000
 3879.00    0.59981   0.63417    0.000
 3880.00    0.50958   0.62780    0.000
 3881.00    0.42155   0.61427    0.034
 3882.00    0.46329   0.59202    0.034
 3883.00    0.53216   0.56135    0.035
 3884.00    0.41176   0.52371    0.036
 3885.00    0.26015   0.48425    0.036
 3886.00    0.29160   0.45144    0.036
 3887.00    0.34571   0.43394    0.037
 3888.00    0.44506   0.43785    0.037
 3889.00    0.54828   0.46326    0.038
 3890.00    0.55788   0.50182    0.037
 3891.00    0.56282   0.54134    0.037
 3892.00    0.54230   0.57220    0.037
 3893.00    0.51800   0.59253    0.038
 3894.00    0.27672   0.60624    0.037
 3895.00    0.05513   0.61750    0.037
 3896.00    0.23641   0.62767    0.037
 3897.00    0.42061   0.63727    0.036
 3898.00    0.63928   0.64907    0.036
 3899.00    0.82037   0.66457    0.036
 3900.00    0.69522   0.68068    0.035
 3901.00    0.60773   0.68952    0.034
 3902.00    0.75028   0.68708    0.034
 3903.00    0.85001   0.67747    0.033
 3904.00    0.74368   0.66922    0.032
 3905.00    0.66569   0.67273    0.032
 3906.00    0.69872   0.69252    0.032
 3907.00    0.71986   0.72364    0.033
 3908.00    0.70221   0.75612    0.033
 3909.00    0.69658   0.77979    0.033
 3910.00    0.72411   0.78906    0.034
 3911.00    0.73718   0.78423    0.034
 3912.00    0.71613   0.76974    0.035
 3913.00    0.68345   0.75213    0.036
 3914.00    0.62703   0.73566    0.036
 3915.00    0.65341   0.72077    0.036
 3916.00    0.82684   0.70738    0.036
 3917.00    0.89035   0.69499    0.036
 3918.00    0.78307   0.68498    0.036
 3919.00    0.69314   0.67986    0.036
 3920.00    0.62689   0.68049    0.036
 3921.00    0.60192   0.68433    0.036
 3922.00    0.62652   0.68542    0.036
 3923.00    0.60803   0.67707    0.036
 3924.00    0.54390   0.65413    0.036
 3925.00    0.46519   0.61671    0.036
 3926.00    0.37284   0.56717    0.036
 3927.00    0.27057   0.50861    0.036
 3928.00    0.16011   0.44471    0.036
 3929.00    0.17531   0.37899    0.037
 3930.00    0.28159   0.31715    0.037
 3931.00    0.42355   0.26697    0.037
 3932.00    0.58820   0.23722    0.038
 3933.00    0.61165   0.23504    0.038
 3934.00    0.55653   0.26213    0.039
 3935.00    0.58675   0.31367    0.038
 3936.00    0.65829   0.37977    0.038
 3937.00    0.73919   0.44883    0.039
 3938.00    0.82400   0.51072    0.039
 3939.00    1.01269   0.55791    0.040
 3940.00    1.23853   0.58846    0.040
 3941.00    1.09668   0.60704    0.040
 3942.00    0.84369   0.62179    0.039
 3943.00    0.65617   0.63990    0.039
 3944.00    0.48508   0.66243    0.039
 3945.00    0.44981   0.68312    0.039
 3946.00    0.44224   0.69561    0.039
 3947.00    0.38115   0.70075    0.039
 3948.00    0.31150   0.70360    0.039
 3949.00    0.32895   0.70823    0.039
 3950.00    0.35679   0.71555    0.038
 3951.00    0.71516   0.72422    0.039
 3952.00    1.10044   0.73209    0.040
 3953.00    0.89310   0.73506    0.040
 3954.00    0.65851   0.72949    0.040
 3955.00    0.56595   0.71839    0.039
 3956.00    0.47805   0.70783    0.038
 3957.00    0.53940   0.69858    0.039
 3958.00    0.59333   0.68417    0.039
 3959.00    0.50674   0.65658    0.038
 3960.00    0.44187   0.61472    0.000
 3961.00    0.62186   0.56520    0.000
 3962.00    0.77682   0.51325    0.000
 3963.00    0.73496   0.45905    0.000
 3964.00    0.68382   0.40061    0.000
 3965.00    0.57765   0.33971    0.000
 3966.00    0.47903   0.28515    0.000
 3967.00    0.41586   0.24895    0.000
 3968.00    0.34872   0.24026    0.000
 3969.00    0.26633   0.26076    0.000
 3970.00    0.20434   0.30462    0.000
 3971.00    0.20759   0.36221    0.000
 3972.00    0.25379   0.42448    0.000
 3973.00    0.41634   0.48593    0.000
 3974.00    0.61983   0.54390    0.000
 3975.00    0.91838   0.59739    0.000
 3976.00    1.11816   0.64672    0.000
 3977.00    1.11954   0.69048    0.000
 3978.00    1.06660   0.72491    0.000
 3979.00    0.91862   0.74639    0.000
 3980.00    0.85693   0.75526    0.000
 3981.00    0.92735   0.75860    0.040
 3982.00    0.89086   0.76465    0.040
 3983.00    0.71058   0.77686    0.040
 3984.00    0.56824   0.79347    0.040
 3985.00    0.47081   0.80962    0.040
 3986.00    0.53540   0.82271    0.039
 3987.00    0.76916   0.83259    0.039
 3988.00    0.97456   0.84049    0.039
 3989.00    1.15382   0.84976    0.040
 3990.00    1.24337   0.86147    0.040
 3991.00    1.26009   0.87247    0.040
 3992.00    1.21957   0.87694    0.040
 3993.00    1.13816   0.86999    0.040
 3994.00    1.07693   0.85338    0.040
 3995.00    1.02836   0.83621    0.040
 3996.00    0.86800   0.82958    0.040
 3997.00    0.64638   0.84024    0.040
 3998.00    0.66060   0.86473    0.040
 3999.00    0.78715   0.89119    0.040
 4000.00    0.95063   0.90781    0.040
 4001.00    1.12928   0.90834    0.040
 4002.00    0.95558   0.89325    0.040
 4003.00    0.65811   0.86996    0.039
 4004.00    0.69168   0.85159    0.039
 4005.00    0.82333   0.85038    0.040
 4006.00    0.91264   0.86792    0.040
 4007.00    0.99154   0.89557    0.040
 4008.00    0.85259   0.92132    0.040
 4009.00    0.67033   0.93774    0.039
 4010.00    0.77391   0.94486    0.039
 4011.00    0.92191   0.94716    0.039
 4012.00    0.88417   0.94920    0.039
 4013.00    0.82508   0.95235    0.039
 4014.00    0.95568   0.95691    0.039
 4015.00    1.10094   0.96233    0.040
 4016.00    1.02504   0.96886    0.039
 4017.00    0.93982   0.97773    0.039
 4018.00    0.78412   0.98561    0.038
 4019.00    0.63313   0.98674    0.037
 4020.00    0.71686   0.97852    0.038
 4021.00    0.80709   0.96394    0.038
 4022.00    1.01206   0.95109    0.038
 4023.00    1.19818   0.94816    0.039
 4024.00    1.18135   0.95811    0.038
 4025.00    1.15963   0.97336    0.038
 4026.00    1.10084   0.97895    0.038
 4027.00    1.05759   0.96393    0.038
 4028.00    1.10399   0.92740    0.038
 4029.00    1.14831   0.88074    0.039
 4030.00    1.18316   0.84253    0.039
 4031.00    1.17374   0.82540    0.039
 4032.00    0.99825   0.83316    0.037
 4033.00    0.83070   0.86256    0.036
 4034.00    0.68805   0.90424    0.036
 4035.00    0.61876   0.94787    0.035
 4036.00    0.74463   0.98265    0.036
 4037.00    0.86070   1.00103    0.037
 4038.00    0.95441   1.00257    0.037
 4039.00    1.03313   0.99204    0.038
 4040.00    1.08224   0.97494    0.038
 4041.00    1.12139   0.95236    0.039
 4042.00    1.14338   0.92275    0.038
 4043.00    1.11209   0.89159    0.038
 4044.00    1.00044   0.87191    0.039
 4045.00    0.91087   0.87606    0.039
 4046.00    0.85056   0.90271    0.039
 4047.00    0.89154   0.93636    0.039
 4048.00    1.05076   0.96210    0.040
 4049.00    1.07859   0.97147    0.040
 4050.00    0.97115   0.96401    0.041
 4051.00    0.94752   0.94590    0.041
 4052.00    1.00000   0.92436    0.041
 4053.00    0.92479   0.90581    0.040
 4054.00    0.74739   0.89567    0.040
 4055.00    0.82271   0.89489    0.041
 4056.00    1.07600   0.90162    0.041
 4057.00    1.16520   0.91383    0.041
 4058.00    1.15303   0.92593    0.041
 4059.00    1.10784   0.92907    0.041
 4060.00    1.04483   0.91801    0.041
 4061.00    0.88540   0.89637    0.040
 4062.00    0.68078   0.87628    0.040
 4063.00    0.61578   0.86991    0.040
 4064.00    0.60718   0.87852    0.039
 4065.00    0.66644   0.89482    0.039
 4066.00    0.74909   0.91217    0.040
 4067.00    0.69446   0.92537    0.039
 4068.00    0.59996   0.92990    0.039
 4069.00    0.73004   0.92465    0.039
 4070.00    0.91406   0.91420    0.039
 4071.00    0.93531   0.90500    0.040
 4072.00    0.92502   0.89668    0.040
 4073.00    1.00236   0.88203    0.039
 4074.00    1.09290   0.85672    0.039
 4075.00    1.16911   0.82679    0.038
 4076.00    1.24374   0.80847    0.038
 4077.00    1.08839   0.81562    0.038
 4078.00    0.91620   0.84663    0.038
 4079.00    0.89778   0.88680    0.038
 4080.00    0.88525   0.91807    0.037
 4081.00    0.93776   0.92952    0.038
 4082.00    0.98757   0.92430    0.038
 4083.00    0.92206   0.91430    0.037
 4084.00    0.85994   0.91141    0.037
 4085.00    0.85353   0.92177    0.036
 4086.00    0.84804   0.94190    0.036
 4087.00    0.85191   0.96222    0.036
 4088.00    0.85495   0.97428    0.036
 4089.00    0.85198   0.97541    0.036
 4090.00    0.85956   0.96751    0.036
 4091.00    0.92630   0.95355    0.037
 4092.00    0.98614   0.93473    0.000
 4093.00    1.01510   0.90864    0.000
 4094.00    0.99675   0.87485    0.000
 4095.00    0.80466   0.83633    0.000
 4096.00    0.66308   0.79450    0.000
 4097.00    0.67682   0.74943    0.000
 4098.00    0.69517   0.70196    0.000
 4099.00    0.72552   0.65724    0.000
 4100.00    0.74576   0.62783    0.000
 4101.00    0.74329   0.62666    0.000
 4102.00    0.76782   0.65569    0.000
 4103.00    0.84490   0.70495    0.000
 4104.00    0.93300   0.75838    0.000
 4105.00    1.03980   0.80114    0.000
 4106.00    1.06814   0.82710    0.000
 4107.00    0.97985   0.83887    0.000
 4108.00    0.90262   0.84364    0.000
 4109.00    0.83984   0.85025    0.000
 4110.00    0.77574   0.86447    0.000
 4111.00    0.71012   0.88691    0.000
 4112.00    0.81827   0.91407    0.000
 4113.00    1.10280   0.93952    0.037
 4114.00    1.20688   0.95628    0.038
 4115.00    1.14940   0.95943    0.037
 4116.00    1.06377   0.94858    0.037
 4117.00    0.95593   0.93007    0.037
 4118.00    0.83964   0.91369    0.037
 4119.00    0.71748   0.90465    0.037
 4120.00    0.82732   0.90279    0.037
 4121.00    1.07835   0.90656    0.038
 4122.00    0.89314   0.91392    0.038
 4123.00    0.47617   0.92137    0.038
 4124.00    0.53121   0.92393    0.038
 4125.00    0.80389   0.91825    0.038
 4126.00    0.94235   0.90530    0.039
 4127.00    1.02752   0.89011    0.039
 4128.00    0.94652   0.87745    0.039
 4129.00    0.80929   0.86801    0.038
 4130.00    0.63411   0.86169    0.038
 4131.00    0.44813   0.86226    0.038
 4132.00    0.53487   0.87442    0.038
 4133.00    0.68564   0.89914    0.038
 4134.00    0.87417   0.93261    0.038
 4135.00    1.06982   0.96640    0.038
 4136.00    1.08070   0.99447    0.038
 4137.00    1.06459   1.01420    0.038
 4138.00    1.09928   1.02051    0.038
 4139.00    1.13938   1.00922    0.037
 4140.00    1.11961   0.98117    0.038
 4141.00    1.09569   0.94516    0.038
 4142.00    1.08063   0.91785    0.038
 4143.00    1.06587   0.91178    0.037
 4144.00    1.16175   0.92468    0.038
 4145.00    1.25329   0.94417    0.039
 4146.00    1.19455   0.95806    0.038
 4147.00    1.12838   0.96027    0.037
 4148.00    0.94753   0.95389    0.037
 4149.00    0.80422   0.94582    0.037
 4150.00    1.03102   0.93837    0.037
 4151.00    1.21724   0.93044    0.038
 4152.00    1.11535   0.92074    0.037
 4153.00    1.03892   0.91091    0.036
 4154.00    1.10146   0.90603    0.036
 4155.00    1.13934   0.90974    0.036
 4156.00    1.06944   0.92278    0.036
 4157.00    0.98363   0.94118    0.035
 4158.00    0.84063   0.95897    0.035
 4159.00    0.74972   0.97311    0.035
 4160.00    0.81598   0.98474    0.035
 4161.00    0.82628   0.99565    0.035
 4162.00    0.69286   1.00413    0.035
 4163.00    0.64910   1.00886    0.035
 4164.00    0.80336   1.00870    0.036
 4165.00    0.96112   1.00368    0.036
 4166.00    1.12557   0.99714    0.036
 4167.00    1.23217   0.98894    0.036
 4168.00    1.24212   0.97299    0.035
 4169.00    1.21892   0.94424    0.035
 4170.00    1.14715   0.90555    0.036
 4171.00    1.04176   0.86856    0.036
 4172.00    0.89305   0.84627    0.034
 4173.00    0.83660   0.84277    0.034
 4174.00    0.88483   0.85121    0.035
 4175.00    0.97236   0.86172    0.035
 4176.00    1.09920   0.87036    0.035
 4177.00    1.11275   0.88016    0.035
 4178.00    1.02631   0.89447    0.035
 4179.00    1.03927   0.91067    0.035
 4180.00    1.12954   0.92369    0.035
 4181.00    1.12012   0.93308    0.035
 4182.00    1.04253   0.94011    0.035
 4183.00    0.83898   0.94586    0.035
 4184.00    0.55993   0.94957    0.034
 4185.00    0.50393   0.94889    0.035
 4186.00    0.56457   0.94812    0.035
 4187.00    0.66962   0.95375    0.036
 4188.00    0.79482   0.96606    0.035
 4189.00    1.02283   0.98260    0.035
 4190.00    1.29098   1.00082    0.036
 4191.00    1.16765   1.01606    0.036
 4192.00    0.91430   1.02093    0.035
 4193.00    0.80419   1.00994    0.035
 4194.00    0.73401   0.98474    0.035
 4195.00    0.81225   0.95336    0.035
 4196.00    0.92453   0.92455    0.035
 4197.00    0.87814   0.90608    0.035
 4198.00    0.80258   0.90095    0.035
 4199.00    0.71996   0.90268    0.035
 4200.00    0.63634   0.90538    0.036
 4201.00    0.87918   0.91005    0.036
 4202.00    1.15531   0.91762    0.035
 4203.00    1.04059   0.92928    0.035
 4204.00    0.90041   0.94705    0.035
 4205.00    0.85426   0.96790    0.035
 4206.00    0.81122   0.98640    0.035
 4207.00    0.90220   0.99990    0.036
 4208.00    0.98860   1.00895    0.037
 4209.00    0.94033   1.01659    0.037
 4210.00    0.90384   1.02268    0.037
 4211.00    1.03891   1.02283    0.037
 4212.00    1.15615   1.01372    0.037
 4213.00    1.10483   0.99770    0.036
 4214.00    1.07654   0.98572    0.036
 4215.00    1.20655   0.98977    0.036
 4216.00    1.27959   1.00954    0.036
 4217.00    1.04978   1.03460    0.036
 4218.00    0.86773   1.05387    0.036
 4219.00    0.88965   1.05886    0.035
 4220.00    0.89673   1.04450    0.035
 4221.00    0.85145   1.01088    0.035
 4222.00    0.77211   0.96239    0.035
 4223.00    0.59185   0.90700    0.034
 4224.00    0.54899   0.85980    0.034
 4225.00    0.85290   0.83958    0.035
 4226.00    1.04711   0.85802    0.036
 4227.00    1.00292   0.90795    0.036
 4228.00    0.95060   0.96648    0.035
 4229.00    0.88293   1.01063    0.035
 4230.00    0.92132   1.02602    0.034
 4231.00    1.13434   1.01421    0.034
 4232.00    1.21920   0.99165    0.034
 4233.00    1.11906   0.97213    0.034
 4234.00    1.08912   0.96069    0.034
 4235.00    1.14831   0.95954    0.034
 4236.00    1.19332   0.96577    0.033
 4237.00    1.22246   0.97582    0.033
 4238.00    1.26539   0.99150    0.033
 4239.00    1.32191   1.01296    0.033
 4240.00    1.20505   1.03547    0.033
 4241.00    0.93729   1.05444    0.033
 4242.00    0.80674   1.06603    0.033
 4243.00    0.78139   1.06480    0.033
 4244.00    0.76915   1.04926    0.033
 4245.00    0.76576   1.02554    0.034
 4246.00    0.86223   1.00253    0.034
 4247.00    1.01765   0.98571    0.034
 4248.00    1.16318   0.97573    0.034
 4249.00    1.30360   0.97373    0.034
 4250.00    1.24689   0.97985    0.034
 4251.00    1.10223   0.98913    0.034
 4252.00    0.94951   0.99842    0.034
 4253.00    0.79369   1.00871    0.034
 4254.00    0.76981   1.01939    0.033
 4255.00    0.78894   1.02542    0.033
 4256.00    0.86290   1.02143    0.033
 4257.00    0.95183   1.00814    0.033
 4258.00    0.89824   0.99284    0.033
 4259.00    0.81270   0.98771    0.033
 4260.00    0.69029   1.00290    0.033
 4261.00    0.56129   1.03599    0.033
 4262.00    0.73104   1.07490    0.033
 4263.00    0.94167   1.10724    0.034
 4264.00    1.10633   1.12337    0.034
 4265.00    1.26651   1.11822    0.034
 4266.00    1.22597   1.09362    0.033
 4267.00    1.17316   1.05550    0.032
 4268.00    1.22421   1.00974    0.032
 4269.00    1.27700   0.96358    0.033
 4270.00    1.12158   0.92848    0.033
 4271.00    0.96200   0.91365    0.033
 4272.00    0.69258   0.91869    0.032
 4273.00    0.45327   0.94072    0.032
 4274.00    0.62772   0.97608    0.032
 4275.00    0.80204   1.01493    0.032
 4276.00    0.97518   1.04663    0.032
 4277.00    1.12695   1.06467    0.035
 4278.00    1.13631   1.06708    0.076
 4279.00    1.18884   1.05838   -1.000
 4280.00    1.46477   1.04521   -1.000
 4281.00    1.75341   1.03294   -1.000
 4282.00    2.09505   1.02441   -2.000
 4283.00    2.32986   1.01659   -2.000
 4284.00    2.19586   1.00485   -2.000
 4285.00    1.92747   0.98591   -2.000
 4286.00    1.26844   0.95844   -2.000
 4287.00    0.80334   0.92714   -2.000
 4288.00    0.81925   0.90418   -2.000
 4289.00    0.94918   0.90204   -2.000
 4290.00    1.32287   0.92085   -2.000
 4291.00    1.43536   0.94737   -2.000
 4292.00    1.06291   0.96715   -2.000
 4293.00    0.84922   0.97380   -2.000
 4294.00    0.89304   0.96593   -2.000
 4295.00    0.85209   0.94471   -2.000
 4296.00    0.69057   0.91279   -2.000
 4297.00    0.62085   0.87263   -2.000
 4298.00    0.66602   0.83355    0.034
 4299.00    0.70215   0.80739    0.034
 4300.00    0.72833   0.79719    0.034
 4301.00    0.71204   0.80245    0.034
 4302.00    0.65444   0.81877    0.033
 4303.00    0.64740   0.83418    0.033
 4304.00    0.68374   0.84147    0.034
 4305.00    0.72243   0.84136    0.034
 4306.00    0.76290   0.83820    0.033
 4307.00    0.83367   0.84181    0.033
 4308.00    0.92456   0.85936    0.034
 4309.00    0.99043   0.88710    0.034
 4310.00    1.04175   0.91514    0.033
 4311.00    0.96151   0.93698    0.033
 4312.00    0.81459   0.95473    0.033
 4313.00    0.79383   0.97784    0.033
 4314.00    0.82843   1.01277    0.032
 4315.00    0.80424   1.05264    0.032
 4316.00    0.75791   1.08534    0.033
 4317.00    0.83326   1.10277    0.033
 4318.00    0.94751   1.10162    0.033
 4319.00    0.99054   1.08574    0.033
 4320.00    1.01455   1.06206    0.033
 4321.00    1.01179   1.03128    0.033
 4322.00    1.00317   0.99294    0.034
 4323.00    0.95426   0.95504    0.034
 4324.00    0.89834   0.93297    0.034
 4325.00    1.01442   0.93847    0.034
 4326.00    1.15324   0.96733    0.035
 4327.00    1.20398   1.00290    0.035
 4328.00    1.24648   1.02927    0.034
 4329.00    1.30038   1.04181    0.034
 4330.00    1.35493   1.04470    0.000
 4331.00    1.25397   1.04126    0.000
 4332.00    1.14914   1.03180    0.000
 4333.00    1.01542   1.01145    0.000
 4334.00    0.89335   0.97022    0.000
 4335.00    1.05094   0.90502    0.000
 4336.00    1.19679   0.82758    0.000
 4337.00    1.18972   0.75488    0.000
 4338.00    1.16880   0.70185    0.000
 4339.00    1.02685   0.68307    0.000
 4340.00    0.90061   0.70267    0.000
 4341.00    0.87577   0.74844    0.000
 4342.00    0.83410   0.80640    0.000
 4343.00    0.70751   0.86839    0.000
 4344.00    0.59732   0.92596    0.000
 4345.00    0.55402   0.97292    0.000
 4346.00    0.58806   1.00739    0.000
 4347.00    0.88376   1.02477    0.000
 4348.00    1.10254   1.01980    0.000
 4349.00    1.10186   0.99717    0.000
 4350.00    1.08547   0.97464    0.000
 4351.00    1.03080   0.96999    0.034
 4352.00    1.04192   0.98687    0.034
 4353.00    1.19140   1.01865    0.034
 4354.00    1.28054   1.05487    0.034
 4355.00    1.25935   1.08219    0.033
 4356.00    1.21456   1.09374    0.033
 4357.00    1.13205   1.09640    0.033
 4358.00    1.04560   1.10249    0.033
 4359.00    0.95362   1.11788    0.033
 4360.00    0.94274   1.14069    0.033
 4361.00    1.03194   1.16568    0.034
 4362.00    1.10923   1.18632    0.034
 4363.00    1.17356   1.19511    0.033
 4364.00    1.14495   1.18726    0.033
 4365.00    1.02719   1.16453    0.033
 4366.00    0.98952   1.13647    0.033
 4367.00    1.01960   1.11398    0.034
 4368.00    1.07742   1.10149    0.034
 4369.00    1.15592   1.09734    0.033
 4370.00    1.19473   1.09435    0.033
 4371.00    1.20758   1.08332    0.033
 4372.00    1.16461   1.06361    0.033
 4373.00    1.08966   1.04827    0.033
 4374.00    1.26254   1.05186    0.035
 4375.00    1.55906   1.07588    0.037
 4376.00    1.56040   1.10833    0.038
 4377.00    1.43436   1.13262    0.037
 4378.00    1.17952   1.13614    0.037
 4379.00    0.87702   1.11362    0.037
 4380.00    0.85527   1.06588    0.036
 4381.00    0.92155   1.00357    0.033
 4382.00    0.94536   0.94858    0.032
 4383.00    0.95806   0.92189    0.031
 4384.00    1.00420   0.92904    0.031
 4385.00    1.05747   0.95938    0.032
 4386.00    1.09304   0.99717    0.032
 4387.00    1.12561   1.02980    0.032
 4388.00    1.08167   1.05025    0.032
 4389.00    1.02795   1.06090    0.031
 4390.00    1.00350   1.06772    0.031
 4391.00    0.98166   1.07060    0.031
 4392.00    1.10457   1.06852    0.032
 4393.00    1.23520   1.06774    0.032
 4394.00    1.22290   1.07525    0.032
 4395.00    1.20617   1.08734    0.032
 4396.00    1.05719   1.09397    0.031
 4397.00    0.91652   1.09048    0.031
 4398.00    0.95878   1.07880    0.031
 4399.00    0.99947   1.06801    0.031
 4400.00    1.02069   1.06487    0.031
 4401.00    1.03977   1.06368    0.031
 4402.00    1.04096   1.05796    0.031
 4403.00    1.04329   1.05167    0.031
 4404.00    1.05283   1.04947    0.031
 4405.00    1.06920   1.04987    0.032
 4406.00    1.11915   1.05455    0.031
 4407.00    1.17300   1.06906    0.031
 4408.00    1.24246   1.09181    0.031
 4409.00    1.28939   1.11502    0.031
 4410.00    1.26162   1.13177    0.031
 4411.00    1.20643   1.13362    0.030
 4412.00    1.07442   1.11425    0.031
 4413.00    1.00924   1.08207    0.031
 4414.00    1.10424   1.05548    0.031
 4415.00    1.17664   1.04593    0.031
 4416.00    1.20228   1.05689    0.030
 4417.00    1.24747   1.08459    0.030
 4418.00    1.32787   1.11429    0.031
 4419.00    1.39940   1.13154    0.031
 4420.00    1.45694   1.13434    0.031
 4421.00    1.37618   1.13074    0.031
 4422.00    1.10429   1.12869    0.031
 4423.00    0.94796   1.13015    0.031
 4424.00    0.93220   1.13386    0.030
 4425.00    0.99876   1.13722    0.030
 4426.00    1.15360   1.13798    0.031
 4427.00    1.23869   1.13432    0.031
 4428.00    1.25779   1.12612    0.031
 4429.00    1.25143   1.11746    0.031
 4430.00    1.22381   1.10921    0.031
 4431.00    1.18145   1.09814    0.031
 4432.00    1.12826   1.08604    0.031
 4433.00    1.11059   1.08095    0.031
 4434.00    1.11584   1.09153    0.031
 4435.00    1.16233   1.11876    0.031
 4436.00    1.23210   1.15268    0.031
 4437.00    1.21346   1.17793    0.031
 4438.00    1.15142   1.18090    0.031
 4439.00    1.12447   1.15822    0.031
 4440.00    1.11241   1.12070    0.031
 4441.00    1.14761   1.08756    0.031
 4442.00    1.19999   1.07632    0.031
 4443.00    1.20721   1.09159    0.031
 4444.00    1.20055   1.12199    0.031
 4445.00    1.18919   1.15211    0.031
 4446.00    1.17662   1.17347    0.031
 4447.00    1.23774   1.18118    0.031
 4448.00    1.31421   1.17578    0.031
 4449.00    1.37833   1.16479    0.031
 4450.00    1.44042   1.15158    0.031
 4451.00    1.37255   1.13245    0.031
 4452.00    1.28867   1.10599    0.031
 4453.00    1.22311   1.07787    0.031
 4454.00    1.15910   1.05650    0.030
 4455.00    1.14478   1.04435    0.030
 4456.00    1.13290   1.03889    0.030
 4457.00    1.08317   1.03754    0.030
 4458.00    1.03422   1.03772    0.030
 4459.00    1.07239   1.03816    0.030
 4460.00    1.11216   1.04386    0.029
 4461.00    1.18468   1.05904    0.000
 4462.00    1.25424   1.07814    0.000
 4463.00    1.28911   1.09407    0.000
 4464.00    1.31368   1.10321    0.000
 4465.00    1.25474   1.10300    0.000
 4466.00    1.19929   1.09534    0.000
 4467.00    1.16503   1.08839    0.000
 4468.00    1.14263   1.09153    0.000
 4469.00    1.17708   1.10867    0.000
 4470.00    1.20438   1.13793    0.000
 4471.00    1.20382   1.17354    0.000
 4472.00    1.24778   1.20748    0.000
 4473.00    1.43648   1.23306    0.000
 4474.00    1.57393   1.24847    0.000
 4475.00    1.57037   1.25322    0.000
 4476.00    1.49853   1.24337    0.000
 4477.00    1.26581   1.21649    0.000
 4478.00    1.10660   1.17794    0.000
 4479.00    1.09715   1.14069    0.000
 4480.00    1.16897   1.12063    0.000
 4481.00    1.38488   1.12674    0.000
 4482.00    1.47144   1.15384    0.030
 4483.00    1.35739   1.18788    0.030
 4484.00    1.28513   1.21318    0.030
 4485.00    1.26979   1.21809    0.029
 4486.00    1.32112   1.20188    0.029
 4487.00    1.45238   1.17582    0.030
 4488.00    1.49647   1.15459    0.030
 4489.00    1.44839   1.14616    0.030
 4490.00    1.43720   1.14871    0.030
 4491.00    1.46041   1.15389    0.030
 4492.00    1.49803   1.15570    0.030
 4493.00    1.54751   1.15643    0.030
 4494.00    1.47751   1.16140    0.030
 4495.00    1.32105   1.17361    0.030
 4496.00    1.16475   1.19197    0.029
 4497.00    1.00855   1.21011    0.029
 4498.00    1.03806   1.22240    0.028
 4499.00    1.17072   1.23157    0.029
 4500.00    1.24826   1.24666    0.029
 4501.00    1.29915   1.27065    0.029
 4502.00    1.32600   1.29653    0.029
 4503.00    1.34282   1.31571    0.029
 4504.00    1.39151   1.32244    0.029
 4505.00    1.45158   1.31640    0.029
 4506.00    1.43850   1.30489    0.030
 4507.00    1.40336   1.29723    0.030
 4508.00    1.36157   1.29590    0.029
 4509.00    1.31811   1.29569    0.029
 4510.00    1.26588   1.29056    0.029
 4511.00    1.21186   1.27793    0.029
 4512.00    1.16564   1.25936    0.029
 4513.00    1.12067   1.24055    0.029
 4514.00    1.26057   1.22733    0.029
 4515.00    1.42245   1.22076    0.030
 4516.00    1.45471   1.21960    0.029
 4517.00    1.47648   1.22267    0.029
 4518.00    1.40312   1.22650    0.029
 4519.00    1.32542   1.22623    0.029
 4520.00    1.31328   1.21856    0.029
 4521.00    1.30109   1.20465    0.028
 4522.00    1.24536   1.18678    0.029
 4523.00    1.19655   1.16502    0.029
 4524.00    1.27745   1.14103    0.029
 4525.00    1.34993   1.11770    0.029
 4526.00    1.32815   1.09784    0.029
 4527.00    1.30444   1.08556    0.029
 4528.00    1.26550   1.08359    0.028
 4529.00    1.23688   1.08958    0.028
 4530.00    1.26924   1.09753    0.028
 4531.00    1.28763   1.10215    0.029
 4532.00    1.24055   1.10583    0.028
 4533.00    1.21454   1.11766    0.028
 4534.00    1.26902   1.14323    0.028
 4535.00    1.30046   1.17809    0.028
 4536.00    1.25844   1.21024    0.028
 4537.00    1.23839   1.22922    0.029
 4538.00    1.27773   1.23269    0.029
 4539.00    1.32033   1.22638    0.029
 4540.00    1.37050   1.21883    0.029
 4541.00    1.38378   1.21352    0.029
 4542.00    1.32311   1.20881    0.029
 4543.00    1.27000   1.20382    0.029
 4544.00    1.23008   1.19792    0.029
 4545.00    1.21365   1.18823    0.028
 4546.00    1.23309   1.17319    0.028
 4547.00    1.26901   1.15666    0.028
 4548.00    1.32707   1.14553    0.028
 4549.00    1.35171   1.14150    0.029
 4550.00    1.33682   1.13994    0.000
 4551.00    1.29190   1.13740    0.000
 4552.00    1.21566   1.13440    0.000
 4553.00    1.21506   1.13550    0.000
 4554.00    1.28400   1.14690    0.000
 4555.00    1.25978   1.16987    0.000
 4556.00    1.16007   1.19867    0.000
 4557.00    1.17409   1.22627    0.000
 4558.00    1.26923   1.24696    0.000
 4559.00    1.35694   1.25592    0.000
 4560.00    1.44001   1.25084    0.000
 4561.00    1.48083   1.23443    0.000
 4562.00    1.49856   1.21553    0.000
 4563.00    1.48493   1.20507    0.000
 4564.00    1.45640   1.20927    0.000
 4565.00    1.36715   1.22618    0.000
 4566.00    1.25301   1.24694    0.000
 4567.00    1.25153   1.26139    0.000
 4568.00    1.28955   1.26325    0.000
 4569.00    1.29226   1.25463    0.000
 4570.00    1.28455   1.24612    0.000
 4571.00    1.32767   1.24566    0.000
 4572.00    1.38325   1.25130    0.000
 4573.00    1.35237   1.25785    0.000
 4574.00    1.30436   1.26144    0.000
 4575.00    1.24699   1.25800    0.000
 4576.00    1.18817   1.24472    0.000
 4577.00    1.19556   1.22321    0.000
 4578.00    1.21052   1.19884    0.000
 4579.00    1.11181   1.17669    0.000
 4580.00    1.00436   1.15962    0.000
 4581.00    1.10572   1.15015    0.000
 4582.00    1.21578   1.15099    0.000
 4583.00    1.33768   1.16175    0.000
 4584.00    1.45702   1.17890    0.000
 4585.00    1.46217   1.19857    0.000
 4586.00    1.46610   1.21633    0.000
 4587.00    1.44872   1.22740    0.000
 4588.00    1.43253   1.22894    0.000
 4589.00    1.42911   1.22224    0.000
 4590.00    1.41980   1.21223    0.000
 4591.00    1.36593   1.20434    0.000
 4592.00    1.30839   1.20093    0.000
 4593.00    1.22971   1.20197    0.000
 4594.00    1.17868   1.20673    0.000
 4595.00    1.25395   1.21324    0.000
 4596.00    1.30555   1.21875    0.000
 4597.00    1.26857   1.22105    0.000
 4598.00    1.23505   1.22029    0.000
 4599.00    1.21234   1.21921    0.000
 4600.00    1.22114   1.21995    0.000
 4601.00    1.31360   1.22280    0.000
 4602.00    1.38167   1.22796    0.000
 4603.00    1.39417   1.23678    0.000
 4604.00    1.38388   1.25103    0.000
 4605.00    1.32860   1.27075    0.000
 4606.00    1.33027   1.29288    0.000
 4607.00    1.42985   1.31141    0.000
 4608.00    1.48299   1.32097    0.000
 4609.00    1.46619   1.32036    0.000
 4610.00    1.41001   1.31261    0.000
 4611.00    1.30173   1.30287    0.000
 4612.00    1.29860   1.29528    0.000
 4613.00    1.41803   1.29021    0.000
 4614.00    1.41489   1.28618    0.000
 4615.00    1.28579   1.28189    0.000
 4616.00    1.24778   1.27668    0.000
 4617.00    1.29234   1.27316    0.000
 4618.00    1.34329   1.27580    0.000
 4619.00    1.39934   1.28520    0.000
 4620.00    1.38850   1.29755    0.000
 4621.00    1.33063   1.30840    0.000
 4622.00    1.31354   1.31397    0.000
 4623.00    1.32159   1.31280    0.000
 4624.00    1.32275   1.30690    0.000
 4625.00    1.32021   1.29881    0.000
 4626.00    1.31826   1.29011    0.000
 4627.00    1.31660   1.28411    0.000
 4628.00    1.35120   1.28384    0.000
 4629.00    1.40042   1.28660    0.000
 4630.00    1.43786   1.28651    0.000
 4631.00    1.47125   1.28136    0.000
 4632.00    1.44820   1.27287    0.000
 4633.00    1.40880   1.26323    0.000
 4634.00    1.43035   1.25418    0.000
 4635.00    1.46649   1.24786    0.000
 4636.00    1.40211   1.24584    0.000
 4637.00    1.31832   1.24816    0.000
 4638.00    1.22647   1.25425    0.000
 4639.00    1.13340   1.26225    0.000
 4640.00    1.18941   1.26779    0.000
 4641.00    1.26181   1.26621    0.000
 4642.00    1.38669   1.25483    0.000
 4643.00    1.51538   1.23420    0.000
 4644.00    1.43838   1.20965    0.000
 4645.00    1.35361   1.19026    0.000
 4646.00    1.22563   1.18385    0.000
 4647.00    1.10565   1.19267    0.000
 4648.00    1.28999   1.21256    0.000
 4649.00    1.46428   1.23579    0.000
 4650.00    1.47445   1.25412    0.000
 4651.00    1.47480   1.26120    0.000
 4652.00    1.37469   1.25659    0.000
 4653.00    1.28733   1.24673    0.000
 4654.00    1.29321   1.24125    0.000
 4655.00    1.29660   1.24783    0.000
 4656.00    1.28604   1.26708    0.000
 4657.00    1.28472   1.29136    0.000
 4658.00    1.32461   1.30954    0.000
 4659.00    1.34906   1.31328    0.000
 4660.00    1.31693   1.30102    0.000
 4661.00    1.28122   1.27686    0.000
 4662.00    1.23455   1.24574    0.000
 4663.00    1.20989   1.21002    0.000
 4664.00    1.24266   1.17276    0.000
 4665.00    1.27581   1.14165    0.000
 4666.00    1.30980   1.12550    0.000
 4667.00    1.30487   1.12846    0.000
 4668.00    1.22434   1.14890    0.000
 4669.00    1.17730   1.17995    0.000
 4670.00    1.18699   1.21230    0.000
 4671.00    1.28643   1.23951    0.000
 4672.00    1.51906   1.26027    0.000
 4673.00    1.60513   1.27551    0.000
 4674.00    1.50004   1.28426    0.000
 4675.00    1.41054   1.28429    0.000
 4676.00    1.33895   1.27586    0.000
 4677.00    1.36428   1.26233    0.000
 4678.00    1.48779   1.24877    0.000
 4679.00    1.51136   1.24054    0.000
 4680.00    1.44560   1.24128    0.000
 4681.00    1.39078   1.25009    0.000
 4682.00    1.34456   1.26226    0.000
 4683.00    1.36791   1.27308    0.000
 4684.00    1.43944   1.27975    0.000
 4685.00    1.44729   1.28156    0.000
 4686.00    1.41646   1.27943    0.000
 4687.00    1.44962   1.27491    0.000
 4688.00    1.51670   1.26965    0.000
 4689.00    1.43667   1.26595    0.000
 4690.00    1.28893   1.26595    0.000
 4691.00    1.22318   1.27020    0.000
 4692.00    1.18992   1.27744    0.000
 4693.00    1.23369   1.28434    0.000
 4694.00    1.30348   1.28596    0.000
 4695.00    1.30050   1.27853    0.000
 4696.00    1.27687   1.26346    0.000
 4697.00    1.28037   1.24576    0.000
 4698.00    1.29021   1.22916    0.000
 4699.00    1.32715   1.21517    0.000
 4700.00    1.36919   1.20526    0.000
 4701.00    1.31270   1.20149    0.000
 4702.00    1.24189   1.20323    0.000
 4703.00    1.28221   1.20645    0.000
 4704.00    1.33429   1.20737    0.000
 4705.00    1.33087   1.20549    0.000
 4706.00    1.32365   1.20381    0.000
 4707.00    1.20704   1.20668    0.000
 4708.00    1.08672   1.21639    0.000
 4709.00    1.20389   1.23035    0.000
 4710.00    1.31929   1.24286    0.000
 4711.00    1.36568   1.25002    0.000
 4712.00    1.41096   1.25376    0.000
 4713.00    1.43923   1.25958    0.000
 4714.00    1.45368   1.27073    0.000
 4715.00    1.33260   1.28708    0.000
 4716.00    1.24149   1.30620    0.000
 4717.00    1.36233   1.32417    0.000
 4718.00    1.46709   1.33729    0.000
 4719.00    1.48436   1.34424    0.000
 4720.00    1.48885   1.34717    0.000
 4721.00    1.43756   1.34853    0.000
 4722.00    1.40024   1.34748    0.000
 4723.00    1.41300   1.34013    0.000
 4724.00    1.43364   1.32293    0.000
 4725.00    1.47798   1.29692    0.000
 4726.00    1.48275   1.26778    0.000
 4727.00    1.38613   1.24200    0.000
 4728.00    1.32180   1.22520    0.000
 4729.00    1.32865   1.22090    0.000
 4730.00    1.32253   1.22806    0.000
 4731.00    1.29158   1.24173    0.000
 4732.00    1.30633   1.25600    0.000
 4733.00    1.39730   1.26617    0.000
 4734.00    1.43218   1.27256    0.000
 4735.00    1.38504   1.27889    0.000
 4736.00    1.37782   1.28621    0.000
 4737.00    1.42190   1.29348    0.000
 4738.00    1.43009   1.30020    0.000
 4739.00    1.39761   1.30672    0.000
 4740.00    1.36262   1.31288    0.000
 4741.00    1.32513   1.31776    0.000
 4742.00    1.34974   1.32170    0.000
 4743.00    1.42909   1.32627    0.000
 4744.00    1.43802   1.33108    0.000
 4745.00    1.39229   1.33471    0.000
 4746.00    1.41005   1.33722    0.000
 4747.00    1.47114   1.33848    0.000
 4748.00    1.43271   1.33681    0.000
 4749.00    1.33473   1.33057    0.000
 4750.00    1.31795   1.31987    0.000
 4751.00    1.34355   1.30646    0.000
 4752.00    1.40428   1.29316    0.000
 4753.00    1.48093   1.28319    0.000
 4754.00    1.39132   1.27947    0.000
 4755.00    1.23699   1.28263    0.000
 4756.00    1.33030   1.29002    0.000
 4757.00    1.50567   1.29615    0.000
 4758.00    1.53395   1.29445    0.000
 4759.00    1.52133   1.28159    0.000
 4760.00    1.44012   1.26008    0.000
 4761.00    1.34321   1.23571    0.026
 4762.00    1.41842   1.21506    0.027
 4763.00    1.52516   1.20417    0.027
 4764.00    1.41490   1.20654    0.026
 4765.00    1.27409   1.22131    0.026
 4766.00    1.33113   1.24366    0.026
 4767.00    1.40824   1.26676    0.026
 4768.00    1.38862   1.28473    0.026
 4769.00    1.36276   1.29655    0.026
 4770.00    1.48829   1.30541    0.026
 4771.00    1.61791   1.31484    0.026
 4772.00    1.49745   1.32576    0.026
 4773.00    1.38425   1.33719    0.026
 4774.00    1.48143   1.34768    0.026
 4775.00    1.56961   1.35437    0.026
 4776.00    1.52788   1.35477    0.026
 4777.00    1.48530   1.34977    0.026
 4778.00    1.43476   1.34183    0.026
 4779.00    1.39167   1.33188    0.025
 4780.00    1.39965   1.32051    0.025
 4781.00    1.42333   1.30979    0.025
 4782.00    1.53021   1.30040    0.025
 4783.00    1.59193   1.29151    0.025
 4784.00    1.46132   1.28417    0.025
 4785.00    1.34255   1.27964    0.025
 4786.00    1.26534   1.27805    0.025
 4787.00    1.24687   1.28043    0.025
 4788.00    1.40193   1.28789    0.026
 4789.00    1.49987   1.30112    0.026
 4790.00    1.45396   1.31995    0.025
 4791.00    1.43104   1.34179    0.025
 4792.00    1.45797   1.36177    0.025
 4793.00    1.48572   1.37428    0.025
 4794.00    1.51502   1.37552    0.025
 4795.00    1.52045   1.36561    0.026
 4796.00    1.48666   1.34933    0.026
 4797.00    1.43067   1.33406    0.026
 4798.00    1.34270   1.32603    0.025
 4799.00    1.33605   1.32656    0.025
 4800.00    1.43245   1.33137    0.026
 4801.00    1.46411   1.33408    0.026
 4802.00    1.42346   1.33113    0.026
 4803.00    1.41632   1.32347    0.026
 4804.00    1.44219   1.31406    0.025
 4805.00    1.45133   1.30662    0.025
 4806.00    1.44593   1.30394    0.026
 4807.00    1.39090   1.30598    0.025
 4808.00    1.29787   1.31087    0.025
 4809.00    1.31184   1.31685    0.025
 4810.00    1.39776   1.32352    0.025
 4811.00    1.44275   1.33140    0.025
 4812.00    1.46362   1.34083    0.025
 4813.00    1.44278   1.35179    0.025
 4814.00    1.40050   1.36361    0.025
 4815.00    1.38970   1.37489    0.025
 4816.00    1.39292   1.38361    0.025
 4817.00    1.36850   1.38698    0.025
 4818.00    1.33350   1.38212    0.025
 4819.00    1.41980   1.36689    0.025
 4820.00    1.54554   1.34257    0.025
 4821.00    1.59306   1.31654    0.025
 4822.00    1.61929   1.29783    0.025
 4823.00    1.58227   1.29096    0.025
 4824.00    1.53113   1.29474    0.025
 4825.00    1.43504   1.30387    0.025
 4826.00    1.33095   1.31269    0.025
 4827.00    1.30609   1.31729    0.024
 4828.00    1.29203   1.31624    0.024
 4829.00    1.34770   1.31194    0.024
 4830.00    1.41014   1.30851    0.024
 4831.00    1.40355   1.30806    0.024
 4832.00    1.39277   1.30997    0.024
 4833.00    1.35513   1.31247    0.024
 4834.00    1.31728   1.31361    0.024
 4835.00    1.36931   1.31122    0.024
 4836.00    1.41975   1.30453    0.024
 4837.00    1.42858   1.29561    0.024
 4838.00    1.43444   1.28759    0.025
 4839.00    1.39980   1.28233    0.025
 4840.00    1.36770   1.28062    0.024
 4841.00    1.35859   1.28269    0.024
 4842.00    1.36130   1.28684    0.024
 4843.00    1.44247   1.28915    0.024
 4844.00    1.48462   1.28576    0.024
 4845.00    1.32546   1.27617    0.024
 4846.00    1.20611   1.26415    0.024
 4847.00    1.25249   1.25405    0.024
 4848.00    1.30007   1.24709    0.000
 4849.00    1.35182   1.24101    0.000
 4850.00    1.38229   1.23057    0.000
 4851.00    1.35107   1.21046    0.000
 4852.00    1.31633   1.18036    0.000
 4853.00    1.27290   1.14528    0.000
 4854.00    1.24799   1.10979    0.000
 4855.00    1.26261   1.07374    0.000
 4856.00    1.26459   1.03321    0.000
 4857.00    1.24315   0.98596    0.000
 4858.00    1.23920   0.93755    0.000
 4859.00    1.26358   0.90035    0.000
 4860.00    1.24365   0.88574    0.000
 4861.00    1.16080   0.89853    0.000
 4862.00    1.14714   0.93555    0.000
 4863.00    1.21991   0.98689    0.000
 4864.00    1.25157   1.04045    0.000
 4865.00    1.23795   1.08623    0.000
 4866.00    1.21956   1.11757    0.000
 4867.00    1.19651   1.13168    0.000
 4868.00    1.16362   1.13130    0.000
 4869.00    1.12230   1.12455    0.000
 4870.00    1.13275   1.12027    0.000
 4871.00    1.18226   1.12418    0.000
 4872.00    1.21140   1.13759    0.000
 4873.00    1.22706   1.15824    0.000
 4874.00    1.32121   1.18271    0.000
 4875.00    1.46091   1.20844    0.024
 4876.00    1.50298   1.23313    0.024
 4877.00    1.49566   1.25334    0.024
 4878.00    1.41175   1.26578    0.024
 4879.00    1.29431   1.26873    0.024
 4880.00    1.30589   1.26215    0.024
 4881.00    1.36597   1.24846    0.024
 4882.00    1.40597   1.23203    0.024
 4883.00    1.43957   1.21742    0.024
 4884.00    1.39514   1.20745    0.024
 4885.00    1.32991   1.20176    0.024
 4886.00    1.34493   1.19747    0.025
 4887.00    1.37747   1.19272    0.025
 4888.00    1.37067   1.19034    0.025
 4889.00    1.35705   1.19659    0.025
 4890.00    1.30685   1.21623    0.024
 4891.00    1.25184   1.24960    0.024
 4892.00    1.29415   1.29116    0.024
 4893.00    1.34549   1.33138    0.024
 4894.00    1.42743   1.36115    0.025
 4895.00    1.51110   1.37477    0.025
 4896.00    1.53003   1.37223    0.025
 4897.00    1.54729   1.35934    0.026
 4898.00    1.54225   1.34325    0.025
 4899.00    1.53544   1.32915    0.025
 4900.00    1.48651   1.32066    0.025
 4901.00    1.43990   1.31984    0.025
 4902.00    1.42334   1.32601    0.025
 4903.00    1.40733   1.33550    0.024
 4904.00    1.39597   1.34253    0.025
 4905.00    1.39306   1.34131    0.025
 4906.00    1.44459   1.32912    0.025
 4907.00    1.47011   1.30895    0.025
 4908.00    1.36489   1.28868    0.025
 4909.00    1.29158   1.27661    0.025
 4910.00    1.34821   1.27750    0.025
 4911.00    1.38197   1.29031    0.025
 4912.00    1.33858   1.30791    0.025
 4913.00    1.29579   1.31964    0.024
 4914.00    1.25475   1.31592    0.024
 4915.00    1.25701   1.29265    0.024
 4916.00    1.36461   1.25380    0.025
 4917.00    1.39983   1.21034    0.025
 4918.00    1.28311   1.17498    0.025
 4919.00    1.23138   1.15572    0.025
 4920.00    1.29822   1.15393    0.025
 4921.00    1.32097   1.16743    0.025
 4922.00    1.27339   1.19246    0.025
 4923.00    1.28481   1.22479    0.024
 4924.00    1.37879   1.26109    0.024
 4925.00    1.47565   1.29807    0.024
 4926.00    1.57608   1.33093    0.025
 4927.00    1.57394   1.35467    0.024
 4928.00    1.46045   1.36529    0.024
 4929.00    1.39927   1.36058    0.024
 4930.00    1.38816   1.34326    0.024
 4931.00    1.38913   1.32035    0.024
 4932.00    1.40029   1.29791    0.024
 4933.00    1.40020   1.27863    0.024
 4934.00    1.39174   1.26264    0.024
 4935.00    1.39330   1.24980    0.024
 4936.00    1.40140   1.24267    0.023
 4937.00    1.40591   1.24526    0.023
 4938.00    1.40836   1.25993    0.024
 4939.00    1.34713   1.28521    0.024
 4940.00    1.25421   1.31529    0.000
 4941.00    1.28634   1.34189    0.000
 4942.00    1.37232   1.35959    0.000
 4943.00    1.46441   1.36841    0.000
 4944.00    1.55875   1.37168    0.000
 4945.00    1.54241   1.37359    0.000
 4946.00    1.49145   1.37703    0.000
 4947.00    1.48156   1.38207    0.000
 4948.00    1.48239   1.38632    0.000
 4949.00    1.41493   1.38740    0.000
 4950.00    1.33293   1.38399    0.000
 4951.00    1.36860   1.37490    0.000
 4952.00    1.42409   1.35831    0.000
 4953.00    1.42760   1.33362    0.000
 4954.00    1.42450   1.30576    0.000
 4955.00    1.38275   1.28374    0.000
 4956.00    1.33757   1.27523    0.000
 4957.00    1.32425   1.28366    0.000
 4958.00    1.31261   1.30594    0.000
 4959.00    1.34932   1.33321    0.000
 4960.00    1.38707   1.35513    0.000
 4961.00    1.43367   1.36493    0.000
 4962.00    1.47720   1.36175    0.000
 4963.00    1.45399   1.34941    0.000
 4964.00    1.43204   1.33377    0.000
 4965.00    1.42559   1.32041    0.000
 4966.00    1.41811   1.31303    0.000
 4967.00    1.40203   1.31313    0.000
 4968.00    1.39097   1.32035    0.000
 4969.00    1.41125   1.33292    0.000
 4970.00    1.42596   1.34833    0.000
 4971.00    1.41342   1.36324    0.000
 4972.00    1.41324   1.37422    0.000
 4973.00    1.46228   1.37831    0.000
 4974.00    1.47954   1.37357    0.000
 4975.00    1.39169   1.35977    0.000
 4976.00    1.31143   1.33783    0.000
 4977.00    1.25240   1.30863    0.000
 4978.00    1.22439   1.27344    0.000
 4979.00    1.27055   1.23586    0.000
 4980.00    1.32061   1.20185    0.000
 4981.00    1.37873   1.17847    0.000
 4982.00    1.39686   1.17195    0.000
 4983.00    1.34314   1.18433    0.000
 4984.00    1.28417   1.21108    0.000
 4985.00    1.21697   1.24332    0.000
 4986.00    1.19403   1.27187    0.000
 4987.00    1.23217   1.29065    0.000
 4988.00    1.30974   1.29874    0.000
 4989.00    1.43519   1.29915    0.000
 4990.00    1.46018   1.29692    0.000
 4991.00    1.37764   1.29653    0.000
 4992.00    1.33104   1.29958    0.000
 4993.00    1.31836   1.30485    0.000
 4994.00    1.33320   1.30891    0.000
 4995.00    1.37096   1.30754    0.000
 4996.00    1.36138   1.29816    0.000
 4997.00    1.31710   1.28160    0.000
 4998.00    1.24510   1.26160    0.000
 4999.00    1.15525   1.24259    0.000
 5000.00    1.14679   1.22700    0.000
 5001.00    1.18415   1.21451    0.000
 5002.00    1.18364   1.20430    0.000
 5003.00    1.16458   1.19762    0.000
 5004.00    1.25838   1.19713    0.000
 5005.00    1.39996   1.20453    0.000
 5006.00    1.43272   1.21802    0.000
 5007.00    1.42601   1.23135    0.000
 5008.00    1.38050   1.23668    0.000
 5009.00    1.32309   1.22983    0.000
 5010.00    1.33609   1.21284    0.000
 5011.00    1.36707   1.19247    0.000
 5012.00    1.34205   1.17548    0.000
 5013.00    1.30539   1.16502    0.000
 5014.00    1.34863   1.16067    0.000
 5015.00    1.40495   1.16065    0.000
 5016.00    1.27862   1.16370    0.000
 5017.00    1.12988   1.16986    0.000
 5018.00    1.15772   1.18007    0.000
 5019.00    1.20049   1.19456    0.000
 5020.00    1.20347   1.21194    0.000
 5021.00    1.20450   1.22991    0.000
 5022.00    1.18202   1.24583    0.000
 5023.00    1.16035   1.25728    0.000
 5024.00    1.21075   1.26377    0.000
 5025.00    1.26031   1.26695    0.000
 5026.00    1.29293   1.26994    0.000
 5027.00    1.32336   1.27625    0.000
 5028.00    1.32816   1.28755    0.000
 5029.00    1.33175   1.30212    0.023
 5030.00    1.32556   1.31521    0.023
 5031.00    1.31788   1.32153    0.023
 5032.00    1.30126   1.31792    0.023
 5033.00    1.28187   1.30426    0.023
 5034.00    1.24932   1.28291    0.023
 5035.00    1.22236   1.25700    0.023
 5036.00    1.21720   1.22909    0.023
 5037.00    1.22275   1.20219    0.023
 5038.00    1.26300   1.18159    0.023
 5039.00    1.28887   1.17400    0.023
 5040.00    1.27529   1.18467    0.023
 5041.00    1.29509   1.21344    0.023
 5042.00    1.39340   1.25275    0.022
 5043.00    1.42704   1.29010    0.022
 5044.00    1.32926   1.31407    0.022
 5045.00    1.27706   1.31926    0.022
 5046.00    1.30552   1.30766    0.022
 5047.00    1.36003   1.28700    0.022
 5048.00    1.45487   1.26747    0.022
 5049.00    1.47662   1.25721    0.023
 5050.00    1.39898   1.25955    0.023
 5051.00    1.37107   1.27308    0.022
 5052.00    1.40265   1.29347    0.022
 5053.00    1.41155   1.31555    0.022
 5054.00    1.39649   1.33537    0.022
 5055.00    1.40564   1.35145    0.022
 5056.00    1.43731   1.36424    0.022
 5057.00    1.47027   1.37429    0.022
 5058.00    1.50427   1.38078    0.022
 5059.00    1.47454   1.38129    0.022
 5060.00    1.39877   1.37339    0.022
 5061.00    1.36092   1.35685    0.022
 5062.00    1.34710   1.33423    0.022
 5063.00    1.33686   1.31041    0.022
 5064.00    1.32861   1.29093    0.022
 5065.00    1.32679   1.27923    0.022
 5066.00    1.32808   1.27493    0.023
 5067.00    1.31950   1.27517    0.023
 5068.00    1.30680   1.27700    0.022
 5069.00    1.31422   1.27817    0.022
 5070.00    1.32880   1.27762    0.023
 5071.00    1.33674   1.27605    0.023
 5072.00    1.34269   1.27459    0.023
 5073.00    1.28081   1.27243    0.023
 5074.00    1.20198   1.26674    0.024
 5075.00    1.23968   1.25517    0.024
 5076.00    1.30098   1.23768    0.023
 5077.00    1.26719   1.21720    0.023
 5078.00    1.21829   1.19941    0.023
 5079.00    1.23399   1.19053    0.023
 5080.00    1.25733   1.19375    0.023
 5081.00    1.24394   1.20737    0.022
 5082.00    1.22759   1.22687    0.022
 5083.00    1.25990   1.24768    0.022
 5084.00    1.29440   1.26654    0.022
 5085.00    1.35171   1.28194    0.022
 5086.00    1.40645   1.29431    0.022
 5087.00    1.31950   1.30524    0.022
 5088.00    1.23962   1.31598    0.022
 5089.00    1.29138   1.32656    0.022
 5090.00    1.34129   1.33559    0.022
 5091.00    1.37069   1.34039    0.022
 5092.00    1.39735   1.33757    0.023
 5093.00    1.40271   1.32462    0.023
 5094.00    1.40158   1.30193    0.023
 5095.00    1.36214   1.27401    0.023
 5096.00    1.33381   1.24819    0.023
 5097.00    1.35734   1.23190    0.023
 5098.00    1.36024   1.22934    0.022
 5099.00    1.28449   1.23944    0.022
 5100.00    1.24398   1.25625    0.022
 5101.00    1.31554   1.27201    0.022
 5102.00    1.34945   1.28073    0.022
 5103.00    1.28185   1.28042    0.022
 5104.00    1.23173   1.27270    0.022
 5105.00    1.22205   1.26125    0.022
 5106.00    1.21527   1.25077    0.022
 5107.00    1.21431   1.24534    0.022
 5108.00    1.23735   1.24728    0.022
 5109.00    1.30219   1.25676    0.022
 5110.00    1.35619   1.27185    0.022
 5111.00    1.39366   1.28943    0.022
 5112.00    1.37765   1.30658    0.022
 5113.00    1.28995   1.32126    0.022
 5114.00    1.27098   1.33239    0.022
 5115.00    1.33312   1.33902    0.022
 5116.00    1.32977   1.33970    0.022
 5117.00    1.25829   1.33279    0.022
 5118.00    1.25784   1.31756    0.022
 5119.00    1.32258   1.29523    0.022
 5120.00    1.36894   1.26906    0.022
 5121.00    1.40042   1.24338    0.022
 5122.00    1.37520   1.22230    0.021
 5123.00    1.30962   1.20821    0.021
 5124.00    1.26642   1.20121    0.021
 5125.00    1.23720   1.19970    0.021
 5126.00    1.23871   1.20191    0.022
 5127.00    1.25700   1.20690    0.022
 5128.00    1.29173   1.21468    0.022
 5129.00    1.33425   1.22535    0.022
 5130.00    1.30227   1.23804    0.022
 5131.00    1.23981   1.25073    0.022
 5132.00    1.25785   1.26075    0.022
 5133.00    1.30404   1.26549    0.022
 5134.00    1.32197   1.26339    0.022
 5135.00    1.33157   1.25514    0.022
 5136.00    1.29588   1.24353    0.022
 5137.00    1.24914   1.23227    0.022
 5138.00    1.22430   1.22438    0.022
 5139.00    1.20379   1.22066    0.022
 5140.00    1.25407   1.22002    0.022
 5141.00    1.31526   1.22104    0.022
 5142.00    1.29301   1.22257    0.022
 5143.00    1.26125   1.22372    0.022
 5144.00    1.23275   1.22412    0.022
 5145.00    1.20450   1.22398    0.022
 5146.00    1.22402   1.22388    0.022
 5147.00    1.24550   1.22380    0.022
 5148.00    1.25349   1.22277    0.022
 5149.00    1.26090   1.22005    0.022
 5150.00    1.24895   1.21655    0.022
 5151.00    1.23787   1.21505    0.022
 5152.00    1.24179   1.21897    0.022
 5153.00    1.24350   1.23029    0.022
 5154.00    1.22171   1.24811    0.022
 5155.00    1.21053   1.26852    0.022
 5156.00    1.27927   1.28629    0.022
 5157.00    1.33086   1.29708    0.022
 5158.00    1.28423   1.29866    0.022
 5159.00    1.24783   1.29059    0.022
 5160.00    1.25803   1.27307    0.023
 5161.00    1.25397   1.24596    0.023
 5162.00    1.19668   1.20906    0.022
 5163.00    1.15453   1.16388    0.022
 5164.00    1.15957   1.11521    0.022
 5165.00    1.13760   1.07079    0.022
 5166.00    1.04409   1.03825    0.022
 5167.00    0.97678   1.02149    0.022
 5168.00    0.96904   1.01914    0.022
 5169.00    0.96174   1.02719    0.022
 5170.00    0.95534   1.04367    0.022
 5171.00    0.95845   1.06996    0.022
 5172.00    0.97789   1.10754    0.022
 5173.00    1.02818   1.15351    0.022
 5174.00    1.12485   1.20017    0.022
 5175.00    1.19277   1.23827    0.022
 5176.00    1.22272   1.26048    0.022
 5177.00    1.24018   1.26309    0.022
 5178.00    1.24309   1.24608    0.021
 5179.00    1.22047   1.21323    0.021
 5180.00    1.17165   1.17257    0.021
 5181.00    1.15240   1.13577    0.021
 5182.00    1.15991   1.11458    0.021
 5183.00    1.15620   1.11553    0.021
 5184.00    1.14356   1.13637    0.021
 5185.00    1.11191   1.16720    0.021
 5186.00    1.06691   1.19602    0.021
 5187.00    1.12990   1.21428    0.021
 5188.00    1.25935   1.21902    0.021
 5189.00    1.28666   1.21264    0.021
 5190.00    1.25907   1.20096    0.000
 5191.00    1.19690   1.19049    0.000
 5192.00    1.11860   1.18573    0.000
 5193.00    1.17482   1.18827    0.000
 5194.00    1.28516   1.19739    0.000
 5195.00    1.30617   1.21135    0.000
 5196.00    1.29652   1.22800    0.000
 5197.00    1.27144   1.24441    0.000
 5198.00    1.24191   1.25665    0.000
 5199.00    1.21535   1.26075    0.000
 5200.00    1.18950   1.25416    0.000
 5201.00    1.16832   1.23683    0.000
 5202.00    1.14804   1.21173    0.000
 5203.00    1.10744   1.18452    0.000
 5204.00    1.06380   1.16181    0.000
 5205.00    1.10311   1.14901    0.000
 5206.00    1.15149   1.14906    0.000
 5207.00    1.18030   1.16203    0.000
 5208.00    1.20769   1.18528    0.000
 5209.00    1.23408   1.21381    0.000
 5210.00    1.26044   1.24118    0.000
 5211.00    1.30673   1.26127    0.022
 5212.00    1.34970   1.27102    0.022
 5213.00    1.26891   1.27225    0.021
 5214.00    1.19774   1.27087    0.021
 5215.00    1.28234   1.27351    0.022
 5216.00    1.35916   1.28362    0.022
 5217.00    1.35684   1.29945    0.022
 5218.00    1.35582   1.31503    0.022
 5219.00    1.36418   1.32300    0.022
 5220.00    1.37033   1.31756    0.022
 5221.00    1.36420   1.29663    0.022
 5222.00    1.35185   1.26287    0.022
 5223.00    1.31185   1.22387    0.022
 5224.00    1.27478   1.19046    0.022
 5225.00    1.24840   1.17269    0.022
 5226.00    1.24848   1.17492    0.022
 5227.00    1.32956   1.19319    0.022
 5228.00    1.38567   1.21727    0.022
 5229.00    1.37680   1.23641    0.022
 5230.00    1.35032   1.24520    0.022
 5231.00    1.28443   1.24564    0.022
 5232.00    1.26448   1.24472    0.022
 5233.00    1.33357   1.24926    0.022
 5234.00    1.36652   1.26203    0.022
 5235.00    1.33839   1.28100    0.022
 5236.00    1.35052   1.30152    0.022
 5237.00    1.42229   1.31936    0.022
 5238.00    1.45827   1.33245    0.022
 5239.00    1.44766   1.34085    0.022
 5240.00    1.41840   1.34554    0.021
 5241.00    1.36774   1.34711    0.021
 5242.00    1.33365   1.34503    0.021
 5243.00    1.31632   1.33810    0.021
 5244.00    1.32292   1.32590    0.021
 5245.00    1.35087   1.30977    0.021
 5246.00    1.35697   1.29282    0.021
 5247.00    1.34589   1.27861    0.021
 5248.00    1.32673   1.26965    0.021
 5249.00    1.30197   1.26660    0.021
 5250.00    1.27654   1.26846    0.021
 5251.00    1.25070   1.27369    0.021
 5252.00    1.25140   1.28156    0.021
 5253.00    1.26616   1.29245    0.021
 5254.00    1.26858   1.30644    0.021
 5255.00    1.26534   1.32134    0.021
 5256.00    1.31603   1.33190    0.021
 5257.00    1.38803   1.33144    0.021
 5258.00    1.38889   1.31505    0.021
 5259.00    1.36577   1.28230    0.021
 5260.00    1.38273   1.23782    0.021
 5261.00    1.41102   1.18971    0.021
 5262.00    1.38040   1.14648    0.021
 5263.00    1.33602   1.11421    0.021
 5264.00    1.26518   1.09468    0.021
 5265.00    1.18938   1.08565    0.021
 5266.00    1.14777   1.08369    0.022
 5267.00    1.11112   1.08708    0.022
 5268.00    1.12782   1.09659    0.022
 5269.00    1.15014   1.11325    0.022
 5270.00    1.19195   1.13583    0.022
 5271.00    1.23508   1.16073    0.023
 5272.00    1.27301   1.18490    0.023
 5273.00    1.31076   1.20794    0.023
 5274.00    1.30712   1.23125    0.023
 5275.00    1.30664   1.25491    0.023
 5276.00    1.40924   1.27582    0.023
 5277.00    1.50192   1.28915    0.023
 5278.00    1.44360   1.29202    0.023
 5279.00    1.38940   1.28609    0.022
 5280.00    1.37524   1.27732    0.022
 5281.00    1.36095   1.27341    0.022
 5282.00    1.34578   1.28018    0.022
 5283.00    1.34388   1.29888    0.022
 5284.00    1.41393   1.32584    0.022
 5285.00    1.46778   1.35451    0.022
 5286.00    1.45126   1.37876    0.022
 5287.00    1.44518   1.39523    0.022
 5288.00    1.47644   1.40331    0.022
 5289.00    1.48405   1.40389    0.022
 5290.00    1.42062   1.39786    0.022
 5291.00    1.38461   1.38563    0.022
 5292.00    1.41877   1.36743    0.022
 5293.00    1.44427   1.34420    0.022
 5294.00    1.45072   1.31848    0.022
 5295.00    1.42340   1.29476    0.022
 5296.00    1.33160   1.27809    0.022
 5297.00    1.27077   1.27188    0.022
 5298.00    1.26147   1.27638    0.022
 5299.00    1.27646   1.28912    0.021
 5300.00    1.32692   1.30665    0.021
 5301.00    1.33674   1.32586    0.021
 5302.00    1.29441   1.34422    0.021
 5303.00    1.30671   1.35969    0.021
 5304.00    1.38076   1.37121    0.021
 5305.00    1.44947   1.37918    0.021
 5306.00    1.51283   1.38503    0.021
 5307.00    1.53036   1.38985    0.021
 5308.00    1.50756   1.39334    0.021
 5309.00    1.47298   1.39396    0.021
 5310.00    1.42927   1.39013    0.021
 5311.00    1.41911   1.38134    0.021
 5312.00    1.43181   1.36868    0.020
 5313.00    1.43835   1.35460    0.021
 5314.00    1.44120   1.34229    0.021
 5315.00    1.44640   1.33452    0.021
 5316.00    1.45282   1.33232    0.020
 5317.00    1.43308   1.33416    0.020
 5318.00    1.40151   1.33633    0.020
 5319.00    1.41290   1.33454    0.020
 5320.00    1.44100   1.32573    0.020
 5321.00    1.40820   1.30908    0.020
 5322.00    1.35528   1.28573    0.020
 5323.00    1.36358   1.25810    0.020
 5324.00    1.38886   1.22958    0.021
 5325.00    1.35218   1.20501    0.021
 5326.00    1.30137   1.19044    0.021
 5327.00    1.27537   1.19096    0.021
 5328.00    1.25390   1.20759    0.021
 5329.00    1.28537   1.23578    0.021
 5330.00    1.32428   1.26749    0.021
 5331.00    1.32309   1.29512    0.021
 5332.00    1.31785   1.31428    0.021
 5333.00    1.30920   1.32393    0.021
 5334.00    1.30032   1.32498    0.021
 5335.00    1.28479   1.31914    0.021
 5336.00    1.26923   1.30890    0.021
 5337.00    1.32266   1.29787    0.021
 5338.00    1.37440   1.29034    0.021
 5339.00    1.37757   1.28964    0.021
 5340.00    1.37739   1.29623    0.022
 5341.00    1.32913   1.30712    0.021
 5342.00    1.29213   1.31740    0.021
 5343.00    1.36052   1.32319    0.021
 5344.00    1.41897   1.32359    0.021
 5345.00    1.40963   1.32083    0.021
 5346.00    1.39708   1.31872    0.021
 5347.00    1.36765   1.32083    0.021
 5348.00    1.33578   1.32919    0.021
 5349.00    1.29357   1.34369    0.021
 5350.00    1.28204   1.36250    0.020
 5351.00    1.37804   1.38296    0.021
 5352.00    1.44323   1.40268    0.021
 5353.00    1.41760   1.41980    0.021
 5354.00    1.42078   1.43294    0.021
 5355.00    1.49636   1.44085    0.020
 5356.00    1.53765   1.44243    0.020
 5357.00    1.50472   1.43697    0.020
 5358.00    1.47721   1.42459    0.020
 5359.00    1.45986   1.40661    0.020
 5360.00    1.44022   1.38557    0.020
 5361.00    1.41681   1.36457    0.020
 5362.00    1.38991   1.34606    0.020
 5363.00    1.35799   1.33091    0.020
 5364.00    1.34148   1.31805    0.020
 5365.00    1.34445   1.30535    0.020
 5366.00    1.36071   1.29131    0.020
 5367.00    1.39179   1.27686    0.020
 5368.00    1.38689   1.26599   -2.000
 5369.00    1.34659   1.26419   -2.000
 5370.00    1.31824   1.27519   -2.000
 5371.00    1.30024   1.29817   -2.000
 5372.00    1.29018   1.32747   -2.000
 5373.00    1.28618   1.35532   -2.000
 5374.00    1.31447   1.37547   -2.000
 5375.00    1.36444   1.38527   -2.000
 5376.00    1.40742   1.38557   -2.000
 5377.00    1.44630   1.37927   -2.000
 5378.00    1.42683   1.36987   -2.000
 5379.00    1.37744   1.36080   -2.000
 5380.00    1.38685   1.35489   -2.000
 5381.00    1.42239   1.35379   -2.000
 5382.00    1.42198   1.35727   -2.000
 5383.00    1.40784   1.36312    0.020
 5384.00    1.41762   1.36796    0.020
 5385.00    1.43515   1.36860    0.021
 5386.00    1.43483   1.36353    0.021
 5387.00    1.42966   1.35335    0.020
 5388.00    1.41287   1.34023    0.020
 5389.00    1.39348   1.32667    0.020
 5390.00    1.45044   1.31425    0.020
 5391.00    1.52096   1.30316    0.020
 5392.00    1.43676   1.29268    0.020
 5393.00    1.33158   1.28246    0.020
 5394.00    1.22685   1.27356    0.020
 5395.00    1.12216   1.26826    0.020
 5396.00    1.20672   1.26843    0.020
 5397.00    1.30268   1.27351    0.021
 5398.00    1.27944   1.27991    0.020
 5399.00    1.25346   1.28247    0.020
 5400.00    1.28866   1.27715    0.020
 5401.00    1.32332   1.26340    0.020
 5402.00    1.34396   1.24477    0.020
 5403.00    1.35899   1.22736    0.020
 5404.00    1.29796   1.21672    0.020
 5405.00    1.24383   1.21533    0.020
 5406.00    1.25173   1.22217    0.020
 5407.00    1.25941   1.23449    0.020
 5408.00    1.26567   1.24995    0.019
 5409.00    1.27385   1.26724    0.019
 5410.00    1.29190   1.28538    0.019
 5411.00    1.30632   1.30309    0.019
 5412.00    1.30571   1.31904    0.019
 5413.00    1.31818   1.33245    0.019
 5414.00    1.37557   1.34293    0.019
 5415.00    1.41232   1.35000    0.019
 5416.00    1.38937   1.35310    0.019
 5417.00    1.37035   1.35203    0.019
 5418.00    1.36105   1.34749    0.019
 5419.00    1.36327   1.34090    0.019
 5420.00    1.38999   1.33395    0.019
 5421.00    1.40334   1.32836    0.019
 5422.00    1.39196   1.32548    0.019
 5423.00    1.38852   1.32557    0.019
 5424.00    1.39791   1.32691    0.019
 5425.00    1.38649   1.32639    0.019
 5426.00    1.34557   1.32147    0.019
 5427.00    1.33037   1.31209    0.019
 5428.00    1.34723   1.30062    0.019
 5429.00    1.35572   1.28994    0.019
 5430.00    1.35502   1.28189    0.019
 5431.00    1.32774   1.27735    0.019
 5432.00    1.27470   1.27761    0.019
 5433.00    1.26442   1.28465    0.019
 5434.00    1.29072   1.29995    0.019
 5435.00    1.31647   1.32271    0.019
 5436.00    1.34183   1.34940    0.019
 5437.00    1.38740   1.37487    0.019
 5438.00    1.44634   1.39404    0.019
 5439.00    1.43921   1.40328    0.019
 5440.00    1.39379   1.40084    0.019
 5441.00    1.39382   1.38711    0.019
 5442.00    1.41678   1.36497    0.020
 5443.00    1.43215   1.34006    0.020
 5444.00    1.44421   1.31973    0.020
 5445.00    1.42940   1.31044    0.020
 5446.00    1.40452   1.31449    0.019
 5447.00    1.41400   1.32857    0.019
 5448.00    1.43443   1.34520    0.019
 5449.00    1.39644   1.35640    0.019
 5450.00    1.34293   1.35735    0.019
 5451.00    1.35711   1.34836    0.019
 5452.00    1.38603   1.33448    0.019
 5453.00    1.40675   1.32291    0.019
 5454.00    1.42606   1.31959    0.019
 5455.00    1.37137   1.32599    0.019
 5456.00    1.30697   1.33842    0.019
 5457.00    1.34322   1.35017    0.019
 5458.00    1.38877   1.35551    0.019
 5459.00    1.40535   1.35276    0.019
 5460.00    1.42030   1.34478    0.019
 5461.00    1.43055   1.33675    0.019
 5462.00    1.44002   1.33308    0.018
 5463.00    1.37847   1.33523    0.018
 5464.00    1.31907   1.34164    0.018
 5465.00    1.31030   1.34915    0.019
 5466.00    1.30579   1.35471    0.019
 5467.00    1.35597   1.35633    0.018
 5468.00    1.39814   1.35317    0.018
 5469.00    1.37104   1.34518    0.018
 5470.00    1.34386   1.33270    0.019
 5471.00    1.31620   1.31648    0.018
 5472.00    1.29614   1.29798    0.018
 5473.00    1.31418   1.27980    0.018
 5474.00    1.33235   1.26549    0.019
 5475.00    1.35106   1.25829    0.019
 5476.00    1.37452   1.25946    0.019
 5477.00    1.41399   1.26754    0.019
 5478.00    1.43292   1.27950   -2.000
 5479.00    1.39356   1.29273   -2.000
 5480.00    1.37894   1.30612   -2.000
 5481.00    1.42437   1.31925   -2.000
 5482.00    1.43769   1.33104   -2.000
 5483.00    1.38374   1.33957   -2.000
 5484.00    1.29452   1.34338   -2.000
 5485.00    1.14107   1.34283   -2.000
 5486.00    1.09322   1.34020   -2.000
 5487.00    1.21349   1.33812   -2.000
 5488.00    1.35563   1.33802   -2.000
 5489.00    1.52833   1.33962   -2.000
 5490.00    1.62427   1.34163   -2.000
 5491.00    1.62582   1.34290   -2.000
 5492.00    1.58615   1.34303   -2.000
 5493.00    1.50181   1.34235   -2.000
 5494.00    1.47040   1.34153   -2.000
 5495.00    1.48960   1.34099   -2.000
 5496.00    1.47718   1.34055   -2.000
 5497.00    1.43812   1.33926   -2.000
 5498.00    1.38494   1.33601   -2.000
 5499.00    1.32128   1.33048   -2.000
 5500.00    1.31099   1.32357   -2.000
 5501.00    1.33550   1.31676   -2.000
 5502.00    1.37416   1.31119    0.019
 5503.00    1.42089   1.30725    0.018
 5504.00    1.40201   1.30491    0.018
 5505.00    1.35053   1.30398    0.018
 5506.00    1.33154   1.30396    0.018
 5507.00    1.32651   1.30395    0.018
 5508.00    1.35543   1.30308    0.018
 5509.00    1.39686   1.30142    0.018
 5510.00    1.38608   1.30030    0.018
 5511.00    1.35900   1.30182    0.018
 5512.00    1.33707   1.30762    0.018
 5513.00    1.31648   1.31802    0.018
 5514.00    1.30314   1.33176    0.018
 5515.00    1.29134   1.34662    0.018
 5516.00    1.33583   1.36013    0.018
 5517.00    1.38978   1.37028    0.018
 5518.00    1.40289   1.37592    0.018
 5519.00    1.41084   1.37665    0.018
 5520.00    1.41468   1.37254    0.018
 5521.00    1.41816   1.36375    0.018
 5522.00    1.37542   1.35067    0.018
 5523.00    1.33026   1.33451    0.018
 5524.00    1.33673   1.31789    0.018
 5525.00    1.34414   1.30455    0.018
 5526.00    1.34931   1.29800    0.018
 5527.00    1.35377   1.29960    0.018
 5528.00    1.34312   1.30758    0.018
 5529.00    1.33404   1.31778    0.018
 5530.00    1.34414   1.32592    0.019
 5531.00    1.35299   1.32992    0.019
 5532.00    1.35152   1.33069    0.019
 5533.00    1.35928   1.33113    0.019
 5534.00    1.42442   1.33400    0.019
 5535.00    1.46907   1.34042    0.019
 5536.00    1.41361   1.34940    0.019
 5537.00    1.36266   1.35860    0.019
 5538.00    1.32959   1.36542    0.019
 5539.00    1.29828   1.36813    0.018
 5540.00    1.27278   1.36658    0.018
 5541.00    1.26481   1.36235    0.021
 5542.00    1.30578   1.35819    0.052
 5543.00    1.33828   1.35685   -1.000
 5544.00    1.35057   1.35994   -1.000
 5545.00    1.36679   1.36721   -1.000
 5546.00    1.39115   1.37677   -1.000
 5547.00    1.40104   1.38578   -1.000
 5548.00    1.38501   1.39165   -1.000
 5549.00    1.37953   1.39296    0.089
 5550.00    1.39060   1.38994    0.025
 5551.00    1.40066   1.38416    0.018
 5552.00    1.40932   1.37783    0.018
 5553.00    1.39280   1.37275    0.018
 5554.00    1.34577   1.36968    0.018
 5555.00    1.29905   1.36824    0.017
 5556.00    1.25269   1.36729    0.017
 5557.00    1.22709   1.36556    0.017
 5558.00    1.22107   1.36219    0.018
 5559.00    1.25542   1.35697    0.018
 5560.00    1.32332   1.35040    0.018
 5561.00    1.35362   1.34336    0.017
 5562.00    1.35641   1.33674    0.017
 5563.00    1.35238   1.33114    0.018
 5564.00    1.34397   1.32685    0.018
 5565.00    1.34886   1.32394    0.018
 5566.00    1.36123   1.32236    0.018
 5567.00    1.33851   1.32196    0.017
 5568.00    1.29864   1.32247    0.017
 5569.00    1.27391   1.32368    0.017
 5570.00    1.25558   1.32566    0.017
 5571.00    1.26378   1.32878    0.018
 5572.00    1.28158   1.33337    0.018
 5573.00    1.29370   1.33936    0.018
 5574.00    1.30408   1.34615    0.018
 5575.00    1.26179   1.35279    0.018
 5576.00    1.20610   1.35837    0.018
 5577.00    1.21627   1.36209    0.018
 5578.00    1.24007   1.36330    0.018
 5579.00    1.31842   1.36137    0.018
 5580.00    1.40567   1.35556    0.018
 5581.00    1.35615   1.34507    0.018
 5582.00    1.28991   1.32941    0.018
 5583.00    1.32041   1.30925    0.018
 5584.00    1.35904   1.28698    0.018
 5585.00    1.34515   1.26661    0.018
 5586.00    1.32872   1.25242    0.018
 5587.00    1.26178   1.24713    0.018
 5588.00    1.19564   1.25065    0.018
 5589.00    1.22173   1.26049    0.018
 5590.00    1.24705   1.27328    0.018
 5591.00    1.25704   1.28632    0.018
 5592.00    1.26765   1.29816    0.018
 5593.00    1.28535   1.30795    0.018
 5594.00    1.30067   1.31462    0.018
 5595.00    1.29676   1.31695    0.018
 5596.00    1.28789   1.31435    0.018
 5597.00    1.24909   1.30793    0.018
 5598.00    1.21568   1.30057    0.018
 5599.00    1.20797   1.29612    0.018
 5600.00    1.20898   1.29809    0.018
 5601.00    1.24380   1.30833    0.018
 5602.00    1.27685   1.32610    0.018
 5603.00    1.30412   1.34820    0.018
 5604.00    1.33231   1.37025    0.018
 5605.00    1.36298   1.38839    0.018
 5606.00    1.38534   1.40056    0.018
 5607.00    1.38821   1.40641    0.018
 5608.00    1.37181   1.40630    0.018
 5609.00    1.31630   1.40024    0.018
 5610.00    1.27073   1.38792    0.018
 5611.00    1.24269   1.36984    0.018
 5612.00    1.23886   1.34855    0.018
 5613.00    1.27243   1.32862    0.018
 5614.00    1.28104   1.31489    0.018
 5615.00    1.25579   1.31008    0.018
 5616.00    1.23751   1.31345    0.018
 5617.00    1.22755   1.32140    0.018
 5618.00    1.23322   1.32942    0.018
 5619.00    1.25535   1.33388    0.018
 5620.00    1.26924   1.33314    0.018
 5621.00    1.27545   1.32803    0.018
 5622.00    1.28616   1.32153    0.018
 5623.00    1.30055   1.31761    0.018
 5624.00    1.31328   1.31952    0.018
 5625.00    1.32481   1.32821    0.018
 5626.00    1.33846   1.34202    0.018
 5627.00    1.35344   1.35748    0.018
 5628.00    1.38010   1.37075    0.018
 5629.00    1.41324   1.37896    0.018
 5630.00    1.40806   1.38079    0.017
 5631.00    1.38445   1.37663    0.017
 5632.00    1.38300   1.36808    0.017
 5633.00    1.39076   1.35733    0.017
 5634.00    1.39663   1.34653    0.017
 5635.00    1.40183   1.33729    0.017
 5636.00    1.35666   1.33045    0.017
 5637.00    1.29639   1.32615    0.017
 5638.00    1.25788   1.32424    0.017
 5639.00    1.22479   1.32458    0.017
 5640.00    1.21794   1.32722    0.017
 5641.00    1.21639   1.33210    0.016
 5642.00    1.23999   1.33871    0.017
 5643.00    1.26756   1.34608    0.017
 5644.00    1.32549   1.35295    0.017
 5645.00    1.38699   1.35834    0.017
 5646.00    1.36585   1.36180    0.017
 5647.00    1.33811   1.36350    0.017
 5648.00    1.31301   1.36375    0.017
 5649.00    1.28802   1.36244    0.017
 5650.00    1.25692   1.35885    0.017
 5651.00    1.22663   1.35192    0.017
 5652.00    1.23949   1.34094    0.017
 5653.00    1.25130   1.32622    0.018
 5654.00    1.24361   1.30934    0.018
 5655.00    1.23879   1.29296    0.017
 5656.00    1.26582   1.28014    0.017
 5657.00    1.28162   1.27324    0.017
 5658.00    1.21034   1.27301    0.017
 5659.00    1.15609   1.27845    0.017
 5660.00    1.20178   1.28753    0.018
 5661.00    1.24035   1.29812    0.018
 5662.00    1.24580   1.30844    0.018
 5663.00    1.24900   1.31710    0.018
 5664.00    1.24368   1.32340    0.017
 5665.00    1.24625   1.32770    0.017
 5666.00    1.27386   1.33153    0.017
 5667.00    1.29574   1.33689    0.017
 5668.00    1.30221   1.34506    0.017
 5669.00    1.30556   1.35590    0.017
 5670.00    1.30172   1.36789    0.017
 5671.00    1.30940   1.37892    0.017
 5672.00    1.34009   1.38725    0.017
 5673.00    1.35630   1.39202    0.017
 5674.00    1.34735   1.39317    0.017
 5675.00    1.34171   1.39100    0.017
 5676.00    1.34111   1.38572    0.017
 5677.00    1.34373   1.37745    0.017
 5678.00    1.35064   1.36658    0.017
 5679.00    1.33561   1.35411    0.017
 5680.00    1.29474   1.34164    0.017
 5681.00    1.27279   1.33088    0.017
 5682.00    1.27049   1.32304    0.017
 5683.00    1.26066   1.31847    0.017
 5684.00    1.24395   1.31697    0.017
 5685.00    1.23763   1.31849    0.017
 5686.00    1.23971   1.32323    0.017
 5687.00    1.23740   1.33136    0.017
 5688.00    1.23198   1.34226    0.017
 5689.00    1.24939   1.35435    0.017
 5690.00    1.28102   1.36553    0.017
 5691.00    1.31275   1.37395    0.017
 5692.00    1.34452   1.37853    0.017
 5693.00    1.38049   1.37903    0.017
 5694.00    1.41844   1.37569    0.017
 5695.00    1.40242   1.36906    0.018
 5696.00    1.36438   1.35992    0.018
 5697.00    1.31842   1.34950    0.018
 5698.00    1.26970   1.33926    0.018
 5699.00    1.26705   1.33060    0.018
 5700.00    1.27795   1.32410    0.018
 5701.00    1.28281   1.31912    0.018
 5702.00    1.28619   1.31400    0.018
 5703.00    1.30148   1.30696    0.018
 5704.00    1.31912   1.29724    0.018
 5705.00    1.28952   1.28584    0.017
 5706.00    1.25266   1.27519    0.017
 5707.00    1.24753   1.26829    0.017
 5708.00    1.24600   1.26752    0.017
 5709.00    1.28057   1.27387    0.017
 5710.00    1.31787   1.28663    0.017
 5711.00    1.33136   1.30373    0.017
 5712.00    1.34387   1.32243    0.017
 5713.00    1.35251   1.34019    0.017
 5714.00    1.36027   1.35540    0.016
 5715.00    1.33278   1.36764    0.017
 5716.00    1.30632   1.37746    0.017
 5717.00    1.29778   1.38575    0.016
 5718.00    1.29225   1.39315    0.016
 5719.00    1.31855   1.39971    0.017
 5720.00    1.34560   1.40489    0.017
 5721.00    1.37827   1.40787    0.017
 5722.00    1.41297   1.40805    0.017
 5723.00    1.45918   1.40544    0.017
 5724.00    1.49392   1.40081    0.017
 5725.00    1.47653   1.39533    0.017
 5726.00    1.45212   1.39009    0.017
 5727.00    1.40160   1.38576    0.017
 5728.00    1.37096   1.38270    0.017
 5729.00    1.40215   1.38124    0.017
 5730.00    1.42427   1.38174    0.017
 5731.00    1.42240   1.38422    0.017
 5732.00    1.41568   1.38803    0.018
 5733.00    1.39799   1.39190    0.017
 5734.00    1.38483   1.39461    0.017
 5735.00    1.38056   1.39549    0.017
 5736.00    1.38106   1.39469    0.017
 5737.00    1.38972   1.39280    0.018
 5738.00    1.39008   1.39057    0.018
 5739.00    1.37799   1.38861    0.017
 5740.00    1.36742   1.38732    0.000
 5741.00    1.35883   1.38676    0.000
 5742.00    1.34653   1.38653    0.000
 5743.00    1.32991   1.38587    0.000
 5744.00    1.32567   1.38407    0.000
 5745.00    1.33410   1.38092    0.000
 5746.00    1.34307   1.37670    0.000
 5747.00    1.35251   1.37174    0.000
 5748.00    1.35024   1.36604    0.000
 5749.00    1.33863   1.35953    0.000
 5750.00    1.35692   1.35286    0.000
 5751.00    1.39614   1.34773    0.000
 5752.00    1.41958   1.34628    0.000
 5753.00    1.43333   1.34959    0.000
 5754.00    1.42651   1.35660    0.000
 5755.00    1.40867   1.36427    0.000
 5756.00    1.39693   1.36912    0.000
 5757.00    1.38802   1.36910    0.000
 5758.00    1.37914   1.36474    0.000
 5759.00    1.37026   1.35892    0.000
 5760.00    1.35294   1.35546    0.000
 5761.00    1.33273   1.35720    0.000
 5762.00    1.34403   1.36474    0.000
 5763.00    1.36441   1.37618    0.000
 5764.00    1.39091   1.38824    0.000
 5765.00    1.41887   1.39775    0.000
 5766.00    1.41581   1.40286    0.000
 5767.00    1.40680   1.40335    0.000
 5768.00    1.38783   1.40025    0.000
 5769.00    1.36739   1.39522    0.000
 5770.00    1.37801   1.38995    0.000
 5771.00    1.39201   1.38571    0.000
 5772.00    1.40833   1.38302    0.000
 5773.00    1.42482   1.38140    0.000
 5774.00    1.41981   1.37940    0.000
 5775.00    1.41401   1.37506    0.000
 5776.00    1.37689   1.36675    0.000
 5777.00    1.34023   1.35409    0.000
 5778.00    1.32467   1.33841    0.000
 5779.00    1.31025   1.32237    0.000
 5780.00    1.31414   1.30897    0.000
 5781.00    1.31759   1.30054    0.000
 5782.00    1.31652   1.29813    0.000
 5783.00    1.31206   1.30163    0.000
 5784.00    1.28302   1.30985    0.000
 5785.00    1.26591   1.32087    0.000
 5786.00    1.31500   1.33241    0.000
 5787.00    1.35596   1.34255    0.000
 5788.00    1.36086   1.35043    0.000
 5789.00    1.35977   1.35635    0.000
 5790.00    1.33691   1.36123    0.000
 5791.00    1.32010   1.36570   -2.000
 5792.00    1.32172   1.36967   -2.000
 5793.00    1.32209   1.37270   -2.000
 5794.00    1.31917   1.37471   -2.000
 5795.00    1.32656   1.37647   -2.000
 5796.00    1.35696   1.37921   -2.000
 5797.00    1.48545   1.38363   -2.000
 5798.00    1.80371   1.38910   -2.000
 5799.00    2.03308   1.39376   -2.000
 5800.00    2.11248   1.39563   -2.000
 5801.00    2.06273   1.39378   -2.000
 5802.00    1.82206   1.38901   -2.000
 5803.00    1.63021   1.38337   -2.000
 5804.00    1.50178   1.37915   -2.000
 5805.00    1.43416   1.37780   -2.000
 5806.00    1.43615   1.37950   -2.000
 5807.00    1.45331   1.38328   -2.000
 5808.00    1.48579   1.38760   -2.000
 5809.00    1.48409   1.39087   -2.000
 5810.00    1.45195   1.39202   -2.000
 5811.00    1.42740   1.39084    0.000
 5812.00    1.40878   1.38816    0.000
 5813.00    1.39206   1.38564    0.000
 5814.00    1.37664   1.38513    0.000
 5815.00    1.37373   1.38778    0.000
 5816.00    1.37841   1.39341    0.000
 5817.00    1.39032   1.40060    0.000
 5818.00    1.40606   1.40744    0.000
 5819.00    1.41851   1.41248    0.000
 5820.00    1.42944   1.41532    0.000
 5821.00    1.42497   1.41648    0.000
 5822.00    1.41443   1.41688    0.000
 5823.00    1.40196   1.41727    0.000
 5824.00    1.38884   1.41792    0.000
 5825.00    1.40674   1.41874    0.000
 5826.00    1.43339   1.41940    0.000
 5827.00    1.44505   1.41953    0.000
 5828.00    1.45321   1.41880    0.000
 5829.00    1.44651   1.41704    0.000
 5830.00    1.43703   1.41430    0.000
 5831.00    1.44650   1.41096    0.000
 5832.00    1.45871   1.40767    0.000
 5833.00    1.44602   1.40515    0.000
 5834.00    1.43073   1.40399    0.000
 5835.00    1.45823   1.40449    0.000
 5836.00    1.48864   1.40665    0.000
 5837.00    1.49892   1.41013    0.000
 5838.00    1.50854   1.41420    0.000
 5839.00    1.46987   1.41781    0.000
 5840.00    1.43253   1.41980    0.000
 5841.00    1.43860   1.41930    0.000
 5842.00    1.44088   1.41609    0.000
 5843.00    1.38595   1.41071    0.000
 5844.00    1.33700   1.40424    0.000
 5845.00    1.34614   1.39775    0.000
 5846.00    1.35657   1.39173    0.000
 5847.00    1.37604   1.38592    0.000
 5848.00    1.39107   1.37948    0.000
 5849.00    1.38207   1.37172    0.000
 5850.00    1.37386   1.36257    0.000
 5851.00    1.36901   1.35262    0.000
 5852.00    1.35994   1.34285    0.000
 5853.00    1.33575   1.33416    0.000
 5854.00    1.31937   1.32737    0.000
 5855.00    1.32638   1.32337    0.000
 5856.00    1.33052   1.32293    0.000
 5857.00    1.32733   1.32638    0.000
 5858.00    1.32158   1.33318    0.000
 5859.00    1.31021   1.34198    0.000
 5860.00    1.29876   1.35118    0.000
 5861.00    1.28719   1.35953    0.000
 5862.00    1.28798   1.36644    0.000
 5863.00    1.30935   1.37204    0.000
 5864.00    1.33316   1.37685    0.000
 5865.00    1.36054   1.38152    0.000
 5866.00    1.37671   1.38636    0.000
 5867.00    1.37851   1.39122    0.000
 5868.00    1.37849   1.39554    0.000
 5869.00    1.37641   1.39872    0.000
 5870.00    1.38938   1.40045    0.000
 5871.00    1.41733   1.40072    0.000
 5872.00    1.42325   1.39964    0.000
 5873.00    1.40984   1.39719    0.000
 5874.00    1.38892   1.39322    0.000
 5875.00    1.36219   1.38772    0.000
 5876.00    1.36593   1.38104    0.000
 5877.00    1.39037   1.37393    0.000
 5878.00    1.39440   1.36720    0.000
 5879.00    1.38627   1.36122    0.000
 5880.00    1.34587   1.35553    0.000
 5881.00    1.28869   1.34854    0.000
 5882.00    1.27622   1.33761    0.000
 5883.00    1.28389   1.31955    0.000
 5884.00    1.25146   1.29186    0.000
 5885.00    1.20347   1.25452    0.000
 5886.00    1.17395   1.21138    0.000
 5887.00    1.15052   1.16968    0.000
 5888.00    1.13260   1.13724    0.000
 5889.00    1.11620   1.11867    0.000
 5890.00    1.12943   1.11331    0.000
 5891.00    1.14940   1.11648    0.000
 5892.00    1.16180   1.12333    0.000
 5893.00    1.17282   1.13235    0.000
 5894.00    1.14273   1.14568    0.000
 5895.00    1.10689   1.16653    0.000
 5896.00    1.12774   1.19586    0.000
 5897.00    1.15428   1.23107    0.000
 5898.00    1.18383   1.26711    0.000
 5899.00    1.21356   1.29896    0.000
 5900.00    1.23891   1.32357    0.000
 5901.00    1.26412   1.34041    0.016
 5902.00    1.29044   1.35083    0.016
 5903.00    1.31616   1.35703    0.016
 5904.00    1.32485   1.36111    0.016
 5905.00    1.33230   1.36445    0.016
 5906.00    1.32211   1.36750    0.016
 5907.00    1.31408   1.36984    0.017
 5908.00    1.32620   1.37056    0.017
 5909.00    1.33754   1.36880    0.017
 5910.00    1.34363   1.36438    0.017
 5911.00    1.35054   1.35818    0.017
 5912.00    1.36179   1.35200    0.016
 5913.00    1.36687   1.34791    0.016
 5914.00    1.34591   1.34732    0.016
 5915.00    1.33274   1.35041    0.016
 5916.00    1.34681   1.35609    0.016
 5917.00    1.35958   1.36268    0.016
 5918.00    1.36856   1.36864    0.016
 5919.00    1.37089   1.37321    0.016
 5920.00    1.35656   1.37634    0.016
 5921.00    1.33720   1.37833    0.016
 5922.00    1.30695   1.37931    0.015
 5923.00    1.28586   1.37901    0.015
 5924.00    1.28195   1.37700    0.015
 5925.00    1.28660   1.37321    0.015
 5926.00    1.30527   1.36834    0.015
 5927.00    1.31210   1.36365    0.015
 5928.00    1.30195   1.36042    0.015
 5929.00    1.29858   1.35925    0.015
 5930.00    1.30378   1.35993    0.016
 5931.00    1.31653   1.36179    0.016
 5932.00    1.33769   1.36432    0.016
 5933.00    1.35325   1.36731    0.016
 5934.00    1.36332   1.37065    0.016
 5935.00    1.35665   1.37393    0.016
 5936.00    1.33550   1.37642    0.016
 5937.00    1.30475   1.37750    0.016
 5938.00    1.26667   1.37712    0.016
 5939.00    1.24954   1.37597    0.016
 5940.00    1.24645   1.37503    0.016
 5941.00    1.26344   1.37493    0.016
 5942.00    1.29221   1.37550    0.016
 5943.00    1.30494   1.37586    0.016
 5944.00    1.30947   1.37502    0.016
 5945.00    1.29242   1.37261    0.016
 5946.00    1.26581   1.36904    0.016
 5947.00    1.27968   1.36526    0.016
 5948.00    1.30897   1.36213    0.016
 5949.00    1.33126   1.36011    0.016
 5950.00    1.35128   1.35921    0.016
 5951.00    1.34551   1.35918    0.016
 5952.00    1.33277   1.35974    0.016
 5953.00    1.33873   1.36073    0.016
 5954.00    1.34884   1.36224    0.016
 5955.00    1.35218   1.36463    0.016
 5956.00    1.35433   1.36826    0.016
 5957.00    1.34748   1.37326    0.015
 5958.00    1.33942   1.37916    0.015
 5959.00    1.33319   1.38505    0.015
 5960.00    1.32713   1.38987    0.016
 5961.00    1.33377   1.39295    0.016
 5962.00    1.34117   1.39434    0.015
 5963.00    1.34197   1.39477    0.016
 5964.00    1.34244   1.39524    0.016
 5965.00    1.31586   1.39658    0.016
 5966.00    1.29032   1.39901    0.016
 5967.00    1.29148   1.40202    0.016
 5968.00    1.29374   1.40462    0.016
 5969.00    1.31091   1.40561    0.016
 5970.00    1.32588   1.40403    0.016
 5971.00    1.32106   1.39950    0.016
 5972.00    1.31527   1.39245    0.016
 5973.00    1.30311   1.38414    0.016
 5974.00    1.29332   1.37630    0.016
 5975.00    1.29575   1.37049    0.016
 5976.00    1.29518   1.36732    0.016
 5977.00    1.28217   1.36616    0.016
 5978.00    1.27316   1.36533    0.016
 5979.00    1.27781   1.36305    0.016
 5980.00    1.28209   1.35851    0.016
 5981.00    1.28528   1.35243    0.016
 5982.00    1.28820   1.34667    0.015
 5983.00    1.29049   1.34320    0.015
 5984.00    1.29575   1.34312    0.015
 5985.00    1.30735   1.34614    0.015
 5986.00    1.31196   1.35097    0.015
 5987.00    1.30370   1.35617    0.015
 5988.00    1.29550   1.36083    0.015
 5989.00    1.28743   1.36473    0.015
 5990.00    1.28891   1.36796    0.015
 5991.00    1.30393   1.37041    0.015
 5992.00    1.31288   1.37162    0.015
 5993.00    1.31426   1.37110    0.015
 5994.00    1.30927   1.36888    0.015
 5995.00    1.29729   1.36560    0.015
 5996.00    1.30576   1.36231    0.015
 5997.00    1.33404   1.35981    0.016
 5998.00    1.34097   1.35826    0.016
 5999.00    1.32969   1.35723    0.016
 6000.00    1.30910   1.35600    0.016
 6001.00    1.28150   1.35394    0.016
 6002.00    1.25105   1.35074    0.016
 6003.00    1.21871   1.34655    0.016
 6004.00    1.20309   1.34205    0.016
 6005.00    1.19715   1.33833    0.016
 6006.00    1.21229   1.33643    0.016
 6007.00    1.23805   1.33671    0.016
 6008.00    1.27829   1.33848    0.016
 6009.00    1.32484   1.34042    0.016
 6010.00    1.34629   1.34136    0.016
 6011.00    1.35834   1.34082    0.016
 6012.00    1.34291   1.33906    0.016
 6013.00    1.31875   1.33665    0.015
 6014.00    1.28504   1.33407    0.016
 6015.00    1.24878   1.33149    0.016
 6016.00    1.25876   1.32892    0.016
 6017.00    1.27876   1.32653    0.015
 6018.00    1.30665   1.32486    0.015
 6019.00    1.33589   1.32457    0.016
 6020.00    1.30531   1.32618    0.015
 6021.00    1.26691   1.32989    0.015
 6022.00    1.25339   1.33543    0.015
 6023.00    1.24216   1.34221    0.015
 6024.00    1.29125   1.34959    0.015
 6025.00    1.34371   1.35707    0.015
 6026.00    1.36463   1.36432    0.015
 6027.00    1.38444   1.37113    0.016
 6028.00    1.36348   1.37734    0.016
 6029.00    1.34323   1.38281    0.016
 6030.00    1.33979   1.38742    0.016
 6031.00    1.33827   1.39108    0.016
 6032.00    1.36126   1.39375    0.016
 6033.00    1.38121   1.39542    0.016
 6034.00    1.37513   1.39605    0.016
 6035.00    1.36975   1.39558    0.016
 6036.00    1.36887   1.39407    0.016
 6037.00    1.36807   1.39183    0.016
 6038.00    1.36775   1.38943    0.016
 6039.00    1.36683   1.38761    0.016
 6040.00    1.36352   1.38703    0.016
 6041.00    1.35978   1.38793    0.016
 6042.00    1.35463   1.39009    0.015
 6043.00    1.35431   1.39298    0.015
 6044.00    1.36765   1.39592    0.015
 6045.00    1.38220   1.39828    0.015
 6046.00    1.39967   1.39954    0.015
 6047.00    1.41579   1.39924    0.015
 6048.00    1.42908   1.39710    0.015
 6049.00    1.42421   1.39306    0.015
 6050.00    1.38635   1.38743    0.015
 6051.00    1.35820   1.38107    0.015
 6052.00    1.34546   1.37512    0.015
 6053.00    1.34202   1.37076    0.015
 6054.00    1.35154   1.36881    0.015
 6055.00    1.36341   1.36936    0.015
 6056.00    1.37817   1.37167    0.016
 6057.00    1.37691   1.37430    0.016
 6058.00    1.35832   1.37561    0.016
 6059.00    1.34439   1.37438    0.016
 6060.00    1.33491   1.37055    0.016
 6061.00    1.33975   1.36532    0.016
 6062.00    1.35664   1.36077    0.016
 6063.00    1.35871   1.35909    0.016
 6064.00    1.34982   1.36168    0.016
 6065.00    1.35188   1.36846    0.016
 6066.00    1.36107   1.37807    0.016
 6067.00    1.37527   1.38842    0.016
 6068.00    1.39233   1.39764    0.016
 6069.00    1.41375   1.40447    0.016
 6070.00    1.43733   1.40830    0.016
 6071.00    1.43470   1.40895    0.016
 6072.00    1.42084   1.40639    0.016
 6073.00    1.39576   1.40092    0.015
 6074.00    1.36655   1.39323    0.015
 6075.00    1.35368   1.38423    0.015
 6076.00    1.34588   1.37501    0.015
 6077.00    1.33382   1.36664    0.015
 6078.00    1.32064   1.35974    0.015
 6079.00    1.30980   1.35446    0.015
 6080.00    1.29944   1.35074    0.015
 6081.00    1.30090   1.34853    0.015
 6082.00    1.30433   1.34774    0.015
 6083.00    1.28524   1.34809    0.015
 6084.00    1.26331   1.34910    0.015
 6085.00    1.26728   1.35019    0.015
 6086.00    1.27353   1.35085    0.015
 6087.00    1.30032   1.35086    0.015
 6088.00    1.32817   1.35059    0.015
 6089.00    1.35240   1.35080    0.016
 6090.00    1.37629   1.35212    0.016
 6091.00    1.37998   1.35472    0.016
 6092.00    1.38350   1.35832    0.016
 6093.00    1.38317   1.36211    0.016
 6094.00    1.38236   1.36497    0.016
 6095.00    1.37579   1.36556    0.016
 6096.00    1.36657   1.36257    0.016
 6097.00    1.33528   1.35553    0.016
 6098.00    1.30498   1.34537    0.015
 6099.00    1.28080   1.33414    0.015
 6100.00    1.25879   1.32463    0.015
 6101.00    1.24736   1.31950    0.015
 6102.00    1.24082   1.32012    0.015
 6103.00    1.25365   1.32608    0.015
 6104.00    1.26601   1.33536    0.015
 6105.00    1.27682   1.34530    0.015
 6106.00    1.28515   1.35385    0.015
 6107.00    1.28659   1.36008    0.015
 6108.00    1.29267   1.36403    0.015
 6109.00    1.30981   1.36625    0.015
 6110.00    1.32825   1.36733    0.015
 6111.00    1.34935   1.36770    0.015
 6112.00    1.35500   1.36750    0.015
 6113.00    1.33299   1.36642    0.015
 6114.00    1.31637   1.36382    0.015
 6115.00    1.30819   1.35899    0.015
 6116.00    1.30203   1.35149    0.015
 6117.00    1.29864   1.34184    0.015
 6118.00    1.29736   1.33171    0.015
 6119.00    1.29863   1.32319    0.016
 6120.00    1.30398   1.31814    0.016
 6121.00    1.31368   1.31745    0.016
 6122.00    1.32727   1.32054    0.015
 6123.00    1.34450   1.32572    0.016
 6124.00    1.34385   1.33124    0.016
 6125.00    1.32835   1.33603    0.016
 6126.00    1.30814   1.33987    0.016
 6127.00    1.28447   1.34299    0.015
 6128.00    1.28582   1.34529    0.015
 6129.00    1.30321   1.34562    0.015
 6130.00    1.30883   1.34197    0.015
 6131.00    1.30785   1.33257    0.015
 6132.00    1.30323   1.31762    0.015
 6133.00    1.29682   1.29989    0.015
 6134.00    1.30400   1.28351    0.015
 6135.00    1.31691   1.27214    0.015
 6136.00    1.31331   1.26790    0.015
 6137.00    1.30375   1.27109    0.015
 6138.00    1.30174   1.28030    0.015
 6139.00    1.30204   1.29291    0.015
 6140.00    1.31377   1.30647    0.015
 6141.00    1.32840   1.31900    0.015
 6142.00    1.34121   1.32895    0.015
 6143.00    1.35364   1.33529    0.015
 6144.00    1.35270   1.33783    0.015
 6145.00    1.34959   1.33732    0.016
 6146.00    1.32329   1.33536    0.016
 6147.00    1.29417   1.33365    0.015
 6148.00    1.27147   1.33324    0.015
 6149.00    1.24930   1.33407    0.015
 6150.00    1.25734   1.33535    0.015
 6151.00    1.26683   1.33617    0.016
 6152.00    1.27802   1.33567    0.015
 6153.00    1.28869   1.33342    0.015
 6154.00    1.26773   1.32906    0.015
 6155.00    1.24625   1.32164    0.015
 6156.00    1.21439   1.31009    0.015
 6157.00    1.18375   1.29464    0.015
 6158.00    1.16707   1.27735    0.015
 6159.00    1.15560   1.26152    0.015
 6160.00    1.18581   1.25053    0.015
 6161.00    1.21469   1.24664    0.015
 6162.00    1.23555   1.24994    0.015
 6163.00    1.25278   1.25780    0.015
 6164.00    1.25273   1.26628    0.015
 6165.00    1.25229   1.27276    0.015
 6166.00    1.25035   1.27697    0.015
 6167.00    1.24656   1.27987    0.015
 6168.00    1.23685   1.28310    0.015
 6169.00    1.22839   1.28822    0.015
 6170.00    1.22338   1.29555    0.015
 6171.00    1.21988   1.30399    0.015
 6172.00    1.21993   1.31227    0.015
 6173.00    1.22180   1.31963    0.015
 6174.00    1.22735   1.32572    0.015
 6175.00    1.22820   1.33071    0.015
 6176.00    1.22077   1.33532    0.015
 6177.00    1.21362   1.33997    0.015
 6178.00    1.20692   1.34450    0.015
 6179.00    1.20169   1.34850    0.015
 6180.00    1.19849   1.35129    0.015
 6181.00    1.20673   1.35198    0.015
 6182.00    1.22862   1.35004    0.015
 6183.00    1.24125   1.34549    0.015
 6184.00    1.24415   1.33865    0.015
 6185.00    1.25367   1.32980    0.015
 6186.00    1.26932   1.31940    0.015
 6187.00    1.28326   1.30930    0.015
 6188.00    1.29578   1.30190    0.015
 6189.00    1.29461   1.29877    0.015
 6190.00    1.28357   1.30058    0.015
 6191.00    1.26989   1.30714    0.015
 6192.00    1.25456   1.31689    0.015
 6193.00    1.24533   1.32704    0.015
 6194.00    1.23946   1.33488    0.015
 6195.00    1.25444   1.33909    0.016
 6196.00    1.27943   1.34026   -2.000
 6197.00    1.41915   1.34005   -2.000
 6198.00    1.60642   1.34018   -2.000
 6199.00    1.63369   1.34185   -2.000
 6200.00    1.60425   1.34539   -2.000
 6201.00    1.50057   1.35020   -2.000
 6202.00    1.37467   1.35514   -2.000
 6203.00    1.26287   1.35907   -2.000
 6204.00    1.15456   1.36121   -2.000
 6205.00    1.16382   1.36105   -2.000
 6206.00    1.19675   1.35831   -2.000
 6207.00    1.25317   1.35273   -2.000
 6208.00    1.31328   1.34398    0.016
 6209.00    1.30182   1.33229    0.015
 6210.00    1.28196   1.31885    0.015
 6211.00    1.26402   1.30556    0.015
 6212.00    1.24622   1.29440    0.015
 6213.00    1.25322   1.28655    0.015
 6214.00    1.26132   1.28201    0.015
 6215.00    1.26981   1.28019    0.015
 6216.00    1.27827   1.28060    0.014
 6217.00    1.28464   1.28287    0.014
 6218.00    1.29012   1.28664    0.015
 6219.00    1.27960   1.29147    0.014
 6220.00    1.26897   1.29697    0.014
 6221.00    1.25708   1.30263    0.014
 6222.00    1.24494   1.30748    0.015
 6223.00    1.23081   1.31026    0.015
 6224.00    1.21647   1.30964    0.015
 6225.00    1.20091   1.30467    0.015
 6226.00    1.18920   1.29595    0.015
 6227.00    1.19540   1.28582    0.015
 6228.00    1.20017   1.27722    0.015
 6229.00    1.19956   1.27284    0.015
 6230.00    1.20084   1.27411    0.015
 6231.00    1.20807   1.28021    0.015
 6232.00    1.21504   1.28837    0.015
 6233.00    1.22127   1.29533    0.015
 6234.00    1.22170   1.29865    0.015
 6235.00    1.20874   1.29740    0.015
 6236.00    1.20011   1.29249    0.014
 6237.00    1.20009   1.28563    0.014
 6238.00    1.19754   1.27800    0.014
 6239.00    1.19061   1.27050    0.014
 6240.00    1.18536   1.26396    0.014
 6241.00    1.18269   1.25873    0.014
 6242.00    1.18555   1.25534    0.014
 6243.00    1.19580   1.25484    0.014
 6244.00    1.20107   1.25773    0.014
 6245.00    1.20049   1.26323    0.014
 6246.00    1.20064   1.26949    0.014
 6247.00    1.20154   1.27403    0.014
 6248.00    1.20325   1.27495    0.014
 6249.00    1.20570   1.27189    0.014
 6250.00    1.19924   1.26580    0.014
 6251.00    1.18561   1.25812    0.015
 6252.00    1.18663   1.25042    0.015
 6253.00    1.19804   1.24416    0.014
 6254.00    1.21652   1.24064    0.015
 6255.00    1.23940   1.24094    0.015
 6256.00    1.22927   1.24541    0.015
 6257.00    1.20117   1.25355    0.015
 6258.00    1.19711   1.26452    0.016
 6259.00    1.20440   1.27675    0.016
 6260.00    1.26403   1.28799    0.017
 6261.00    1.34499   1.29682    0.018
 6262.00    1.35758   1.30317    0.018
 6263.00    1.34638   1.30732    0.019
 6264.00    1.30459   1.30952    0.018
 6265.00    1.25382   1.31044    0.018
 6266.00    1.24201   1.31104    0.017
 6267.00    1.23966   1.31211    0.016
 6268.00    1.25588   1.31405    0.015
 6269.00    1.27574   1.31675    0.015
 6270.00    1.30301   1.31975    0.015
 6271.00    1.33141   1.32256    0.014
 6272.00    1.32453   1.32457    0.014
 6273.00    1.31367   1.32508    0.014
 6274.00    1.26021   1.32363    0.014
 6275.00    1.20355   1.32019    0.014
 6276.00    1.19072   1.31540    0.014
 6277.00    1.17966   1.31076    0.014
 6278.00    1.21225   1.30769    0.015
 6279.00    1.24451   1.30714    0.015
 6280.00    1.24997   1.30931    0.000
 6281.00    1.25499   1.31362    0.000
 6282.00    1.25255   1.31935    0.000
 6283.00    1.25166   1.32576    0.000
 6284.00    1.26709   1.33186    0.000
 6285.00    1.28107   1.33662    0.000
 6286.00    1.28431   1.33915    0.000
 6287.00    1.28682   1.33923    0.000
 6288.00    1.28521   1.33727    0.000
 6289.00    1.28142   1.33387    0.000
 6290.00    1.26777   1.32968    0.000
 6291.00    1.25523   1.32490    0.000
 6292.00    1.24679   1.31923    0.000
 6293.00    1.23860   1.31281    0.000
 6294.00    1.23121   1.30615    0.000
 6295.00    1.22664   1.29965    0.000
 6296.00    1.22954   1.29332    0.000
 6297.00    1.23308   1.28736    0.000
 6298.00    1.23805   1.28291    0.000
 6299.00    1.24508   1.28133    0.000
 6300.00    1.25612   1.28298    0.000
 6301.00    1.26325   1.28736    0.000
 6302.00    1.26368   1.29401    0.000
 6303.00    1.26381   1.30227    0.000
 6304.00    1.26347   1.31055    0.000
 6305.00    1.26458   1.31700    0.000
 6306.00    1.26761   1.32039    0.000
 6307.00    1.26819   1.32045    0.000
 6308.00    1.26594   1.31767    0.000
 6309.00    1.24908   1.31262    0.000
 6310.00    1.21729   1.30538    0.000
 6311.00    1.18536   1.29658    0.000
 6312.00    1.15330   1.28751    0.000
 6313.00    1.14143   1.27869    0.000
 6314.00    1.14562   1.27062    0.000
 6315.00    1.16615   1.26511    0.000
 6316.00    1.19811   1.26366    0.000
 6317.00    1.21878   1.26622    0.000
 6318.00    1.23252   1.27217    0.000
 6319.00    1.24481   1.28093    0.000
 6320.00    1.25632   1.29151    0.000
 6321.00    1.27264   1.30232    0.014
 6322.00    1.29120   1.31192    0.014
 6323.00    1.28714   1.31943    0.014
 6324.00    1.27403   1.32485    0.014
 6325.00    1.25441   1.32830    0.014
 6326.00    1.23257   1.32956    0.014
 6327.00    1.22454   1.32900    0.014
 6328.00    1.22047   1.32719    0.014
 6329.00    1.23214   1.32392    0.014
 6330.00    1.24753   1.31835    0.014
 6331.00    1.25549   1.30998    0.014
 6332.00    1.26201   1.30025    0.015
 6333.00    1.27096   1.29157    0.015
 6334.00    1.28026   1.28544    0.015
 6335.00    1.28305   1.28236    0.015
 6336.00    1.28513   1.28264    0.015
 6337.00    1.27850   1.28540    0.015
 6338.00    1.27124   1.28844    0.015
 6339.00    1.24860   1.29003    0.015
 6340.00    1.22539   1.28975    0.015
 6341.00    1.21229   1.28839    0.015
 6342.00    1.20017   1.28675    0.014
 6343.00    1.22115   1.28587    0.014
 6344.00    1.24176   1.28722    0.014
 6345.00    1.25659   1.29118    0.014
 6346.00    1.26992   1.29687    0.014
 6347.00    1.26816   1.30306    0.014
 6348.00    1.26758   1.30847    0.014
 6349.00    1.27553   1.31162    0.014
 6350.00    1.28172   1.31148    0.014
 6351.00    1.27814   1.30826    0.014
 6352.00    1.27354   1.30304    0.014
 6353.00    1.26436   1.29633    0.014
 6354.00    1.25556   1.28810    0.014
 6355.00    1.24811   1.27891    0.014
 6356.00    1.24027   1.26978    0.014
 6357.00    1.23121   1.26119    0.015
 6358.00    1.22299   1.25374    0.015
 6359.00    1.21694   1.24876    0.015
 6360.00    1.21629   1.24744    0.015
 6361.00    1.22768   1.25001    0.015
 6362.00    1.23545   1.25593    0.015
 6363.00    1.23627   1.26416    0.015
 6364.00    1.23169   1.27340    0.015
 6365.00    1.21803   1.28204    0.015
 6366.00    1.21387   1.28900    0.015
 6367.00    1.22370   1.29456    0.015
 6368.00    1.23087   1.29992    0.014
 6369.00    1.23457   1.30571    0.014
 6370.00    1.23514   1.31158    0.014
 6371.00    1.23211   1.31700    0.014
 6372.00    1.23079   1.32158    0.014
 6373.00    1.23120   1.32468    0.014
 6374.00    1.23352   1.32555    0.014
 6375.00    1.23752   1.32433    0.014
 6376.00    1.23674   1.32179    0.014
 6377.00    1.23220   1.31883    0.014
 6378.00    1.22723   1.31642    0.014
 6379.00    1.22196   1.31501    0.014
 6380.00    1.22405   1.31458    0.014
 6381.00    1.23060   1.31534    0.015
 6382.00    1.22859   1.31751    0.014
 6383.00    1.22209   1.32064    0.014
 6384.00    1.23049   1.32380    0.015
 6385.00    1.24571   1.32617    0.015
 6386.00    1.24609   1.32699    0.015
 6387.00    1.24062   1.32539    0.014
 6388.00    1.23553   1.32070    0.014
 6389.00    1.23056   1.31332    0.014
 6390.00    1.22834   1.30558    0.014
 6391.00    1.22689   1.30028    0.014
 6392.00    1.23507   1.29823    0.014
 6393.00    1.24548   1.29850    0.014
 6394.00    1.25330   1.29939    0.014
 6395.00    1.26064   1.29901    0.014
 6396.00    1.25526   1.29689    0.014
 6397.00    1.24806   1.29515    0.014
 6398.00    1.24498   1.29588    0.014
 6399.00    1.24234   1.29894    0.014
 6400.00    1.25274   1.30329    0.014
 6401.00    1.26403   1.30768    0.014
 6402.00    1.28309   1.31049    0.014
 6403.00    1.30242   1.31040    0.014
 6404.00    1.29246   1.30751    0.014
 6405.00    1.28282   1.30351    0.014
 6406.00    1.28288   1.29969    0.015
 6407.00    1.28345   1.29606    0.015
 6408.00    1.29169   1.29323    0.015
 6409.00    1.29799   1.29228    0.015
 6410.00    1.28561   1.29291    0.015
 6411.00    1.27296   1.29406    0.014
 6412.00    1.25843   1.29515    0.014
 6413.00    1.24414   1.29577    0.014
 6414.00    1.23119   1.29548    0.014
 6415.00    1.22138   1.29398    0.014
 6416.00    1.22520   1.29139    0.014
 6417.00    1.22766   1.28913    0.014
 6418.00    1.22527   1.28947    0.014
 6419.00    1.22385   1.29375    0.014
 6420.00    1.22536   1.30115    0.014
 6421.00    1.23418   1.30984    0.014
 6422.00    1.26165   1.31842    0.014
 6423.00    1.28252   1.32560    0.014
 6424.00    1.28896   1.32975    0.014
 6425.00    1.28333   1.32947    0.014
 6426.00    1.25477   1.32428    0.014
 6427.00    1.22731   1.31552    0.014
 6428.00    1.20167   1.30636    0.015
 6429.00    1.19083   1.29983    0.015
 6430.00    1.20151   1.29712    0.015
 6431.00    1.21632   1.29776    0.015
 6432.00    1.23640   1.30018    0.015
 6433.00    1.24763   1.30233    0.015
 6434.00    1.24888   1.30247    0.015
 6435.00    1.24498   1.30060    0.015
 6436.00    1.23597   1.29927    0.015
 6437.00    1.22752   1.30100    0.015
 6438.00    1.21957   1.30592    0.015
 6439.00    1.21925   1.31285    0.015
 6440.00    1.22482   1.32055    0.015
 6441.00    1.24578   1.32757    0.014
 6442.00    1.27720   1.33224    0.014
 6443.00    1.29879   1.33303    0.014
 6444.00    1.31453   1.32871    0.014
 6445.00    1.29584   1.31887    0.014
 6446.00    1.25928   1.30537    0.014
 6447.00    1.22025   1.29267    0.014
 6448.00    1.18011   1.28426    0.014
 6449.00    1.16288   1.28046    0.014
 6450.00    1.15452   1.27984    0.014
 6451.00    1.15769   1.28050    0.014
 6452.00    1.16465   1.28126    0.014
 6453.00    1.18794   1.28290    0.014
 6454.00    1.21574   1.28653    0.014
 6455.00    1.23736   1.29155    0.014
 6456.00    1.25759   1.29614    0.014
 6457.00    1.26148   1.29848    0.014
 6458.00    1.26240   1.29743    0.015
 6459.00    1.25544   1.29386    0.015
 6460.00    1.24738   1.29095    0.015
 6461.00    1.24688   1.29102    0.014
 6462.00    1.24715   1.29382    0.014
 6463.00    1.22323   1.29858    0.014
 6464.00    1.19780   1.30425    0.014
 6465.00    1.20912   1.30925    0.014
 6466.00    1.22150   1.31234    0.014
 6467.00    1.23207   1.31327    0.014
 6468.00    1.24204   1.31278    0.014
 6469.00    1.23527   1.31234    0.014
 6470.00    1.23057   1.31296    0.013
 6471.00    1.25496   1.31424    0.014
 6472.00    1.27906   1.31588    0.014
 6473.00    1.30059   1.31794    0.014
 6474.00    1.31727   1.31978    0.014
 6475.00    1.30121   1.32021    0.014
 6476.00    1.28473   1.31871    0.014
 6477.00    1.26603   1.31507    0.014
 6478.00    1.25058   1.30935    0.014
 6479.00    1.24884   1.30314    0.014
 6480.00    1.24340   1.29885    0.014
 6481.00    1.22504   1.29754    0.014
 6482.00    1.20605   1.29856    0.014
 6483.00    1.18518   1.30079    0.014
 6484.00    1.17247   1.30294    0.014
 6485.00    1.18015   1.30302    0.014
 6486.00    1.19887   1.29893    0.014
 6487.00    1.24139   1.28935    0.014
 6488.00    1.26176   1.27415    0.014
 6489.00    1.24070   1.25391    0.014
 6490.00    1.21121   1.22963    0.014
 6491.00    1.16795   1.20414    0.014
 6492.00    1.14334   1.18245    0.014
 6493.00    1.14545   1.16872    0.013
 6494.00    1.15336   1.16482    0.013
 6495.00    1.16855   1.17055    0.013
 6496.00    1.17723   1.18390    0.014
 6497.00    1.17866   1.20274    0.014
 6498.00    1.18493   1.22440    0.014
 6499.00    1.19596   1.24586    0.014
 6500.00    1.20031   1.26510    0.014
 6501.00    1.19890   1.28101    0.014
 6502.00    1.20240   1.29319    0.014
 6503.00    1.20962   1.30186    0.014
 6504.00    1.23136   1.30726    0.014
 6505.00    1.26282   1.30997    0.015
 6506.00    1.28312   1.31114    0.015
 6507.00    1.29690   1.31162    0.015
 6508.00    1.28492   1.31131    0.014
 6509.00    1.25980   1.30986    0.014
 6510.00    1.25654   1.30717    0.014
 6511.00    1.26295   1.30285    0.014
 6512.00    1.26813   1.29680    0.014
 6513.00    1.27285   1.29038    0.014
 6514.00    1.27986   1.28531    0.014
 6515.00    1.28759   1.28230    0.014
 6516.00    1.28041   1.28212    0.014
 6517.00    1.26920   1.28521    0.013
 6518.00    1.25970   1.29033    0.014
 6519.00    1.25057   1.29572    0.014
 6520.00    1.25035   1.30039    0.014
 6521.00    1.25169   1.30373    0.014
 6522.00    1.25938   1.30494    0.014
 6523.00    1.26792   1.30360    0.014
 6524.00    1.27549   1.30074    0.014
 6525.00    1.28297   1.29793    0.014
 6526.00    1.28067   1.29575    0.014
 6527.00    1.27780   1.29388    0.015
 6528.00    1.28247   1.29184    0.000
 6529.00    1.28720   1.28961    0.000
 6530.00    1.27312   1.28790    0.000
 6531.00    1.25866   1.28746    0.000
 6532.00    1.23504   1.28836    0.000
 6533.00    1.21324   1.28971    0.000
 6534.00    1.21571   1.29081    0.000
 6535.00    1.22067   1.29199    0.000
 6536.00    1.24772   1.29325    0.000
 6537.00    1.27453   1.29350    0.000
 6538.00    1.29972   1.29166    0.000
 6539.00    1.31877   1.28750    0.000
 6540.00    1.30642   1.28147    0.000
 6541.00    1.29270   1.27402    0.000
 6542.00    1.27332   1.26546    0.000
 6543.00    1.25998   1.25699    0.000
 6544.00    1.26731   1.25069    0.000
 6545.00    1.27723   1.24719    0.000
 6546.00    1.29466   1.24527    0.000
 6547.00    1.30001   1.24324    0.000
 6548.00    1.27567   1.23979    0.000
 6549.00    1.25193   1.23430    0.000
 6550.00    1.22947   1.22628    0.000
 6551.00    1.21712   1.21525    0.000
 6552.00    1.22342   1.20140    0.000
 6553.00    1.22420   1.18520    0.000
 6554.00    1.21609   1.16637    0.000
 6555.00    1.20945   1.14350    0.000
 6556.00    1.20491   1.11558    0.000
 6557.00    1.20319   1.08293    0.000
 6558.00    1.20496   1.04671    0.000
 6559.00    1.21735   1.01065    0.000
 6560.00    1.24137   0.98474    0.000
 6561.00    1.25277   0.97894    0.000
 6562.00    1.25196   0.99279    0.000
 6563.00    1.24101   1.01984    0.000
 6564.00    1.22143   1.05437    0.000
 6565.00    1.21694   1.09047    0.000
 6566.00    1.22377   1.12290    0.000
 6567.00    1.22383   1.14961    0.000
 6568.00    1.21943   1.16997    0.000
 6569.00    1.20888   1.18374    0.000
 6570.00    1.19477   1.19269    0.000
 6571.00    1.19106   1.19976    0.000
 6572.00    1.19257   1.20744    0.000
 6573.00    1.20963   1.21719    0.000
 6574.00    1.23346   1.22844    0.000
 6575.00    1.24105   1.23941    0.000
 6576.00    1.24258   1.24853    0.000
 6577.00    1.23509   1.25506    0.000
 6578.00    1.22476   1.25927    0.000
 6579.00    1.26259   1.26218    0.000
 6580.00    1.31317   1.26438    0.000
 6581.00    1.33614   1.26585    0.000
 6582.00    1.35313   1.26674    0.000
 6583.00    1.35703   1.26734    0.000
 6584.00    1.35869   1.26821    0.000
 6585.00    1.33106   1.26911    0.000
 6586.00    1.29962   1.26884    0.000
 6587.00    1.26645   1.26654    0.000
 6588.00    1.23312   1.26150    0.000
 6589.00    1.21305   1.25353    0.000
 6590.00    1.19372   1.24490    0.000
 6591.00    1.21412   1.23988    0.000
 6592.00    1.23511   1.23970    0.000
 6593.00    1.23146   1.24270    0.000
 6594.00    1.22783   1.24774    0.000
 6595.00    1.22474   1.25427    0.000
 6596.00    1.22159   1.26184    0.000
 6597.00    1.21763   1.26971    0.000
 6598.00    1.21564   1.27637    0.000
 6599.00    1.23056   1.28024    0.000
 6600.00    1.24332   1.28075    0.000
 6601.00    1.24237   1.27834    0.000
 6602.00    1.24019   1.27404    0.000
 6603.00    1.23190   1.26906    0.000
 6604.00    1.22272   1.26429    0.000
 6605.00    1.20994   1.26028    0.000
 6606.00    1.19987   1.25797    0.000
 6607.00    1.19890   1.25885    0.000
 6608.00    1.20013   1.26290    0.000
 6609.00    1.20757   1.26821    0.013
 6610.00    1.21784   1.27339    0.013
 6611.00    1.23493   1.27862    0.013
 6612.00    1.25119   1.28430    0.014
 6613.00    1.26573   1.28956    0.014
 6614.00    1.27567   1.29355    0.014
 6615.00    1.27724   1.29644    0.014
 6616.00    1.27177   1.29863    0.014
 6617.00    1.25514   1.29994    0.014
 6618.00    1.23931   1.29993    0.014
 6619.00    1.22459   1.29837    0.014
 6620.00    1.21356   1.29507    0.014
 6621.00    1.20704   1.29050    0.014
 6622.00    1.20692   1.28605    0.014
 6623.00    1.21370   1.28299    0.014
 6624.00    1.22001   1.28086    0.014
 6625.00    1.22587   1.27879    0.014
 6626.00    1.22140   1.27632    0.014
 6627.00    1.20828   1.27306    0.014
 6628.00    1.19559   1.26883    0.014
 6629.00    1.18323   1.26382    0.014
 6630.00    1.18744   1.25863    0.014
 6631.00    1.20240   1.25492    0.013
 6632.00    1.22612   1.25450    0.014
 6633.00    1.25483   1.25725    0.014
 6634.00    1.25229   1.26164    0.014
 6635.00    1.23428   1.26620    0.014
 6636.00    1.22394   1.26982    0.014
 6637.00    1.21687   1.27229    0.014
 6638.00    1.20899   1.27378    0.014
 6639.00    1.20082   1.27359    0.014
 6640.00    1.19042   1.27149    0.014
 6641.00    1.17933   1.26941    0.014
 6642.00    1.19410   1.26927    0.014
 6643.00    1.21557   1.27067    0.014
 6644.00    1.22397   1.27264    0.014
 6645.00    1.22961   1.27512    0.014
 6646.00    1.23367   1.27816    0.014
 6647.00    1.23746   1.28112    0.014
 6648.00    1.24231   1.28344    0.014
 6649.00    1.24729   1.28492    0.014
 6650.00    1.23447   1.28560    0.014
 6651.00    1.22008   1.28572    0.014
 6652.00    1.18665   1.28563    0.014
 6653.00    1.15223   1.28507    0.013
 6654.00    1.14260   1.28386    0.013
 6655.00    1.13351   1.28204    0.013
 6656.00    1.13194   1.27917    0.014
 6657.00    1.13084   1.27491    0.014
 6658.00    1.13986   1.26953    0.014
 6659.00    1.14876   1.26330    0.014
 6660.00    1.15625   1.25682    0.014
 6661.00    1.16312   1.25199    0.014
 6662.00    1.16495   1.25005    0.014
 6663.00    1.16670   1.25032    0.014
 6664.00    1.16806   1.25226    0.014
 6665.00    1.17220   1.25593    0.014
 6666.00    1.18986   1.26109    0.014
 6667.00    1.20265   1.26697    0.014
 6668.00    1.19627   1.27227    0.014
 6669.00    1.19293   1.27577    0.014
 6670.00    1.19956   1.27713    0.014
 6671.00    1.20307   1.27629    0.014
 6672.00    1.19794   1.27315    0.014
 6673.00    1.19445   1.26756    0.014
 6674.00    1.19487   1.25971    0.014
 6675.00    1.19065   1.25195    0.014
 6676.00    1.17687   1.24801    0.014
 6677.00    1.17467   1.24912    0.014
 6678.00    1.19313   1.25352    0.014
 6679.00    1.20051   1.25968    0.014
 6680.00    1.19058   1.26682    0.014
 6681.00    1.17829   1.27409    0.014
 6682.00    1.16277   1.28057    0.014
 6683.00    1.16234   1.28549    0.014
 6684.00    1.18014   1.28852    0.014
 6685.00    1.19015   1.29000    0.014
 6686.00    1.19186   1.29071    0.014
 6687.00    1.19457   1.29096    0.014
 6688.00    1.19823   1.29050    0.014
 6689.00    1.20165   1.28909    0.014
 6690.00    1.20487   1.28674    0.014
 6691.00    1.21026   1.28347    0.014
 6692.00    1.21721   1.27922    0.014
 6693.00    1.19779   1.27439    0.014
 6694.00    1.16147   1.27026    0.014
 6695.00    1.14783   1.26791    0.013
 6696.00    1.14688   1.26748    0.000
 6697.00    1.14989   1.26855    0.000
 6698.00    1.15483   1.27006    0.000
 6699.00    1.14256   1.27099    0.000
 6700.00    1.12306   1.27084    0.000
 6701.00    1.12233   1.26985    0.000
 6702.00    1.12837   1.26884    0.000
 6703.00    1.14431   1.26823    0.000
 6704.00    1.16326   1.26766    0.000
 6705.00    1.16649   1.26689    0.000
 6706.00    1.16573   1.26610    0.000
 6707.00    1.16576   1.26489    0.000
 6708.00    1.16596   1.26286    0.000
 6709.00    1.17652   1.25983    0.000
 6710.00    1.18875   1.25561    0.000
 6711.00    1.19766   1.25043    0.000
 6712.00    1.20616   1.24488    0.000
 6713.00    1.22242   1.23951    0.000
 6714.00    1.23933   1.23528    0.000
 6715.00    1.25008   1.23392    0.000
 6716.00    1.26053   1.23651    0.000
 6717.00    1.26583   1.24172    0.000
 6718.00    1.27106   1.24750    0.000
 6719.00    1.27611   1.25309    0.000
 6720.00    1.27999   1.25859    0.000
 6721.00    1.26091   1.26347    0.000
 6722.00    1.24236   1.26665    0.000
 6723.00    1.22988   1.26796    0.000
 6724.00    1.22032   1.26857    0.000
 6725.00    1.23391   1.26950    0.000
 6726.00    1.24465   1.27092    0.000
 6727.00    1.23828   1.27255    0.000
 6728.00    1.22759   1.27393    0.000
 6729.00    1.19647   1.27464    0.000
 6730.00    1.17273   1.27455    0.000
 6731.00    1.17756   1.27395    0.000
 6732.00    1.18292   1.27301    0.000
 6733.00    1.19000   1.27150    0.000
 6734.00    1.19046   1.26900    0.000
 6735.00    1.17288   1.26560    0.000
 6736.00    1.15837   1.26206    0.000
 6737.00    1.15103   1.25924    0.000
 6738.00    1.14945   1.25711    0.000
 6739.00    1.15952   1.25498    0.000
 6740.00    1.16626   1.25269    0.000
 6741.00    1.16714   1.25093    0.000
 6742.00    1.16361   1.24994    0.000
 6743.00    1.15331   1.24899    0.000
 6744.00    1.14704   1.24753    0.000
 6745.00    1.14626   1.24570    0.000
 6746.00    1.13778   1.24399    0.000
 6747.00    1.12014   1.24295    0.000
 6748.00    1.11630   1.24304    0.000
 6749.00    1.12694   1.24409    0.000
 6750.00    1.14055   1.24572    0.000
 6751.00    1.15691   1.24835    0.000
 6752.00    1.18407   1.25211    0.000
 6753.00    1.22006   1.25649    0.015
 6754.00    1.21943   1.26120    0.016
 6755.00    1.19250   1.26616    0.016
 6756.00    1.15662   1.27094    0.016
 6757.00    1.11510   1.27484    0.016
 6758.00    1.08872   1.27727    0.016
 6759.00    1.07070   1.27789    0.016
 6760.00    1.13290   1.27699    0.016
 6761.00    1.23354   1.27484    0.016
 6762.00    1.30832   1.27131    0.016
 6763.00    1.37240   1.26651    0.017
 6764.00    1.39299   1.26108    0.017
 6765.00    1.39820   1.25650    0.016
 6766.00    1.41215   1.25401    0.016
 6767.00    1.42871   1.25330    0.016
 6768.00    1.39254   1.25363    0.016
 6769.00    1.34331   1.25540    0.016
 6770.00    1.29896   1.25920    0.016
 6771.00    1.25559   1.26463    0.016
 6772.00    1.24910   1.27043    0.016
 6773.00    1.24840   1.27548    0.016
 6774.00    1.24888   1.27912    0.015
 6775.00    1.24950   1.28128    0.015
 6776.00    1.22552   1.28205    0.015
 6777.00    1.19961   1.28099    0.015
 6778.00    1.22620   1.27762    0.015
 6779.00    1.25508   1.27227    0.015
 6780.00    1.22294   1.26576    0.015
 6781.00    1.18991   1.25932    0.015
 6782.00    1.14568   1.25440    0.015
 6783.00    1.10555   1.25176    0.015
 6784.00    1.13963   1.25151    0.015
 6785.00    1.17235   1.25315    0.015
 6786.00    1.19031   1.25562    0.015
 6787.00    1.20455   1.25795    0.015
 6788.00    1.19011   1.25978    0.015
 6789.00    1.17806   1.26069    0.015
 6790.00    1.17994   1.26015    0.016
 6791.00    1.18478   1.25844    0.016
 6792.00    1.20332   1.25669    0.016
 6793.00    1.22399   1.25573    0.015
 6794.00    1.25277   1.25579    0.016
 6795.00    1.26354   1.25667    0.016
 6796.00    1.21750   1.25800    0.015
 6797.00    1.18961   1.25961    0.015
 6798.00    1.21030   1.26136    0.015
 6799.00    1.21910   1.26273    0.015
 6800.00    1.20055   1.26321    0.015
 6801.00    1.18370   1.26276    0.015
 6802.00    1.17020   1.26188    0.015
 6803.00    1.16734   1.26089    0.015
 6804.00    1.18289   1.25965    0.015
 6805.00    1.19777   1.25829    0.015
 6806.00    1.21164   1.25693    0.014
 6807.00    1.22025   1.25551    0.014
 6808.00    1.22186   1.25455    0.014
 6809.00    1.22215   1.25432    0.015
 6810.00    1.22089   1.25438    0.015
 6811.00    1.23433   1.25438    0.016
 6812.00    1.26300   1.25454    0.016
 6813.00    1.27704   1.25556    0.016
 6814.00    1.27771   1.25756    0.016
 6815.00    1.24245   1.25961    0.016
 6816.00    1.17827   1.26096    0.016
 6817.00    1.14895   1.26189    0.015
 6818.00    1.14430   1.26322    0.015
 6819.00    1.16774   1.26525    0.015
 6820.00    1.20862   1.26731    0.015
 6821.00    1.23616   1.26855    0.015
 6822.00    1.25646   1.26864    0.014
 6823.00    1.26150   1.26771    0.014
 6824.00    1.25935   1.26579    0.014
 6825.00    1.25195   1.26307    0.014
 6826.00    1.24241   1.26067    0.014
 6827.00    1.22323   1.25974    0.014
 6828.00    1.20069   1.26012    0.015
 6829.00    1.21017   1.26084    0.015
 6830.00    1.22903   1.26121    0.015
 6831.00    1.21905   1.26113    0.015
 6832.00    1.20208   1.26031    0.015
 6833.00    1.20980   1.25783    0.015
 6834.00    1.22234   1.25295    0.015
 6835.00    1.20573   1.24611    0.015
 6836.00    1.18466   1.23830    0.015
 6837.00    1.19710   1.23057    0.016
 6838.00    1.21329   1.22401    0.016
 6839.00    1.24027   1.21976    0.016
 6840.00    1.26805   1.21894    0.016
 6841.00    1.21302   1.22195    0.015
 6842.00    1.15470   1.22786    0.015
 6843.00    1.16103   1.23508    0.015
 6844.00    1.16947   1.24225    0.014
 6845.00    1.24407   1.24863    0.014
 6846.00    1.31191   1.25360    0.014
 6847.00    1.26545   1.25657    0.014
 6848.00    1.22199   1.25733    0.014
 6849.00    1.20991   1.25615    0.014
 6850.00    1.19791   1.25343    0.015
 6851.00    1.18645   1.24910    0.015
 6852.00    1.18164   1.24331    0.015
 6853.00    1.21446   1.23761    0.015
 6854.00    1.23989   1.23355    0.015
 6855.00    1.23191   1.23114    0.015
 6856.00    1.22544   1.22999    0.015
 6857.00    1.22450   1.22975    0.015
 6858.00    1.21939   1.22987    0.015
 6859.00    1.20139   1.23058    0.015
 6860.00    1.18602   1.23266    0.015
 6861.00    1.17758   1.23563    0.015
 6862.00    1.16874   1.23793    0.015
 6863.00    1.15900   1.23841    0.014
 6864.00    1.15222   1.23717    0.014
 6865.00    1.15122   1.23540    0.014
 6866.00    1.14489   1.23423    0.015
 6867.00    1.12946   1.23371    0.015
 6868.00    1.12392   1.23322    0.015
 6869.00    1.13319   1.23251    0.015
 6870.00    1.13975   1.23219    0.015
 6871.00    1.14278   1.23305    0.015
 6872.00    1.15720   1.23467    0.015
 6873.00    1.18480   1.23626    0.015
 6874.00    1.19959   1.23788    0.015
 6875.00    1.20132   1.23948    0.015
 6876.00    1.20774   1.24045    0.015
 6877.00    1.21837   1.24025    0.015
 6878.00    1.20874   1.23890    0.015
 6879.00    1.18304   1.23698    0.015
 6880.00    1.17428   1.23570    0.015
 6881.00    1.17736   1.23612    0.015
 6882.00    1.17317   1.23818    0.014
 6883.00    1.16454   1.24096    0.014
 6884.00    1.16276   1.24429    0.014
 6885.00    1.16465   1.24867    0.014
 6886.00    1.15041   1.25357    0.014
 6887.00    1.12870   1.25781    0.014
 6888.00    1.13255   1.26066    0.014
 6889.00    1.14662   1.26191    0.014
 6890.00    1.17297   1.26193    0.014
 6891.00    1.20352   1.26112    0.015
 6892.00    1.20638   1.25961    0.015
 6893.00    1.20130   1.25786    0.015
 6894.00    1.19952   1.25678    0.015
 6895.00    1.19852   1.25659    0.015
 6896.00    1.19398   1.25663    0.015
 6897.00    1.18876   1.25663    0.015
 6898.00    1.19150   1.25704    0.015
 6899.00    1.19543   1.25815    0.015
 6900.00    1.18965   1.25934    0.015
 6901.00    1.18281   1.26018    0.015
 6902.00    1.17681   1.26081    0.015
 6903.00    1.17087   1.26144    0.015
 6904.00    1.16185   1.26214    0.014
 6905.00    1.15273   1.26264    0.014
 6906.00    1.17238   1.26229    0.014
 6907.00    1.19105   1.26092    0.014
 6908.00    1.17282   1.25835    0.014
 6909.00    1.15444   1.25470    0.014
 6910.00    1.13373   1.25064    0.014
 6911.00    1.11519   1.24659    0.014
 6912.00    1.11850   1.24345    0.014
 6913.00    1.12384   1.24223    0.015
 6914.00    1.14387   1.24279    0.015
 6915.00    1.15931   1.24474    0.015
 6916.00    1.14949   1.24801    0.015
 6917.00    1.14210   1.25168    0.015
 6918.00    1.14545   1.25450    0.015
 6919.00    1.15265   1.25578    0.015
 6920.00    1.17383   1.25508    0.015
 6921.00    1.18711   1.25249    0.015
 6922.00    1.17637   1.24866    0.015
 6923.00    1.16649   1.24502    0.014
 6924.00    1.15884   1.24294    0.014
 6925.00    1.14805   1.24248    0.014
 6926.00    1.13033   1.24274    0.014
 6927.00    1.12300   1.24325    0.014
 6928.00    1.13572   1.24400    0.014
 6929.00    1.13858   1.24461    0.014
 6930.00    1.12486   1.24476    0.014
 6931.00    1.12719   1.24478    0.015
 6932.00    1.15317   1.24562    0.015
 6933.00    1.16932   1.24712    0.015
 6934.00    1.17276   1.24846    0.015
 6935.00    1.18094   1.24953    0.015
 6936.00    1.19452   1.25058    0.015
 6937.00    1.21443   1.25133    0.016
 6938.00    1.24073   1.25101    0.016
 6939.00    1.25051   1.24913    0.016
 6940.00    1.24564   1.24574    0.015
 6941.00    1.22514   1.24154    0.015
 6942.00    1.19244   1.23741    0.015
 6943.00    1.17108   1.23429    0.015
 6944.00    1.15752   1.23317    0.014
 6945.00    1.14862   1.23352    0.014
 6946.00    1.14252   1.23424    0.014
 6947.00    1.15994   1.23469    0.014
 6948.00    1.18974   1.23441    0.014
 6949.00    1.17537   1.23368    0.014
 6950.00    1.14086   1.23341    0.015
 6951.00    1.12976   1.23374    0.015
 6952.00    1.12786   1.23460    0.015
 6953.00    1.12766   1.23637    0.015
 6954.00    1.12803   1.23920    0.015
 6955.00    1.12790   1.24234    0.015
 6956.00    1.12761   1.24509    0.015
 6957.00    1.13966   1.24725    0.015
 6958.00    1.15456   1.24899    0.015
 6959.00    1.17698   1.25049    0.015
 6960.00    1.20079   1.25152    0.015
 6961.00    1.21582   1.25209    0.015
 6962.00    1.22959   1.25246    0.015
 6963.00    1.20849   1.25235    0.015
 6964.00    1.18378   1.25220    0.014
 6965.00    1.17222   1.25291    0.015
 6966.00    1.16152   1.25378    0.015
 6967.00    1.13441   1.25352    0.015
 6968.00    1.10678   1.25152    0.015
 6969.00    1.12895   1.24819    0.015
 6970.00    1.15125   1.24420    0.015
 6971.00    1.17755   1.23845    0.015
 6972.00    1.19942   1.22995    0.015
 6973.00    1.15549   1.22015    0.015
 6974.00    1.11730   1.21102    0.015
 6975.00    1.13426   1.20341    0.015
 6976.00    1.15447   1.19821    0.016
 6977.00    1.19726   1.19752    0.016
 6978.00    1.22858   1.20238    0.016
 6979.00    1.19832   1.21053    0.016
 6980.00    1.17201   1.21949    0.015
 6981.00    1.16272   1.22820    0.015
 6982.00    1.15441   1.23561    0.015
 6983.00    1.14959   1.24110    0.015
 6984.00    1.15597   1.24471    0.015
 6985.00    1.19576   1.24674    0.015
 6986.00    1.21992   1.24743    0.015
 6987.00    1.20438   1.24724    0.015
 6988.00    1.18600   1.24736    0.015
 6989.00    1.16140   1.24825    0.015
 6990.00    1.15672   1.24899    0.015
 6991.00    1.18984   1.24857    0.015
 6992.00    1.21305   1.24698    0.015
 6993.00    1.21985   1.24478    0.015
 6994.00    1.22041   1.24219    0.016
 6995.00    1.21194   1.23868    0.016
 6996.00    1.20280   1.23390    0.016
 6997.00    1.19283   1.22852    0.016
 6998.00    1.18385   1.22417    0.016
 6999.00    1.17600   1.22187    0.016
 7000.00    1.16720   1.22066    0.016
 7001.00    1.15748   1.21923    0.016
 7002.00    1.14341   1.21801    0.016
 7003.00    1.12555   1.21826    0.015
 7004.00    1.12968   1.22017    0.015
 7005.00    1.15075   1.22287    0.015
 7006.00    1.16086   1.22550    0.015
 7007.00    1.16354   1.22747    0.015
 7008.00    1.14985   1.22794    0.015
 7009.00    1.12643   1.22633    0.015
 7010.00    1.12026   1.22349    0.015
 7011.00    1.12301   1.22027    0.015
 7012.00    1.12670   1.21626    0.015
 7013.00    1.13080   1.21128    0.016
 7014.00    1.15767   1.20706    0.016
 7015.00    1.19333   1.20656    0.016
 7016.00    1.15442   1.20970    0.016
 7017.00    1.09104   1.21336    0.016
 7018.00    1.11508   1.21573    0.016
 7019.00    1.16317   1.21713    0.016
 7020.00    1.14292   1.21761    0.016
 7021.00    1.10721   1.21708    0.016
 7022.00    1.13400   1.21659    0.016
 7023.00    1.17209   1.21769    0.016
 7024.00    1.16161   1.22057    0.016
 7025.00    1.14439   1.22407    0.015
 7026.00    1.14004   1.22753    0.015
 7027.00    1.13697   1.23095    0.015
 7028.00    1.14244   1.23391    0.015
 7029.00    1.14845   1.23585    0.015
 7030.00    1.14148   1.23632    0.016
 7031.00    1.13412   1.23559    0.016
 7032.00    1.11947   1.23450    0.016
 7033.00    1.10649   1.23419    0.016
 7034.00    1.13941   1.23501    0.016
 7035.00    1.16758   1.23578    0.016
 7036.00    1.12915   1.23669    0.016
 7037.00    1.09743   1.24013    0.017
 7038.00    1.12754   1.24640    0.017
 7039.00    1.15221   1.25301    0.016
 7040.00    1.14023   1.25799    0.016
 7041.00    1.13190   1.26122    0.016
 7042.00    1.14262   1.26314    0.016
 7043.00    1.15306   1.26425    0.016
 7044.00    1.16232   1.26515    0.016
 7045.00    1.16607   1.26549    0.016
 7046.00    1.15066   1.26455    0.016
 7047.00    1.14145   1.26214    0.016
 7048.00    1.15040   1.25852    0.016
 7049.00    1.15461   1.25382    0.016
 7050.00    1.14704   1.24803   -2.000
 7051.00    1.14469   1.24244   -2.000
 7052.00    1.15358   1.23870   -2.000
 7053.00    1.17838   1.23671   -2.000
 7054.00    1.23289   1.23581   -2.000
 7055.00    1.25967   1.23533   -2.000
 7056.00    1.24122   1.23467   -2.000
 7057.00    1.23539   1.23361   -2.000
 7058.00    1.24761   1.23257   -2.000
 7059.00    1.24697   1.23228   -2.000
 7060.00    1.23016   1.23209   -2.000
 7061.00    1.22269   1.23125   -2.000
 7062.00    1.22558   1.23004   -2.000
 7063.00    1.24846   1.22842   -2.000
 7064.00    1.29088   1.22569   -2.000
 7065.00    1.28513   1.22246   -2.000
 7066.00    1.23782   1.22042   -2.000
 7067.00    1.19030   1.22126   -2.000
 7068.00    1.14262   1.22477   -2.000
 7069.00    1.13942   1.22891   -2.000
 7070.00    1.16593   1.23273   -2.000
 7071.00    1.23831   1.23663   -2.000
 7072.00    1.33752   1.24036   -2.000
 7073.00    1.35491   1.24312   -2.000
 7074.00    1.33061   1.24468   -2.000
 7075.00    1.31129   1.24542   -2.000
 7076.00    1.29419   1.24510   -2.000
 7077.00    1.29358   1.24301   -2.000
 7078.00    1.29922   1.23927   -2.000
 7079.00    1.26455   1.23410   -2.000
 7080.00    1.21690   1.22698   -2.000
 7081.00    1.22576   1.21800   -2.000
 7082.00    1.24985   1.20869   -2.000
 7083.00    1.26396   1.20139   -2.000
 7084.00    1.27587   1.19704   -2.000
 7085.00    1.23455   1.19412   -2.000
 7086.00    1.18387   1.19179   -2.000
 7087.00    1.16130   1.19054   -2.000
 7088.00    1.14249   1.19039   -2.000
 7089.00    1.17020   1.19136   -2.000
 7090.00    1.20233   1.19296   -2.000
 7091.00    1.23863   1.19447   -2.000
 7092.00    1.27518   1.19666   -2.000
 7093.00    1.22525   1.19945   -2.000
 7094.00    1.17325   1.20242   -2.000
 7095.00    1.12988   1.20536   -2.000
 7096.00    1.08814   1.20815   -2.000
 7097.00    1.08704   1.21083   -2.000
 7098.00    1.08759   1.21289   -2.000
 7099.00    1.11013   1.21372   -2.000
 7100.00    1.12593   1.21342   -2.000
 7101.00    1.08210   1.21279   -2.000
 7102.00    1.04545   1.21236   -2.000
 7103.00    1.05568   1.21105   -2.000
 7104.00    1.07163   1.20782   -2.000
 7105.00    1.11672   1.20328   -2.000
 7106.00    1.14792   1.19924   -2.000
 7107.00    1.12197   1.19600   -2.000
 7108.00    1.10055   1.19231   -2.000
 7109.00    1.09457   1.18856   -2.000
 7110.00    1.09324   1.18639   -2.000
 7111.00    1.10524   1.18626   -2.000
 7112.00    1.11323   1.18695   -2.000
 7113.00    1.11133   1.18731   -2.000
 7114.00    1.12285   1.18747   -2.000
 7115.00    1.16279   1.18719   -2.000
 7116.00    1.20755   1.18671   -2.000
 7117.00    1.26118   1.18605   -2.000
 7118.00    1.25212   1.18533   -2.000
 7119.00    1.14237   1.18456   -2.000
 7120.00    1.10389   1.18403   -2.000
 7121.00    1.16590   1.18483   -2.000
 7122.00    1.20524   1.18643   -2.000
 7123.00    1.21646   1.18661   -2.000
 7124.00    1.19219   1.18533   -2.000
 7125.00    1.12911   1.18413   -2.000
 7126.00    1.12469   1.18362   -2.000
 7127.00    1.17686   1.18272   -2.000
 7128.00    1.15629   1.18100   -2.000
 7129.00    1.07387   1.18108   -2.000
 7130.00    1.06044   1.18471   -2.000
 7131.00    1.09866   1.19031   -2.000
 7132.00    1.17392   1.19581   -2.000
 7133.00    1.27354   1.20053   -2.000
 7134.00    1.21310   1.20504   -2.000
 7135.00    1.06048   1.20936   -2.000
 7136.00    1.09178   1.21167   -2.000
 7137.00    1.21536   1.21130   -2.000
 7138.00    1.23274   1.21007   -2.000
 7139.00    1.20401   1.20935   -2.000
 7140.00    1.17129   1.20752   -2.000
 7141.00    1.13709   1.20349   -2.000
 7142.00    1.09579   1.19876   -2.000
 7143.00    1.05224   1.19454   -2.000
 7144.00    1.05991   1.19085   -2.000
 7145.00    1.08108   1.18685   -2.000
 7146.00    1.10819   1.18365   -2.000
 7147.00    1.13659   1.18437   -2.000
 7148.00    1.17817   1.18830   -2.000
 7149.00    1.22200   1.19308   -2.000
 7150.00    1.19174   1.19867   -2.000
 7151.00    1.15188   1.20472   -2.000
 7152.00    1.10760   1.20953   -2.000
 7153.00    1.06291   1.21199   -2.000
 7154.00    1.11802   1.21359   -2.000
 7155.00    1.17859   1.21546   -2.000
 7156.00    1.16793   1.21521   -2.000
 7157.00    1.15498   1.21195   -2.000
 7158.00    1.06933   1.20703   -2.000
 7159.00    0.99348   1.20250   -2.000
 7160.00    1.13988   1.19911   -2.000
 7161.00    1.28024   1.19552   -2.000
 7162.00    1.34454   1.19148   -2.000
 7163.00    1.39228   1.19000   -2.000
 7164.00    1.29865   1.19367   -2.000
 7165.00    1.20122   1.20115   -2.000
 7166.00    1.07964   1.20911   -2.000
 7167.00    1.00810   1.21583   -2.000
 7168.00    1.18504   1.22151   -2.000
 7169.00    1.32493   1.22656   -2.000
 7170.00    1.31568   1.23033   -2.000
 7171.00    1.28315   1.23183   -2.000
 7172.00    1.17285   1.23082   -2.000
 7173.00    1.09569   1.22729   -2.000
 7174.00    1.11202   1.22230   -2.000
 7175.00    1.13117   1.21799   -2.000
 7176.00    1.15709   1.21492   -2.000
 7177.00    1.18475   1.21101   -2.000
 7178.00    1.21601   1.20558   -2.000
 7179.00    1.22805   1.20076   -2.000
 7180.00    1.20531   1.19851   -2.000
 7181.00    1.17437   1.19788   -2.000
 7182.00    1.13046   1.19604   -2.000
 7183.00    1.09829   1.19245   -2.000
 7184.00    1.08243   1.18827   -2.000
 7185.00    1.04479   1.18416   -2.000
 7186.00    0.98052   1.18111   -2.000
 7187.00    0.99147   1.17979   -2.000
 7188.00    1.08349   1.18037   -2.000
 7189.00    1.12866   1.18257   -2.000
 7190.00    1.12928   1.18489   -2.000
 7191.00    1.09363   1.18728   -2.000
 7192.00    1.02758   1.19108   -2.000
 7193.00    1.02613   1.19610   -2.000
 7194.00    1.07238   1.19974   -2.000
 7195.00    1.10939   1.20130   -2.000
 7196.00    1.14042   1.20284   -2.000
 7197.00    1.11641   1.20500   -2.000
 7198.00    1.06116   1.20625   -2.000
 7199.00    1.05529   1.20532   -2.000
 7200.00    1.07379   1.20258   -2.000
 7201.00    1.13231   1.20021   -2.000
 7202.00    1.20790   1.19861   -2.000
 7203.00    1.20489   1.19614   -2.000
 7204.00    1.17313   1.19197   -2.000
 7205.00    1.04425   1.18778   -2.000
 7206.00    0.88529   1.18672   -2.000
 7207.00    0.91767   1.18875   -2.000
 7208.00    0.99943   1.19175   -2.000
 7209.00    1.01744   1.19472   -2.000
 7210.00    1.02205   1.19694   -2.000
 7211.00    1.03567   1.19838   -2.000
 7212.00    1.05079   1.19939   -2.000
 7213.00    1.06263   1.20021   -2.000
 7214.00    1.07405   1.20082   -2.000
 7215.00    1.09881   1.20130   -2.000
 7216.00    1.12472   1.20134   -2.000
 7217.00    1.12381   1.20043   -2.000
 7218.00    1.12154   1.19901   -2.000
