###################################################################
## OUTPUT of StarlightChains_v04.for    [Cid@UFSC - 01/Apr/2007] ##
###################################################################

## Some input info
KUG0210-078._28_26.txt                   [arq_obs]
Base.CB07.vall.4m                        [arq_base]
Masks.EmLines.NEW.gm                     [arq_masks]
StCv04.C11.config                        [arq_config]
   66                                    [N_base]
    0                                    [N_YAV_components = # of components with extra extinction!]
    0                                    [i_FitPowerLaw (1/0 = Yes/No)]
-9.99                                    [alpha_PowerLaw]
CCM                                      [red_law_option]
 1.458241                                [q_norm = A(l_norm)/A(V)]

## (Re)Sampling Parameters
 3741.00                                 [l_ini (A)]
 7218.00                                 [l_fin (A)]
    1.00                                 [dl    (A)]     (OBS: dl_cushion =    50.00 A)

## Normalization info
 4020.00                                 [l_norm (A) - for base]
 4010.00                                 [llow_norm (A) - window for f_obs]
 4060.00                                 [lupp_norm (A) - window for f_obs]
1.553334E-17                             [fobs_norm (in input units)]

## S/N
 3691.00                                 [llow_SN (A) - window for S/N]
 7268.00                                 [lupp_SN (A) - window for S/N]
   5.306                                 [S/N in S/N window]
   5.124                                 [S/N in norm. window]
   0.022                                 [S/N_err in S/N window]
   0.022                                 [S/N_err in norm. window]
  1.0000                                 [fscale_chi2]

## etc...
    -2007374                             [idum_orig]
  2409                                   [NOl_eff]
  2280                                   [Nl_eff]
   129    NSIGMA                         [Ntot_cliped & clip_method]
 10097010                                [Nglobal_steps]
   7                                     [N_chains]
   7                                     [NEX0s_base = N_base in EX0s-fits]
 0   0   1      129   2.0   7.704E+03    [Clip-Bug, RC-Crash & Burn-In warning-flags, n_censored_weights, wei_nsig_threshold & wei_limit]
   680    358.715    356.722      1.993  [idt_all, wdt_TotTime, wdt_UsrTime & wdt_SysTime (sec)]

## Synthesis Results - Best model ##

 1.46991E-05                             [chi2/Nl_eff]
    10.63457                             [adev (%)]

   102.09689                             [sum-of-x (%)]
 1.98719E-17                             [Flux_tot (units of input spectrum!)]
 2.01300E-13                             [Mini_tot (???)]
 1.15194E-13                             [Mcor_tot (???)]

-349.78                                  [v0_min  (km/s)]
 299.72                                  [vd_min  (km/s)]
 0.1679                                  [AV_min  (mag)]
 0.0000                                  [YAV_min (mag)]

# j     x_j(%)      Mini_j(%)     Mcor_j(%)     age_j(yr)     Z_j      (L/M)_j    YAV?  Mstars   component_j        a/Fe...       SSP_chi2r SSP_adev(%)   SSP_AV   SSP_x(%)
  1      0.0000     0.0000E+00    0.0000E+00    1.000000E+06  0.00400  1.094E-02    0   1.0000   age020_m42            0.0000     2.0962E-05    12.7574   3.3208    87.6047
  2      0.0000     0.0000E+00    0.0000E+00    3.160000E+06  0.00400  4.007E-02    0   0.9999   age045_m42            0.0000     1.9796E-05    12.2757   2.6438    91.5241
  3      0.0000     0.0000E+00    0.0000E+00    5.010000E+06  0.00400  2.539E-02    0   0.9488   age055_m42            0.0000     2.0445E-05    12.4582   2.9490    89.9450
  4      0.0000     0.0000E+00    0.0000E+00    6.610000E+06  0.00400  2.620E-02    0   0.9220   age061_m42            0.0000     1.9927E-05    12.1924   2.5803    91.3220
  5      0.0000     0.0000E+00    0.0000E+00    1.000000E+07  0.00400  1.322E-02    0   0.8862   age070_m42            0.0000     2.0251E-05    12.0528   2.3177    92.5959
  6      0.0000     0.0000E+00    0.0000E+00    1.445000E+07  0.00400  7.883E-03    0   0.8571   age078_m42            0.0000     2.0637E-05    12.1616   2.6283    90.9198
  7      0.0000     0.0000E+00    0.0000E+00    2.512000E+07  0.00400  5.251E-03    0   0.8174   age090_m42            0.0000     2.0352E-05    12.0894   2.1943    92.8596
  8      0.0000     0.0000E+00    0.0000E+00    4.000000E+07  0.00400  3.649E-03    0   0.7851   age104_m42            0.0000     1.9886E-05    11.9647   1.9719    93.4137
  9      0.0000     0.0000E+00    0.0000E+00    5.500000E+07  0.00400  3.098E-03    0   0.7629   age110_m42            0.0000     1.9801E-05    11.9327   2.1272    93.2671
 10      0.0000     0.0000E+00    0.0000E+00    1.015200E+08  0.00400  2.228E-03    0   0.7207   age116_m42            0.0000     1.9715E-05    11.9299   2.1509    93.2547
 11      0.0000     0.0000E+00    0.0000E+00    2.861200E+08  0.00400  1.093E-03    0   0.6648   age125_m42            0.0000     1.8983E-05    11.7425   1.5831    95.7247
 12      0.0000     0.0000E+00    0.0000E+00    5.088000E+08  0.00400  6.597E-04    0   0.6365   age130_m42            0.0000     1.8304E-05    11.5565   1.5690    96.6759
 13      0.0000     0.0000E+00    0.0000E+00    1.434000E+09  0.00400  2.132E-04    0   0.5798   age139_m42            0.0000     1.6048E-05    10.9555   0.5801    99.4170
 14     20.8292     3.4164E+01    3.2102E+01    4.250000E+09  0.00400  5.895E-05    0   0.5377   age158_m42            0.0000     1.4811E-05    10.6996   0.0754    98.1988
 15      0.0000     0.0000E+00    0.0000E+00    7.500000E+09  0.00400  3.510E-05    0   0.5212   age171_m42            0.0000     1.4711E-05    10.6610  -0.1297    98.1683
 16      0.0000     0.0000E+00    0.0000E+00    1.300000E+10  0.00400  2.005E-05    0   0.5034   age193_m42            0.0000     1.4867E-05    10.6882  -0.3100    98.1649
 17      0.0000     0.0000E+00    0.0000E+00    1.800000E+10  0.00400  1.525E-05    0   0.4967   age213_m42            0.0000     1.4831E-05    10.6699  -0.3331    97.7430
 18      0.0000     0.0000E+00    0.0000E+00    1.000000E+06  0.00800  1.238E-02    0   1.0000   age020_m52            0.0000     2.0956E-05    12.7547   3.3171    87.7843
 19      0.0000     0.0000E+00    0.0000E+00    3.160000E+06  0.00800  3.074E-02    0   0.9966   age045_m52            0.0000     2.0929E-05    12.7578   3.2431    88.4437
 20      0.0000     0.0000E+00    0.0000E+00    5.010000E+06  0.00800  2.668E-02    0   0.9443   age055_m52            0.0000     2.0618E-05    12.4957   3.0266    89.3631
 21      0.0000     0.0000E+00    0.0000E+00    6.610000E+06  0.00800  2.136E-02    0   0.9177   age061_m52            0.0000     1.8490E-05    11.6648   1.7909    94.8200
 22      0.0000     0.0000E+00    0.0000E+00    1.000000E+07  0.00800  1.215E-02    0   0.8827   age070_m52            0.0000     2.0589E-05    12.1552   2.4871    92.7850
 23      0.0000     0.0000E+00    0.0000E+00    1.445000E+07  0.00800  8.717E-03    0   0.8552   age078_m52            0.0000     2.0436E-05    12.1023   2.5972    92.0590
 24      0.0000     0.0000E+00    0.0000E+00    2.512000E+07  0.00800  5.592E-03    0   0.8162   age090_m52            0.0000     2.0329E-05    12.0881   2.2578    93.9311
 25      0.0000     0.0000E+00    0.0000E+00    4.000000E+07  0.00800  3.896E-03    0   0.7841   age104_m52            0.0000     1.9899E-05    11.9683   2.1729    94.4698
 26      0.0000     0.0000E+00    0.0000E+00    1.015200E+08  0.00800  2.148E-03    0   0.7226   age116_m52            0.0000     1.9275E-05    11.8321   2.1116    94.2536
 27      0.0000     0.0000E+00    0.0000E+00    2.861200E+08  0.00800  9.925E-04    0   0.6683   age125_m52            0.0000     1.8397E-05    11.5966   1.6407    97.3009
 28      0.0000     0.0000E+00    0.0000E+00    9.047900E+08  0.00800  3.141E-04    0   0.6138   age135_m52            0.0000     1.5662E-05    10.8142   0.7997   103.0851
 29      0.0000     0.0000E+00    0.0000E+00    1.434000E+09  0.00800  1.719E-04    0   0.5853   age139_m52            0.0000     1.5027E-05    10.6477   0.1945   101.9958
 30      0.0000     0.0000E+00    0.0000E+00    2.500000E+09  0.00800  7.872E-05    0   0.5600   age150_m52            0.0000     1.4728E-05    10.6553  -0.1038   100.5907
 31      0.0000     0.0000E+00    0.0000E+00    4.250000E+09  0.00800  4.336E-05    0   0.5426   age158_m52            0.0000     1.4737E-05    10.6535  -0.1304   100.1248
 32      0.0000     0.0000E+00    0.0000E+00    6.250000E+09  0.00800  3.159E-05    0   0.5319   age166_m52            0.0000     1.5040E-05    10.7560  -0.3471   100.6305
 33      0.0000     0.0000E+00    0.0000E+00    1.300000E+10  0.00800  1.361E-05    0   0.5073   age193_m52            0.0000     1.5923E-05    11.0420  -0.8309   100.5064
 34      0.0000     0.0000E+00    0.0000E+00    1.800000E+10  0.00800  9.886E-06    0   0.4990   age213_m52            0.0000     1.6829E-05    11.3295  -0.9519   100.4374
 35      0.0000     0.0000E+00    0.0000E+00    1.000000E+06  0.02000  1.544E-02    0   1.0000   age020_m62            0.0000     2.0970E-05    12.7631   3.3126    88.0267
 36      0.0000     0.0000E+00    0.0000E+00    3.160000E+06  0.02000  3.762E-02    0   0.9858   age045_m62            0.0000     2.1040E-05    12.7849   3.2527    88.7395
 37      0.0000     0.0000E+00    0.0000E+00    5.010000E+06  0.02000  3.296E-02    0   0.9342   age055_m62            0.0000     2.0394E-05    12.4297   2.9188    90.6201
 38      0.0000     0.0000E+00    0.0000E+00    8.710000E+06  0.02000  1.154E-02    0   0.8861   age067_m62            0.0000     2.3089E-05    13.3228   1.9408    95.2968
 39      0.0000     0.0000E+00    0.0000E+00    1.445000E+07  0.02000  7.663E-03    0   0.8472   age078_m62            0.0000     2.0659E-05    12.2914   2.1322    94.8422
 40      0.0000     0.0000E+00    0.0000E+00    2.512000E+07  0.02000  4.532E-03    0   0.8099   age090_m62            0.0000     2.1197E-05    12.4679   2.1345    94.1041
 41      0.0000     0.0000E+00    0.0000E+00    5.500000E+07  0.02000  2.733E-03    0   0.7595   age110_m62            0.0000     1.9961E-05    11.9646   2.1559    93.7957
 42      0.0000     0.0000E+00    0.0000E+00    1.609000E+08  0.02000  1.369E-03    0   0.6985   age120_m62            0.0000     1.9428E-05    11.8140   2.0111    95.5500
 43      0.0000     0.0000E+00    0.0000E+00    2.861200E+08  0.02000  9.013E-04    0   0.6714   age125_m62            0.0000     1.8718E-05    11.6042   1.7695    97.8912
 44      0.0000     0.0000E+00    0.0000E+00    5.088000E+08  0.02000  5.028E-04    0   0.6449   age130_m62            0.0000     1.6954E-05    11.1986   1.3643   101.5779
 45      0.0000     0.0000E+00    0.0000E+00    9.047900E+08  0.02000  2.428E-04    0   0.6179   age135_m62            0.0000     1.5168E-05    10.7704   0.7235   103.2813
 46     70.2495     5.3780E+01    5.5524E+01    1.434000E+09  0.02000  1.263E-04    0   0.5908   age139_m62            0.0000     1.4697E-05    10.6125   0.2524   102.9391
 47      0.0000     0.0000E+00    0.0000E+00    2.500000E+09  0.02000  5.985E-05    0   0.5673   age150_m62            0.0000     1.5049E-05    10.8489  -0.1417   102.6202
 48      0.0000     0.0000E+00    0.0000E+00    4.250000E+09  0.02000  3.271E-05    0   0.5468   age158_m62            0.0000     1.6014E-05    11.2581  -0.4636   102.3219
 49      0.0000     0.0000E+00    0.0000E+00    1.000000E+10  0.02000  1.360E-05    0   0.5167   age181_m62            0.0000     1.7663E-05    11.7064  -0.8340   102.6277
 50      0.0000     0.0000E+00    0.0000E+00    1.800000E+10  0.02000  7.124E-06    0   0.5013   age213_m62            0.0000     1.9350E-05    11.8252  -1.0000   100.5827
 51      0.0000     0.0000E+00    0.0000E+00    1.000000E+06  0.05000  2.592E-02    0   0.9998   age020_m72            0.0000     2.1022E-05    12.7865   3.2979    88.2982
 52      0.0000     0.0000E+00    0.0000E+00    3.160000E+06  0.05000  4.845E-02    0   0.9577   age045_m72            0.0000     2.0923E-05    12.7178   3.1533    89.2012
 53      0.0000     0.0000E+00    0.0000E+00    5.010000E+06  0.05000  3.072E-02    0   0.9147   age055_m72            0.0000     2.0700E-05    12.3318   2.6844    92.4141
 54      0.0000     0.0000E+00    0.0000E+00    6.610000E+06  0.05000  1.455E-02    0   0.8877   age061_m72            0.0000     2.6622E-05    14.9730   1.9563    96.3865
 55      0.0000     0.0000E+00    0.0000E+00    1.000000E+07  0.05000  9.074E-03    0   0.8524   age070_m72            0.0000     2.1890E-05    13.1565   2.8485    92.2571
 56      0.0000     0.0000E+00    0.0000E+00    2.512000E+07  0.05000  4.250E-03    0   0.7902   age090_m72            0.0000     2.1230E-05    12.5844   2.5927    92.5920
 57      0.0000     0.0000E+00    0.0000E+00    4.000000E+07  0.05000  3.087E-03    0   0.7618   age104_m72            0.0000     2.1345E-05    12.6030   2.3807    93.4731
 58      0.0000     0.0000E+00    0.0000E+00    1.015200E+08  0.05000  1.700E-03    0   0.7096   age116_m72            0.0000     2.0027E-05    12.0025   2.1545    95.0410
 59      0.0000     0.0000E+00    0.0000E+00    2.861200E+08  0.05000  7.384E-04    0   0.6633   age125_m72            0.0000     1.7898E-05    11.3583   1.6269    99.6436
 60      0.0000     0.0000E+00    0.0000E+00    5.088000E+08  0.05000  3.819E-04    0   0.6372   age130_m72            0.0000     1.6115E-05    11.0760   1.0876   103.3201
 61      0.0000     0.0000E+00    0.0000E+00    9.047900E+08  0.05000  1.676E-04    0   0.6110   age135_m72            0.0000     1.5240E-05    11.0752   0.3254   104.3028
 62     11.0182     1.2056E+01    1.2375E+01    1.434000E+09  0.05000  8.837E-05    0   0.5874   age139_m72            0.0000     1.5268E-05    10.8838  -0.1509   104.4661
 63      0.0000     0.0000E+00    0.0000E+00    2.500000E+09  0.05000  4.233E-05    0   0.5598   age150_m72            0.0000     1.6444E-05    11.4146  -0.4741   103.5718
 64      0.0000     0.0000E+00    0.0000E+00    6.250000E+09  0.05000  1.435E-05    0   0.5249   age166_m72            0.0000     1.8245E-05    11.9700  -0.9392   102.4797
 65      0.0000     0.0000E+00    0.0000E+00    1.300000E+10  0.05000  6.513E-06    0   0.5036   age193_m72            0.0000     2.1471E-05    11.6109  -1.0000    96.8741
 66      0.0000     0.0000E+00    0.0000E+00    1.800000E+10  0.05000  4.527E-06    0   0.4945   age213_m72            0.0000     2.5448E-05    11.9850  -1.0000    91.7553


## Synthesis Results - Average & Chains ##

# j      x_j: min, <> & last-chain-values for 1 ...  7 chains
  1      0.0000      0.3276      0.0142      0.0000      0.0292      0.0000      0.0208      0.0000      0.0820
  2      0.0000      0.4013      0.0013      0.4645      0.0000      0.0000      0.0125      0.2107      0.0044
  3      0.0000      0.4005      0.0065      0.0104      0.0000      0.0096      0.0000      0.0212      0.0000
  4      0.0000      0.4229      0.0307      0.7386      0.0000      0.0000      0.0000      0.2098      0.0030
  5      0.0000      0.4467      0.0338      0.2029      0.0012      0.0367      0.0000      0.0639      0.0131
  6      0.0000      0.3107      0.0040      0.7168      0.0000      0.0000      0.0560      0.2956      0.0312
  7      0.0000      0.4288      0.0047      0.0687      0.0000      0.0039      0.0000      0.0000      0.0236
  8      0.0000      0.3136      0.0015      0.0000      0.0000      0.0175      0.0860      0.0989      0.0000
  9      0.0000      0.3989      0.0198      0.4117      0.0170      0.0594      0.0000      0.0691      0.0000
 10      0.0000      0.4701      0.0000      0.3814      0.0249      0.0467      0.0131      0.0182      0.0260
 11      0.0000      0.4236      0.0017      0.2156      0.0833      0.0034      0.0009      0.0805      0.0104
 12      0.0000      0.5419      0.0066      0.2097      0.0000      0.0000      0.0000      0.0271      0.0139
 13      0.0000      0.3596      0.0177      0.2695      0.0706      0.0040      0.0154      0.0998      0.0598
 14     20.8292     54.4179     76.1049     62.7248     73.2593     78.0869     71.5059     69.9281     69.1142
 15      0.0000      0.3630      0.0000      0.2848      0.0000      0.0184      0.0017      0.2385      0.0305
 16      0.0000      0.3179      0.0474      1.0949      0.0521      0.0153      0.0000      0.0446      0.0000
 17      0.0000      0.4994      0.0000      0.0000      0.0849      0.0000      0.0000      0.1365      0.1463
 18      0.0000      0.4522      0.0000      0.2429      0.0085      0.0415      0.0000      0.1128      0.0254
 19      0.0000      0.5854      1.3714      0.0099      0.2028      0.4931      0.4287      0.4603      0.3985
 20      0.0000      0.3531      0.0026      0.4819      0.0000      0.0250      0.0003      0.0000      0.0000
 21      0.0000      0.3815      0.0000      0.0000      0.0000      0.0603      0.0199      0.0000      0.0000
 22      0.0000      0.3303      0.0165      0.1803      0.0659      0.0000      0.0144      0.0071      0.0097
 23      0.0000      0.3776      0.0439      0.0787      0.0105      0.0081      0.0052      0.3180      0.0000
 24      0.0000      0.4730      0.0223      0.1242      0.0371      0.0000      0.0750      0.0000      0.0400
 25      0.0000      0.3598      0.0149      0.0000      0.0000      0.0129      0.0000      0.2429      0.0398
 26      0.0000      0.3853      0.0086      0.0812      0.0000      0.0377      0.0646      0.0119      0.0510
 27      0.0000      0.4096      0.0001      0.1627      0.0210      0.0379      0.0339      0.1135      0.0000
 28      0.0000      0.3856      0.0013      0.2583      0.0000      0.0234      0.0049      0.2117      0.1077
 29      0.0000      0.3630      0.0132      0.0000      0.0144      0.0000      0.0000      0.1043      0.0344
 30      0.0000      0.3363      0.0069      0.1370      0.0000      0.0000      0.0000      0.0000      0.0746
 31      0.0000      0.3329      0.0000      0.0000      0.0163      0.0000      0.0000      0.0000      0.1037
 32      0.0000      0.4408      0.0203      0.8858      0.0000      0.0169      0.0644      0.0000      0.0228
 33      0.0000      0.5138      0.0116      0.2640      0.0574      0.0024      0.0000      0.2129      0.0112
 34      0.0000      0.3304      0.0480      0.5324      0.0000      0.0000      0.0000      0.0407      0.0000
 35      0.0000      0.5657      0.0174      1.0337      0.0320      0.0150      0.0211      0.2178      0.0378
 36      0.0000      2.1210      2.7896      1.6167      4.0324      1.4698      2.8524      2.6484      0.1793
 37      0.0000      0.2862      0.0110      0.0000      0.0129      0.0000      0.0296      0.0357      0.1191
 38      0.0000      0.3048      0.0000      0.1603      0.0533      0.0007      0.0000      0.3765      0.0170
 39      0.0000      0.3718      0.0322      0.0000      0.0302      0.0358      0.0256      0.0446      0.0801
 40      0.0000      0.3418      0.0000      0.0000      0.0441      0.0000      0.0000      0.0711      0.1201
 41      0.0000      0.2821      0.0348      0.0000      0.0234      0.0423      0.0352      0.0000      0.0055
 42      0.0000      0.4114      0.0000      0.0000      0.0725      0.0232      0.0247      0.0736      0.0084
 43      0.0000      0.4946      0.0000      0.0940      0.0000      0.0196      0.0045      0.0000      0.0177
 44      0.0000      0.3987      0.0172      0.0141      0.0000      0.0000      0.0356      0.1143      0.0000
 45      0.0000      0.4011      0.0000      0.0000      0.0000      0.0005      0.0000      0.0305      0.0926
 46     70.2495      3.3439      1.1364      4.6076      3.4192      1.1230      6.4631      3.1812      8.1097
 47      0.0000      0.3526      0.0095      0.2121      0.0655      0.0422      0.0449      0.0332      0.0000
 48      0.0000      0.3802      0.0310      0.3960      0.0126      0.0159      0.0000      0.0925      0.0007
 49      0.0000      0.3624      0.0000      0.1158      0.0000      0.0269      0.0000      0.0282      0.0132
 50      0.0000      0.4247      0.0191      0.0972      0.0000      0.0467      0.1836      0.2407      0.0756
 51      0.0000     10.1700     11.8557     10.0924     11.6795     12.4881     12.3691     12.2095     14.7909
 52      0.0000      0.4203      0.0194      0.0323      0.0111      0.0000      0.0262      0.0000      0.0341
 53      0.0000      0.3892      0.0169      0.6409      0.1008      0.0013      0.0008      0.0962      0.0808
 54      0.0000      0.4434      0.0000      0.6857      0.0761      0.0000      0.0000      0.0447      0.0000
 55      0.0000      0.3646      0.0194      0.0000      0.0466      0.0221      0.0000      0.0659      0.0631
 56      0.0000      0.4080      0.0043      0.5820      0.0503      0.0000      0.0000      0.2317      0.0288
 57      0.0000      0.4716      0.0123      0.5519      0.0200      0.0000      0.0554      0.0000      0.0000
 58      0.0000      0.3533      0.0166      0.0000      0.0912      0.0157      0.0000      0.0000      0.0000
 59      0.0000      0.2994      0.0031      0.0000      0.0165      0.0000      0.0017      0.0004      0.0194
 60      0.0000      0.5728      0.0160      0.6090      0.1151      0.0294      0.0876      0.0000      0.0090
 61      0.0000      0.4388      0.2244      0.5757      0.2039      0.1501      0.3940      0.3174      0.1826
 62     11.0182      0.4230      0.1469      0.0000      0.2054      0.1767      0.0590      0.0570      0.2737
 63      0.0000      0.3167      0.0000      0.6708      0.0013      0.0000      0.0000      0.1194      0.1355
 64      0.0000      0.4807      0.0391      0.3155      0.0847      0.0259      0.0029      0.0999      0.0279
 65      0.0000      0.4551      0.0020      0.5160      0.0068      0.0000      0.0353      0.3515      0.0816
 66      0.0000      0.2864      0.0000      0.2581      0.0000      0.0384      0.0168      0.0419      0.0000

# j      m_j: min, <> & last-chain-values for 1 ...  7 chains
  1  0.0000E+00  4.0089E-03  1.8236E-04  0.0000E+00  3.8280E-04  0.0000E+00  2.6985E-04  0.0000E+00  1.0789E-03
  2  0.0000E+00  1.3409E-03  4.5877E-06  1.4625E-03  0.0000E+00  0.0000E+00  4.4354E-05  7.1773E-04  1.5962E-05
  3  0.0000E+00  2.0041E-03  3.4089E-05  4.8959E-05  0.0000E+00  4.9196E-05  0.0000E+00  1.0812E-04  0.0000E+00
  4  0.0000E+00  1.9926E-03  1.5205E-04  3.2794E-03  0.0000E+00  0.0000E+00  0.0000E+00  1.0078E-03  1.5352E-05
  5  0.0000E+00  4.0092E-03  3.1892E-04  1.7161E-03  1.1110E-05  3.3667E-04  0.0000E+00  5.8514E-04  1.2647E-04
  6  0.0000E+00  4.5225E-03  6.1110E-05  9.8339E-03  0.0000E+00  0.0000E+00  8.6371E-04  4.3880E-03  4.8837E-04
  7  0.0000E+00  8.9366E-03  1.0403E-04  1.3503E-03  0.0000E+00  8.2434E-05  0.0000E+00  0.0000E+00  5.2942E-04
  8  0.0000E+00  9.0330E-03  4.4196E-05  0.0000E+00  0.0000E+00  5.1577E-04  2.6275E-03  2.9052E-03  0.0000E+00
  9  0.0000E+00  1.3153E-02  6.8716E-04  1.2794E-02  5.9788E-04  2.0016E-03  0.0000E+00  2.3216E-03  0.0000E+00
 10  0.0000E+00  2.0360E-02  0.0000E+00  1.5568E-02  1.1518E-03  2.0640E-03  6.0209E-04  8.0563E-04  1.2122E-03
 11  0.0000E+00  3.4495E-02  1.4567E-04  1.6546E-02  7.2574E-03  2.8039E-04  7.4281E-05  6.6875E-03  9.1093E-04
 12  0.0000E+00  7.0005E-02  8.9947E-04  2.5530E-02  0.0000E+00  0.0000E+00  0.0000E+00  3.5747E-03  1.9242E-03
 13  0.0000E+00  1.3094E-01  6.7910E-03  9.2484E-02  2.7500E-02  1.4827E-03  5.9581E-03  3.7036E-02  2.3377E-02
 14  3.2102E+01  6.6459E+01  9.7765E+01  7.2190E+01  9.5673E+01  9.7414E+01  9.2599E+01  8.7074E+01  9.0690E+01
 15  0.0000E+00  7.2168E-01  0.0000E+00  5.3351E-01  0.0000E+00  3.7399E-02  3.4939E-03  4.8344E-01  6.5069E-02
 16  0.0000E+00  1.0686E+00  1.6767E-01  3.4687E+00  1.8728E-01  5.2680E-02  0.0000E+00  1.5278E-01  0.0000E+00
 17  0.0000E+00  2.1777E+00  0.0000E+00  0.0000E+00  3.9611E-01  0.0000E+00  0.0000E+00  6.0672E-01  6.8530E-01
 18  0.0000E+00  4.8907E-03  0.0000E+00  2.4760E-03  9.8629E-05  4.5902E-04  0.0000E+00  1.2437E-03  2.9484E-04
 19  0.0000E+00  2.5412E-03  6.2618E-03  4.0394E-05  9.4127E-04  2.1865E-03  1.9732E-03  2.0374E-03  1.8585E-03
 20  0.0000E+00  1.6734E-03  1.2818E-05  2.1523E-03  0.0000E+00  1.2122E-04  1.6622E-06  0.0000E+00  0.0000E+00
 21  0.0000E+00  2.1949E-03  0.0000E+00  0.0000E+00  0.0000E+00  3.5426E-04  1.2145E-04  0.0000E+00  0.0000E+00
 22  0.0000E+00  3.2128E-03  1.6909E-04  1.6529E-03  6.8546E-04  0.0000E+00  1.4814E-04  7.0190E-05  1.0184E-04
 23  0.0000E+00  4.9607E-03  6.0619E-04  9.7446E-04  1.4783E-04  1.0817E-04  7.2983E-05  4.2585E-03  0.0000E+00
 24  0.0000E+00  9.2433E-03  4.5913E-04  2.2881E-03  7.7536E-04  0.0000E+00  1.5547E-03  0.0000E+00  8.4016E-04
 25  0.0000E+00  9.6955E-03  4.2334E-04  0.0000E+00  0.0000E+00  3.5400E-04  0.0000E+00  6.6729E-03  1.1509E-03
 26  0.0000E+00  1.7354E-02  4.0890E-04  3.4486E-03  0.0000E+00  1.7348E-03  3.0869E-03  5.4760E-04  2.4671E-03
 27  0.0000E+00  3.6930E-02  7.8376E-06  1.3826E-02  2.0260E-03  3.4860E-03  3.2410E-03  1.0436E-02  0.0000E+00
 28  0.0000E+00  1.0090E-01  3.6271E-04  6.3677E-02  0.0000E+00  6.2454E-03  1.3668E-03  5.6489E-02  3.0272E-02
 29  0.0000E+00  1.6550E-01  6.3447E-03  0.0000E+00  7.0006E-03  0.0000E+00  0.0000E+00  4.8485E-02  1.6867E-02
 30  0.0000E+00  3.2032E-01  6.9215E-03  1.2297E-01  0.0000E+00  0.0000E+00  0.0000E+00  0.0000E+00  7.6303E-02
 31  0.0000E+00  5.5772E-01  0.0000E+00  0.0000E+00  2.9171E-02  0.0000E+00  0.0000E+00  0.0000E+00  1.8663E-01
 32  0.0000E+00  9.9385E-01  4.8256E-02  1.8818E+00  0.0000E+00  3.8987E-02  1.5398E-01  0.0000E+00  5.5313E-02
 33  0.0000E+00  2.5642E+00  6.1057E-02  1.2416E+00  3.0608E-01  1.2409E-02  0.0000E+00  1.0831E+00  6.0254E-02
 34  0.0000E+00  2.2328E+00  3.4092E-01  3.3908E+00  0.0000E+00  0.0000E+00  0.0000E+00  2.8038E-01  0.0000E+00
 35  0.0000E+00  4.9060E-03  1.5857E-04  8.4472E-03  2.9710E-04  1.3245E-04  1.9369E-04  1.9255E-03  3.5192E-04
 36  0.0000E+00  7.4418E-03  1.0295E-02  5.3455E-03  1.5129E-02  5.2676E-03  1.0612E-02  9.4742E-03  6.7600E-04
 37  0.0000E+00  1.0862E-03  4.3878E-05  0.0000E+00  5.2206E-05  0.0000E+00  1.1918E-04  1.3831E-04  4.8561E-04
 38  0.0000E+00  3.1336E-03  0.0000E+00  1.5530E-03  5.8574E-04  7.4358E-06  0.0000E+00  3.9467E-03  1.8823E-04
 39  0.0000E+00  5.5044E-03  5.0186E-04  0.0000E+00  4.7756E-04  5.4190E-04  4.0212E-04  6.7298E-04  1.2744E-03
 40  0.0000E+00  8.1791E-03  0.0000E+00  0.0000E+00  1.1276E-03  0.0000E+00  0.0000E+00  1.7357E-03  3.0874E-03
 41  0.0000E+00  1.0497E-02  1.3620E-03  0.0000E+00  9.3191E-04  1.6096E-03  1.3907E-03  0.0000E+00  2.1824E-04
 42  0.0000E+00  2.8109E-02  0.0000E+00  0.0000E+00  5.2968E-03  1.6216E-03  1.7917E-03  5.1239E-03  6.1838E-04
 43  0.0000E+00  4.9334E-02  0.0000E+00  8.8313E-03  0.0000E+00  1.9994E-03  4.7466E-04  0.0000E+00  1.8916E-03
 44  0.0000E+00  6.8469E-02  3.1032E-03  2.2842E-03  0.0000E+00  0.0000E+00  6.4905E-03  2.0015E-02  0.0000E+00
 45  0.0000E+00  1.3668E-01  0.0000E+00  0.0000E+00  0.0000E+00  1.8995E-04  0.0000E+00  1.0586E-02  3.3915E-02
 46  5.5524E+01  2.0943E+00  7.4868E-01  2.7195E+00  2.2900E+00  7.1844E-01  4.2923E+00  2.0315E+00  5.4573E+00
 47  0.0000E+00  4.4749E-01  1.2638E-02  2.5361E-01  8.8856E-02  5.4750E-02  6.0425E-02  4.2955E-02  0.0000E+00
 48  0.0000E+00  8.5100E-01  7.3072E-02  8.3516E-01  3.0175E-02  3.6260E-02  0.0000E+00  2.1113E-01  1.7865E-03
 49  0.0000E+00  1.8433E+00  0.0000E+00  5.5518E-01  0.0000E+00  1.3972E-01  0.0000E+00  1.4643E-01  7.2041E-02
 50  0.0000E+00  4.0015E+00  1.8933E-01  8.6264E-01  0.0000E+00  4.4944E-01  1.8346E+00  2.3121E+00  7.6534E-01
 51  0.0000E+00  5.2524E-02  6.4405E-02  4.9119E-02  6.4502E-02  6.5881E-02  6.7736E-02  6.4292E-02  8.2075E-02
 52  0.0000E+00  1.1124E-03  5.4073E-05  8.0541E-05  3.1352E-05  0.0000E+00  7.3419E-05  0.0000E+00  9.6831E-05
 53  0.0000E+00  1.5514E-03  7.0771E-05  2.4078E-03  4.2987E-04  5.2836E-06  3.4348E-06  3.9120E-04  3.4596E-04
 54  0.0000E+00  3.6217E-03  0.0000E+00  5.2784E-03  6.6460E-04  0.0000E+00  0.0000E+00  3.7246E-04  0.0000E+00
 55  0.0000E+00  4.5855E-03  2.5648E-04  0.0000E+00  6.2651E-04  2.8366E-04  0.0000E+00  8.4524E-04  8.5289E-04
 56  0.0000E+00  1.0157E-02  1.1298E-04  1.3653E-02  1.3377E-03  0.0000E+00  0.0000E+00  5.8821E-03  7.7129E-04
 57  0.0000E+00  1.5581E-02  4.2921E-04  1.7185E-02  7.0548E-04  0.0000E+00  1.9400E-03  0.0000E+00  0.0000E+00
 58  0.0000E+00  1.9747E-02  9.7383E-04  0.0000E+00  5.4513E-03  8.9908E-04  0.0000E+00  0.0000E+00  0.0000E+00
 59  0.0000E+00  3.6005E-02  3.8796E-04  0.0000E+00  2.1274E-03  0.0000E+00  2.1376E-04  4.9896E-05  2.5094E-03
 60  0.0000E+00  1.2797E-01  3.7710E-03  1.2821E-01  2.7491E-02  6.7048E-03  2.0758E-02  0.0000E+00  2.1576E-03
 61  0.0000E+00  2.1420E-01  1.1522E-01  2.6483E-01  1.0644E-01  7.4832E-02  2.0390E-01  1.5794E-01  9.5753E-02
 62  1.2375E+01  3.7648E-01  1.3757E-01  0.0000E+00  1.9545E-01  1.6063E-01  5.5718E-02  5.1718E-02  2.6177E-01
 63  0.0000E+00  5.6071E-01  0.0000E+00  1.1193E+00  2.4132E-03  0.0000E+00  0.0000E+00  2.1565E-01  2.5772E-01
 64  0.0000E+00  2.3544E+00  2.0159E-01  1.4559E+00  4.4347E-01  1.2976E-01  1.5041E-02  4.9895E-01  1.4660E-01
 65  0.0000E+00  4.7113E+00  2.1252E-02  5.0337E+00  7.5392E-02  0.0000E+00  3.8783E-01  3.7106E+00  9.0740E-01
 66  0.0000E+00  4.1888E+00  0.0000E+00  3.5575E+00  0.0000E+00  5.7375E-01  2.6001E-01  6.2429E-01  0.0000E+00

# AV, chi2 & Mass for <> & i_chain = 1 ...  7 solutions
AV       0.1679      0.4534      0.4589      0.4661      0.4677      0.4175      0.4492      0.4891      0.4574
chi2 1.4699E-05  1.7301E-05  1.5603E-05  1.5589E-05  1.5591E-05  1.5457E-05  1.5471E-05  1.5708E-05  1.5491E-05
Mass 1.1519E-13  2.1328E-13  2.0427E-13  2.3023E-13  2.0333E-13  1.9898E-13  2.0001E-13  2.1948E-13  1.9958E-13
-349.78                                  [v0_min (km/s) before EX0s...]
 299.72                                  [vd_min (km/s) before EX0s...]


## Synthetic spectrum (Best Model) ##l_obs f_obs f_syn wei
 3478    [Nl_obs]
 3741.00    0.69360   0.48887    0.000
 3742.00    0.95113   0.47664    0.000
 3743.00    1.38275   0.46812    0.000
 3744.00    0.83034   0.46735    0.000
 3745.00   -0.29541   0.47225    0.000
 3746.00   -0.08428   0.48298    0.000
 3747.00    0.80571   0.49951   -1.000
 3748.00    0.88781   0.51822   -1.000
 3749.00    0.61465   0.53614   -1.000
 3750.00   -0.01240   0.55176    0.000
 3751.00   -0.77305   0.56284    0.000
 3752.00   -0.66915   0.56939    0.000
 3753.00   -0.28817   0.57309    0.000
 3754.00    0.28662   0.57292   -1.000
 3755.00    0.91334   0.57133   -1.000
 3756.00    0.38024   0.57111   -1.000
 3757.00   -0.40742   0.56877    0.000
 3758.00   -0.45536   0.56571    0.000
 3759.00   -0.37417   0.56421    0.000
 3760.00    0.14121   0.55952   -1.000
 3761.00    0.71426   0.55326   -1.000
 3762.00    0.52781   0.54953   -1.000
 3763.00    0.26999   0.54522   -1.000
 3764.00    0.26217   0.54195   -1.000
 3765.00    0.26877   0.54443   -1.000
 3766.00    0.33042   0.55065   -1.000
 3767.00    0.39239   0.55987   -1.000
 3768.00    0.33520   0.57422   -1.000
 3769.00    0.27745   0.59169   -1.000
 3770.00    0.20607   0.61063   -1.000
 3771.00    0.15191   0.63094   -1.000
 3772.00    0.32330   0.65058   -1.000
 3773.00    0.46003   0.66894   -1.000
 3774.00    0.29241   0.68551   -1.000
 3775.00    0.19162   0.69841   -1.000
 3776.00    0.52411   0.70680   -1.000
 3777.00    0.97931   0.71073   -1.000
 3778.00    2.05568   0.71051   -1.000
 3779.00    2.73081   0.70444   -1.000
 3780.00    1.76359   0.69333   -1.000
 3781.00    0.98393   0.68096   -1.000
 3782.00    0.84038   0.66571   -1.000
 3783.00    0.67789   0.64771   -1.000
 3784.00    0.46123   0.63086   -1.000
 3785.00    0.35841   0.61405   -1.000
 3786.00    0.53376   0.59603   -1.000
 3787.00    0.43519   0.57858   -1.000
 3788.00   -0.24071   0.56161    0.000
 3789.00   -0.31036   0.54519    0.000
 3790.00    0.73046   0.53144   -1.000
 3791.00    1.36790   0.52127   -1.000
 3792.00    1.35965   0.51595   -1.000
 3793.00    1.16467   0.51806   -1.000
 3794.00    0.70742   0.52720   -1.000
 3795.00    0.54981   0.54152   -1.000
 3796.00    0.76256   0.56173   -1.000
 3797.00    0.83717   0.58556   -1.000
 3798.00    0.76129   0.60862   -1.000
 3799.00    0.68389   0.63155   -1.000
 3800.00    0.60503   0.65247   -1.000
 3801.00    0.40917   0.66852   -1.000
 3802.00    0.11416   0.68219   -1.000
 3803.00    0.15809   0.69191   -1.000
 3804.00    0.45494   0.69633   -1.000
 3805.00    0.59540   0.69873   -1.000
 3806.00    0.63335   0.69719   -1.000
 3807.00    0.65412   0.69134   -1.000
 3808.00    0.66503   0.68542   -1.000
 3809.00    0.72533   0.67788   -1.000
 3810.00    0.81032   0.66870   -1.000
 3811.00    0.43546   0.66161   -1.000
 3812.00   -0.13825   0.65511    0.000
 3813.00    0.08470   0.64799   -1.000
 3814.00    0.60309   0.64084   -1.000
 3815.00    0.83843   0.63369   -1.000
 3816.00    0.98480   0.62626   -1.000
 3817.00    0.87112   0.61616   -1.000
 3818.00    0.68923   0.60410   -1.000
 3819.00    0.70752   0.59250   -1.000
 3820.00    0.76869   0.57907   -1.000
 3821.00    0.76995   0.56398   -1.000
 3822.00    0.76104   0.54898   -1.000
 3823.00    0.71707   0.53284   -1.000
 3824.00    0.66860   0.51675   -1.000
 3825.00    0.75157   0.50018   -1.000
 3826.00    0.84634   0.48262   -1.000
 3827.00    0.33182   0.46820   -1.000
 3828.00   -0.21545   0.45573    0.000
 3829.00    0.36682   0.44527   -1.000
 3830.00    0.96072   0.44230   -1.000
 3831.00    0.62563   0.44444   -1.000
 3832.00    0.29053   0.45101   -1.000
 3833.00   -0.04491   0.46601    0.000
 3834.00   -0.30806   0.48532    0.000
 3835.00    0.32778   0.50772   -1.000
 3836.00    0.86591   0.53491   -1.000
 3837.00    0.57830   0.56183   -1.000
 3838.00    0.34081   0.58839   -1.000
 3839.00    0.41871   0.61483   -1.000
 3840.00    0.54769   0.63706   -1.000
 3841.00    0.92868   0.65720   -1.000
 3842.00    1.29207   0.67509   -1.000
 3843.00    1.58498   0.68760   -1.000
 3844.00    1.70815   0.69785   -1.000
 3845.00    1.26704   0.70723   -1.000
 3846.00    0.71020   0.71212   -1.000
 3847.00   -0.17163   0.71413    0.000
 3848.00   -0.52074   0.71643    0.000
 3849.00    0.40967   0.71565    0.000
 3850.00    1.04094   0.71248    0.000
 3851.00    1.05181   0.71140    0.000
 3852.00    0.98354   0.70942    0.000
 3853.00    0.77250   0.70715    0.000
 3854.00    0.52041   0.70947    0.000
 3855.00    0.20360   0.71335    0.000
 3856.00    0.35981   0.71737    0.000
 3857.00    1.17083   0.72423    0.000
 3858.00    1.42717   0.73175    0.000
 3859.00    1.00766   0.73735    0.000
 3860.00    0.69450   0.74170    0.000
 3861.00    0.49556   0.74405    0.000
 3862.00    0.39777   0.74329    0.000
 3863.00    0.39582   0.74012    0.000
 3864.00    0.32830   0.73482    0.000
 3865.00    0.20602   0.72837    0.000
 3866.00    0.22352   0.72063    0.000
 3867.00    0.34383   0.71288    0.000
 3868.00    0.51445   0.70683    0.000
 3869.00    0.71756   0.69988    0.000
 3870.00    0.84506   0.69381    0.000
 3871.00    0.92983   0.68927    0.000
 3872.00    0.78315   0.68201    0.000
 3873.00    0.52264   0.67501    0.000
 3874.00    0.35190   0.66751    0.000
 3875.00    0.21933   0.65493    0.000
 3876.00    0.39633   0.64204    0.000
 3877.00    0.68609   0.62864    0.000
 3878.00    0.88783   0.61134    0.000
 3879.00    1.06244   0.59261    0.000
 3880.00    0.93379   0.57507    0.000
 3881.00    0.72728   0.56073   -1.000
 3882.00    0.55469   0.54849   -1.000
 3883.00    0.38920   0.54061   -1.000
 3884.00    0.59625   0.54136   -1.000
 3885.00    0.86473   0.54738   -1.000
 3886.00    0.72119   0.55783   -1.000
 3887.00    0.52663   0.57415   -1.000
 3888.00    0.66134   0.59279   -1.000
 3889.00    0.82423   0.61144   -1.000
 3890.00    0.87000   0.62998   -1.000
 3891.00    0.90993   0.64723   -1.000
 3892.00    1.20680   0.66183   -1.000
 3893.00    1.49148   0.67466   -1.000
 3894.00    0.71711   0.68585   -1.000
 3895.00   -0.00583   0.69536    0.000
 3896.00    0.32338   0.70263   -1.000
 3897.00    0.62221   0.70845   -1.000
 3898.00    0.56185   0.71661   -1.000
 3899.00    0.51336   0.72318   -1.000
 3900.00    0.56150   0.72875   -1.000
 3901.00    0.57787   0.73904   -1.000
 3902.00    0.40011   0.74870   -1.000
 3903.00    0.23529   0.75766   -1.000
 3904.00    0.13268   0.76896   -1.000
 3905.00    0.12619   0.77829   -1.000
 3906.00    0.49615   0.78516   -1.000
 3907.00    0.79704   0.78898   -1.000
 3908.00    0.87279   0.78976   -1.000
 3909.00    0.86989   0.78833    0.308
 3910.00    0.65012   0.78239    0.065
 3911.00    0.46073   0.77481    0.042
 3912.00    0.34311   0.76711    0.042
 3913.00    0.40678   0.75661    0.042
 3914.00    0.84044   0.74565    0.043
 3915.00    1.07470   0.73456    0.043
 3916.00    0.95478   0.72153    0.043
 3917.00    0.80646   0.70619    0.043
 3918.00    0.61401   0.68802    0.043
 3919.00    0.53808   0.66559    0.043
 3920.00    0.62115   0.63798    0.042
 3921.00    0.63798   0.60570    0.042
 3922.00    0.57524   0.56789    0.042
 3923.00    0.45751   0.52700    0.042
 3924.00    0.28154   0.48567    0.042
 3925.00    0.19030   0.44552    0.042
 3926.00    0.17821   0.41070    0.042
 3927.00    0.14075   0.38404    0.042
 3928.00    0.08240   0.36802    0.042
 3929.00    0.12365   0.36404    0.042
 3930.00    0.23712   0.37196    0.041
 3931.00    0.39383   0.39160    0.041
 3932.00    0.57806   0.42018    0.042
 3933.00    0.27803   0.45489    0.042
 3934.00   -0.29149   0.49296    0.000
 3935.00   -0.48122   0.53064    0.000
 3936.00   -0.48710   0.56676    0.000
 3937.00   -0.53590   0.59976    0.000
 3938.00   -0.60265   0.62782    0.000
 3939.00   -0.18789   0.65299    0.000
 3940.00    0.39911   0.67476    0.043
 3941.00    0.75206   0.69158    0.043
 3942.00    1.03428   0.70718    0.043
 3943.00    1.34880   0.72184    0.044
 3944.00    1.67142   0.73172    0.044
 3945.00    1.18374   0.73927    0.044
 3946.00    0.53081   0.74619    0.043
 3947.00    0.21420   0.75030    0.043
 3948.00   -0.04855   0.75202    0.000
 3949.00    0.19988   0.74984    0.043
 3950.00    0.50934   0.74390    0.043
 3951.00    0.46125   0.73658    0.043
 3952.00    0.38404   0.72395    0.043
 3953.00    0.57030   0.70464    0.043
 3954.00    0.76868   0.68215    0.043
 3955.00    0.56890   0.65471    0.042
 3956.00    0.36502   0.62168    0.041
 3957.00    0.21134   0.58485    0.041
 3958.00    0.08364   0.54430    0.041
 3959.00    0.44788   0.50364    0.042
 3960.00    0.76437   0.46558    0.000
 3961.00    0.54266   0.43128    0.000
 3962.00    0.36006   0.40424    0.000
 3963.00    0.48481   0.38697    0.000
 3964.00    0.59000   0.38113    0.000
 3965.00    0.57911   0.38708    0.000
 3966.00    0.56070   0.40475    0.000
 3967.00    0.50698   0.43305    0.000
 3968.00    0.42450   0.46893    0.000
 3969.00    0.23181   0.51015    0.000
 3970.00    0.07187   0.55334    0.000
 3971.00    0.01665   0.59612    0.000
 3972.00    0.06778   0.63788    0.000
 3973.00    0.40695   0.67506    0.000
 3974.00    0.57521   0.70751    0.000
 3975.00    0.34661   0.73604    0.000
 3976.00    0.24500   0.75951    0.000
 3977.00    0.39844   0.77976    0.000
 3978.00    0.56788   0.79582    0.000
 3979.00    0.76534   0.80909    0.000
 3980.00    0.75852   0.82251    0.000
 3981.00    0.43896   0.83356    0.041
 3982.00    0.38770   0.84411    0.042
 3983.00    0.69724   0.85403    0.042
 3984.00    0.86932   0.86198    0.042
 3985.00    0.87861   0.87061    0.043
 3986.00    0.80116   0.87647    0.043
 3987.00    0.63313   0.88000    0.042
 3988.00    0.62594   0.88413    0.042
 3989.00    0.76689   0.88620    0.042
 3990.00    0.78863   0.88740    0.041
 3991.00    0.71357   0.88921    0.040
 3992.00    0.77406   0.89109    0.040
 3993.00    0.93137   0.89338    0.040
 3994.00    1.05454   0.89566    0.040
 3995.00    1.15630   0.89856    0.040
 3996.00    0.99453   0.90198    0.040
 3997.00    0.68833   0.90369    0.040
 3998.00    0.81215   0.90449    0.039
 3999.00    1.14080   0.90590    0.039
 4000.00    1.14308   0.90812    0.039
 4001.00    1.01122   0.91024    0.040
 4002.00    1.06774   0.91261    0.040
 4003.00    1.19043   0.91789    0.040
 4004.00    1.15964   0.92502    0.040
 4005.00    1.08338   0.93233    0.039
 4006.00    0.89348   0.93897    0.039
 4007.00    0.67566   0.94630    0.038
 4008.00    0.56029   0.95375    0.038
 4009.00    0.46530   0.95861    0.037
 4010.00    0.55317   0.96374    0.037
 4011.00    0.66946   0.96849    0.037
 4012.00    0.78799   0.97180    0.038
 4013.00    0.90677   0.97481    0.038
 4014.00    0.85971   0.97596    0.038
 4015.00    0.79983   0.97700    0.038
 4016.00    1.12113   0.97768    0.038
 4017.00    1.45849   0.97650    0.038
 4018.00    1.32295   0.97496    0.038
 4019.00    1.18102   0.97212    0.038
 4020.00    0.94775   0.96853    0.038
 4021.00    0.74182   0.96331    0.037
 4022.00    1.01786   0.95540    0.038
 4023.00    1.27239   0.94830    0.038
 4024.00    1.29544   0.94045    0.038
 4025.00    1.30734   0.93199    0.039
 4026.00    1.23448   0.92684    0.039
 4027.00    1.16911   0.92296    0.039
 4028.00    1.14695   0.92302    0.039
 4029.00    1.06013   0.92830    0.038
 4030.00    0.67699   0.93488    0.038
 4031.00    0.44015   0.94391    0.038
 4032.00    0.75208   0.95253    0.038
 4033.00    1.00000   0.95934    0.038
 4034.00    1.04726   0.96491    0.038
 4035.00    1.02030   0.96575    0.038
 4036.00    0.79590   0.96258    0.038
 4037.00    0.77844   0.95615    0.037
 4038.00    1.23351   0.94879    0.037
 4039.00    1.48379   0.94443    0.037
 4040.00    1.32923   0.93962    0.037
 4041.00    1.27380   0.93558    0.037
 4042.00    1.38912   0.93558    0.037
 4043.00    1.35399   0.93750    0.037
 4044.00    1.09190   0.94143    0.037
 4045.00    0.95911   0.94456    0.036
 4046.00    0.99772   0.94546    0.037
 4047.00    0.87901   0.94647    0.037
 4048.00    0.57664   0.94615    0.036
 4049.00    0.61890   0.94240    0.036
 4050.00    1.01597   0.93772    0.037
 4051.00    1.16747   0.93410    0.036
 4052.00    1.09596   0.93024    0.036
 4053.00    1.02197   0.92674    0.036
 4054.00    0.94599   0.92257    0.036
 4055.00    0.87330   0.91731    0.036
 4056.00    0.80294   0.91507    0.036
 4057.00    0.74379   0.91459    0.036
 4058.00    0.69158   0.91210    0.036
 4059.00    0.78155   0.91047    0.035
 4060.00    0.94823   0.91106    0.035
 4061.00    0.97106   0.91357    0.035
 4062.00    0.92648   0.91649    0.035
 4063.00    0.87737   0.91636    0.035
 4064.00    0.82644   0.91641    0.034
 4065.00    0.79480   0.91814    0.034
 4066.00    0.76981   0.91699    0.035
 4067.00    0.93741   0.91308    0.035
 4068.00    1.16093   0.90745    0.035
 4069.00    1.20249   0.90159    0.035
 4070.00    1.20033   0.89868    0.035
 4071.00    0.99499   0.89628    0.035
 4072.00    0.75027   0.89494    0.035
 4073.00    0.81065   0.89736    0.035
 4074.00    0.91701   0.90120    0.034
 4075.00    1.02295   0.90728    0.034
 4076.00    1.12884   0.91543    0.034
 4077.00    0.97072   0.92321    0.034
 4078.00    0.79327   0.93174    0.034
 4079.00    0.79492   0.93969    0.034
 4080.00    0.80342   0.94623    0.034
 4081.00    0.99735   0.95176    0.034
 4082.00    1.18954   0.95501    0.035
 4083.00    1.27759   0.95642    0.035
 4084.00    1.35890   0.95503    0.035
 4085.00    1.32889   0.95041    0.035
 4086.00    1.30567   0.94231    0.035
 4087.00    1.35246   0.92851    0.035
 4088.00    1.37588   0.91094    0.035
 4089.00    1.22782   0.89028    0.035
 4090.00    1.11204   0.86604    0.035
 4091.00    1.17730   0.84037    0.035
 4092.00    1.25031   0.81326    0.000
 4093.00    1.35799   0.78687    0.000
 4094.00    1.34435   0.76543    0.000
 4095.00    0.88513   0.74954    0.000
 4096.00    0.54395   0.73915    0.000
 4097.00    0.56584   0.73639    0.000
 4098.00    0.58797   0.74118    0.000
 4099.00    0.61072   0.75244    0.000
 4100.00    0.70152   0.76981    0.000
 4101.00    0.94512   0.78950    0.000
 4102.00    1.06516   0.81038    0.000
 4103.00    0.94472   0.83254    0.000
 4104.00    0.91482   0.85273    0.000
 4105.00    1.03852   0.87132    0.000
 4106.00    1.04825   0.88817    0.000
 4107.00    0.88856   0.90235    0.000
 4108.00    0.82833   0.91505    0.000
 4109.00    0.89805   0.92505    0.000
 4110.00    0.85945   0.93219    0.000
 4111.00    0.69617   0.93785    0.000
 4112.00    0.73888   0.94170    0.000
 4113.00    0.99070   0.94344    0.033
 4114.00    1.03842   0.94377    0.033
 4115.00    0.90339   0.94349    0.032
 4116.00    0.78790   0.94334    0.032
 4117.00    0.68782   0.94329    0.032
 4118.00    0.71054   0.94209    0.032
 4119.00    0.81848   0.94057    0.032
 4120.00    0.96286   0.93907    0.032
 4121.00    1.12942   0.93709    0.032
 4122.00    1.24630   0.93439    0.032
 4123.00    1.33679   0.93082    0.033
 4124.00    1.27354   0.92753    0.033
 4125.00    1.13940   0.92601    0.033
 4126.00    1.11089   0.92617    0.033
 4127.00    1.12432   0.92763    0.033
 4128.00    1.09766   0.93201    0.033
 4129.00    1.05742   0.93732    0.032
 4130.00    0.98403   0.94480    0.032
 4131.00    0.90121   0.95326    0.032
 4132.00    0.97875   0.95922    0.032
 4133.00    1.09393   0.96435    0.032
 4134.00    1.10417   0.96641    0.032
 4135.00    1.09461   0.96598    0.032
 4136.00    1.07400   0.96457    0.032
 4137.00    1.05178   0.96101    0.033
 4138.00    0.86848   0.95652    0.032
 4139.00    0.66807   0.95255    0.032
 4140.00    0.68522   0.94996    0.032
 4141.00    0.71742   0.94840    0.033
 4142.00    0.79808   0.94789    0.033
 4143.00    0.88040   0.94736    0.033
 4144.00    0.91097   0.94629    0.033
 4145.00    0.94600   0.94593    0.033
 4146.00    1.13169   0.94494    0.033
 4147.00    1.29953   0.94390    0.034
 4148.00    1.19129   0.94373    0.033
 4149.00    1.08580   0.94345    0.033
 4150.00    1.00738   0.94532    0.033
 4151.00    0.93509   0.94832    0.034
 4152.00    0.90631   0.95283    0.033
 4153.00    0.86200   0.95919    0.033
 4154.00    0.73289   0.96562    0.033
 4155.00    0.64164   0.97285    0.032
 4156.00    0.71587   0.97849    0.033
 4157.00    0.81359   0.98307    0.033
 4158.00    0.99582   0.98609    0.032
 4159.00    1.14210   0.98623    0.032
 4160.00    1.17991   0.98452    0.032
 4161.00    1.17207   0.97954    0.032
 4162.00    1.04701   0.97168    0.032
 4163.00    0.96546   0.96252    0.033
 4164.00    0.98001   0.95223    0.033
 4165.00    0.90966   0.94171    0.033
 4166.00    0.67667   0.93154    0.032
 4167.00    0.61162   0.92137    0.032
 4168.00    0.82726   0.91350    0.032
 4169.00    1.02097   0.90889    0.033
 4170.00    1.18259   0.90735    0.032
 4171.00    1.15327   0.90811    0.032
 4172.00    0.87804   0.91009    0.032
 4173.00    0.73799   0.91383    0.031
 4174.00    0.75135   0.91893    0.031
 4175.00    0.78760   0.92561    0.031
 4176.00    0.84679   0.93139    0.032
 4177.00    0.95645   0.93568    0.032
 4178.00    1.11066   0.94062    0.032
 4179.00    1.08281   0.94481    0.031
 4180.00    0.91335   0.94991    0.030
 4181.00    0.85095   0.95420    0.030
 4182.00    0.86175   0.95702    0.031
 4183.00    0.84784   0.96142    0.031
 4184.00    0.81912   0.96529    0.031
 4185.00    0.79935   0.96851    0.031
 4186.00    0.78426   0.96995    0.031
 4187.00    0.85176   0.96949    0.030
 4188.00    0.95672   0.96761    0.030
 4189.00    0.89104   0.96369    0.030
 4190.00    0.75878   0.95805    0.029
 4191.00    0.79799   0.95040    0.029
 4192.00    0.89416   0.94325    0.030
 4193.00    1.01862   0.93663    0.030
 4194.00    1.15096   0.93194    0.030
 4195.00    1.06794   0.93025    0.030
 4196.00    0.93552   0.93041    0.030
 4197.00    0.90556   0.93334    0.031
 4198.00    0.89443   0.93917    0.031
 4199.00    0.87114   0.94630    0.030
 4200.00    0.84613   0.95465    0.029
 4201.00    0.85622   0.96396    0.029
 4202.00    0.86987   0.97241    0.029
 4203.00    0.78338   0.98033    0.029
 4204.00    0.69036   0.98602    0.030
 4205.00    0.78241   0.98920    0.030
 4206.00    0.88025   0.99172    0.030
 4207.00    1.04599   0.99383    0.030
 4208.00    1.20643   0.99436    0.030
 4209.00    1.21120   0.99393    0.030
 4210.00    1.20039   0.99210    0.030
 4211.00    0.96280   0.99063    0.030
 4212.00    0.75289   0.98986    0.030
 4213.00    0.80479   0.98721    0.030
 4214.00    0.85821   0.98251    0.030
 4215.00    0.92205   0.97466    0.030
 4216.00    0.97006   0.96435    0.030
 4217.00    0.93387   0.95214    0.030
 4218.00    0.96946   0.94053    0.030
 4219.00    1.31160   0.92911    0.030
 4220.00    1.52871   0.91870    0.031
 4221.00    1.30531   0.91179    0.030
 4222.00    1.10128   0.90832    0.030
 4223.00    0.95462   0.91122    0.030
 4224.00    0.84133   0.91782    0.030
 4225.00    0.81224   0.92534    0.030
 4226.00    0.77449   0.93347    0.030
 4227.00    0.71792   0.94071    0.030
 4228.00    0.69002   0.94670    0.029
 4229.00    0.71621   0.95269    0.030
 4230.00    0.86978   0.95767    0.030
 4231.00    1.23308   0.96168    0.030
 4232.00    1.38844   0.96654    0.030
 4233.00    1.24364   0.97090    0.029
 4234.00    1.16824   0.97649    0.029
 4235.00    1.18096   0.98241    0.029
 4236.00    1.16404   0.98791    0.029
 4237.00    1.11397   0.99235    0.029
 4238.00    1.08750   0.99488    0.029
 4239.00    1.08432   0.99663    0.029
 4240.00    1.06373   0.99538    0.029
 4241.00    1.02798   0.99222    0.029
 4242.00    1.07602   0.98834    0.029
 4243.00    1.18829   0.98398    0.029
 4244.00    1.19978   0.98012    0.029
 4245.00    1.14335   0.97579    0.030
 4246.00    1.05884   0.97349    0.030
 4247.00    0.95777   0.97371    0.030
 4248.00    0.81415   0.97315    0.030
 4249.00    0.64864   0.97284    0.030
 4250.00    0.60909   0.97325    0.030
 4251.00    0.62574   0.97530    0.030
 4252.00    0.77271   0.97906    0.030
 4253.00    0.96965   0.98153    0.030
 4254.00    1.11037   0.98455    0.030
 4255.00    1.23278   0.98815    0.030
 4256.00    1.17635   0.99293    0.029
 4257.00    1.07110   0.99925    0.029
 4258.00    0.97101   1.00394    0.029
 4259.00    0.87209   1.00630    0.028
 4260.00    1.01606   1.00565    0.029
 4261.00    1.20347   1.00187    0.030
 4262.00    1.16497   0.99480    0.030
 4263.00    1.09556   0.98564    0.029
 4264.00    1.06395   0.97510    0.029
 4265.00    1.03605   0.96431    0.029
 4266.00    1.05068   0.95429    0.029
 4267.00    1.06792   0.94740    0.029
 4268.00    1.08789   0.94604    0.028
 4269.00    1.10759   0.94671    0.028
 4270.00    1.05850   0.94974    0.028
 4271.00    1.01288   0.95649    0.028
 4272.00    1.05893   0.96370    0.028
 4273.00    1.09399   0.97026    0.028
 4274.00    0.97805   0.97514    0.028
 4275.00    0.87210   0.97628    0.028
 4276.00    0.85681   0.97623    0.028
 4277.00    0.84890   0.97309    0.028
 4278.00    0.89008   0.96726    0.028
 4279.00    0.91853   0.96070    0.029
 4280.00    0.88104   0.95121    0.028
 4281.00    0.85866   0.94238    0.028
 4282.00    0.89934   0.93363   -2.000
 4283.00    0.94768   0.92569   -2.000
 4284.00    1.02242   0.91774   -2.000
 4285.00    1.07554   0.91101   -2.000
 4286.00    1.06583   0.90766   -2.000
 4287.00    0.95709   0.90407   -2.000
 4288.00    0.60274   0.89996   -2.000
 4289.00    0.37774   0.89244   -2.000
 4290.00    0.42926   0.88424   -2.000
 4291.00    0.62824   0.87561   -2.000
 4292.00    1.10101   0.86439   -2.000
 4293.00    1.40793   0.85269   -2.000
 4294.00    1.44587   0.83959   -2.000
 4295.00    1.27100   0.82791   -2.000
 4296.00    0.79336   0.81954   -2.000
 4297.00    0.57363   0.81255   -2.000
 4298.00    0.67668   0.80785    0.029
 4299.00    0.74181   0.80703    0.029
 4300.00    0.76509   0.80762    0.029
 4301.00    0.80357   0.81089    0.029
 4302.00    0.85683   0.81693    0.029
 4303.00    0.88459   0.82502    0.029
 4304.00    0.89047   0.83813    0.029
 4305.00    0.82357   0.85396    0.029
 4306.00    0.70168   0.87263    0.029
 4307.00    0.66986   0.89251    0.029
 4308.00    0.69785   0.91291    0.029
 4309.00    0.76282   0.93384    0.029
 4310.00    0.84929   0.95396    0.028
 4311.00    0.89962   0.97265    0.028
 4312.00    0.93163   0.98625    0.029
 4313.00    0.92154   0.99380    0.029
 4314.00    0.89297   0.99623    0.029
 4315.00    0.89118   0.99509    0.029
 4316.00    0.89946   0.98971    0.029
 4317.00    0.88619   0.98320    0.029
 4318.00    0.86602   0.97431    0.029
 4319.00    0.81988   0.96550    0.029
 4320.00    0.76679   0.95903    0.029
 4321.00    1.03882   0.95530    0.029
 4322.00    1.38200   0.95652    0.030
 4323.00    1.22704   0.95848    0.029
 4324.00    0.98542   0.95981    0.029
 4325.00    0.80838   0.95847    0.029
 4326.00    0.63988   0.95435    0.028
 4327.00    0.69754   0.94774    0.029
 4328.00    0.77634   0.93546    0.029
 4329.00    1.04558   0.91909    0.029
 4330.00    1.32572   0.89910    0.000
 4331.00    1.31590   0.87658    0.000
 4332.00    1.29749   0.85357    0.000
 4333.00    1.06773   0.83333    0.000
 4334.00    0.84929   0.81952    0.000
 4335.00    0.90278   0.81175    0.000
 4336.00    0.97264   0.81220    0.000
 4337.00    1.25556   0.82110    0.000
 4338.00    1.46362   0.83511    0.000
 4339.00    1.01768   0.85231    0.000
 4340.00    0.65202   0.87219    0.000
 4341.00    0.80484   0.89312    0.000
 4342.00    0.92335   0.91244    0.000
 4343.00    0.86873   0.92940    0.000
 4344.00    0.85243   0.94338    0.000
 4345.00    0.99256   0.95456    0.000
 4346.00    1.10055   0.96320    0.000
 4347.00    1.09979   0.97124    0.000
 4348.00    1.10633   0.98115    0.000
 4349.00    1.13371   0.99156    0.000
 4350.00    1.15884   1.00193    0.000
 4351.00    1.17849   1.01286    0.029
 4352.00    1.18788   1.02403    0.029
 4353.00    1.17568   1.03547    0.029
 4354.00    1.15435   1.04617    0.029
 4355.00    1.11634   1.05645    0.029
 4356.00    1.10041   1.06558    0.029
 4357.00    1.11976   1.07248    0.029
 4358.00    1.11206   1.07683    0.028
 4359.00    1.06643   1.07883    0.029
 4360.00    1.01091   1.07830    0.029
 4361.00    0.94319   1.07538    0.029
 4362.00    0.96560   1.07008    0.028
 4363.00    1.08603   1.06376    0.028
 4364.00    1.19063   1.05761    0.028
 4365.00    1.28004   1.05102    0.028
 4366.00    1.24852   1.04481    0.028
 4367.00    1.11472   1.03852    0.028
 4368.00    1.02668   1.03317    0.028
 4369.00    0.97272   1.02847    0.028
 4370.00    1.03009   1.02464    0.028
 4371.00    1.16031   1.02137    0.028
 4372.00    1.15752   1.01727    0.028
 4373.00    1.07856   1.01159    0.028
 4374.00    0.96784   1.00411    0.028
 4375.00    0.84129   0.99500    0.028
 4376.00    0.75748   0.98485    0.028
 4377.00    0.69211   0.97526    0.028
 4378.00    0.67306   0.96704    0.028
 4379.00    0.67114   0.96230    0.028
 4380.00    0.85133   0.96108    0.028
 4381.00    1.08864   0.96333    0.027
 4382.00    0.92846   0.96803    0.027
 4383.00    0.66428   0.97430    0.027
 4384.00    0.63777   0.98254    0.027
 4385.00    0.66203   0.99186    0.027
 4386.00    0.74005   1.00093    0.026
 4387.00    0.82717   1.00937    0.026
 4388.00    0.88314   1.01629    0.027
 4389.00    0.93514   1.02205    0.027
 4390.00    0.86203   1.02640    0.027
 4391.00    0.77777   1.02912    0.027
 4392.00    0.91502   1.03079    0.027
 4393.00    1.06406   1.02957    0.027
 4394.00    1.01923   1.02745    0.027
 4395.00    0.97114   1.02492    0.027
 4396.00    0.96666   1.02185    0.027
 4397.00    0.96393   1.01878    0.026
 4398.00    0.99947   1.01609    0.027
 4399.00    1.01483   1.01511    0.027
 4400.00    0.78095   1.01507    0.026
 4401.00    0.59244   1.01709    0.026
 4402.00    0.78563   1.02119    0.027
 4403.00    0.95990   1.02640    0.027
 4404.00    1.01558   1.03214    0.027
 4405.00    1.02297   1.03822    0.027
 4406.00    0.79290   1.04356    0.027
 4407.00    0.62687   1.04716    0.027
 4408.00    0.71653   1.04925    0.027
 4409.00    0.80965   1.05154    0.027
 4410.00    0.91425   1.05338    0.027
 4411.00    0.99976   1.05572    0.027
 4412.00    1.03179   1.05932    0.027
 4413.00    0.99978   1.06232    0.027
 4414.00    0.81425   1.06547    0.027
 4415.00    0.74200   1.06768    0.027
 4416.00    0.90423   1.06970    0.027
 4417.00    1.07274   1.07182    0.027
 4418.00    1.25258   1.07286    0.028
 4419.00    1.25600   1.07362    0.028
 4420.00    0.98174   1.07289    0.027
 4421.00    0.82521   1.07148    0.027
 4422.00    0.83137   1.06983    0.027
 4423.00    0.86834   1.06675    0.027
 4424.00    0.94276   1.06446    0.027
 4425.00    0.99664   1.06242    0.027
 4426.00    1.02851   1.06013    0.027
 4427.00    1.03404   1.05853    0.027
 4428.00    1.01467   1.05703    0.027
 4429.00    0.94156   1.05742    0.027
 4430.00    0.82364   1.05935    0.027
 4431.00    0.76841   1.06196    0.027
 4432.00    0.75921   1.06520    0.027
 4433.00    0.74352   1.06756    0.027
 4434.00    0.72364   1.06945    0.027
 4435.00    0.81628   1.07069    0.027
 4436.00    0.97238   1.07176    0.027
 4437.00    0.94394   1.07397    0.028
 4438.00    0.82490   1.07702    0.028
 4439.00    0.88038   1.08018    0.028
 4440.00    1.00990   1.08209    0.028
 4441.00    0.97812   1.08379    0.028
 4442.00    0.88773   1.08467    0.028
 4443.00    0.96780   1.08318    0.028
 4444.00    1.10030   1.08072    0.029
 4445.00    1.01728   1.07644    0.029
 4446.00    0.87908   1.06981    0.029
 4447.00    0.87337   1.06105    0.028
 4448.00    0.89527   1.05071    0.027
 4449.00    0.82585   1.04155    0.028
 4450.00    0.74143   1.03299    0.028
 4451.00    0.78296   1.02572    0.028
 4452.00    0.84002   1.02014    0.027
 4453.00    0.94841   1.01695    0.028
 4454.00    1.06117   1.01586    0.028
 4455.00    1.09680   1.01627    0.028
 4456.00    1.12862   1.02043    0.027
 4457.00    0.99616   1.02537    0.027
 4458.00    0.86154   1.03110    0.027
 4459.00    0.75526   1.03786    0.027
 4460.00    0.65649   1.04458    0.027
 4461.00    0.70986   1.05202    0.000
 4462.00    0.76544   1.05912    0.000
 4463.00    0.84687   1.06786    0.000
 4464.00    0.93049   1.07690    0.000
 4465.00    1.03185   1.08624    0.000
 4466.00    1.10764   1.09565    0.000
 4467.00    1.02793   1.10415    0.000
 4468.00    0.94214   1.11134    0.000
 4469.00    0.82720   1.11664    0.000
 4470.00    0.76203   1.12087    0.000
 4471.00    0.89123   1.12244    0.000
 4472.00    1.00311   1.12160    0.000
 4473.00    1.05865   1.11877    0.000
 4474.00    1.11906   1.11514    0.000
 4475.00    1.19284   1.11215    0.000
 4476.00    1.23445   1.11024    0.000
 4477.00    1.20024   1.10955    0.000
 4478.00    1.16422   1.10900    0.000
 4479.00    1.12453   1.10943    0.000
 4480.00    1.10684   1.10955    0.000
 4481.00    1.12812   1.10929    0.000
 4482.00    1.07781   1.10870    0.028
 4483.00    0.91647   1.10834    0.028
 4484.00    0.85219   1.10838    0.028
 4485.00    0.92011   1.10807    0.028
 4486.00    1.03058   1.10825    0.028
 4487.00    1.19207   1.10782    0.028
 4488.00    1.25491   1.10918    0.028
 4489.00    1.21346   1.11194    0.028
 4490.00    1.15582   1.11619    0.028
 4491.00    1.08309   1.12233    0.028
 4492.00    1.10607   1.12911    0.027
 4493.00    1.20774   1.13722    0.027
 4494.00    1.19210   1.14535    0.027
 4495.00    1.09156   1.15439    0.027
 4496.00    0.98290   1.16391    0.027
 4497.00    0.86908   1.17240    0.028
 4498.00    0.90685   1.17996    0.028
 4499.00    1.02883   1.18589    0.028
 4500.00    1.09278   1.19021    0.028
 4501.00    1.12871   1.19278    0.028
 4502.00    1.08847   1.19377    0.028
 4503.00    1.01645   1.19317    0.028
 4504.00    1.03954   1.19098    0.028
 4505.00    1.09658   1.18719    0.028
 4506.00    1.08668   1.18249    0.028
 4507.00    1.05659   1.17701    0.028
 4508.00    1.24644   1.17138    0.028
 4509.00    1.49138   1.16578    0.028
 4510.00    1.38790   1.16060    0.028
 4511.00    1.21360   1.15499    0.028
 4512.00    1.14476   1.15016    0.028
 4513.00    1.09274   1.14451    0.027
 4514.00    1.10619   1.13845    0.028
 4515.00    1.12741   1.13168    0.028
 4516.00    1.16814   1.12329    0.028
 4517.00    1.21043   1.11486    0.027
 4518.00    1.25176   1.10458    0.028
 4519.00    1.29305   1.09435    0.028
 4520.00    1.19382   1.08345    0.028
 4521.00    1.09504   1.07384    0.027
 4522.00    1.10707   1.06505    0.027
 4523.00    1.11482   1.05860    0.027
 4524.00    1.04213   1.05399    0.027
 4525.00    0.97970   1.05168    0.026
 4526.00    1.03212   1.05239    0.027
 4527.00    1.08765   1.05516    0.027
 4528.00    1.16756   1.06152    0.027
 4529.00    1.19960   1.06908    0.027
 4530.00    0.94860   1.07867    0.027
 4531.00    0.77223   1.08804    0.026
 4532.00    0.94514   1.09714    0.027
 4533.00    1.08172   1.10562    0.027
 4534.00    1.07947   1.11232    0.027
 4535.00    1.05502   1.11749    0.028
 4536.00    0.95979   1.11994    0.028
 4537.00    0.90870   1.12116    0.028
 4538.00    0.97689   1.11979    0.027
 4539.00    1.08184   1.11749    0.027
 4540.00    1.27200   1.11305    0.027
 4541.00    1.37939   1.10839    0.027
 4542.00    1.32088   1.10411    0.027
 4543.00    1.22221   1.09987    0.027
 4544.00    1.05341   1.09718    0.027
 4545.00    0.96932   1.09486    0.028
 4546.00    1.01468   1.09462    0.028
 4547.00    1.06821   1.09572    0.027
 4548.00    1.13270   1.09951    0.027
 4549.00    1.12642   1.10437    0.027
 4550.00    1.03650   1.11061    0.000
 4551.00    0.96768   1.11769    0.000
 4552.00    0.92085   1.12471    0.000
 4553.00    0.99926   1.13210    0.000
 4554.00    1.19282   1.13769    0.000
 4555.00    1.24164   1.14245    0.000
 4556.00    1.17315   1.14613    0.000
 4557.00    1.17396   1.14912    0.000
 4558.00    1.22420   1.15175    0.000
 4559.00    1.17324   1.15358    0.000
 4560.00    1.05896   1.15507    0.000
 4561.00    1.10849   1.15622    0.000
 4562.00    1.24762   1.15685    0.000
 4563.00    1.26478   1.15746    0.000
 4564.00    1.22395   1.15900    0.000
 4565.00    1.16717   1.15971    0.000
 4566.00    1.10384   1.15980    0.000
 4567.00    1.18255   1.15946    0.000
 4568.00    1.31103   1.15831    0.000
 4569.00    1.27741   1.15621    0.000
 4570.00    1.19588   1.15255    0.000
 4571.00    1.09903   1.14793    0.000
 4572.00    0.99843   1.14252    0.000
 4573.00    1.08316   1.13713    0.000
 4574.00    1.20462   1.13138    0.000
 4575.00    1.14690   1.12633    0.000
 4576.00    1.06145   1.12252    0.000
 4577.00    1.05233   1.11922    0.000
 4578.00    1.05194   1.11812    0.000
 4579.00    1.07623   1.11805    0.000
 4580.00    1.10241   1.11948    0.000
 4581.00    1.15395   1.12132    0.000
 4582.00    1.20655   1.12355    0.000
 4583.00    1.17405   1.12578    0.000
 4584.00    1.14441   1.12781    0.000
 4585.00    1.26992   1.12955    0.000
 4586.00    1.37777   1.13026    0.000
 4587.00    1.17691   1.13086    0.000
 4588.00    1.00714   1.13110    0.000
 4589.00    1.17007   1.13103    0.000
 4590.00    1.31771   1.13139    0.000
 4591.00    1.34983   1.13152    0.000
 4592.00    1.35060   1.13213    0.000
 4593.00    1.17109   1.13356    0.000
 4594.00    1.06170   1.13515    0.000
 4595.00    1.27269   1.13804    0.000
 4596.00    1.39800   1.14107    0.000
 4597.00    1.20279   1.14545    0.000
 4598.00    1.06052   1.15019    0.000
 4599.00    1.08386   1.15580    0.000
 4600.00    1.12295   1.16161    0.000
 4601.00    1.20387   1.16722    0.000
 4602.00    1.27224   1.17260    0.000
 4603.00    1.31205   1.17711    0.000
 4604.00    1.29110   1.18134    0.000
 4605.00    1.15029   1.18393    0.000
 4606.00    1.05208   1.18627    0.000
 4607.00    1.02712   1.18689    0.000
 4608.00    1.05168   1.18736    0.000
 4609.00    1.15078   1.18715    0.000
 4610.00    1.20909   1.18690    0.000
 4611.00    1.21343   1.18661    0.000
 4612.00    1.20928   1.18654    0.000
 4613.00    1.19525   1.18671    0.000
 4614.00    1.24276   1.18688    0.000
 4615.00    1.35353   1.18754    0.000
 4616.00    1.37785   1.18787    0.000
 4617.00    1.32382   1.18839    0.000
 4618.00    1.20473   1.18818    0.000
 4619.00    1.03366   1.18788    0.000
 4620.00    1.06498   1.18718    0.000
 4621.00    1.23856   1.18595    0.000
 4622.00    1.24795   1.18419    0.000
 4623.00    1.15612   1.18220    0.000
 4624.00    1.09112   1.17963    0.000
 4625.00    1.04057   1.17669    0.000
 4626.00    1.15333   1.17351    0.000
 4627.00    1.34248   1.16994    0.000
 4628.00    1.32160   1.16644    0.000
 4629.00    1.21605   1.16268    0.000
 4630.00    1.23513   1.15943    0.000
 4631.00    1.29709   1.15598    0.000
 4632.00    1.25613   1.15288    0.000
 4633.00    1.18536   1.14984    0.000
 4634.00    1.14707   1.14692    0.000
 4635.00    1.11656   1.14345    0.000
 4636.00    1.00908   1.14018    0.000
 4637.00    0.88673   1.13696    0.000
 4638.00    0.98096   1.13394    0.000
 4639.00    1.10769   1.13122    0.000
 4640.00    1.06057   1.12900    0.000
 4641.00    0.99432   1.12760    0.000
 4642.00    1.12227   1.12737    0.000
 4643.00    1.26435   1.12797    0.000
 4644.00    1.04927   1.12977    0.000
 4645.00    0.82069   1.13258    0.000
 4646.00    0.97931   1.13605    0.000
 4647.00    1.13818   1.14070    0.000
 4648.00    1.23294   1.14520    0.000
 4649.00    1.32238   1.15019    0.000
 4650.00    1.32482   1.15441    0.000
 4651.00    1.31294   1.15834    0.000
 4652.00    1.15446   1.16086    0.000
 4653.00    1.03521   1.16204    0.000
 4654.00    1.20265   1.16133    0.000
 4655.00    1.32329   1.15836    0.000
 4656.00    1.18228   1.15352    0.000
 4657.00    1.08347   1.14680    0.000
 4658.00    1.17292   1.13964    0.000
 4659.00    1.24532   1.13176    0.000
 4660.00    1.25525   1.12487    0.000
 4661.00    1.28206   1.11906    0.000
 4662.00    1.36066   1.11531    0.000
 4663.00    1.36717   1.11393    0.000
 4664.00    1.18569   1.11493    0.000
 4665.00    1.09338   1.11821    0.000
 4666.00    1.20093   1.12281    0.000
 4667.00    1.23056   1.12843    0.000
 4668.00    1.10887   1.13384    0.000
 4669.00    1.01011   1.13894    0.000
 4670.00    0.95018   1.14313    0.000
 4671.00    0.97408   1.14645    0.000
 4672.00    1.12234   1.14856    0.000
 4673.00    1.21958   1.14983    0.000
 4674.00    1.25024   1.15041    0.000
 4675.00    1.27646   1.15072    0.000
 4676.00    1.29757   1.15101    0.000
 4677.00    1.29363   1.15155    0.000
 4678.00    1.26431   1.15216    0.000
 4679.00    1.28238   1.15312    0.000
 4680.00    1.34280   1.15398    0.000
 4681.00    1.39547   1.15503    0.000
 4682.00    1.44204   1.15608    0.000
 4683.00    1.39142   1.15701    0.000
 4684.00    1.27347   1.15778    0.000
 4685.00    1.29173   1.15811    0.000
 4686.00    1.39271   1.15817    0.000
 4687.00    1.32175   1.15761    0.000
 4688.00    1.15963   1.15644    0.000
 4689.00    1.15894   1.15438    0.000
 4690.00    1.23254   1.15136    0.000
 4691.00    1.23388   1.14772    0.000
 4692.00    1.20659   1.14321    0.000
 4693.00    1.31758   1.13832    0.000
 4694.00    1.47525   1.13307    0.000
 4695.00    1.42403   1.12819    0.000
 4696.00    1.31353   1.12377    0.000
 4697.00    1.21405   1.12024    0.000
 4698.00    1.11715   1.11794    0.000
 4699.00    1.10727   1.11655    0.000
 4700.00    1.11376   1.11666    0.000
 4701.00    1.22995   1.11763    0.000
 4702.00    1.36210   1.12020    0.000
 4703.00    1.17406   1.12355    0.000
 4704.00    0.95217   1.12802    0.000
 4705.00    1.12374   1.13314    0.000
 4706.00    1.32234   1.13910    0.000
 4707.00    1.07746   1.14563    0.000
 4708.00    0.81750   1.15244    0.000
 4709.00    1.11172   1.15956    0.000
 4710.00    1.39533   1.16656    0.000
 4711.00    1.30610   1.17348    0.000
 4712.00    1.22323   1.17963    0.000
 4713.00    1.23781   1.18499    0.000
 4714.00    1.24084   1.18884    0.000
 4715.00    1.13060   1.19122    0.000
 4716.00    1.04241   1.19167    0.000
 4717.00    1.11013   1.19043    0.000
 4718.00    1.18741   1.18738    0.000
 4719.00    1.31669   1.18291    0.000
 4720.00    1.40236   1.17733    0.000
 4721.00    1.29800   1.17113    0.000
 4722.00    1.23036   1.16509    0.000
 4723.00    1.29443   1.15954    0.000
 4724.00    1.33045   1.15522    0.000
 4725.00    1.28208   1.15209    0.000
 4726.00    1.21109   1.15068    0.000
 4727.00    1.08213   1.15062    0.000
 4728.00    0.99003   1.15197    0.000
 4729.00    0.97917   1.15427    0.000
 4730.00    1.02412   1.15738    0.000
 4731.00    1.17578   1.16103    0.000
 4732.00    1.27893   1.16494    0.000
 4733.00    1.30115   1.16888    0.000
 4734.00    1.26785   1.17276    0.000
 4735.00    1.15336   1.17647    0.000
 4736.00    1.15903   1.17988    0.000
 4737.00    1.31920   1.18295    0.000
 4738.00    1.34596   1.18559    0.000
 4739.00    1.22159   1.18765    0.000
 4740.00    1.19833   1.18918    0.000
 4741.00    1.27608   1.18990    0.000
 4742.00    1.25339   1.18982    0.000
 4743.00    1.14219   1.18886    0.000
 4744.00    1.17281   1.18711    0.000
 4745.00    1.31355   1.18459    0.000
 4746.00    1.29207   1.18143    0.000
 4747.00    1.15986   1.17781    0.000
 4748.00    1.12361   1.17377    0.000
 4749.00    1.14478   1.16962    0.000
 4750.00    1.22133   1.16514    0.000
 4751.00    1.32680   1.16071    0.000
 4752.00    1.41909   1.15598    0.000
 4753.00    1.50542   1.15132    0.000
 4754.00    1.42552   1.14647    0.000
 4755.00    1.28090   1.14195    0.000
 4756.00    1.24539   1.13768    0.000
 4757.00    1.24602   1.13426    0.000
 4758.00    1.21979   1.13172    0.000
 4759.00    1.18608   1.13060    0.000
 4760.00    1.19392   1.13082    0.000
 4761.00    1.21126   1.13266    0.025
 4762.00    1.16787   1.13578    0.025
 4763.00    1.11335   1.14014    0.025
 4764.00    1.16938   1.14530    0.025
 4765.00    1.24097   1.15092    0.025
 4766.00    1.12869   1.15667    0.025
 4767.00    0.99775   1.16202    0.025
 4768.00    0.97037   1.16684    0.025
 4769.00    0.94969   1.17063    0.025
 4770.00    1.08266   1.17339    0.025
 4771.00    1.22011   1.17485    0.025
 4772.00    1.26868   1.17509    0.025
 4773.00    1.31217   1.17414    0.025
 4774.00    1.20881   1.17215    0.025
 4775.00    1.11696   1.16947    0.026
 4776.00    1.19159   1.16632    0.025
 4777.00    1.26522   1.16318    0.025
 4778.00    1.32938   1.16030    0.025
 4779.00    1.38228   1.15814    0.025
 4780.00    1.35810   1.15692    0.024
 4781.00    1.33616   1.15687    0.024
 4782.00    1.32609   1.15814    0.024
 4783.00    1.31796   1.16055    0.023
 4784.00    1.31809   1.16406    0.024
 4785.00    1.31083   1.16821    0.024
 4786.00    1.27758   1.17277    0.024
 4787.00    1.25558   1.17717    0.024
 4788.00    1.26683   1.18111    0.024
 4789.00    1.23892   1.18429    0.024
 4790.00    1.11245   1.18641    0.024
 4791.00    1.05704   1.18755    0.024
 4792.00    1.15575   1.18763    0.024
 4793.00    1.24624   1.18698    0.024
 4794.00    1.32125   1.18559    0.024
 4795.00    1.39254   1.18389    0.024
 4796.00    1.45770   1.18197    0.025
 4797.00    1.43198   1.17999    0.025
 4798.00    1.27533   1.17828    0.024
 4799.00    1.17932   1.17669    0.024
 4800.00    1.16016   1.17571    0.024
 4801.00    1.20001   1.17506    0.025
 4802.00    1.30575   1.17528    0.025
 4803.00    1.28120   1.17597    0.024
 4804.00    1.12829   1.17756    0.023
 4805.00    1.05634   1.17959    0.023
 4806.00    1.05471   1.18224    0.024
 4807.00    1.12568   1.18502    0.024
 4808.00    1.25221   1.18785    0.024
 4809.00    1.34018   1.19031    0.024
 4810.00    1.40222   1.19220    0.024
 4811.00    1.36591   1.19323    0.024
 4812.00    1.27165   1.19319    0.024
 4813.00    1.24222   1.19209    0.024
 4814.00    1.24609   1.18991    0.024
 4815.00    1.33222   1.18691    0.024
 4816.00    1.45497   1.18327    0.024
 4817.00    1.45558   1.17943    0.024
 4818.00    1.40947   1.17555    0.024
 4819.00    1.33985   1.17205    0.025
 4820.00    1.26257   1.16895    0.025
 4821.00    1.24594   1.16649    0.024
 4822.00    1.24582   1.16451    0.024
 4823.00    1.25870   1.16309    0.024
 4824.00    1.27449   1.16196    0.024
 4825.00    1.25440   1.16112    0.024
 4826.00    1.22791   1.16028    0.023
 4827.00    1.32343   1.15948    0.024
 4828.00    1.43557   1.15842    0.024
 4829.00    1.41868   1.15728    0.024
 4830.00    1.38926   1.15573    0.024
 4831.00    1.28589   1.15403    0.024
 4832.00    1.17804   1.15198    0.024
 4833.00    1.20916   1.14986    0.024
 4834.00    1.24344   1.14758    0.024
 4835.00    1.18271   1.14524    0.024
 4836.00    1.12641   1.14285    0.024
 4837.00    1.18605   1.14024    0.024
 4838.00    1.24986   1.13744    0.024
 4839.00    1.37072   1.13400    0.024
 4840.00    1.46536   1.12990    0.024
 4841.00    1.32308   1.12461    0.024
 4842.00    1.19096   1.11803    0.024
 4843.00    1.12631   1.10968    0.024
 4844.00    1.08491   1.09941    0.023
 4845.00    1.16348   1.08696    0.024
 4846.00    1.21306   1.07226    0.024
 4847.00    1.14196   1.05546    0.024
 4848.00    1.08403   1.03671    0.000
 4849.00    1.07147   1.01672    0.000
 4850.00    1.09066   0.99605    0.000
 4851.00    1.20193   0.97595    0.000
 4852.00    1.27354   0.95725    0.000
 4853.00    1.24700   0.94149    0.000
 4854.00    1.21293   0.92931    0.000
 4855.00    1.16278   0.92193    0.000
 4856.00    1.13755   0.91928    0.000
 4857.00    1.15850   0.92183    0.000
 4858.00    1.14756   0.92850    0.000
 4859.00    1.08499   0.93905    0.000
 4860.00    1.06788   0.95180    0.000
 4861.00    1.11532   0.96626    0.000
 4862.00    1.14796   0.98085    0.000
 4863.00    1.16212   0.99538    0.000
 4864.00    1.15956   1.00894    0.000
 4865.00    1.13857   1.02179    0.000
 4866.00    1.08582   1.03358    0.000
 4867.00    1.00223   1.04480    0.000
 4868.00    0.91245   1.05523    0.000
 4869.00    0.81737   1.06527    0.000
 4870.00    0.89561   1.07440    0.000
 4871.00    1.10458   1.08292    0.000
 4872.00    1.12369   1.09006    0.000
 4873.00    1.01696   1.09609    0.000
 4874.00    0.99149   1.10034    0.000
 4875.00    1.01318   1.10318   -1.000
 4876.00    1.05313   1.10438   -1.000
 4877.00    1.10232   1.10438   -1.000
 4878.00    1.10085   1.10357   -1.000
 4879.00    1.07718   1.10237   -1.000
 4880.00    0.98134   1.10161   -1.000
 4881.00    0.85836   1.10143   -1.000
 4882.00    0.91979   1.10293   -1.000
 4883.00    1.04003   1.10574   -1.000
 4884.00    1.10399   1.11084    0.064
 4885.00    1.15294   1.11729    0.028
 4886.00    1.09253   1.12568    0.026
 4887.00    1.00825   1.13469    0.025
 4888.00    1.03189   1.14441    0.025
 4889.00    1.07424   1.15360    0.025
 4890.00    1.02581   1.16209    0.025
 4891.00    0.96542   1.16912    0.025
 4892.00    1.11871   1.17455    0.025
 4893.00    1.29186   1.17827    0.026
 4894.00    1.25727   1.18033    0.026
 4895.00    1.21090   1.18107    0.026
 4896.00    1.14082   1.18061    0.026
 4897.00    1.07165   1.17941    0.026
 4898.00    1.16044   1.17752    0.026
 4899.00    1.25001   1.17533    0.025
 4900.00    1.35830   1.17273    0.026
 4901.00    1.45154   1.17005    0.026
 4902.00    1.35001   1.16705    0.025
 4903.00    1.25913   1.16404    0.025
 4904.00    1.26090   1.16063    0.025
 4905.00    1.26481   1.15708    0.025
 4906.00    1.28254   1.15289    0.025
 4907.00    1.28748   1.14831    0.025
 4908.00    1.22804   1.14286    0.025
 4909.00    1.18477   1.13689    0.025
 4910.00    1.20729   1.13032    0.025
 4911.00    1.21742   1.12366    0.026
 4912.00    1.18571   1.11739    0.025
 4913.00    1.17317   1.11209    0.025
 4914.00    1.21520   1.10854    0.025
 4915.00    1.26886   1.10699    0.025
 4916.00    1.35079   1.10810    0.025
 4917.00    1.37205   1.11142    0.025
 4918.00    1.26594   1.11716    0.025
 4919.00    1.16695   1.12418    0.025
 4920.00    1.08097   1.13228    0.024
 4921.00    1.02438   1.14004    0.024
 4922.00    1.01468   1.14720    0.025
 4923.00    0.98939   1.15264    0.025
 4924.00    0.94228   1.15639    0.024
 4925.00    0.92968   1.15797    0.024
 4926.00    0.95960   1.15785    0.024
 4927.00    1.04129   1.15626    0.024
 4928.00    1.17916   1.15388    0.024
 4929.00    1.29686   1.15140    0.024
 4930.00    1.39523   1.14940    0.024
 4931.00    1.39268   1.14858    0.024
 4932.00    1.30492   1.14909    0.024
 4933.00    1.26086   1.15144    0.024
 4934.00    1.24931   1.15516    0.024
 4935.00    1.21792   1.16049    0.024
 4936.00    1.17357   1.16649    0.024
 4937.00    1.16416   1.17323    0.023
 4938.00    1.17472   1.17962    0.023
 4939.00    1.11168   1.18568    0.023
 4940.00    1.01198   1.19048    0.000
 4941.00    1.03985   1.19405    0.000
 4942.00    1.12266   1.19586    0.000
 4943.00    1.15932   1.19591    0.000
 4944.00    1.17896   1.19418    0.000
 4945.00    1.22945   1.19067    0.000
 4946.00    1.28959   1.18592    0.000
 4947.00    1.31518   1.17995    0.000
 4948.00    1.33174   1.17370    0.000
 4949.00    1.33222   1.16727    0.000
 4950.00    1.32927   1.16162    0.000
 4951.00    1.25397   1.15682    0.000
 4952.00    1.16648   1.15335    0.000
 4953.00    1.19792   1.15124    0.000
 4954.00    1.24449   1.15023    0.000
 4955.00    1.23749   1.15037    0.000
 4956.00    1.22575   1.15092    0.000
 4957.00    1.10556   1.15206    0.000
 4958.00    0.97965   1.15305    0.000
 4959.00    1.02932   1.15422    0.000
 4960.00    1.08262   1.15519    0.000
 4961.00    1.15618   1.15627    0.000
 4962.00    1.22761   1.15736    0.000
 4963.00    1.25269   1.15847    0.000
 4964.00    1.27339   1.15960    0.000
 4965.00    1.24038   1.16034    0.000
 4966.00    1.20068   1.16065    0.000
 4967.00    1.10495   1.15985    0.000
 4968.00    1.03149   1.15794    0.000
 4969.00    1.09711   1.15436    0.000
 4970.00    1.15771   1.14931    0.000
 4971.00    1.19368   1.14274    0.000
 4972.00    1.22008   1.13507    0.000
 4973.00    1.20841   1.12685    0.000
 4974.00    1.19829   1.11866    0.000
 4975.00    1.19330   1.11132    0.000
 4976.00    1.20981   1.10527    0.000
 4977.00    1.28643   1.10118    0.000
 4978.00    1.32487   1.09912    0.000
 4979.00    1.27198   1.09924    0.000
 4980.00    1.21535   1.10119    0.000
 4981.00    1.15098   1.10466    0.000
 4982.00    1.09514   1.10902    0.000
 4983.00    1.05460   1.11379    0.000
 4984.00    1.06893   1.11836    0.000
 4985.00    1.16944   1.12239    0.000
 4986.00    1.21827   1.12536    0.000
 4987.00    1.19579   1.12725    0.000
 4988.00    1.14337   1.12764    0.000
 4989.00    1.05458   1.12681    0.000
 4990.00    0.97465   1.12446    0.000
 4991.00    0.90421   1.12105    0.000
 4992.00    0.89234   1.11644    0.000
 4993.00    0.93577   1.11124    0.000
 4994.00    1.01305   1.10539    0.000
 4995.00    1.11850   1.09962    0.000
 4996.00    1.16665   1.09381    0.000
 4997.00    1.17281   1.08868    0.000
 4998.00    1.21408   1.08385    0.000
 4999.00    1.27793   1.08000    0.000
 5000.00    1.29031   1.07636    0.000
 5001.00    1.27370   1.07360    0.000
 5002.00    1.20451   1.07067    0.000
 5003.00    1.10958   1.06836    0.000
 5004.00    1.10539   1.06555    0.000
 5005.00    1.13962   1.06325    0.000
 5006.00    1.10092   1.06056    0.000
 5007.00    1.03578   1.05855    0.000
 5008.00    1.03345   1.05663    0.000
 5009.00    1.05039   1.05581    0.000
 5010.00    1.02808   1.05562    0.000
 5011.00    0.99575   1.05679    0.000
 5012.00    1.00912   1.05890    0.000
 5013.00    1.03199   1.06225    0.000
 5014.00    1.07142   1.06648    0.000
 5015.00    1.11357   1.07155    0.000
 5016.00    1.05439   1.07718    0.000
 5017.00    0.98278   1.08312    0.000
 5018.00    1.01340   1.08922    0.000
 5019.00    1.05267   1.09520    0.000
 5020.00    1.05883   1.10088    0.000
 5021.00    1.06337   1.10613    0.000
 5022.00    1.04894   1.11053    0.000
 5023.00    1.03346   1.11418    0.000
 5024.00    0.97167   1.11638    0.000
 5025.00    0.91752   1.11750    0.000
 5026.00    1.01660   1.11675    0.000
 5027.00    1.10891   1.11484    0.000
 5028.00    1.12200   1.11117    0.000
 5029.00    1.14445   1.10676    0.024
 5030.00    1.24240   1.10145    0.024
 5031.00    1.31810   1.09637    0.024
 5032.00    1.25884   1.09169    0.024
 5033.00    1.19723   1.08828    0.024
 5034.00    1.12437   1.08634    0.023
 5035.00    1.06090   1.08620    0.023
 5036.00    1.03398   1.08767    0.023
 5037.00    1.02550   1.09068    0.023
 5038.00    1.07683   1.09459    0.024
 5039.00    1.13175   1.09920    0.023
 5040.00    1.19654   1.10379    0.023
 5041.00    1.19925   1.10841    0.022
 5042.00    1.05596   1.11255    0.022
 5043.00    0.98370   1.11665    0.022
 5044.00    1.05579   1.12047    0.022
 5045.00    1.08217   1.12454    0.022
 5046.00    1.02770   1.12871    0.022
 5047.00    1.00542   1.13330    0.022
 5048.00    1.03297   1.13799    0.023
 5049.00    1.07046   1.14274    0.023
 5050.00    1.12147   1.14710    0.023
 5051.00    1.11802   1.15078    0.023
 5052.00    1.04937   1.15343    0.022
 5053.00    1.02803   1.15473    0.022
 5054.00    1.05660   1.15462    0.023
 5055.00    1.12248   1.15302    0.023
 5056.00    1.22307   1.15011    0.023
 5057.00    1.25953   1.14610    0.023
 5058.00    1.24337   1.14148    0.023
 5059.00    1.17057   1.13641    0.023
 5060.00    1.05686   1.13135    0.023
 5061.00    1.06545   1.12653    0.023
 5062.00    1.15159   1.12217    0.023
 5063.00    1.17732   1.11817    0.023
 5064.00    1.16956   1.11466    0.023
 5065.00    1.16955   1.11128    0.023
 5066.00    1.17328   1.10815    0.023
 5067.00    1.19474   1.10468    0.023
 5068.00    1.22359   1.10141    0.022
 5069.00    1.13990   1.09752    0.023
 5070.00    1.01614   1.09412    0.023
 5071.00    1.03287   1.09050    0.023
 5072.00    1.09186   1.08793    0.023
 5073.00    1.10453   1.08568    0.023
 5074.00    1.10562   1.08497    0.023
 5075.00    1.10670   1.08543    0.023
 5076.00    1.10777   1.08744    0.023
 5077.00    1.14780   1.09086    0.024
 5078.00    1.19404   1.09537    0.024
 5079.00    1.07692   1.10107    0.023
 5080.00    0.94049   1.10691    0.023
 5081.00    0.92568   1.11319    0.023
 5082.00    0.92065   1.11869    0.023
 5083.00    1.05132   1.12373    0.023
 5084.00    1.18810   1.12731    0.024
 5085.00    1.11977   1.12970    0.023
 5086.00    1.05074   1.13043    0.023
 5087.00    1.06765   1.12971    0.023
 5088.00    1.08876   1.12773    0.023
 5089.00    1.18803   1.12455    0.023
 5090.00    1.27909   1.12103    0.023
 5091.00    1.27870   1.11691    0.023
 5092.00    1.26671   1.11336    0.023
 5093.00    1.16442   1.10988    0.023
 5094.00    1.08233   1.10725    0.023
 5095.00    1.11921   1.10487    0.023
 5096.00    1.14576   1.10337    0.023
 5097.00    1.12412   1.10223    0.023
 5098.00    1.12629   1.10173    0.023
 5099.00    1.21925   1.10157    0.023
 5100.00    1.27603   1.10189    0.023
 5101.00    1.21776   1.10302    0.023
 5102.00    1.15510   1.10441    0.023
 5103.00    1.08064   1.10684    0.023
 5104.00    1.04081   1.10972    0.023
 5105.00    1.08107   1.11316    0.023
 5106.00    1.09856   1.11688    0.023
 5107.00    1.07051   1.12045    0.023
 5108.00    1.04968   1.12369    0.023
 5109.00    1.04142   1.12597    0.024
 5110.00    1.02682   1.12725    0.024
 5111.00    1.00253   1.12678    0.023
 5112.00    1.01231   1.12509    0.023
 5113.00    1.06775   1.12142    0.023
 5114.00    1.10517   1.11693    0.023
 5115.00    1.12132   1.11094    0.023
 5116.00    1.09129   1.10495    0.023
 5117.00    1.01318   1.09857    0.023
 5118.00    0.98370   1.09296    0.023
 5119.00    0.99885   1.08808    0.023
 5120.00    1.05305   1.08439    0.023
 5121.00    1.13885   1.08199    0.022
 5122.00    1.17038   1.08062    0.022
 5123.00    1.16329   1.08067    0.022
 5124.00    1.11346   1.08107    0.022
 5125.00    1.03694   1.08250    0.022
 5126.00    0.98257   1.08353    0.022
 5127.00    0.94029   1.08473    0.022
 5128.00    0.98402   1.08522    0.022
 5129.00    1.06854   1.08524    0.022
 5130.00    1.05494   1.08470    0.022
 5131.00    1.00118   1.08304    0.022
 5132.00    0.97970   1.08155    0.022
 5133.00    0.96950   1.07928    0.022
 5134.00    1.03848   1.07737    0.022
 5135.00    1.13081   1.07567    0.022
 5136.00    1.02659   1.07376    0.022
 5137.00    0.87436   1.07246    0.021
 5138.00    0.95896   1.07167    0.022
 5139.00    1.09036   1.07133    0.023
 5140.00    1.05292   1.07099    0.023
 5141.00    0.98945   1.07152    0.022
 5142.00    0.96496   1.07212    0.023
 5143.00    0.94492   1.07375    0.023
 5144.00    1.05849   1.07536    0.023
 5145.00    1.18226   1.07780    0.023
 5146.00    1.17082   1.08024    0.023
 5147.00    1.15382   1.08350    0.022
 5148.00    1.06791   1.08608    0.022
 5149.00    0.98487   1.08901    0.022
 5150.00    1.04623   1.09044    0.022
 5151.00    1.10300   1.09101    0.023
 5152.00    1.08022   1.08905    0.023
 5153.00    1.05209   1.08499    0.023
 5154.00    0.96699   1.07789    0.023
 5155.00    0.89662   1.06825    0.023
 5156.00    0.93715   1.05570    0.023
 5157.00    0.98856   1.04126    0.023
 5158.00    1.10231   1.02551    0.023
 5159.00    1.17342   1.00909    0.024
 5160.00    1.05027   0.99352    0.024
 5161.00    0.96970   0.97923    0.024
 5162.00    1.04804   0.96794    0.024
 5163.00    1.08336   0.95989    0.024
 5164.00    0.98444   0.95576    0.023
 5165.00    0.91626   0.95516    0.023
 5166.00    0.92953   0.95753    0.023
 5167.00    0.91918   0.96263    0.023
 5168.00    0.85514   0.96946    0.024
 5169.00    0.79907   0.97724    0.023
 5170.00    0.75870   0.98486    0.023
 5171.00    0.74809   0.99160    0.023
 5172.00    0.78857   0.99647    0.023
 5173.00    0.76221   0.99989    0.023
 5174.00    0.63539   1.00152    0.023
 5175.00    0.60349   1.00245    0.023
 5176.00    0.69697   1.00239    0.023
 5177.00    0.77224   1.00290    0.023
 5178.00    0.82634   1.00356    0.023
 5179.00    0.86945   1.00602    0.023
 5180.00    0.90129   1.00914    0.023
 5181.00    0.94672   1.01419    0.022
 5182.00    1.00445   1.01956    0.022
 5183.00    0.97820   1.02513    0.022
 5184.00    0.88498   1.03105    0.022
 5185.00    0.85749   1.03625    0.022
 5186.00    0.87612   1.04186    0.021
 5187.00    0.88973   1.04647    0.021
 5188.00    0.90024   1.05086    0.022
 5189.00    0.85803   1.05479    0.022
 5190.00    0.78748   1.05828    0.000
 5191.00    0.82471   1.06085    0.000
 5192.00    0.91225   1.06206    0.000
 5193.00    0.98214   1.06287    0.000
 5194.00    1.04493   1.06163    0.000
 5195.00    0.99918   1.06011    0.000
 5196.00    0.91619   1.05684    0.000
 5197.00    1.02817   1.05375    0.000
 5198.00    1.19648   1.04991    0.000
 5199.00    1.20295   1.04720    0.000
 5200.00    1.17075   1.04512    0.000
 5201.00    1.12323   1.04466    0.000
 5202.00    1.07275   1.04602    0.000
 5203.00    1.09906   1.04940    0.000
 5204.00    1.13684   1.05441    0.000
 5205.00    1.05534   1.06032    0.000
 5206.00    0.96078   1.06799    0.000
 5207.00    0.87746   1.07521    0.000
 5208.00    0.79496   1.08292    0.000
 5209.00    0.85787   1.08939    0.000
 5210.00    0.92621   1.09506    0.000
 5211.00    0.96672   1.09890    0.022
 5212.00    1.00699   1.10140    0.022
 5213.00    1.04292   1.10247    0.022
 5214.00    1.08025   1.10198    0.023
 5215.00    1.14011   1.10008    0.022
 5216.00    1.18851   1.09685    0.022
 5217.00    1.12012   1.09277    0.022
 5218.00    1.05326   1.08858    0.023
 5219.00    0.99759   1.08436    0.023
 5220.00    0.96083   1.08116    0.023
 5221.00    1.02938   1.07888    0.023
 5222.00    1.06630   1.07832    0.023
 5223.00    0.96252   1.07924    0.023
 5224.00    0.90509   1.08238    0.023
 5225.00    1.01705   1.08704    0.023
 5226.00    1.07570   1.09221    0.023
 5227.00    0.97120   1.09843    0.023
 5228.00    0.89926   1.10485    0.023
 5229.00    0.91202   1.11123    0.023
 5230.00    0.90036   1.11789    0.023
 5231.00    0.83407   1.12417    0.023
 5232.00    0.85622   1.12980    0.023
 5233.00    1.04979   1.13477    0.023
 5234.00    1.13763   1.13807    0.023
 5235.00    1.04676   1.14059    0.023
 5236.00    1.01402   1.14131    0.023
 5237.00    1.06737   1.14132    0.023
 5238.00    1.11228   1.13987    0.023
 5239.00    1.14620   1.13782    0.023
 5240.00    1.15302   1.13516    0.023
 5241.00    1.12875   1.13251    0.023
 5242.00    1.16641   1.12953    0.023
 5243.00    1.26673   1.12696    0.023
 5244.00    1.27562   1.12495    0.023
 5245.00    1.20296   1.12364    0.023
 5246.00    1.17228   1.12240    0.023
 5247.00    1.17459   1.12141    0.023
 5248.00    1.09218   1.12035    0.023
 5249.00    0.95120   1.11831    0.022
 5250.00    0.87686   1.11522    0.022
 5251.00    0.84292   1.11033    0.022
 5252.00    0.94642   1.10386    0.022
 5253.00    1.12265   1.09574    0.022
 5254.00    1.11724   1.08556    0.022
 5255.00    1.02842   1.07440    0.022
 5256.00    1.00284   1.06193    0.022
 5257.00    1.00227   1.04982    0.022
 5258.00    1.09554   1.03800    0.022
 5259.00    1.22042   1.02818    0.022
 5260.00    1.19000   1.02033    0.022
 5261.00    1.11562   1.01543    0.022
 5262.00    1.10243   1.01346    0.023
 5263.00    1.10352   1.01474    0.023
 5264.00    1.12417   1.01893    0.023
 5265.00    1.14850   1.02506    0.023
 5266.00    1.02564   1.03337    0.023
 5267.00    0.88147   1.04364    0.023
 5268.00    0.86867   1.05460    0.023
 5269.00    0.86968   1.06610    0.023
 5270.00    0.99562   1.07708    0.023
 5271.00    1.13008   1.08777    0.023
 5272.00    1.13221   1.09722    0.023
 5273.00    1.12990   1.10681    0.024
 5274.00    1.02636   1.11495    0.023
 5275.00    0.92701   1.12295    0.023
 5276.00    0.96522   1.12987    0.023
 5277.00    1.00278   1.13672    0.022
 5278.00    1.03043   1.14293    0.022
 5279.00    1.06349   1.14917    0.022
 5280.00    1.14945   1.15460    0.022
 5281.00    1.23575   1.15980    0.023
 5282.00    1.32448   1.16380    0.023
 5283.00    1.37718   1.16647    0.023
 5284.00    1.23452   1.16762    0.023
 5285.00    1.13204   1.16697    0.023
 5286.00    1.20419   1.16512    0.023
 5287.00    1.25042   1.16189    0.024
 5288.00    1.20389   1.15816    0.024
 5289.00    1.17248   1.15391    0.023
 5290.00    1.18647   1.15015    0.023
 5291.00    1.21270   1.14702    0.023
 5292.00    1.27022   1.14505    0.023
 5293.00    1.27042   1.14443    0.023
 5294.00    1.14456   1.14534    0.023
 5295.00    1.03642   1.14788    0.023
 5296.00    0.96210   1.15179    0.023
 5297.00    0.95241   1.15641    0.023
 5298.00    1.05033   1.16166    0.023
 5299.00    1.15643   1.16664    0.023
 5300.00    1.27445   1.17146    0.023
 5301.00    1.29827   1.17547    0.023
 5302.00    1.20119   1.17859    0.023
 5303.00    1.15755   1.18048    0.023
 5304.00    1.17434   1.18120    0.023
 5305.00    1.20766   1.18089    0.023
 5306.00    1.25747   1.17946    0.023
 5307.00    1.28813   1.17721    0.022
 5308.00    1.30195   1.17384    0.022
 5309.00    1.26827   1.16965    0.022
 5310.00    1.19777   1.16470    0.022
 5311.00    1.18121   1.15907    0.022
 5312.00    1.20140   1.15285    0.022
 5313.00    1.18715   1.14583    0.022
 5314.00    1.15233   1.13871    0.021
 5315.00    1.14969   1.13086    0.021
 5316.00    1.16381   1.12327    0.022
 5317.00    1.18126   1.11576    0.022
 5318.00    1.20020   1.10849    0.021
 5319.00    1.19825   1.10267    0.021
 5320.00    1.18818   1.09740    0.021
 5321.00    1.12664   1.09477    0.021
 5322.00    1.04807   1.09296    0.021
 5323.00    1.03179   1.09398    0.021
 5324.00    1.03278   1.09569    0.022
 5325.00    1.03693   1.09959    0.021
 5326.00    1.04180   1.10392    0.021
 5327.00    1.07874   1.10915    0.022
 5328.00    1.12153   1.11460    0.022
 5329.00    1.14766   1.11908    0.022
 5330.00    1.17146   1.12294    0.022
 5331.00    1.17829   1.12573    0.022
 5332.00    1.18340   1.12803    0.023
 5333.00    1.11000   1.12967    0.022
 5334.00    1.03156   1.13097    0.022
 5335.00    1.00323   1.13204    0.022
 5336.00    0.97650   1.13334    0.022
 5337.00    0.99181   1.13496    0.022
 5338.00    1.01075   1.13725    0.022
 5339.00    1.13337   1.14007    0.022
 5340.00    1.25349   1.14393    0.022
 5341.00    1.33777   1.14827    0.022
 5342.00    1.40169   1.15290    0.022
 5343.00    1.27503   1.15841    0.023
 5344.00    1.16063   1.16382    0.023
 5345.00    1.12993   1.16989    0.023
 5346.00    1.09461   1.17558    0.023
 5347.00    1.03498   1.18103    0.023
 5348.00    1.01635   1.18558    0.022
 5349.00    1.17187   1.18940    0.023
 5350.00    1.27761   1.19145    0.023
 5351.00    1.20882   1.19215    0.023
 5352.00    1.17639   1.19083    0.024
 5353.00    1.25111   1.18829    0.023
 5354.00    1.27355   1.18370    0.023
 5355.00    1.16459   1.17819    0.023
 5356.00    1.12887   1.17153    0.023
 5357.00    1.25163   1.16439    0.023
 5358.00    1.31832   1.15715    0.023
 5359.00    1.27967   1.14998    0.023
 5360.00    1.24798   1.14389    0.023
 5361.00    1.22773   1.13851    0.023
 5362.00    1.20117   1.13516    0.022
 5363.00    1.16555   1.13271    0.022
 5364.00    1.13553   1.13236    0.021
 5365.00    1.11260   1.13338    0.021
 5366.00    1.10115   1.13551    0.022
 5367.00    1.10250   1.13903    0.022
 5368.00    1.09466   1.14278   -2.000
 5369.00    1.07780   1.14754   -2.000
 5370.00    1.08451   1.15191   -2.000
 5371.00    1.11166   1.15663   -2.000
 5372.00    1.00387   1.15985   -2.000
 5373.00    0.79300   1.16239   -2.000
 5374.00    0.75948   1.16381   -2.000
 5375.00    0.84504   1.16427   -2.000
 5376.00    1.07675   1.16405   -2.000
 5377.00    1.39441   1.16294   -2.000
 5378.00    1.40308   1.16121   -2.000
 5379.00    1.25328   1.15852   -2.000
 5380.00    1.13739   1.15568   -2.000
 5381.00    1.03657   1.15185   -2.000
 5382.00    1.06120   1.14771   -2.000
 5383.00    1.13371   1.14323    0.022
 5384.00    1.22321   1.13840    0.021
 5385.00    1.31822   1.13320    0.021
 5386.00    1.29160   1.12798    0.022
 5387.00    1.23196   1.12302    0.022
 5388.00    1.14556   1.11799    0.022
 5389.00    1.05320   1.11355    0.022
 5390.00    1.02839   1.10926    0.022
 5391.00    1.01558   1.10539    0.022
 5392.00    1.07233   1.10199    0.022
 5393.00    1.13851   1.09867    0.022
 5394.00    1.02597   1.09584    0.022
 5395.00    0.89616   1.09269    0.021
 5396.00    0.91086   1.09094    0.022
 5397.00    0.93425   1.08963    0.022
 5398.00    1.11529   1.08881    0.022
 5399.00    1.29830   1.08856    0.023
 5400.00    1.12604   1.08943    0.022
 5401.00    0.96334   1.09157    0.022
 5402.00    1.04719   1.09434    0.023
 5403.00    1.12376   1.09881    0.023
 5404.00    1.10161   1.10403    0.023
 5405.00    1.07566   1.11055    0.023
 5406.00    1.01553   1.11692    0.022
 5407.00    0.98115   1.12346    0.022
 5408.00    1.11691   1.12914    0.022
 5409.00    1.21524   1.13472    0.022
 5410.00    1.12104   1.13968    0.022
 5411.00    1.02713   1.14339    0.022
 5412.00    0.93438   1.14610    0.021
 5413.00    0.88729   1.14741    0.021
 5414.00    0.99702   1.14796    0.021
 5415.00    1.08886   1.14742    0.021
 5416.00    1.12896   1.14625    0.021
 5417.00    1.14152   1.14392    0.021
 5418.00    1.08609   1.14152    0.021
 5419.00    1.07135   1.13839    0.021
 5420.00    1.14327   1.13551    0.021
 5421.00    1.17787   1.13251    0.021
 5422.00    1.14346   1.12946    0.021
 5423.00    1.11362   1.12762    0.021
 5424.00    1.09117   1.12642    0.021
 5425.00    1.07200   1.12634    0.021
 5426.00    1.05749   1.12649    0.021
 5427.00    1.04776   1.12787    0.021
 5428.00    1.04398   1.13002    0.021
 5429.00    1.03614   1.13410    0.021
 5430.00    1.02383   1.13799    0.021
 5431.00    1.00716   1.14141    0.021
 5432.00    0.98624   1.14498    0.021
 5433.00    0.98458   1.14779    0.021
 5434.00    0.99937   1.15028    0.021
 5435.00    1.05551   1.15172    0.021
 5436.00    1.14278   1.15209    0.021
 5437.00    1.15544   1.15141    0.021
 5438.00    1.11873   1.14954    0.022
 5439.00    1.12939   1.14723    0.021
 5440.00    1.16749   1.14423    0.021
 5441.00    1.17985   1.14140    0.021
 5442.00    1.17923   1.13839    0.021
 5443.00    1.17647   1.13568    0.022
 5444.00    1.17277   1.13368    0.022
 5445.00    1.16843   1.13205    0.022
 5446.00    1.16385   1.13170    0.022
 5447.00    1.14259   1.13135    0.022
 5448.00    1.11601   1.13084    0.022
 5449.00    1.14321   1.13059    0.022
 5450.00    1.18471   1.13024    0.022
 5451.00    1.05504   1.13054    0.022
 5452.00    0.88814   1.13077    0.022
 5453.00    0.90395   1.13110    0.022
 5454.00    0.95131   1.13162    0.022
 5455.00    1.04091   1.13312    0.022
 5456.00    1.13604   1.13396    0.022
 5457.00    1.08911   1.13427    0.022
 5458.00    1.02904   1.13419    0.021
 5459.00    1.03460   1.13373    0.021
 5460.00    1.04384   1.13285    0.021
 5461.00    1.10724   1.13129    0.021
 5462.00    1.16988   1.12985    0.020
 5463.00    1.02821   1.12766    0.021
 5464.00    0.89593   1.12470    0.021
 5465.00    0.98425   1.12178    0.021
 5466.00    1.06528   1.11888    0.021
 5467.00    1.05287   1.11584    0.021
 5468.00    1.03987   1.11256    0.020
 5469.00    1.02177   1.11040    0.021
 5470.00    1.01455   1.10897    0.021
 5471.00    1.07705   1.10837    0.020
 5472.00    1.12115   1.10873    0.020
 5473.00    1.07299   1.11008    0.020
 5474.00    1.02888   1.11174    0.021
 5475.00    1.00125   1.11374    0.021
 5476.00    0.98835   1.11781    0.020
 5477.00    1.02507   1.12116    0.020
 5478.00    1.05385   1.12462   -2.000
 5479.00    1.06010   1.12737   -2.000
 5480.00    1.06556   1.13005   -2.000
 5481.00    1.06908   1.13280   -2.000
 5482.00    1.07387   1.13484   -2.000
 5483.00    1.08128   1.13669   -2.000
 5484.00    0.98442   1.13722   -2.000
 5485.00    0.69764   1.13769   -2.000
 5486.00    0.15857   1.13787   -2.000
 5487.00   -0.78208   1.13803   -2.000
 5488.00   -1.09957   1.13749   -2.000
 5489.00   -0.54652   1.13635   -2.000
 5490.00    0.16189   1.13556   -2.000
 5491.00    1.06131   1.13379   -2.000
 5492.00    1.78873   1.13236   -2.000
 5493.00    2.32978   1.13025   -2.000
 5494.00    2.33338   1.12853   -2.000
 5495.00    1.82324   1.12631   -2.000
 5496.00    1.51023   1.12445   -2.000
 5497.00    1.36336   1.12310   -2.000
 5498.00    1.22092   1.12141   -2.000
 5499.00    1.08178   1.11962   -2.000
 5500.00    1.03253   1.11819   -2.000
 5501.00    1.04189   1.11764   -2.000
 5502.00    1.03051   1.11736   -1.000
 5503.00    1.00730   1.11774   -1.000
 5504.00    1.01105   1.11821   -1.000
 5505.00    1.02820   1.11960   -1.000
 5506.00    1.04397   1.12184   -1.000
 5507.00    1.05916   1.12419   -1.000
 5508.00    1.08935   1.12682    0.056
 5509.00    1.12508   1.12957    0.024
 5510.00    1.16085   1.13227    0.021
 5511.00    1.19663   1.13482    0.020
 5512.00    1.11663   1.13731    0.020
 5513.00    1.00649   1.13901    0.020
 5514.00    0.99733   1.13996    0.020
 5515.00    1.00960   1.13992    0.020
 5516.00    1.05642   1.13935    0.020
 5517.00    1.10905   1.13834    0.020
 5518.00    1.09889   1.13665    0.020
 5519.00    1.08077   1.13515    0.019
 5520.00    1.04261   1.13337    0.020
 5521.00    1.00269   1.13200    0.020
 5522.00    1.01084   1.13070    0.020
 5523.00    1.02151   1.13028    0.020
 5524.00    0.97978   1.12996    0.020
 5525.00    0.93789   1.13073    0.020
 5526.00    0.95760   1.13192    0.020
 5527.00    0.97667   1.13383    0.020
 5528.00    0.98209   1.13664    0.020
 5529.00    0.98743   1.13901    0.020
 5530.00    0.99186   1.14156    0.020
 5531.00    1.00063   1.14375    0.020
 5532.00    1.04563   1.14603    0.020
 5533.00    1.08380   1.14799    0.020
 5534.00    1.07948   1.15033    0.020
 5535.00    1.07708   1.15256    0.020
 5536.00    1.08409   1.15431    0.021
 5537.00    1.07696   1.15626    0.021
 5538.00    1.01366   1.15789    0.021
 5539.00    0.98294   1.15926    0.020
 5540.00    1.05969   1.16034    0.021
 5541.00    1.10963   1.16086    0.021
 5542.00    1.08480   1.16146    0.021
 5543.00    1.05489   1.16165    0.021
 5544.00    1.01284   1.16170    0.020
 5545.00    1.04060   1.16125    0.021
 5546.00    1.21228   1.16077    0.021
 5547.00    1.28433   1.15944    0.021
 5548.00    1.17772   1.15797    0.021
 5549.00    1.12109   1.15598    0.021
 5550.00    1.14284   1.15360    0.020
 5551.00    1.15087   1.15112    0.020
 5552.00    1.14000   1.14800    0.020
 5553.00    1.10089   1.14554    0.020
 5554.00    1.02755   1.14254    0.020
 5555.00    1.01308   1.13978    0.020
 5556.00    1.06152   1.13676    0.019
 5557.00    1.10569   1.13425    0.019
 5558.00    1.14583   1.13180    0.020
 5559.00    1.13788   1.12927    0.020
 5560.00    1.08998   1.12799    0.020
 5561.00    1.06930   1.12597    0.019
 5562.00    1.06854   1.12516    0.019
 5563.00    1.10843   1.12482    0.019
 5564.00    1.17444   1.12504    0.019
 5565.00    1.13175   1.12514    0.019
 5566.00    1.02798   1.12615    0.019
 5567.00    1.02083   1.12683    0.019
 5568.00    1.06092   1.12756    0.019
 5569.00    1.11774   1.12854    0.019
 5570.00    1.18163   1.12846    0.019
 5571.00    1.21339   1.12786    0.020
 5572.00    1.23353   1.12715    0.020
 5573.00    1.17920   1.12580    0.020
 5574.00    1.10208   1.12266    0.020
 5575.00    1.05318   1.11942    0.020
 5576.00    1.01146   1.11472    0.020
 5577.00    1.04152   1.11023    0.020
 5578.00    1.08644   1.10535    0.020
 5579.00    1.10988   1.10096    0.020
 5580.00    1.12980   1.09693    0.020
 5581.00    1.13468   1.09337    0.020
 5582.00    1.13773   1.09072    0.021
 5583.00    1.17519   1.08808    0.021
 5584.00    1.21554   1.08709    0.021
 5585.00    1.12271   1.08694    0.020
 5586.00    1.02344   1.08763    0.020
 5587.00    1.00272   1.08828    0.020
 5588.00    0.98334   1.09002    0.020
 5589.00    0.97318   1.09237    0.020
 5590.00    0.96275   1.09422    0.021
 5591.00    0.94691   1.09662    0.020
 5592.00    0.93253   1.09890    0.020
 5593.00    0.93514   1.10261    0.021
 5594.00    0.93409   1.10669    0.021
 5595.00    0.90365   1.11087    0.020
 5596.00    0.87142   1.11485    0.020
 5597.00    0.82845   1.11910    0.020
 5598.00    0.79960   1.12384    0.020
 5599.00    0.83805   1.12763    0.019
 5600.00    0.88342   1.13155    0.019
 5601.00    0.95566   1.13453    0.019
 5602.00    1.01835   1.13705    0.019
 5603.00    1.05014   1.13828    0.019
 5604.00    1.08319   1.13716    0.019
 5605.00    1.11970   1.13608    0.019
 5606.00    1.14055   1.13401    0.019
 5607.00    1.12467   1.13173    0.019
 5608.00    1.09170   1.12896    0.019
 5609.00    1.02403   1.12615    0.019
 5610.00    0.99766   1.12391    0.019
 5611.00    1.04421   1.12160    0.019
 5612.00    1.07888   1.12002    0.019
 5613.00    1.09521   1.11770    0.019
 5614.00    1.08985   1.11714    0.019
 5615.00    1.05507   1.11771    0.019
 5616.00    1.03653   1.11860    0.019
 5617.00    1.03738   1.11997    0.019
 5618.00    1.06014   1.12165    0.019
 5619.00    1.10597   1.12376    0.019
 5620.00    1.11647   1.12573    0.019
 5621.00    1.09413   1.12770    0.019
 5622.00    1.07987   1.12897    0.019
 5623.00    1.07221   1.13021    0.019
 5624.00    1.10268   1.13153    0.020
 5625.00    1.16062   1.13217    0.020
 5626.00    1.17438   1.13216    0.020
 5627.00    1.16016   1.13180    0.020
 5628.00    1.11129   1.13109    0.020
 5629.00    1.04325   1.12996    0.020
 5630.00    1.05648   1.12849    0.020
 5631.00    1.10881   1.12718    0.020
 5632.00    1.10312   1.12591    0.020
 5633.00    1.07332   1.12506    0.019
 5634.00    1.05257   1.12469    0.019
 5635.00    1.03502   1.12437    0.019
 5636.00    1.04906   1.12466    0.019
 5637.00    1.07257   1.12510    0.019
 5638.00    1.10265   1.12566    0.019
 5639.00    1.13437   1.12587    0.019
 5640.00    1.15153   1.12602    0.019
 5641.00    1.16574   1.12620    0.019
 5642.00    1.13006   1.12580    0.018
 5643.00    1.08649   1.12493    0.018
 5644.00    1.09623   1.12317    0.018
 5645.00    1.11225   1.12122    0.018
 5646.00    1.07311   1.11845    0.018
 5647.00    1.02957   1.11524    0.018
 5648.00    1.01843   1.11204    0.018
 5649.00    1.00873   1.10882    0.018
 5650.00    1.05103   1.10614    0.018
 5651.00    1.09221   1.10408    0.019
 5652.00    1.04974   1.10225    0.019
 5653.00    1.01055   1.10096    0.019
 5654.00    1.03192   1.10091    0.019
 5655.00    1.05040   1.10184    0.019
 5656.00    1.03676   1.10275    0.019
 5657.00    1.02829   1.10477    0.019
 5658.00    1.05993   1.10777    0.019
 5659.00    1.09649   1.11092    0.019
 5660.00    1.16190   1.11434    0.019
 5661.00    1.19909   1.11789    0.019
 5662.00    1.10494   1.12204    0.019
 5663.00    1.04085   1.12574    0.019
 5664.00    1.09106   1.12920    0.019
 5665.00    1.13582   1.13191    0.019
 5666.00    1.16330   1.13422    0.019
 5667.00    1.17581   1.13620    0.019
 5668.00    1.14805   1.13761    0.019
 5669.00    1.12376   1.13816    0.019
 5670.00    1.10749   1.13801    0.019
 5671.00    1.10169   1.13715    0.019
 5672.00    1.11681   1.13589    0.019
 5673.00    1.09615   1.13355    0.019
 5674.00    1.01325   1.13148    0.019
 5675.00    0.96695   1.12956    0.019
 5676.00    0.97636   1.12753    0.019
 5677.00    0.99330   1.12574    0.019
 5678.00    1.02031   1.12413    0.019
 5679.00    1.03764   1.12344    0.019
 5680.00    1.04356   1.12285    0.018
 5681.00    1.05973   1.12345    0.018
 5682.00    1.08654   1.12419    0.018
 5683.00    1.08377   1.12527    0.018
 5684.00    1.05390   1.12646    0.018
 5685.00    1.03041   1.12701    0.018
 5686.00    1.01206   1.12777    0.018
 5687.00    1.03249   1.12792    0.018
 5688.00    1.08046   1.12794    0.018
 5689.00    1.08661   1.12678    0.018
 5690.00    1.06667   1.12500    0.018
 5691.00    1.06106   1.12298    0.018
 5692.00    1.06327   1.11957    0.018
 5693.00    1.12233   1.11633    0.018
 5694.00    1.20829   1.11288    0.019
 5695.00    1.22942   1.10930    0.019
 5696.00    1.22407   1.10560    0.019
 5697.00    1.19525   1.10151    0.019
 5698.00    1.15824   1.09854    0.019
 5699.00    1.13334   1.09559    0.019
 5700.00    1.11201   1.09344    0.020
 5701.00    1.12708   1.09290    0.020
 5702.00    1.15103   1.09317    0.019
 5703.00    1.07325   1.09436    0.019
 5704.00    0.97545   1.09690    0.019
 5705.00    0.98513   1.10046    0.019
 5706.00    1.01131   1.10449    0.019
 5707.00    1.07583   1.10944    0.019
 5708.00    1.14468   1.11503    0.019
 5709.00    1.10229   1.12071    0.019
 5710.00    1.05147   1.12654    0.018
 5711.00    1.06098   1.13242    0.018
 5712.00    1.07294   1.13771    0.018
 5713.00    1.09317   1.14233    0.018
 5714.00    1.11370   1.14631    0.018
 5715.00    1.14423   1.14935    0.018
 5716.00    1.17203   1.15151    0.018
 5717.00    1.15282   1.15324    0.018
 5718.00    1.13082   1.15394    0.018
 5719.00    1.07934   1.15467    0.018
 5720.00    1.02800   1.15516    0.017
 5721.00    0.97773   1.15511    0.017
 5722.00    0.94058   1.15457    0.018
 5723.00    0.97826   1.15397    0.018
 5724.00    1.01587   1.15415    0.018
 5725.00    1.05319   1.15391    0.018
 5726.00    1.07904   1.15410    0.018
 5727.00    1.06218   1.15415    0.018
 5728.00    1.05686   1.15421    0.018
 5729.00    1.08743   1.15434    0.018
 5730.00    1.12597   1.15425    0.018
 5731.00    1.18557   1.15452    0.018
 5732.00    1.22661   1.15444    0.018
 5733.00    1.22555   1.15433    0.019
 5734.00    1.21644   1.15389    0.019
 5735.00    1.19153   1.15357    0.019
 5736.00    1.18079   1.15299    0.019
 5737.00    1.19434   1.15222    0.019
 5738.00    1.18814   1.15077    0.019
 5739.00    1.15234   1.14923    0.019
 5740.00    1.11674   1.14823    0.000
 5741.00    1.08142   1.14730    0.000
 5742.00    1.07483   1.14621    0.000
 5743.00    1.10160   1.14450    0.000
 5744.00    1.12107   1.14274    0.000
 5745.00    1.13307   1.14098    0.000
 5746.00    1.13213   1.14007    0.000
 5747.00    1.11950   1.13970    0.000
 5748.00    1.12561   1.13958    0.000
 5749.00    1.14664   1.13957    0.000
 5750.00    1.15601   1.13918    0.000
 5751.00    1.15720   1.13886    0.000
 5752.00    1.15265   1.13873    0.000
 5753.00    1.14457   1.13908    0.000
 5754.00    1.14203   1.13969    0.000
 5755.00    1.14247   1.14130    0.000
 5756.00    1.12345   1.14260    0.000
 5757.00    1.09538   1.14370    0.000
 5758.00    1.08489   1.14459    0.000
 5759.00    1.08147   1.14534    0.000
 5760.00    1.06990   1.14599    0.000
 5761.00    1.05554   1.14636    0.000
 5762.00    1.08385   1.14693    0.000
 5763.00    1.12445   1.14648    0.000
 5764.00    1.12378   1.14577    0.000
 5765.00    1.11328   1.14403    0.000
 5766.00    1.13959   1.14188    0.000
 5767.00    1.17296   1.13955    0.000
 5768.00    1.24335   1.13659    0.000
 5769.00    1.31924   1.13328    0.000
 5770.00    1.32888   1.12952    0.000
 5771.00    1.33129   1.12569    0.000
 5772.00    1.30665   1.12146    0.000
 5773.00    1.28008   1.11806    0.000
 5774.00    1.19699   1.11524    0.000
 5775.00    1.11181   1.11275    0.000
 5776.00    1.13418   1.11089    0.000
 5777.00    1.15508   1.10988    0.000
 5778.00    1.10699   1.11019    0.000
 5779.00    1.06310   1.11072    0.000
 5780.00    1.08660   1.11270    0.000
 5781.00    1.10780   1.11488    0.000
 5782.00    1.10564   1.11713    0.000
 5783.00    1.10230   1.12063    0.000
 5784.00    1.09038   1.12390    0.000
 5785.00    1.07674   1.12805    0.000
 5786.00    1.05359   1.13191    0.000
 5787.00    1.03358   1.13544    0.000
 5788.00    1.02750   1.13844    0.000
 5789.00    1.03182   1.14063    0.000
 5790.00    1.07406   1.14361    0.000
 5791.00    1.09887   1.14607   -2.000
 5792.00    1.07042   1.14827   -2.000
 5793.00    1.05616   1.15029   -2.000
 5794.00    1.07875   1.15146   -2.000
 5795.00    1.07645   1.15185   -2.000
 5796.00    1.01858   1.15221   -2.000
 5797.00    0.99773   1.15248   -2.000
 5798.00    1.04848   1.15295   -2.000
 5799.00    1.09539   1.15308   -2.000
 5800.00    1.13583   1.15294   -2.000
 5801.00    1.13144   1.15299   -2.000
 5802.00    1.06077   1.15252   -2.000
 5803.00    1.04426   1.15256   -2.000
 5804.00    1.09813   1.15268   -2.000
 5805.00    1.11415   1.15291   -2.000
 5806.00    1.08685   1.15329   -2.000
 5807.00    1.09378   1.15335   -2.000
 5808.00    1.13528   1.15412   -2.000
 5809.00    1.14310   1.15515   -2.000
 5810.00    1.12092   1.15621   -2.000
 5811.00    1.08437   1.15772    0.000
 5812.00    1.03654   1.15886    0.000
 5813.00    1.05069   1.16009    0.000
 5814.00    1.10761   1.16113    0.000
 5815.00    1.15460   1.16229    0.000
 5816.00    1.19558   1.16383    0.000
 5817.00    1.18569   1.16468    0.000
 5818.00    1.14892   1.16570    0.000
 5819.00    1.12027   1.16612    0.000
 5820.00    1.09534   1.16651    0.000
 5821.00    1.13769   1.16666    0.000
 5822.00    1.20658   1.16658    0.000
 5823.00    1.21507   1.16673    0.000
 5824.00    1.20326   1.16630    0.000
 5825.00    1.16387   1.16607    0.000
 5826.00    1.11670   1.16561    0.000
 5827.00    1.07512   1.16543    0.000
 5828.00    1.03484   1.16515    0.000
 5829.00    1.02987   1.16461    0.000
 5830.00    1.03150   1.16436    0.000
 5831.00    1.02840   1.16371    0.000
 5832.00    1.02461   1.16313    0.000
 5833.00    1.07812   1.16240    0.000
 5834.00    1.13761   1.16146    0.000
 5835.00    1.19884   1.16030    0.000
 5836.00    1.26017   1.15832    0.000
 5837.00    1.22756   1.15611    0.000
 5838.00    1.19183   1.15340    0.000
 5839.00    1.13825   1.15023    0.000
 5840.00    1.08563   1.14704    0.000
 5841.00    1.06365   1.14340    0.000
 5842.00    1.04492   1.13958    0.000
 5843.00    1.07514   1.13523    0.000
 5844.00    1.10498   1.13072    0.000
 5845.00    1.13117   1.12689    0.000
 5846.00    1.15159   1.12314    0.000
 5847.00    1.13149   1.12021    0.000
 5848.00    1.11477   1.11735    0.000
 5849.00    1.11634   1.11500    0.000
 5850.00    1.11336   1.11350    0.000
 5851.00    1.09061   1.11234    0.000
 5852.00    1.08437   1.11288    0.000
 5853.00    1.13701   1.11341    0.000
 5854.00    1.17079   1.11490    0.000
 5855.00    1.14805   1.11648    0.000
 5856.00    1.12121   1.11825    0.000
 5857.00    1.08393   1.12093    0.000
 5858.00    1.05562   1.12304    0.000
 5859.00    1.04702   1.12570    0.000
 5860.00    1.04667   1.12775    0.000
 5861.00    1.06203   1.12990    0.000
 5862.00    1.06630   1.13171    0.000
 5863.00    1.05214   1.13274    0.000
 5864.00    1.04572   1.13340    0.000
 5865.00    1.05058   1.13328    0.000
 5866.00    1.05544   1.13266    0.000
 5867.00    1.06030   1.13147    0.000
 5868.00    1.05753   1.12950    0.000
 5869.00    1.04616   1.12642    0.000
 5870.00    1.04217   1.12249    0.000
 5871.00    1.04552   1.11755    0.000
 5872.00    1.04142   1.11206    0.000
 5873.00    1.03079   1.10514    0.000
 5874.00    1.04942   1.09702    0.000
 5875.00    1.09068   1.08707    0.000
 5876.00    1.10416   1.07592    0.000
 5877.00    1.09874   1.06560    0.000
 5878.00    1.09801   1.05460    0.000
 5879.00    1.10008   1.04344    0.000
 5880.00    1.10311   1.03137    0.000
 5881.00    1.10664   1.01859    0.000
 5882.00    1.10941   1.00687    0.000
 5883.00    1.11183   0.99804    0.000
 5884.00    1.08422   0.99330    0.000
 5885.00    1.04497   0.99058    0.000
 5886.00    1.02670   0.98822    0.000
 5887.00    1.01533   0.98776    0.000
 5888.00    1.00953   0.98939    0.000
 5889.00    1.00527   0.99390    0.000
 5890.00    0.98947   1.00296    0.000
 5891.00    0.97104   1.01311    0.000
 5892.00    0.95466   1.02353    0.000
 5893.00    0.93864   1.03356    0.000
 5894.00    0.93547   1.04351    0.000
 5895.00    0.93409   1.05433    0.000
 5896.00    0.96448   1.06459    0.000
 5897.00    0.99806   1.07435    0.000
 5898.00    1.00006   1.08275    0.000
 5899.00    1.00005   1.08950    0.000
 5900.00    1.01250   1.09476    0.000
 5901.00    1.02538   1.09933    0.017
 5902.00    1.06157   1.10294    0.017
 5903.00    1.09644   1.10570    0.017
 5904.00    1.09423   1.10770    0.017
 5905.00    1.09042   1.10888    0.017
 5906.00    1.06399   1.10998    0.017
 5907.00    1.04263   1.11003    0.017
 5908.00    1.06851   1.11070    0.017
 5909.00    1.08274   1.11145    0.017
 5910.00    1.01790   1.11217    0.017
 5911.00    0.96188   1.11319    0.018
 5912.00    0.95231   1.11365    0.018
 5913.00    0.95948   1.11473    0.018
 5914.00    1.03750   1.11534    0.018
 5915.00    1.10467   1.11582    0.018
 5916.00    1.13389   1.11651    0.017
 5917.00    1.14523   1.11727    0.017
 5918.00    1.10399   1.11805    0.017
 5919.00    1.06219   1.11835    0.018
 5920.00    1.01897   1.11819    0.017
 5921.00    0.99678   1.11786    0.017
 5922.00    1.01999   1.11788    0.017
 5923.00    1.04617   1.11769    0.017
 5924.00    1.07790   1.11816    0.017
 5925.00    1.10444   1.11863    0.017
 5926.00    1.12248   1.11854    0.016
 5927.00    1.14537   1.11802    0.016
 5928.00    1.17522   1.11780    0.016
 5929.00    1.19127   1.11839    0.016
 5930.00    1.18989   1.11880    0.016
 5931.00    1.16772   1.11912    0.016
 5932.00    1.12240   1.11902    0.016
 5933.00    1.10292   1.11884    0.016
 5934.00    1.10881   1.11793    0.016
 5935.00    1.09508   1.11757    0.016
 5936.00    1.06435   1.11764    0.016
 5937.00    1.04150   1.11732    0.016
 5938.00    1.02463   1.11686    0.017
 5939.00    1.05616   1.11579    0.017
 5940.00    1.12011   1.11521    0.018
 5941.00    1.14127   1.11438    0.018
 5942.00    1.13730   1.11365    0.017
 5943.00    1.12212   1.11371    0.017
 5944.00    1.10121   1.11383    0.017
 5945.00    1.11540   1.11355    0.017
 5946.00    1.14516   1.11319    0.018
 5947.00    1.10812   1.11395    0.018
 5948.00    1.04563   1.11519    0.018
 5949.00    1.03933   1.11613    0.018
 5950.00    1.05122   1.11702    0.017
 5951.00    1.08058   1.11837    0.017
 5952.00    1.11468   1.12002    0.017
 5953.00    1.12693   1.12188    0.017
 5954.00    1.13434   1.12357    0.017
 5955.00    1.12940   1.12529    0.017
 5956.00    1.12228   1.12672    0.017
 5957.00    1.12157   1.12800    0.016
 5958.00    1.12172   1.12902    0.016
 5959.00    1.14714   1.12980    0.016
 5960.00    1.17499   1.13076    0.017
 5961.00    1.12708   1.13105    0.016
 5962.00    1.07466   1.13091    0.016
 5963.00    1.07276   1.13034    0.016
 5964.00    1.07255   1.12951    0.016
 5965.00    1.13261   1.12837    0.016
 5966.00    1.19050   1.12719    0.017
 5967.00    1.19281   1.12574    0.016
 5968.00    1.19658   1.12398    0.016
 5969.00    1.21983   1.12182    0.016
 5970.00    1.24225   1.11959    0.016
 5971.00    1.25725   1.11798    0.017
 5972.00    1.26125   1.11620    0.017
 5973.00    1.19287   1.11514    0.017
 5974.00    1.13176   1.11406    0.017
 5975.00    1.10797   1.11295    0.017
 5976.00    1.09233   1.11219    0.017
 5977.00    1.11040   1.11099    0.017
 5978.00    1.11717   1.11130    0.017
 5979.00    1.08522   1.11213    0.017
 5980.00    1.06180   1.11264    0.017
 5981.00    1.06303   1.11346    0.017
 5982.00    1.05760   1.11414    0.017
 5983.00    1.03579   1.11500    0.017
 5984.00    1.02349   1.11538    0.017
 5985.00    1.03141   1.11580    0.017
 5986.00    1.05106   1.11695    0.016
 5987.00    1.09237   1.11765    0.016
 5988.00    1.12696   1.11741    0.016
 5989.00    1.15068   1.11671    0.016
 5990.00    1.16177   1.11566    0.016
 5991.00    1.15496   1.11480    0.016
 5992.00    1.14340   1.11437    0.016
 5993.00    1.12594   1.11335    0.016
 5994.00    1.11439   1.11206    0.016
 5995.00    1.10933   1.11023    0.016
 5996.00    1.09493   1.10808    0.016
 5997.00    1.07150   1.10738    0.016
 5998.00    1.05768   1.10669    0.016
 5999.00    1.05204   1.10549    0.016
 6000.00    1.05112   1.10411    0.016
 6001.00    1.05374   1.10194    0.016
 6002.00    1.08831   1.10146    0.016
 6003.00    1.14400   1.10174    0.017
 6004.00    1.14687   1.10124    0.017
 6005.00    1.11921   1.10032    0.017
 6006.00    1.08136   1.09915    0.017
 6007.00    1.03837   1.09867    0.017
 6008.00    1.03687   1.09886    0.017
 6009.00    1.05346   1.09856    0.017
 6010.00    1.06761   1.09840    0.017
 6011.00    1.08084   1.09905    0.017
 6012.00    1.10485   1.09902    0.017
 6013.00    1.13228   1.09944    0.017
 6014.00    1.10316   1.10057    0.017
 6015.00    1.05905   1.10195    0.017
 6016.00    1.04737   1.10423    0.017
 6017.00    1.04272   1.10574    0.016
 6018.00    1.04346   1.10818    0.016
 6019.00    1.04513   1.11096    0.016
 6020.00    1.05201   1.11304    0.016
 6021.00    1.05957   1.11628    0.016
 6022.00    1.07900   1.11882    0.016
 6023.00    1.09951   1.12145    0.016
 6024.00    1.09066   1.12383    0.016
 6025.00    1.08018   1.12576    0.016
 6026.00    1.09792   1.12815    0.016
 6027.00    1.11621   1.12953    0.016
 6028.00    1.12688   1.13082    0.016
 6029.00    1.13661   1.13197    0.016
 6030.00    1.12468   1.13274    0.016
 6031.00    1.11178   1.13385    0.016
 6032.00    1.08648   1.13428    0.016
 6033.00    1.06546   1.13463    0.016
 6034.00    1.08130   1.13514    0.017
 6035.00    1.09896   1.13514    0.017
 6036.00    1.12838   1.13573    0.017
 6037.00    1.14784   1.13595    0.017
 6038.00    1.11762   1.13599    0.017
 6039.00    1.08941   1.13602    0.017
 6040.00    1.06935   1.13566    0.017
 6041.00    1.05260   1.13530    0.017
 6042.00    1.04694   1.13466    0.017
 6043.00    1.04829   1.13416    0.017
 6044.00    1.06951   1.13317    0.017
 6045.00    1.08594   1.13222    0.017
 6046.00    1.09078   1.13079    0.017
 6047.00    1.10267   1.12979    0.017
 6048.00    1.12929   1.12869    0.016
 6049.00    1.15633   1.12726    0.016
 6050.00    1.18413   1.12653    0.016
 6051.00    1.20241   1.12528    0.016
 6052.00    1.20555   1.12491    0.016
 6053.00    1.20242   1.12380    0.016
 6054.00    1.19055   1.12341    0.016
 6055.00    1.18136   1.12406    0.016
 6056.00    1.17545   1.12400    0.016
 6057.00    1.14931   1.12483    0.016
 6058.00    1.10127   1.12467    0.016
 6059.00    1.07344   1.12555    0.016
 6060.00    1.06491   1.12743    0.016
 6061.00    1.09224   1.12826    0.016
 6062.00    1.14975   1.12951    0.016
 6063.00    1.14921   1.13008    0.016
 6064.00    1.10567   1.13033    0.016
 6065.00    1.06521   1.13087    0.016
 6066.00    1.02675   1.13013    0.017
 6067.00    1.02718   1.12959    0.017
 6068.00    1.04978   1.12894    0.017
 6069.00    1.07278   1.12713    0.017
 6070.00    1.09600   1.12539    0.017
 6071.00    1.13433   1.12298    0.017
 6072.00    1.17914   1.12107    0.017
 6073.00    1.21784   1.11931    0.017
 6074.00    1.25430   1.11720    0.017
 6075.00    1.23556   1.11547    0.017
 6076.00    1.19964   1.11399    0.016
 6077.00    1.17573   1.11282    0.016
 6078.00    1.15494   1.11148    0.016
 6079.00    1.13444   1.11083    0.016
 6080.00    1.11399   1.11037    0.016
 6081.00    1.08915   1.11025    0.016
 6082.00    1.06358   1.11021    0.016
 6083.00    1.07291   1.11014    0.016
 6084.00    1.08663   1.11026    0.016
 6085.00    1.13349   1.10971    0.016
 6086.00    1.18325   1.10951    0.016
 6087.00    1.16558   1.10975    0.016
 6088.00    1.14442   1.11006    0.016
 6089.00    1.11895   1.10979    0.016
 6090.00    1.09388   1.10766    0.016
 6091.00    1.10368   1.10608    0.016
 6092.00    1.11462   1.10658    0.016
 6093.00    1.14978   1.10682    0.017
 6094.00    1.18067   1.10652    0.017
 6095.00    1.15987   1.10487    0.017
 6096.00    1.14127   1.10372    0.017
 6097.00    1.14097   1.10512    0.017
 6098.00    1.13573   1.10620    0.017
 6099.00    1.09993   1.10704    0.017
 6100.00    1.06848   1.10751    0.016
 6101.00    1.05828   1.10803    0.016
 6102.00    1.05279   1.10960    0.017
 6103.00    1.06594   1.11066    0.017
 6104.00    1.08331   1.11095    0.016
 6105.00    1.11457   1.11092    0.016
 6106.00    1.13349   1.11109    0.016
 6107.00    1.11808   1.11065    0.016
 6108.00    1.11032   1.10985    0.016
 6109.00    1.12077   1.10818    0.016
 6110.00    1.11595   1.10561    0.016
 6111.00    1.07969   1.10455    0.016
 6112.00    1.04508   1.10315    0.015
 6113.00    1.01338   1.10161    0.016
 6114.00    1.01188   1.10003    0.016
 6115.00    1.05766   1.09738    0.016
 6116.00    1.09051   1.09673    0.016
 6117.00    1.10558   1.09630    0.016
 6118.00    1.09502   1.09581    0.016
 6119.00    1.05345   1.09539    0.016
 6120.00    1.04120   1.09342    0.016
 6121.00    1.06022   1.09312    0.016
 6122.00    1.05745   1.09280    0.016
 6123.00    1.03418   1.09203    0.015
 6124.00    1.03311   1.09043    0.016
 6125.00    1.05046   1.08715    0.016
 6126.00    1.08157   1.08629    0.017
 6127.00    1.12271   1.08559    0.017
 6128.00    1.13179   1.08472    0.017
 6129.00    1.12032   1.08310    0.016
 6130.00    1.12131   1.08052    0.016
 6131.00    1.12930   1.08102    0.016
 6132.00    1.14795   1.08207    0.016
 6133.00    1.17181   1.08349    0.016
 6134.00    1.16508   1.08475    0.016
 6135.00    1.14545   1.08507    0.016
 6136.00    1.10264   1.08701    0.016
 6137.00    1.05146   1.08889    0.016
 6138.00    1.02421   1.09072    0.016
 6139.00    1.00427   1.09249    0.016
 6140.00    0.98481   1.09275    0.016
 6141.00    0.96548   1.09302    0.016
 6142.00    0.97408   1.09257    0.016
 6143.00    0.98844   1.09148    0.016
 6144.00    1.01677   1.09004    0.016
 6145.00    1.04738   1.08717    0.016
 6146.00    1.08072   1.08420    0.016
 6147.00    1.11440   1.08055    0.016
 6148.00    1.12938   1.07627    0.016
 6149.00    1.14280   1.07127    0.016
 6150.00    1.11423   1.06583    0.016
 6151.00    1.08364   1.06085    0.016
 6152.00    1.09217   1.05596    0.016
 6153.00    1.10099   1.05157    0.016
 6154.00    1.09404   1.04694    0.016
 6155.00    1.08930   1.04324    0.016
 6156.00    1.12796   1.04047    0.016
 6157.00    1.15980   1.03822    0.017
 6158.00    1.11283   1.03748    0.017
 6159.00    1.06369   1.03741    0.017
 6160.00    0.99722   1.03843    0.017
 6161.00    0.94362   1.04013    0.016
 6162.00    0.96750   1.04194    0.016
 6163.00    0.98425   1.04454    0.016
 6164.00    0.96708   1.04795    0.016
 6165.00    0.95352   1.05162    0.016
 6166.00    0.95394   1.05549    0.016
 6167.00    0.96412   1.05913    0.016
 6168.00    1.00578   1.06213    0.016
 6169.00    1.03847   1.06538    0.016
 6170.00    1.04661   1.06825    0.016
 6171.00    1.05171   1.07088    0.016
 6172.00    1.04969   1.07317    0.016
 6173.00    1.05352   1.07432    0.015
 6174.00    1.06915   1.07477    0.016
 6175.00    1.06741   1.07503    0.016
 6176.00    1.03502   1.07484    0.015
 6177.00    0.99161   1.07445    0.015
 6178.00    0.93117   1.07382    0.016
 6179.00    0.90587   1.07177    0.016
 6180.00    0.92815   1.07058    0.016
 6181.00    0.94260   1.06957    0.016
 6182.00    0.94774   1.06846    0.016
 6183.00    0.95799   1.06857    0.016
 6184.00    0.97361   1.06736    0.016
 6185.00    0.97936   1.06738    0.016
 6186.00    0.97593   1.06843    0.017
 6187.00    0.98428   1.06885    0.017
 6188.00    1.00224   1.07070    0.017
 6189.00    1.01105   1.07178    0.017
 6190.00    1.01327   1.07316    0.017
 6191.00    0.99406   1.07557    0.016
 6192.00    0.96134   1.07689    0.016
 6193.00    0.98120   1.07849    0.016
 6194.00    1.03010   1.07983    0.016
 6195.00    1.13641   1.08066    0.017
 6196.00    1.27027   1.08172   -2.000
 6197.00    1.13000   1.08199   -2.000
 6198.00    0.87609   1.08129   -2.000
 6199.00    0.51621   1.08048   -2.000
 6200.00    0.11877   1.07929   -2.000
 6201.00    0.13102   1.07738   -2.000
 6202.00    0.26589   1.07543   -2.000
 6203.00    0.64268   1.07233   -2.000
 6204.00    1.07956   1.06914   -2.000
 6205.00    1.22061   1.06672   -2.000
 6206.00    1.30210   1.06352   -2.000
 6207.00    1.22210   1.06089   -2.000
 6208.00    1.11662   1.05807    0.017
 6209.00    1.11492   1.05509    0.017
 6210.00    1.12538   1.05373    0.017
 6211.00    1.11278   1.05225    0.016
 6212.00    1.09834   1.05096    0.016
 6213.00    1.08233   1.04999    0.016
 6214.00    1.06625   1.04858    0.017
 6215.00    1.04865   1.04815    0.016
 6216.00    1.03115   1.04798    0.016
 6217.00    1.01962   1.04753    0.016
 6218.00    1.00697   1.04687    0.015
 6219.00    0.97411   1.04597    0.016
 6220.00    0.94232   1.04529    0.016
 6221.00    0.92226   1.04475    0.016
 6222.00    0.90679   1.04459    0.015
 6223.00    0.92689   1.04360    0.015
 6224.00    0.94759   1.04295    0.015
 6225.00    0.97181   1.04242    0.015
 6226.00    0.98640   1.04148    0.015
 6227.00    0.95632   1.04162    0.015
 6228.00    0.92552   1.04041    0.016
 6229.00    0.89200   1.03984    0.016
 6230.00    0.86803   1.03929    0.016
 6231.00    0.87428   1.03775    0.016
 6232.00    0.89867   1.03743    0.016
 6233.00    0.97175   1.03573    0.016
 6234.00    1.03073   1.03479    0.016
 6235.00    1.05727   1.03407    0.016
 6236.00    1.06577   1.03224    0.016
 6237.00    1.03833   1.03148    0.016
 6238.00    1.01934   1.03013    0.016
 6239.00    1.01502   1.02914    0.016
 6240.00    1.00327   1.02851    0.016
 6241.00    0.98025   1.02702    0.016
 6242.00    0.95502   1.02595    0.016
 6243.00    0.92683   1.02519    0.016
 6244.00    0.90541   1.02446    0.015
 6245.00    0.89193   1.02412    0.016
 6246.00    0.88903   1.02341    0.016
 6247.00    0.89709   1.02303    0.015
 6248.00    0.90865   1.02369    0.015
 6249.00    0.92340   1.02433    0.015
 6250.00    0.94405   1.02581    0.015
 6251.00    0.96945   1.02725    0.015
 6252.00    0.97277   1.02914    0.015
 6253.00    0.96043   1.03207    0.015
 6254.00    0.94250   1.03441    0.015
 6255.00    0.92109   1.03738    0.015
 6256.00    0.93010   1.04040    0.015
 6257.00    0.95565   1.04336    0.015
 6258.00    0.97990   1.04647    0.016
 6259.00    1.00355   1.04860    0.017
 6260.00    0.92815   1.05079    0.017
 6261.00    0.81239   1.05310    0.018
 6262.00    0.79138   1.05495    0.019
 6263.00    0.80335   1.05646    0.021
 6264.00    0.81780   1.05727    0.021
 6265.00    0.83299   1.05778    0.020
 6266.00    0.92476   1.05882    0.019
 6267.00    1.03514   1.05938    0.018
 6268.00    1.08600   1.05965    0.017
 6269.00    1.12518   1.06006    0.016
 6270.00    1.11440   1.05969    0.016
 6271.00    1.09597   1.06036    0.016
 6272.00    1.08818   1.06115    0.016
 6273.00    1.08159   1.06128    0.016
 6274.00    1.08582   1.06244    0.016
 6275.00    1.09086   1.06249    0.016
 6276.00    1.06414   1.06315    0.016
 6277.00    1.03613   1.06458    0.015
 6278.00    1.04598   1.06465    0.015
 6279.00    1.05635   1.06573    0.015
 6280.00    1.07687   1.06574    0.000
 6281.00    1.09670   1.06512    0.000
 6282.00    1.10464   1.06535    0.000
 6283.00    1.11048   1.06436    0.000
 6284.00    1.09424   1.06389    0.000
 6285.00    1.07803   1.06283    0.000
 6286.00    1.06211   1.06050    0.000
 6287.00    1.05150   1.05914    0.000
 6288.00    1.07111   1.05784    0.000
 6289.00    1.09327   1.05680    0.000
 6290.00    1.12698   1.05568    0.000
 6291.00    1.15414   1.05374    0.000
 6292.00    1.15691   1.05301    0.000
 6293.00    1.15259   1.05334    0.000
 6294.00    1.12621   1.05350    0.000
 6295.00    1.10484   1.05343    0.000
 6296.00    1.09668   1.05330    0.000
 6297.00    1.09274   1.05406    0.000
 6298.00    1.09834   1.05535    0.000
 6299.00    1.10176   1.05583    0.000
 6300.00    1.10093   1.05568    0.000
 6301.00    1.10357   1.05595    0.000
 6302.00    1.11216   1.05630    0.000
 6303.00    1.10825   1.05612    0.000
 6304.00    1.08563   1.05558    0.000
 6305.00    1.05949   1.05459    0.000
 6306.00    1.02874   1.05443    0.000
 6307.00    1.01664   1.05412    0.000
 6308.00    1.02616   1.05302    0.000
 6309.00    1.03378   1.05310    0.000
 6310.00    1.03946   1.05328    0.000
 6311.00    1.03570   1.05405    0.000
 6312.00    1.02344   1.05481    0.000
 6313.00    1.01017   1.05536    0.000
 6314.00    0.99609   1.05747    0.000
 6315.00    0.99928   1.05899    0.000
 6316.00    1.01454   1.06067    0.000
 6317.00    1.05084   1.06213    0.000
 6318.00    1.10005   1.06360    0.000
 6319.00    1.10627   1.06573    0.000
 6320.00    1.08948   1.06580    0.000
 6321.00    1.05738   1.06617    0.016
 6322.00    1.01816   1.06677    0.016
 6323.00    1.03884   1.06685    0.016
 6324.00    1.08352   1.06682    0.016
 6325.00    1.11763   1.06521    0.016
 6326.00    1.14812   1.06416    0.016
 6327.00    1.13224   1.06387    0.015
 6328.00    1.10302   1.06310    0.015
 6329.00    1.10817   1.06182    0.015
 6330.00    1.12148   1.06096    0.015
 6331.00    1.12707   1.06073    0.015
 6332.00    1.13118   1.06039    0.015
 6333.00    1.09188   1.06052    0.015
 6334.00    1.04615   1.06005    0.015
 6335.00    1.05516   1.06047    0.015
 6336.00    1.07011   1.06164    0.015
 6337.00    1.08444   1.06141    0.015
 6338.00    1.09872   1.06212    0.016
 6339.00    1.10268   1.06243    0.015
 6340.00    1.10627   1.06221    0.015
 6341.00    1.10252   1.06302    0.016
 6342.00    1.09823   1.06237    0.016
 6343.00    1.07601   1.06158    0.016
 6344.00    1.05539   1.06069    0.016
 6345.00    1.06039   1.05877    0.016
 6346.00    1.06804   1.05784    0.016
 6347.00    1.10243   1.05619    0.016
 6348.00    1.13288   1.05359    0.016
 6349.00    1.13489   1.05159    0.016
 6350.00    1.13432   1.04980    0.015
 6351.00    1.11946   1.04850    0.015
 6352.00    1.10889   1.04722    0.015
 6353.00    1.11729   1.04610    0.015
 6354.00    1.12482   1.04597    0.015
 6355.00    1.12916   1.04655    0.015
 6356.00    1.13267   1.04733    0.015
 6357.00    1.13365   1.04864    0.015
 6358.00    1.12791   1.05080    0.015
 6359.00    1.10476   1.05311    0.015
 6360.00    1.07604   1.05537    0.015
 6361.00    1.03492   1.05768    0.015
 6362.00    1.00776   1.06057    0.015
 6363.00    1.00754   1.06349    0.016
 6364.00    1.01266   1.06560    0.016
 6365.00    1.02678   1.06738    0.016
 6366.00    1.03398   1.06893    0.016
 6367.00    1.03096   1.07085    0.016
 6368.00    1.04247   1.07204    0.016
 6369.00    1.07282   1.07224    0.016
 6370.00    1.09089   1.07285    0.016
 6371.00    1.09492   1.07303    0.016
 6372.00    1.09966   1.07339    0.016
 6373.00    1.10510   1.07345    0.016
 6374.00    1.10603   1.07239    0.016
 6375.00    1.10296   1.07214    0.016
 6376.00    1.10828   1.07195    0.015
 6377.00    1.12016   1.07139    0.015
 6378.00    1.12962   1.07057    0.015
 6379.00    1.13741   1.06920    0.015
 6380.00    1.14033   1.06856    0.015
 6381.00    1.14030   1.06813    0.015
 6382.00    1.11705   1.06690    0.015
 6383.00    1.08156   1.06519    0.015
 6384.00    1.06475   1.06367    0.015
 6385.00    1.05649   1.06313    0.015
 6386.00    1.06665   1.06299    0.015
 6387.00    1.08406   1.06208    0.015
 6388.00    1.08428   1.06129    0.015
 6389.00    1.07873   1.06036    0.015
 6390.00    1.07783   1.05928    0.015
 6391.00    1.07824   1.06045    0.015
 6392.00    1.08804   1.06111    0.016
 6393.00    1.10002   1.06069    0.016
 6394.00    1.09859   1.06119    0.016
 6395.00    1.09467   1.06055    0.017
 6396.00    1.07252   1.06133    0.017
 6397.00    1.04775   1.06214    0.016
 6398.00    1.05214   1.06097    0.016
 6399.00    1.05957   1.06195    0.016
 6400.00    1.06998   1.06240    0.016
 6401.00    1.08058   1.06127    0.016
 6402.00    1.09570   1.06102    0.016
 6403.00    1.11097   1.06064    0.016
 6404.00    1.13350   1.06095    0.015
 6405.00    1.15453   1.06131    0.015
 6406.00    1.12856   1.06029    0.015
 6407.00    1.10372   1.05994    0.015
 6408.00    1.09578   1.06097    0.015
 6409.00    1.09034   1.06136    0.015
 6410.00    1.10894   1.06114    0.015
 6411.00    1.12861   1.06139    0.015
 6412.00    1.15569   1.06213    0.015
 6413.00    1.17673   1.06389    0.015
 6414.00    1.16515   1.06481    0.015
 6415.00    1.15174   1.06444    0.015
 6416.00    1.13046   1.06500    0.015
 6417.00    1.11614   1.06630    0.015
 6418.00    1.12661   1.06759    0.015
 6419.00    1.13192   1.06819    0.015
 6420.00    1.12179   1.06745    0.015
 6421.00    1.12023   1.06713    0.015
 6422.00    1.14048   1.06832    0.016
 6423.00    1.14715   1.06866    0.016
 6424.00    1.12410   1.06844    0.015
 6425.00    1.10363   1.06830    0.015
 6426.00    1.08805   1.06785    0.015
 6427.00    1.07044   1.06902    0.016
 6428.00    1.04947   1.06937    0.016
 6429.00    1.03820   1.06850    0.016
 6430.00    1.04104   1.06984    0.016
 6431.00    1.06047   1.07074    0.015
 6432.00    1.10111   1.07100    0.015
 6433.00    1.13261   1.07151    0.015
 6434.00    1.15383   1.07026    0.015
 6435.00    1.16149   1.07096    0.015
 6436.00    1.15569   1.07195    0.015
 6437.00    1.14668   1.07066    0.015
 6438.00    1.13485   1.07058    0.016
 6439.00    1.13867   1.06878    0.016
 6440.00    1.15457   1.06710    0.016
 6441.00    1.16756   1.06744    0.016
 6442.00    1.17859   1.06619    0.016
 6443.00    1.15490   1.06565    0.016
 6444.00    1.11058   1.06410    0.016
 6445.00    1.10004   1.06205    0.016
 6446.00    1.10703   1.06253    0.016
 6447.00    1.11299   1.06240    0.016
 6448.00    1.11847   1.06250    0.016
 6449.00    1.11875   1.06255    0.016
 6450.00    1.11700   1.06208    0.016
 6451.00    1.10335   1.06258    0.016
 6452.00    1.08577   1.06219    0.016
 6453.00    1.07967   1.06252    0.016
 6454.00    1.07674   1.06395    0.015
 6455.00    1.07899   1.06465    0.015
 6456.00    1.08242   1.06532    0.015
 6457.00    1.08539   1.06476    0.015
 6458.00    1.08828   1.06483    0.015
 6459.00    1.08510   1.06656    0.015
 6460.00    1.08107   1.06743    0.015
 6461.00    1.07551   1.06742    0.015
 6462.00    1.06979   1.06761    0.015
 6463.00    1.09237   1.06823    0.015
 6464.00    1.11673   1.06830    0.015
 6465.00    1.11622   1.06798    0.016
 6466.00    1.11502   1.06753    0.016
 6467.00    1.12471   1.06721    0.016
 6468.00    1.13510   1.06716    0.016
 6469.00    1.16492   1.06613    0.016
 6470.00    1.19070   1.06468    0.016
 6471.00    1.15944   1.06351    0.016
 6472.00    1.12911   1.06201    0.016
 6473.00    1.10744   1.06014    0.016
 6474.00    1.08569   1.05838    0.016
 6475.00    1.06341   1.05627    0.016
 6476.00    1.04176   1.05310    0.015
 6477.00    1.02336   1.04947    0.015
 6478.00    1.01603   1.04599    0.015
 6479.00    1.05543   1.04278    0.015
 6480.00    1.09249   1.03896    0.015
 6481.00    1.12142   1.03372    0.015
 6482.00    1.14360   1.02951    0.015
 6483.00    1.14599   1.02568    0.015
 6484.00    1.14909   1.02089    0.015
 6485.00    1.15400   1.01747    0.015
 6486.00    1.15539   1.01416    0.015
 6487.00    1.14922   1.01245    0.015
 6488.00    1.13282   1.01244    0.015
 6489.00    1.09729   1.01060    0.015
 6490.00    1.06842   1.01142    0.015
 6491.00    1.05043   1.01412    0.015
 6492.00    1.03836   1.01670    0.016
 6493.00    1.03478   1.02129    0.016
 6494.00    1.02290   1.02453    0.016
 6495.00    1.00055   1.02853    0.015
 6496.00    0.96471   1.03385    0.015
 6497.00    0.91386   1.03758    0.015
 6498.00    0.88857   1.04145    0.015
 6499.00    0.88832   1.04492    0.015
 6500.00    0.89687   1.04771    0.015
 6501.00    0.91301   1.05052    0.015
 6502.00    0.93649   1.05210    0.015
 6503.00    0.96556   1.05300    0.015
 6504.00    1.00652   1.05390    0.015
 6505.00    1.05544   1.05439    0.015
 6506.00    1.09266   1.05453    0.015
 6507.00    1.12304   1.05471    0.015
 6508.00    1.12743   1.05454    0.015
 6509.00    1.11855   1.05433    0.015
 6510.00    1.12182   1.05431    0.015
 6511.00    1.13046   1.05420    0.015
 6512.00    1.12691   1.05465    0.015
 6513.00    1.11873   1.05466    0.015
 6514.00    1.15571   1.05447    0.015
 6515.00    1.20727   1.05540    0.016
 6516.00    1.21769   1.05591    0.016
 6517.00    1.21701   1.05607    0.016
 6518.00    1.18349   1.05623    0.016
 6519.00    1.14270   1.05639    0.016
 6520.00    1.11352   1.05704    0.016
 6521.00    1.08640   1.05695    0.016
 6522.00    1.08077   1.05655    0.016
 6523.00    1.07804   1.05681    0.016
 6524.00    1.07951   1.05675    0.016
 6525.00    1.08138   1.05657    0.015
 6526.00    1.04083   1.05625    0.015
 6527.00    0.99777   1.05532    0.015
 6528.00    1.02261   1.05430    0.000
 6529.00    1.04927   1.05328    0.000
 6530.00    1.09146   1.05208    0.000
 6531.00    1.13262   1.05070    0.000
 6532.00    1.14751   1.04829    0.000
 6533.00    1.15982   1.04501    0.000
 6534.00    1.13761   1.04259    0.000
 6535.00    1.11564   1.03966    0.000
 6536.00    1.09583   1.03542    0.000
 6537.00    1.08073   1.03093    0.000
 6538.00    1.09662   1.02588    0.000
 6539.00    1.11505   1.02107    0.000
 6540.00    1.14653   1.01550    0.000
 6541.00    1.17991   1.00768    0.000
 6542.00    1.22118   1.00045    0.000
 6543.00    1.24789   0.99365    0.000
 6544.00    1.22481   0.98477    0.000
 6545.00    1.19545   0.97533    0.000
 6546.00    1.14800   0.96571    0.000
 6547.00    1.11331   0.95612    0.000
 6548.00    1.10999   0.94723    0.000
 6549.00    1.11377   0.93542    0.000
 6550.00    1.13263   0.92432    0.000
 6551.00    1.14682   0.91845    0.000
 6552.00    1.15241   0.91152    0.000
 6553.00    1.14112   0.90490    0.000
 6554.00    1.10263   0.90149    0.000
 6555.00    1.07872   0.89940    0.000
 6556.00    1.07541   0.90071    0.000
 6557.00    1.06511   0.90091    0.000
 6558.00    1.04614   0.90213    0.000
 6559.00    1.03067   0.91071    0.000
 6560.00    1.01903   0.91939    0.000
 6561.00    1.03243   0.92625    0.000
 6562.00    1.07002   0.93464    0.000
 6563.00    1.08707   0.94333    0.000
 6564.00    1.08663   0.95263    0.000
 6565.00    1.08666   0.96150    0.000
 6566.00    1.08704   0.96967    0.000
 6567.00    1.06882   0.97762    0.000
 6568.00    1.03834   0.98475    0.000
 6569.00    1.03357   0.99123    0.000
 6570.00    1.04365   0.99673    0.000
 6571.00    1.06492   1.00190    0.000
 6572.00    1.09181   1.00647    0.000
 6573.00    1.09870   1.00969    0.000
 6574.00    1.09688   1.01296    0.000
 6575.00    1.10616   1.01535    0.000
 6576.00    1.11958   1.01665    0.000
 6577.00    1.10741   1.01842    0.000
 6578.00    1.08712   1.01962    0.000
 6579.00    1.08308   1.01987    0.000
 6580.00    1.08335   1.01960    0.000
 6581.00    1.11368   1.01945    0.000
 6582.00    1.15052   1.02010    0.000
 6583.00    1.21538   1.02002    0.000
 6584.00    1.28506   1.01971    0.000
 6585.00    1.31954   1.01950    0.000
 6586.00    1.34944   1.01976    0.000
 6587.00    1.32100   1.02036    0.000
 6588.00    1.28722   1.01988    0.000
 6589.00    1.24924   1.02052    0.000
 6590.00    1.21103   1.02224    0.000
 6591.00    1.19395   1.02271    0.000
 6592.00    1.17729   1.02343    0.000
 6593.00    1.15713   1.02404    0.000
 6594.00    1.13621   1.02480    0.000
 6595.00    1.09769   1.02608    0.000
 6596.00    1.06240   1.02620    0.000
 6597.00    1.06794   1.02686    0.000
 6598.00    1.07360   1.02833    0.000
 6599.00    1.08020   1.02872    0.000
 6600.00    1.08664   1.02906    0.000
 6601.00    1.09207   1.02979    0.000
 6602.00    1.09880   1.03101    0.000
 6603.00    1.11198   1.03218    0.000
 6604.00    1.11868   1.03244    0.000
 6605.00    1.09918   1.03344    0.000
 6606.00    1.08268   1.03503    0.000
 6607.00    1.07617   1.03594    0.000
 6608.00    1.06818   1.03637    0.000
 6609.00    1.05603   1.03667    0.016
 6610.00    1.04921   1.03744    0.016
 6611.00    1.05525   1.03762    0.015
 6612.00    1.05306   1.03686    0.015
 6613.00    1.03370   1.03666    0.016
 6614.00    1.03210   1.03629    0.015
 6615.00    1.06270   1.03535    0.015
 6616.00    1.08082   1.03432    0.015
 6617.00    1.07915   1.03293    0.015
 6618.00    1.08239   1.03176    0.015
 6619.00    1.09246   1.03051    0.015
 6620.00    1.11497   1.02867    0.015
 6621.00    1.15273   1.02747    0.015
 6622.00    1.16847   1.02676    0.015
 6623.00    1.16046   1.02560    0.015
 6624.00    1.15451   1.02475    0.015
 6625.00    1.15052   1.02416    0.015
 6626.00    1.13489   1.02336    0.015
 6627.00    1.10949   1.02294    0.015
 6628.00    1.09268   1.02295    0.015
 6629.00    1.08223   1.02280    0.015
 6630.00    1.08641   1.02268    0.015
 6631.00    1.10010   1.02298    0.015
 6632.00    1.08422   1.02329    0.015
 6633.00    1.05155   1.02378    0.016
 6634.00    1.06246   1.02402    0.016
 6635.00    1.09495   1.02360    0.016
 6636.00    1.11862   1.02444    0.016
 6637.00    1.13853   1.02518    0.016
 6638.00    1.13936   1.02460    0.016
 6639.00    1.13320   1.02486    0.016
 6640.00    1.12505   1.02514    0.016
 6641.00    1.11628   1.02535    0.016
 6642.00    1.11000   1.02542    0.015
 6643.00    1.10436   1.02456    0.015
 6644.00    1.11961   1.02460    0.015
 6645.00    1.13926   1.02449    0.015
 6646.00    1.15619   1.02346    0.015
 6647.00    1.17267   1.02282    0.015
 6648.00    1.16722   1.02195    0.015
 6649.00    1.15901   1.02123    0.015
 6650.00    1.13209   1.02013    0.015
 6651.00    1.10354   1.01884    0.015
 6652.00    1.12146   1.01830    0.015
 6653.00    1.14176   1.01735    0.015
 6654.00    1.18345   1.01654    0.016
 6655.00    1.22439   1.01578    0.016
 6656.00    1.18513   1.01509    0.016
 6657.00    1.14499   1.01524    0.016
 6658.00    1.08654   1.01457    0.016
 6659.00    1.03183   1.01424    0.016
 6660.00    1.02234   1.01486    0.016
 6661.00    1.01354   1.01453    0.016
 6662.00    1.01047   1.01430    0.015
 6663.00    1.00681   1.01465    0.015
 6664.00    0.99955   1.01424    0.015
 6665.00    1.00284   1.01376    0.015
 6666.00    1.05730   1.01389    0.015
 6667.00    1.09910   1.01357    0.015
 6668.00    1.09091   1.01338    0.015
 6669.00    1.08796   1.01318    0.015
 6670.00    1.10222   1.01232    0.015
 6671.00    1.11646   1.01295    0.015
 6672.00    1.13063   1.01310    0.015
 6673.00    1.13355   1.01215    0.015
 6674.00    1.10973   1.01317    0.015
 6675.00    1.09106   1.01386    0.015
 6676.00    1.08299   1.01395    0.015
 6677.00    1.08354   1.01469    0.015
 6678.00    1.09948   1.01483    0.016
 6679.00    1.11368   1.01543    0.016
 6680.00    1.12512   1.01572    0.016
 6681.00    1.12304   1.01558    0.016
 6682.00    1.10239   1.01595    0.016
 6683.00    1.08064   1.01560    0.016
 6684.00    1.05755   1.01542    0.016
 6685.00    1.06029   1.01527    0.015
 6686.00    1.09053   1.01471    0.016
 6687.00    1.09931   1.01436    0.015
 6688.00    1.08794   1.01347    0.015
 6689.00    1.07617   1.01308    0.015
 6690.00    1.06408   1.01282    0.015
 6691.00    1.05745   1.01170    0.015
 6692.00    1.05481   1.01143    0.015
 6693.00    1.06401   1.01122    0.015
 6694.00    1.08078   1.01038    0.015
 6695.00    1.08833   1.00997    0.015
 6696.00    1.09071   1.00929    0.000
 6697.00    1.10049   1.00833    0.000
 6698.00    1.11386   1.00772    0.000
 6699.00    1.11763   1.00664    0.000
 6700.00    1.11735   1.00547    0.000
 6701.00    1.12795   1.00448    0.000
 6702.00    1.14246   1.00298    0.000
 6703.00    1.13108   1.00192    0.000
 6704.00    1.11181   1.00083    0.000
 6705.00    1.08186   0.99910    0.000
 6706.00    1.04920   0.99819    0.000
 6707.00    1.05512   0.99753    0.000
 6708.00    1.06898   0.99669    0.000
 6709.00    1.08687   0.99597    0.000
 6710.00    1.10541   0.99554    0.000
 6711.00    1.06831   0.99619    0.000
 6712.00    1.02448   0.99650    0.000
 6713.00    1.03965   0.99648    0.000
 6714.00    1.05971   0.99763    0.000
 6715.00    1.07421   0.99885    0.000
 6716.00    1.08844   0.99975    0.000
 6717.00    1.10454   1.00058    0.000
 6718.00    1.12064   1.00144    0.000
 6719.00    1.13606   1.00274    0.000
 6720.00    1.15000   1.00372    0.000
 6721.00    1.13516   1.00398    0.000
 6722.00    1.12102   1.00459    0.000
 6723.00    1.11484   1.00522    0.000
 6724.00    1.10493   1.00524    0.000
 6725.00    1.06531   1.00510    0.000
 6726.00    1.02934   1.00479    0.000
 6727.00    1.01528   1.00430    0.000
 6728.00    1.01127   1.00390    0.000
 6729.00    1.05489   1.00311    0.000
 6730.00    1.09967   1.00203    0.000
 6731.00    1.14891   1.00125    0.000
 6732.00    1.18441   1.00040    0.000
 6733.00    1.17564   0.99934    0.000
 6734.00    1.15672   0.99821    0.000
 6735.00    1.11015   0.99735    0.000
 6736.00    1.06080   0.99680    0.000
 6737.00    1.00497   0.99593    0.000
 6738.00    0.99042   0.99531    0.000
 6739.00    1.05928   0.99507    0.000
 6740.00    1.11090   0.99489    0.000
 6741.00    1.13217   0.99493    0.000
 6742.00    1.12825   0.99484    0.000
 6743.00    1.08554   0.99552    0.000
 6744.00    1.06698   0.99637    0.000
 6745.00    1.08107   0.99654    0.000
 6746.00    1.07420   0.99769    0.000
 6747.00    1.04239   0.99894    0.000
 6748.00    1.03792   0.99951    0.000
 6749.00    1.06215   1.00071    0.000
 6750.00    1.06498   1.00172    0.000
 6751.00    1.04800   1.00227    0.000
 6752.00    1.03223   1.00305    0.000
 6753.00    1.01742   1.00373    0.017
 6754.00    1.02177   1.00401    0.017
 6755.00    1.03988   1.00428    0.018
 6756.00    1.03596   1.00451    0.018
 6757.00    1.01816   1.00447    0.018
 6758.00    1.03033   1.00474    0.018
 6759.00    1.05903   1.00462    0.018
 6760.00    1.12409   1.00438    0.018
 6761.00    1.20658   1.00500    0.018
 6762.00    1.28045   1.00495    0.018
 6763.00    1.35076   1.00481    0.019
 6764.00    1.33653   1.00540    0.019
 6765.00    1.29240   1.00549    0.019
 6766.00    1.25072   1.00570    0.019
 6767.00    1.20979   1.00573    0.018
 6768.00    1.16268   1.00555    0.018
 6769.00    1.11404   1.00575    0.018
 6770.00    1.11547   1.00515    0.018
 6771.00    1.12696   1.00470    0.017
 6772.00    1.13976   1.00449    0.017
 6773.00    1.15277   1.00350    0.017
 6774.00    1.17034   1.00277    0.017
 6775.00    1.18843   1.00203    0.017
 6776.00    1.18109   1.00099    0.017
 6777.00    1.17173   1.00048    0.017
 6778.00    1.17950   0.99984    0.017
 6779.00    1.18801   0.99906    0.017
 6780.00    1.18445   0.99911    0.017
 6781.00    1.17976   0.99894    0.017
 6782.00    1.12882   0.99836    0.017
 6783.00    1.08208   0.99876    0.017
 6784.00    1.11138   0.99912    0.017
 6785.00    1.13810   0.99873    0.017
 6786.00    1.13656   0.99933    0.017
 6787.00    1.13599   0.99978    0.017
 6788.00    1.14281   0.99963    0.017
 6789.00    1.14319   1.00056    0.017
 6790.00    1.10607   1.00071    0.017
 6791.00    1.07969   1.00067    0.018
 6792.00    1.10304   1.00161    0.018
 6793.00    1.13130   1.00134    0.018
 6794.00    1.17815   1.00155    0.018
 6795.00    1.19971   1.00208    0.018
 6796.00    1.14138   1.00133    0.017
 6797.00    1.09671   1.00196    0.017
 6798.00    1.08862   1.00207    0.017
 6799.00    1.08676   1.00110    0.017
 6800.00    1.09921   1.00185    0.017
 6801.00    1.11418   1.00177    0.017
 6802.00    1.13415   1.00108    0.017
 6803.00    1.14188   1.00157    0.017
 6804.00    1.12840   1.00139    0.016
 6805.00    1.10078   1.00146    0.016
 6806.00    1.05171   1.00175    0.016
 6807.00    1.03701   1.00139    0.016
 6808.00    1.06811   1.00195    0.016
 6809.00    1.10887   1.00237    0.017
 6810.00    1.16099   1.00231    0.017
 6811.00    1.16039   1.00281    0.017
 6812.00    1.10522   1.00288    0.017
 6813.00    1.10343   1.00311    0.018
 6814.00    1.15038   1.00354    0.018
 6815.00    1.15882   1.00364    0.018
 6816.00    1.13628   1.00378    0.018
 6817.00    1.12722   1.00356    0.017
 6818.00    1.12769   1.00363    0.017
 6819.00    1.12531   1.00343    0.017
 6820.00    1.12115   1.00255    0.016
 6821.00    1.12893   1.00223    0.016
 6822.00    1.14320   1.00162    0.016
 6823.00    1.15532   1.00079    0.016
 6824.00    1.16642   0.99994    0.016
 6825.00    1.13629   0.99856    0.016
 6826.00    1.08941   0.99777    0.016
 6827.00    1.05892   0.99669    0.016
 6828.00    1.03412   0.99516    0.016
 6829.00    1.07348   0.99430    0.017
 6830.00    1.13162   0.99304    0.017
 6831.00    1.13053   0.99191    0.017
 6832.00    1.11509   0.99131    0.017
 6833.00    1.08582   0.99029    0.017
 6834.00    1.05384   0.98997    0.017
 6835.00    1.07766   0.98978    0.017
 6836.00    1.10999   0.98938    0.017
 6837.00    1.12456   0.98984    0.018
 6838.00    1.13715   0.98983    0.018
 6839.00    1.13730   0.98959    0.019
 6840.00    1.13651   0.99010    0.019
 6841.00    1.09574   0.99004    0.018
 6842.00    1.05338   0.98975    0.017
 6843.00    1.08950   0.98993    0.017
 6844.00    1.12636   0.98953    0.017
 6845.00    1.17106   0.98949    0.016
 6846.00    1.21042   0.98935    0.016
 6847.00    1.15943   0.98817    0.016
 6848.00    1.11076   0.98816    0.016
 6849.00    1.08646   0.98816    0.016
 6850.00    1.06725   0.98715    0.016
 6851.00    1.08599   0.98733    0.016
 6852.00    1.09995   0.98744    0.016
 6853.00    1.08686   0.98663    0.016
 6854.00    1.07541   0.98665    0.016
 6855.00    1.07136   0.98715    0.017
 6856.00    1.06471   0.98736    0.017
 6857.00    1.04840   0.98718    0.017
 6858.00    1.01977   0.98758    0.017
 6859.00    0.95293   0.98821    0.017
 6860.00    0.93136   0.98765    0.017
 6861.00    1.02887   0.98822    0.017
 6862.00    1.09604   0.98939    0.018
 6863.00    1.09467   0.98914    0.017
 6864.00    1.08892   0.98919    0.017
 6865.00    1.07459   0.99006    0.017
 6866.00    1.06548   0.99056    0.017
 6867.00    1.06529   0.99077    0.017
 6868.00    1.08440   0.99120    0.017
 6869.00    1.13234   0.99183    0.017
 6870.00    1.12369   0.99256    0.017
 6871.00    1.04067   0.99286    0.016
 6872.00    1.01565   0.99328    0.016
 6873.00    1.05776   0.99444    0.016
 6874.00    1.07721   0.99503    0.016
 6875.00    1.07352   0.99501    0.017
 6876.00    1.07928   0.99663    0.017
 6877.00    1.09355   0.99803    0.017
 6878.00    1.08946   0.99781    0.017
 6879.00    1.07083   0.99929    0.017
 6880.00    1.09391   1.00112    0.017
 6881.00    1.14610   1.00111    0.017
 6882.00    1.11798   1.00214    0.017
 6883.00    1.04073   1.00393    0.017
 6884.00    1.03112   1.00416    0.017
 6885.00    1.05767   1.00469    0.017
 6886.00    1.04467   1.00591    0.017
 6887.00    1.01332   1.00654    0.017
 6888.00    0.97124   1.00697    0.017
 6889.00    0.92487   1.00734    0.017
 6890.00    0.91043   1.00810    0.017
 6891.00    0.90687   1.00882    0.017
 6892.00    0.95576   1.00848    0.017
 6893.00    1.01969   1.00880    0.017
 6894.00    1.06877   1.00959    0.017
 6895.00    1.11435   1.00925    0.017
 6896.00    1.08409   1.00911    0.017
 6897.00    1.03938   1.00921    0.017
 6898.00    1.05623   1.00887    0.017
 6899.00    1.08218   1.00878    0.018
 6900.00    1.13952   1.00805    0.018
 6901.00    1.20025   1.00754    0.018
 6902.00    1.18300   1.00741    0.018
 6903.00    1.16023   1.00600    0.018
 6904.00    1.11397   1.00555    0.018
 6905.00    1.06687   1.00538    0.017
 6906.00    1.09245   1.00385    0.017
 6907.00    1.11687   1.00356    0.018
 6908.00    1.09274   1.00347    0.017
 6909.00    1.06851   1.00249    0.017
 6910.00    1.04273   1.00227    0.017
 6911.00    1.02428   1.00226    0.017
 6912.00    1.07918   1.00184    0.017
 6913.00    1.12739   1.00174    0.017
 6914.00    1.12756   1.00180    0.017
 6915.00    1.12873   1.00168    0.017
 6916.00    1.13543   1.00186    0.017
 6917.00    1.13573   1.00203    0.017
 6918.00    1.10782   1.00200    0.017
 6919.00    1.07091   1.00259    0.017
 6920.00    1.00138   1.00308    0.017
 6921.00    0.95842   1.00310    0.018
 6922.00    0.99617   1.00343    0.018
 6923.00    1.01523   1.00387    0.018
 6924.00    0.98597   1.00433    0.018
 6925.00    0.98732   1.00438    0.018
 6926.00    1.05667   1.00445    0.018
 6927.00    1.08846   1.00518    0.018
 6928.00    1.04788   1.00502    0.018
 6929.00    1.01845   1.00481    0.018
 6930.00    1.00778   1.00538    0.018
 6931.00    1.01110   1.00496    0.018
 6932.00    1.03503   1.00479    0.018
 6933.00    1.04900   1.00506    0.018
 6934.00    1.05007   1.00415    0.018
 6935.00    1.05564   1.00432    0.018
 6936.00    1.06633   1.00452    0.018
 6937.00    1.04821   1.00342    0.018
 6938.00    1.00112   1.00399    0.018
 6939.00    0.99434   1.00436    0.018
 6940.00    1.02335   1.00349    0.018
 6941.00    1.05270   1.00418    0.018
 6942.00    1.08232   1.00462    0.018
 6943.00    1.08781   1.00429    0.018
 6944.00    1.07671   1.00508    0.019
 6945.00    1.07756   1.00558    0.019
 6946.00    1.08560   1.00598    0.019
 6947.00    1.09290   1.00682    0.019
 6948.00    1.09980   1.00726    0.019
 6949.00    1.11077   1.00797    0.019
 6950.00    1.12359   1.00888    0.019
 6951.00    1.07531   1.00935    0.019
 6952.00    1.00303   1.00984    0.019
 6953.00    0.96013   1.01053    0.018
 6954.00    0.92706   1.01081    0.018
 6955.00    0.95947   1.01082    0.018
 6956.00    1.01027   1.01107    0.018
 6957.00    0.99250   1.01102    0.018
 6958.00    0.95888   1.01054    0.017
 6959.00    0.93717   1.01017    0.018
 6960.00    0.91768   1.00942    0.018
 6961.00    0.99081   1.00847    0.018
 6962.00    1.07719   1.00776    0.019
 6963.00    1.06684   1.00652    0.019
 6964.00    1.04647   1.00507    0.019
 6965.00    1.04772   1.00421    0.019
 6966.00    1.05040   1.00335    0.019
 6967.00    1.01677   1.00181    0.020
 6968.00    0.98198   1.00096    0.020
 6969.00    0.98943   1.00112    0.019
 6970.00    0.99831   1.00063    0.019
 6971.00    1.05120   1.00046    0.019
 6972.00    1.09536   1.00129    0.019
 6973.00    1.00971   1.00192    0.019
 6974.00    0.93491   1.00258    0.018
 6975.00    0.96424   1.00353    0.018
 6976.00    0.98663   1.00480    0.018
 6977.00    0.96069   1.00605    0.018
 6978.00    0.94697   1.00673    0.018
 6979.00    0.99888   1.00785    0.018
 6980.00    1.02380   1.00910    0.018
 6981.00    0.93246   1.00964    0.018
 6982.00    0.87517   1.01019    0.018
 6983.00    0.93878   1.01066    0.019
 6984.00    0.99575   1.01099    0.019
 6985.00    1.03293   1.01102    0.019
 6986.00    1.05301   1.01069    0.020
 6987.00    1.02962   1.01052    0.020
 6988.00    1.01821   1.00997    0.020
 6989.00    1.03297   1.00912    0.020
 6990.00    1.04414   1.00864    0.020
 6991.00    1.04849   1.00812    0.020
 6992.00    1.04644   1.00728    0.020
 6993.00    1.03379   1.00631    0.020
 6994.00    1.03382   1.00572    0.020
 6995.00    1.05226   1.00531    0.019
 6996.00    1.07534   1.00445    0.019
 6997.00    1.10436   1.00384    0.019
 6998.00    1.08888   1.00369    0.019
 6999.00    1.02337   1.00299    0.019
 7000.00    0.98324   1.00245    0.019
 7001.00    0.96831   1.00229    0.019
 7002.00    0.99916   1.00162    0.019
 7003.00    1.07007   1.00139    0.019
 7004.00    1.07811   1.00131    0.019
 7005.00    1.03770   1.00019    0.019
 7006.00    1.03994   0.99998    0.020
 7007.00    1.07106   1.00062    0.020
 7008.00    1.10174   0.99994    0.020
 7009.00    1.13215   0.99974    0.020
 7010.00    1.07437   1.00037    0.020
 7011.00    0.97093   1.00022    0.020
 7012.00    0.98307   1.00012    0.020
 7013.00    1.04710   1.00046    0.020
 7014.00    1.03404   1.00096    0.020
 7015.00    0.99121   1.00164    0.020
 7016.00    0.95190   1.00202    0.020
 7017.00    0.91374   1.00278    0.020
 7018.00    0.87907   1.00382    0.019
 7019.00    0.84536   1.00450    0.019
 7020.00    0.86703   1.00550    0.019
 7021.00    0.90123   1.00653    0.019
 7022.00    0.95308   1.00777    0.019
 7023.00    1.00812   1.00914    0.019
 7024.00    1.03477   1.00976    0.019
 7025.00    1.05748   1.01145    0.020
 7026.00    1.05214   1.01345    0.020
 7027.00    1.04400   1.01369    0.020
 7028.00    0.93168   1.01522    0.020
 7029.00    0.81284   1.01785    0.020
 7030.00    0.97108   1.01845    0.021
 7031.00    1.13625   1.01969    0.021
 7032.00    1.05711   1.02161    0.021
 7033.00    0.98177   1.02191    0.021
 7034.00    1.01070   1.02270    0.021
 7035.00    1.03453   1.02334    0.021
 7036.00    0.98663   1.02287    0.021
 7037.00    0.94786   1.02303    0.020
 7038.00    0.99319   1.02200    0.020
 7039.00    1.03397   1.02013    0.020
 7040.00    1.04405   1.01917    0.020
 7041.00    1.05345   1.01669    0.019
 7042.00    1.05924   1.01359    0.019
 7043.00    1.07290   1.01147    0.019
 7044.00    1.11967   1.00840    0.019
 7045.00    1.14436   1.00502    0.019
 7046.00    1.09223   1.00209    0.020
 7047.00    1.05074   0.99907    0.020
 7048.00    1.04036   0.99608    0.020
 7049.00    1.03304   0.99292    0.021
 7050.00    1.03335   0.99062   -2.000
 7051.00    1.02965   0.98867   -2.000
 7052.00    1.01736   0.98604   -2.000
 7053.00    1.03166   0.98470   -2.000
 7054.00    1.09563   0.98353   -2.000
 7055.00    1.12029   0.98170   -2.000
 7056.00    1.08084   0.98139   -2.000
 7057.00    1.07057   0.98076   -2.000
 7058.00    1.10201   0.97978   -2.000
 7059.00    1.14486   0.98031   -2.000
 7060.00    1.20204   0.98016   -2.000
 7061.00    1.20770   0.97973   -2.000
 7062.00    1.15622   0.98025   -2.000
 7063.00    1.14349   0.98006   -2.000
 7064.00    1.16867   0.97982   -2.000
 7065.00    1.13638   0.97987   -2.000
 7066.00    1.05451   0.97926   -2.000
 7067.00    1.04252   0.97858   -2.000
 7068.00    1.08362   0.97772   -2.000
 7069.00    1.01999   0.97639   -2.000
 7070.00    0.88641   0.97456   -2.000
 7071.00    0.86510   0.97254   -2.000
 7072.00    0.90945   0.97073   -2.000
 7073.00    1.01406   0.96776   -2.000
 7074.00    1.14939   0.96488   -2.000
 7075.00    1.16622   0.96287   -2.000
 7076.00    1.13073   0.95930   -2.000
 7077.00    1.07292   0.95629   -2.000
 7078.00    1.00665   0.95445   -2.000
 7079.00    1.07238   0.95113   -2.000
 7080.00    1.18062   0.94882   -2.000
 7081.00    1.13346   0.94749   -2.000
 7082.00    1.04443   0.94527   -2.000
 7083.00    1.07880   0.94412   -2.000
 7084.00    1.14043   0.94343   -2.000
 7085.00    1.12704   0.94271   -2.000
 7086.00    1.10047   0.94270   -2.000
 7087.00    1.00394   0.94265   -2.000
 7088.00    0.89804   0.94304   -2.000
 7089.00    0.89214   0.94375   -2.000
 7090.00    0.89574   0.94428   -2.000
 7091.00    0.96246   0.94528   -2.000
 7092.00    1.03289   0.94616   -2.000
 7093.00    0.97433   0.94681   -2.000
 7094.00    0.91395   0.94781   -2.000
 7095.00    1.03939   0.94862   -2.000
 7096.00    1.15242   0.94926   -2.000
 7097.00    0.95713   0.94976   -2.000
 7098.00    0.78168   0.95022   -2.000
 7099.00    0.86986   0.95090   -2.000
 7100.00    0.94739   0.95111   -2.000
 7101.00    0.93053   0.95125   -2.000
 7102.00    0.91761   0.95177   -2.000
 7103.00    0.93052   0.95186   -2.000
 7104.00    0.94321   0.95195   -2.000
 7105.00    0.95485   0.95203   -2.000
 7106.00    0.94563   0.95209   -2.000
 7107.00    0.85051   0.95232   -2.000
 7108.00    0.79433   0.95178   -2.000
 7109.00    0.87092   0.95173   -2.000
 7110.00    0.91513   0.95208   -2.000
 7111.00    0.86633   0.95109   -2.000
 7112.00    0.82946   0.95077   -2.000
 7113.00    0.82185   0.95078   -2.000
 7114.00    0.84487   0.94964   -2.000
 7115.00    0.93269   0.94939   -2.000
 7116.00    0.96012   0.94889   -2.000
 7117.00    0.87650   0.94780   -2.000
 7118.00    0.85360   0.94792   -2.000
 7119.00    0.92826   0.94722   -2.000
 7120.00    0.99761   0.94668   -2.000
 7121.00    1.05948   0.94727   -2.000
 7122.00    1.05663   0.94644   -2.000
 7123.00    0.97349   0.94664   -2.000
 7124.00    0.85032   0.94774   -2.000
 7125.00    0.68337   0.94693   -2.000
 7126.00    0.67940   0.94767   -2.000
 7127.00    0.83259   0.94906   -2.000
 7128.00    0.91916   0.94831   -2.000
 7129.00    0.94909   0.94935   -2.000
 7130.00    0.87985   0.95056   -2.000
 7131.00    0.73637   0.94960   -2.000
 7132.00    0.66505   0.95083   -2.000
 7133.00    0.64123   0.95177   -2.000
 7134.00    0.84340   0.95052   -2.000
 7135.00    1.17576   0.95171   -2.000
 7136.00    1.16378   0.95263   -2.000
 7137.00    0.97901   0.95162   -2.000
 7138.00    0.93892   0.95269   -2.000
 7139.00    0.96167   0.95354   -2.000
 7140.00    0.85477   0.95314   -2.000
 7141.00    0.69957   0.95414   -2.000
 7142.00    0.80771   0.95486   -2.000
 7143.00    0.99903   0.95506   -2.000
 7144.00    0.90486   0.95598   -2.000
 7145.00    0.73539   0.95654   -2.000
 7146.00    0.68768   0.95696   -2.000
 7147.00    0.66621   0.95746   -2.000
 7148.00    0.78665   0.95767   -2.000
 7149.00    0.93134   0.95809   -2.000
 7150.00    0.97077   0.95818   -2.000
 7151.00    0.99657   0.95811   -2.000
 7152.00    0.82708   0.95834   -2.000
 7153.00    0.63986   0.95813   -2.000
 7154.00    0.74537   0.95817   -2.000
 7155.00    0.86689   0.95837   -2.000
 7156.00    1.00415   0.95799   -2.000
 7157.00    1.13884   0.95837   -2.000
 7158.00    1.00903   0.95874   -2.000
 7159.00    0.87320   0.95822   -2.000
 7160.00    0.60069   0.95886   -2.000
 7161.00    0.33999   0.95943   -2.000
 7162.00    0.22800   0.95883   -2.000
 7163.00    0.17487   0.95935   -2.000
 7164.00    0.62390   0.95950   -2.000
 7165.00    1.02761   0.95873   -2.000
 7166.00    1.14412   0.95915   -2.000
 7167.00    1.19895   0.95858   -2.000
 7168.00    0.94749   0.95752   -2.000
 7169.00    0.75348   0.95764   -2.000
 7170.00    0.79072   0.95620   -2.000
 7171.00    0.82806   0.95504   -2.000
 7172.00    0.86574   0.95496   -2.000
 7173.00    0.90084   0.95307   -2.000
 7174.00    0.92869   0.95217   -2.000
 7175.00    0.94556   0.95203   -2.000
 7176.00    0.93596   0.95009   -2.000
 7177.00    0.90197   0.94952   -2.000
 7178.00    0.81719   0.94958   -2.000
 7179.00    0.77672   0.94818   -2.000
 7180.00    0.81647   0.94797   -2.000
 7181.00    0.84911   0.94821   -2.000
 7182.00    0.87051   0.94760   -2.000
 7183.00    0.89262   0.94779   -2.000
 7184.00    0.91573   0.94818   -2.000
 7185.00    0.92870   0.94824   -2.000
 7186.00    0.92926   0.94862   -2.000
 7187.00    0.91357   0.94903   -2.000
 7188.00    0.88037   0.94955   -2.000
 7189.00    0.80724   0.94990   -2.000
 7190.00    0.69612   0.95012   -2.000
 7191.00    0.75013   0.95081   -2.000
 7192.00    0.94256   0.95099   -2.000
 7193.00    1.00856   0.95106   -2.000
 7194.00    0.98124   0.95184   -2.000
 7195.00    0.94772   0.95186   -2.000
 7196.00    0.91019   0.95190   -2.000
 7197.00    0.92795   0.95282   -2.000
 7198.00    0.97709   0.95288   -2.000
 7199.00    0.81595   0.95316   -2.000
 7200.00    0.55096   0.95430   -2.000
 7201.00    0.58306   0.95460   -2.000
 7202.00    0.74202   0.95533   -2.000
 7203.00    0.74301   0.95670   -2.000
 7204.00    0.68620   0.95730   -2.000
 7205.00    0.89655   0.95853   -2.000
 7206.00    1.18966   0.96003   -2.000
 7207.00    1.13989   0.96096   -2.000
 7208.00    1.00163   0.96250   -2.000
 7209.00    0.85965   0.96394   -2.000
 7210.00    0.71689   0.96514   -2.000
 7211.00    0.63390   0.96690   -2.000
 7212.00    0.56083   0.96825   -2.000
 7213.00    0.59320   0.96961   -2.000
 7214.00    0.63874   0.97143   -2.000
 7215.00    0.63090   0.97269   -2.000
 7216.00    0.61845   0.97417   -2.000
 7217.00    0.72917   0.97591   -2.000
 7218.00    0.84615   0.97706   -2.000
