###################################################################
## OUTPUT of StarlightChains_v04.for    [Cid@UFSC - 01/Apr/2007] ##
###################################################################

## Some input info
KUG0210-078._49_46.txt                   [arq_obs]
Base.CB07.vall.4m                        [arq_base]
Masks.EmLines.NEW.gm                     [arq_masks]
StCv04.C11.config                        [arq_config]
   66                                    [N_base]
    0                                    [N_YAV_components = # of components with extra extinction!]
    0                                    [i_FitPowerLaw (1/0 = Yes/No)]
-9.99                                    [alpha_PowerLaw]
CCM                                      [red_law_option]
 1.458241                                [q_norm = A(l_norm)/A(V)]

## (Re)Sampling Parameters
 3741.00                                 [l_ini (A)]
 7218.00                                 [l_fin (A)]
    1.00                                 [dl    (A)]     (OBS: dl_cushion =    50.00 A)

## Normalization info
 4020.00                                 [l_norm (A) - for base]
 4010.00                                 [llow_norm (A) - window for f_obs]
 4060.00                                 [lupp_norm (A) - window for f_obs]
6.381829E-18                             [fobs_norm (in input units)]

## S/N
 3691.00                                 [llow_SN (A) - window for S/N]
 7268.00                                 [lupp_SN (A) - window for S/N]
   2.688                                 [S/N in S/N window]
   3.639                                 [S/N in norm. window]
   0.005                                 [S/N_err in S/N window]
   0.007                                 [S/N_err in norm. window]
  1.0000                                 [fscale_chi2]

## etc...
    -2007949                             [idum_orig]
  2381                                   [NOl_eff]
  2345                                   [Nl_eff]
    36    NSIGMA                         [Ntot_cliped & clip_method]
  1168580                                [Nglobal_steps]
   7                                     [N_chains]
  37                                     [NEX0s_base = N_base in EX0s-fits]
 0   0   1       36   2.0   1.628E+03    [Clip-Bug, RC-Crash & Burn-In warning-flags, n_censored_weights, wei_nsig_threshold & wei_limit]
    24     23.089     22.517      0.573  [idt_all, wdt_TotTime, wdt_UsrTime & wdt_SysTime (sec)]

## Synthesis Results - Best model ##

 7.34395E-06                             [chi2/Nl_eff]
    39.68817                             [adev (%)]

   108.74488                             [sum-of-x (%)]
 1.81158E-18                             [Flux_tot (units of input spectrum!)]
 6.41737E-14                             [Mini_tot (???)]
 3.32005E-14                             [Mcor_tot (???)]

  58.78                                  [v0_min  (km/s)]
 331.00                                  [vd_min  (km/s)]
-1.0000                                  [AV_min  (mag)]
 0.0000                                  [YAV_min (mag)]

# j     x_j(%)      Mini_j(%)     Mcor_j(%)     age_j(yr)     Z_j      (L/M)_j    YAV?  Mstars   component_j        a/Fe...       SSP_chi2r SSP_adev(%)   SSP_AV   SSP_x(%)
  1      0.0000     0.0000E+00    0.0000E+00    1.000000E+06  0.00400  1.094E-02    0   1.0000   age020_m42            0.0000     8.9641E-06    46.4585   2.5026    86.2512
  2      0.0000     0.0000E+00    0.0000E+00    3.160000E+06  0.00400  4.007E-02    0   0.9999   age045_m42            0.0000     8.3428E-06    44.9630   1.7302    93.3907
  3      0.0179     1.8338E-05    3.3632E-05    5.010000E+06  0.00400  2.539E-02    0   0.9488   age055_m42            0.0000     8.6266E-06    45.7882   2.0746    90.4980
  4      0.0000     0.0000E+00    0.0000E+00    6.610000E+06  0.00400  2.620E-02    0   0.9220   age061_m42            0.0000     8.3419E-06    44.9572   1.6608    93.4811
  5      0.0000     0.0000E+00    0.0000E+00    1.000000E+07  0.00400  1.322E-02    0   0.8862   age070_m42            0.0000     8.4998E-06    46.0951   1.4420    93.7732
  6      0.0000     0.0000E+00    0.0000E+00    1.445000E+07  0.00400  7.883E-03    0   0.8571   age078_m42            0.0000     8.6518E-06    46.4682   1.7723    91.3191
  7      0.0268     1.3265E-04    2.0958E-04    2.512000E+07  0.00400  5.251E-03    0   0.8174   age090_m42            0.0000     8.4824E-06    46.2216   1.3223    94.0615
  8      0.0000     0.0000E+00    0.0000E+00    4.000000E+07  0.00400  3.649E-03    0   0.7851   age104_m42            0.0000     8.3502E-06    45.6933   1.0784    95.2979
  9      0.0000     0.0000E+00    0.0000E+00    5.500000E+07  0.00400  3.098E-03    0   0.7629   age110_m42            0.0000     8.2180E-06    44.8774   1.1981    96.2410
 10      0.0000     0.0000E+00    0.0000E+00    1.015200E+08  0.00400  2.228E-03    0   0.7207   age116_m42            0.0000     8.1354E-06    44.2361   1.1907    97.1211
 11      0.0000     0.0000E+00    0.0000E+00    2.861200E+08  0.00400  1.093E-03    0   0.6648   age125_m42            0.0000     8.0271E-06    44.0164   0.6312    99.6562
 12      0.0000     0.0000E+00    0.0000E+00    5.088000E+08  0.00400  6.597E-04    0   0.6365   age130_m42            0.0000     7.8920E-06    42.9507   0.5792   101.6841
 13      0.2030     2.4721E-02    2.7705E-02    1.434000E+09  0.00400  2.132E-04    0   0.5798   age139_m42            0.0000     7.5443E-06    41.5163  -0.4174   104.5163
 14      1.7891     7.8786E-01    8.1884E-01    4.250000E+09  0.00400  5.895E-05    0   0.5377   age158_m42            0.0000     7.5253E-06    40.7721  -0.8897   101.3891
 15      0.4307     3.1857E-01    3.2094E-01    7.500000E+09  0.00400  3.510E-05    0   0.5212   age171_m42            0.0000     7.5313E-06    40.5823  -1.0000    99.5644
 16      0.0000     0.0000E+00    0.0000E+00    1.300000E+10  0.00400  2.005E-05    0   0.5034   age193_m42            0.0000     7.6861E-06    41.4441  -1.0000    96.1241
 17      0.0000     0.0000E+00    0.0000E+00    1.800000E+10  0.00400  1.525E-05    0   0.4967   age213_m42            0.0000     7.7251E-06    41.8188  -1.0000    95.2225
 18      0.0000     0.0000E+00    0.0000E+00    1.000000E+06  0.00800  1.238E-02    0   1.0000   age020_m52            0.0000     8.9651E-06    46.4792   2.5004    86.4088
 19      0.0000     0.0000E+00    0.0000E+00    3.160000E+06  0.00800  3.074E-02    0   0.9966   age045_m52            0.0000     8.9152E-06    46.3710   2.4154    87.3826
 20      0.0000     0.0000E+00    0.0000E+00    5.010000E+06  0.00800  2.668E-02    0   0.9443   age055_m52            0.0000     8.7086E-06    46.0073   2.1641    89.5178
 21      0.0000     0.0000E+00    0.0000E+00    6.610000E+06  0.00800  2.136E-02    0   0.9177   age061_m52            0.0000     8.4154E-06    45.6330   0.9423    94.9194
 22      0.0000     0.0000E+00    0.0000E+00    1.000000E+07  0.00800  1.215E-02    0   0.8827   age070_m52            0.0000     8.6412E-06    46.8014   1.6444    92.9448
 23      0.0000     0.0000E+00    0.0000E+00    1.445000E+07  0.00800  8.717E-03    0   0.8552   age078_m52            0.0000     8.5933E-06    46.3823   1.7398    92.5771
 24      0.0000     0.0000E+00    0.0000E+00    2.512000E+07  0.00800  5.592E-03    0   0.8162   age090_m52            0.0000     8.4520E-06    46.2271   1.3853    95.1884
 25      0.0000     0.0000E+00    0.0000E+00    4.000000E+07  0.00800  3.896E-03    0   0.7841   age104_m52            0.0000     8.2985E-06    45.5735   1.2757    96.5126
 26      0.0000     0.0000E+00    0.0000E+00    1.015200E+08  0.00800  2.148E-03    0   0.7226   age116_m52            0.0000     8.1298E-06    44.4805   1.1729    97.4387
 27      0.0000     0.0000E+00    0.0000E+00    2.861200E+08  0.00800  9.925E-04    0   0.6683   age125_m52            0.0000     7.8563E-06    42.8482   0.6453   102.6225
 28      0.6459     5.3378E-02    6.3329E-02    9.047900E+08  0.00800  3.141E-04    0   0.6138   age135_m52            0.0000     7.4228E-06    40.4813  -0.2278   109.0837
 29      0.0000     0.0000E+00    0.0000E+00    1.434000E+09  0.00800  1.719E-04    0   0.5853   age139_m52            0.0000     7.4289E-06    40.8047  -0.7953   106.4815
 30      0.0000     0.0000E+00    0.0000E+00    2.500000E+09  0.00800  7.872E-05    0   0.5600   age150_m52            0.0000     7.4281E-06    40.1548  -1.0000   103.0261
 31      7.6490     4.5794E+00    4.8029E+00    4.250000E+09  0.00800  4.336E-05    0   0.5426   age158_m52            0.0000     7.4706E-06    40.0845  -1.0000   101.7769
 32      2.5511     2.0964E+00    2.1554E+00    6.250000E+09  0.00800  3.159E-05    0   0.5319   age166_m52            0.0000     7.6601E-06    41.0257  -1.0000    98.1497
 33      0.0000     0.0000E+00    0.0000E+00    1.300000E+10  0.00800  1.361E-05    0   0.5073   age193_m52            0.0000     8.9339E-06    47.0815  -1.0000    87.4595
 34      0.0000     0.0000E+00    0.0000E+00    1.800000E+10  0.00800  9.886E-06    0   0.4990   age213_m52            0.0000     9.4817E-06    48.0653  -1.0000    84.5478
 35      0.0000     0.0000E+00    0.0000E+00    1.000000E+06  0.02000  1.544E-02    0   1.0000   age020_m62            0.0000     8.9833E-06    46.5127   2.4958    86.6171
 36      0.0000     0.0000E+00    0.0000E+00    3.160000E+06  0.02000  3.762E-02    0   0.9858   age045_m62            0.0000     8.9818E-06    46.5290   2.4287    87.5456
 37      0.0003     2.1871E-07    3.9492E-07    5.010000E+06  0.02000  3.296E-02    0   0.9342   age055_m62            0.0000     8.5015E-06    45.3534   2.0162    92.1125
 38      0.0000     0.0000E+00    0.0000E+00    8.710000E+06  0.02000  1.154E-02    0   0.8861   age067_m62            0.0000     9.2585E-06    50.0437   1.2091    92.3815
 39      0.0000     0.0000E+00    0.0000E+00    1.445000E+07  0.02000  7.663E-03    0   0.8472   age078_m62            0.0000     8.7153E-06    47.5623   1.3209    94.1986
 40      0.0000     0.0000E+00    0.0000E+00    2.512000E+07  0.02000  4.532E-03    0   0.8099   age090_m62            0.0000     8.7135E-06    47.7047   1.3178    93.7988
 41      0.0000     0.0000E+00    0.0000E+00    5.500000E+07  0.02000  2.733E-03    0   0.7595   age110_m62            0.0000     8.3512E-06    45.6705   1.2624    95.6975
 42      1.3303     2.5225E-02    3.4058E-02    1.609000E+08  0.02000  1.369E-03    0   0.6985   age120_m62            0.0000     8.0564E-06    43.8718   1.0397   100.0579
 43     11.4379     3.2943E-01    4.2752E-01    2.861200E+08  0.02000  9.013E-04    0   0.6714   age125_m62            0.0000     7.8788E-06    42.5753   0.7509   104.0998
 44     25.5003     1.3166E+00    1.6411E+00    5.088000E+08  0.02000  5.028E-04    0   0.6449   age130_m62            0.0000     7.5837E-06    40.7945   0.3038   108.9562
 45      0.0616     6.5825E-03    7.8618E-03    9.047900E+08  0.02000  2.428E-04    0   0.6179   age135_m62            0.0000     7.3732E-06    39.9749  -0.3110   109.1091
 46      0.0000     0.0000E+00    0.0000E+00    1.434000E+09  0.02000  1.263E-04    0   0.5908   age139_m62            0.0000     7.3741E-06    39.7013  -0.7608   107.6623
 47      0.0000     0.0000E+00    0.0000E+00    2.500000E+09  0.02000  5.985E-05    0   0.5673   age150_m62            0.0000     7.4406E-06    39.4248  -1.0000   104.2694
 48      0.0000     0.0000E+00    0.0000E+00    4.250000E+09  0.02000  3.271E-05    0   0.5468   age158_m62            0.0000     7.9096E-06    41.5577  -1.0000    97.5288
 49      1.6503     3.1500E+00    3.1460E+00    1.000000E+10  0.02000  1.360E-05    0   0.5167   age181_m62            0.0000     9.1115E-06    45.6286  -1.0000    89.3347
 50      0.0516     1.8793E-01    1.8209E-01    1.800000E+10  0.02000  7.124E-06    0   0.5013   age213_m62            0.0000     1.0240E-05    48.0795  -1.0000    83.5138
 51      0.0000     0.0000E+00    0.0000E+00    1.000000E+06  0.05000  2.592E-02    0   0.9998   age020_m72            0.0000     9.0460E-06    46.6602   2.4930    86.5116
 52      0.0000     0.0000E+00    0.0000E+00    3.160000E+06  0.05000  4.845E-02    0   0.9577   age045_m72            0.0000     8.7863E-06    46.0816   2.2934    89.1742
 53      0.0075     6.3739E-06    1.1269E-05    5.010000E+06  0.05000  3.072E-02    0   0.9147   age055_m72            0.0000     8.8307E-06    47.2866   1.8750    91.3400
 54      0.0000     0.0000E+00    0.0000E+00    6.610000E+06  0.05000  1.455E-02    0   0.8877   age061_m72            0.0000     9.6406E-06    51.9091   1.2839    91.9507
 55      0.0000     0.0000E+00    0.0000E+00    1.000000E+07  0.05000  9.074E-03    0   0.8524   age070_m72            0.0000     8.8870E-06    47.7235   2.0473    91.1009
 56      0.0000     0.0000E+00    0.0000E+00    2.512000E+07  0.05000  4.250E-03    0   0.7902   age090_m72            0.0000     8.6053E-06    46.8947   1.7421    93.1570
 57      0.0000     0.0000E+00    0.0000E+00    4.000000E+07  0.05000  3.087E-03    0   0.7618   age104_m72            0.0000     8.5192E-06    46.7030   1.5123    94.7395
 58      0.0429     6.5506E-04    8.9848E-04    1.015200E+08  0.05000  1.700E-03    0   0.7096   age116_m72            0.0000     8.1528E-06    44.5517   1.2040    98.9771
 59      3.5781     1.2579E-01    1.6128E-01    2.861200E+08  0.05000  7.384E-04    0   0.6633   age125_m72            0.0000     7.7278E-06    41.6082   0.5809   106.6594
 60      0.1708     1.1612E-02    1.4302E-02    5.088000E+08  0.05000  3.819E-04    0   0.6372   age130_m72            0.0000     7.4563E-06    40.2758   0.0334   110.1131
 61      0.0214     3.3185E-03    3.9192E-03    9.047900E+08  0.05000  1.676E-04    0   0.6110   age135_m72            0.0000     7.3627E-06    39.1765  -0.7202   109.8357
 62     12.5637     3.6907E+00    4.1903E+00    1.434000E+09  0.05000  8.837E-05    0   0.5874   age139_m72            0.0000     7.4436E-06    39.1449  -1.0000   105.9723
 63     23.0848     1.4157E+01    1.5318E+01    2.500000E+09  0.05000  4.233E-05    0   0.5598   age150_m72            0.0000     7.9516E-06    41.2918  -1.0000    98.5229
 64      5.6458     1.0213E+01    1.0362E+01    6.250000E+09  0.05000  1.435E-05    0   0.5249   age166_m72            0.0000     9.5650E-06    47.0169  -1.0000    86.6578
 65      0.0284     1.1305E-01    1.1005E-01    1.300000E+10  0.05000  6.513E-06    0   0.5036   age193_m72            0.0000     1.1226E-05    50.1722  -1.0000    80.3240
 66     10.2555     5.8808E+01    5.6211E+01    1.800000E+10  0.05000  4.527E-06    0   0.4945   age213_m72            0.0000     1.2367E-05    51.7766  -1.0000    75.8949


## Synthesis Results - Average & Chains ##

# j      x_j: min, <> & last-chain-values for 1 ...  7 chains
  1      0.0000      1.3178      0.1463      0.0000      1.4845      0.5334      0.0000      0.0000      3.2452
  2      0.0000      1.3862      0.9026      0.2261      0.7292      1.2358      0.7222      0.9250      0.7668
  3      0.0179      1.5925      0.6731      1.6057      1.8917      0.9037      0.0000      0.1199      0.0000
  4      0.0000      1.2166      0.0000      0.2320      1.3260      0.0000      0.2849      1.8574      0.0000
  5      0.0000      1.2558      0.6386      0.5462      3.5467      0.0000      2.1123      0.0000      1.6413
  6      0.0000      1.4293      0.7144      0.0000      0.0000      0.6377      0.3835      0.2013      3.0278
  7      0.0268      0.8840      0.0000      0.6031      0.0000      0.8060      0.5925      0.0000      1.0998
  8      0.0000      1.2192      0.0108      0.0000      0.0000      0.0000      1.1496      0.2868      0.3046
  9      0.0000      1.9910      2.2837      0.0000      0.0298      3.8236      1.4747      0.0000      3.6836
 10      0.0000      0.9014      0.2483      0.0000      1.4973      0.3025      0.0000      1.0365      0.0000
 11      0.0000      0.7615      0.1825      0.2038      0.0000      0.0000      0.8802      0.6149      0.0994
 12      0.0000      1.5317      1.7265      0.1789      1.4223      0.0000      5.4226      0.0000      2.0576
 13      0.2030      1.7896      1.8164      1.7936      4.5373      0.0000      0.0000      3.3653      2.5629
 14      1.7891      1.5925      0.0000      1.2327      0.6550      1.7889      0.0000      1.7421      0.0434
 15      0.4307      1.8704      0.4305      3.9748      0.0000      0.0000      3.2110      0.6301      1.4561
 16      0.0000      1.2964      0.6443      0.0000      0.3799      0.1783      0.0000      1.4783      0.1557
 17      0.0000      1.4385      0.0000      0.0000      0.0375      0.0843      1.1794      1.9706      0.1905
 18      0.0000      1.3760      3.2066      0.0794      0.4625      0.0000      2.5921      2.0784      0.0000
 19      0.0000      1.1500      0.3020      0.0000      0.4032      1.5279      1.6686      0.0000      0.0580
 20      0.0000      1.8338      0.2689      0.5799      0.7786      0.0000      0.2228      1.3280      0.0899
 21      0.0000      1.5130      0.0000      0.0000      1.8731      1.2966      1.0987      2.0208      0.0000
 22      0.0000      1.4888      0.5067      1.3544      0.1042      0.0000      0.8131      1.4298      1.1606
 23      0.0000      1.3917      0.3374      0.2736      1.0341      0.0000      0.2818      1.8060      1.7007
 24      0.0000      1.6365      0.1251      1.6140      0.0000      1.4588      0.0000      0.0000      2.7244
 25      0.0000      1.0299      0.6830      0.8964      0.8322      1.1293      1.5555      0.2496      0.0000
 26      0.0000      1.2267      1.9119      2.8459      0.3291      0.0000      0.0000      0.0981      0.4310
 27      0.0000      1.8227      4.4569      0.0000      0.0000      0.1594      1.3908      0.0000      0.1921
 28      0.6459      1.1878      0.4394      1.1636      2.5610      1.9147      0.0000      1.6589      0.0900
 29      0.0000      1.3718      0.1838      1.5568      1.9182      1.0859      0.7087      2.3205      0.0843
 30      0.0000      1.6337      0.9648      0.9901      2.2642      0.1396      1.3157      0.0000      1.6548
 31      7.6490      1.4576      0.5279      1.3163      0.0000      0.0000      0.0000      1.5404      1.6320
 32      2.5511      1.7437      0.0000      0.5277      0.4807      0.0963      0.5144      0.0000      2.6976
 33      0.0000      1.1626      0.0000      0.0000      0.7135      0.0000      0.0000      2.6041      0.7243
 34      0.0000      1.0671      0.9278      0.0000      0.4785      2.3606      1.8578      0.3740      3.4277
 35      0.0000      1.1862      0.2776      0.0000      0.0000      0.0000      0.0000      0.1829      0.3627
 36      0.0000      1.1864      0.4376      0.0000      0.0000      1.0566      2.6636      2.3243      1.0662
 37      0.0003      1.6272      0.9385      4.2756      1.1260      1.2850      0.5451      2.6168      1.8622
 38      0.0000      1.4586      0.6864      0.0000      0.0000      3.4960      0.3510      0.1574      0.0000
 39      0.0000      2.2227      2.0449      1.8611      2.2988      3.1278      5.2168      0.0000      1.7948
 40      0.0000      0.9196      0.4929      1.2600      0.0000      0.0000      0.0000      3.5065      0.7776
 41      0.0000      1.3558      0.0000      0.1838      0.6346      0.0000      0.0000      1.5559      1.6729
 42      1.3303      1.2945      2.5099      0.3759      2.3039      0.2988      0.0000      1.0533      2.8106
 43     11.4379      1.4507      1.4724      0.8121      0.1150      0.3965      0.0000      0.1814      0.4179
 44     25.5003      1.4100      1.3363      1.1980      0.0000      0.0000      0.9971      0.0000      0.0000
 45      0.0616      1.3760      2.6044      1.6377      2.3880      0.8606      0.7268      2.0623      2.3117
 46      0.0000      1.3475      0.2539      0.0576      1.3241      1.4719      3.1773      1.4059      0.3840
 47      0.0000      1.5149      0.0000      0.7566      0.3742      0.4903      0.0000      0.0000      0.0000
 48      0.0000      0.9073      1.6608      0.2559      0.2579      0.9914      0.5284      0.0561      0.0000
 49      1.6503      1.2255      1.3201      1.7026      2.0016      2.8088      1.2390      1.9407      2.3242
 50      0.0516      7.3603     13.5996     15.7237     13.2996     17.9864     14.6958     12.0820     13.4530
 51      0.0000      1.1035      0.0000      0.1787      1.2626      0.0000      0.2180      0.0000      0.0772
 52      0.0000      0.9413      0.5555      3.0448      0.0000      0.4985      0.0000      0.0000      0.0724
 53      0.0075      1.1769      1.2499      0.7477      1.1448      0.0000      0.0000      0.0000      0.0605
 54      0.0000      1.0858      0.4872      0.0000      0.2056      0.0000      0.4487      0.0000      0.0000
 55      0.0000      1.6412      0.0000      0.0000      0.5277      0.0000      0.0000      0.4196      0.0000
 56      0.0000      1.3792      0.0000      0.0000      0.0000      0.6160      0.6110      0.9154      0.0000
 57      0.0000      1.4100      1.9304      0.0000      0.5128      1.0317      0.0000      1.6649      0.6307
 58      0.0429      1.1766      0.7827      0.9409      2.4952      1.1295      0.0000      2.2275      0.0000
 59      3.5781      1.0798      0.2740      1.8235      0.6621      1.7670      0.0000      0.5680      0.1551
 60      0.1708      1.2915      0.3532      3.2390      4.4525      0.0000      1.7822      0.6358      0.0000
 61      0.0214     10.2149     26.0126     26.1824     23.3462     33.6804     26.1081     23.3824     26.4474
 62     12.5637      1.4527      1.5840      1.3709      0.9319      0.7414      2.5424      1.2390      1.1224
 63     23.0848      1.5701      0.0000      1.8168      0.9976      0.0000      0.1759      0.4280      0.0000
 64      5.6458      1.7530      3.1353      1.4388      1.3386      0.0000      2.5023      2.6854      0.6758
 65      0.0284      3.1683      6.0803      4.9545      3.5190      5.9302      6.6299      6.1655      6.6859
 66     10.2555      5.2203     13.0228     10.9629     12.6001      9.1838      7.5595     10.4505      9.3610

# j      m_j: min, <> & last-chain-values for 1 ...  7 chains
  1  0.0000E+00  6.4895E-03  4.1046E-04  0.0000E+00  4.5787E-03  1.5476E-03  0.0000E+00  0.0000E+00  9.7713E-03
  2  0.0000E+00  1.8635E-03  6.9138E-04  1.8341E-04  6.1404E-04  9.7883E-04  6.2904E-04  7.5908E-04  6.3027E-04
  3  3.3632E-05  3.2062E-03  7.7212E-04  1.9504E-03  2.3855E-03  1.0719E-03  0.0000E+00  1.4736E-04  0.0000E+00
  4  0.0000E+00  2.3066E-03  0.0000E+00  2.6533E-04  1.5746E-03  0.0000E+00  3.4995E-04  2.1495E-03  0.0000E+00
  5  0.0000E+00  4.5354E-03  1.3141E-03  1.1902E-03  8.0228E-03  0.0000E+00  4.9428E-03  0.0000E+00  3.6244E-03
  6  0.0000E+00  8.3721E-03  2.3843E-03  0.0000E+00  0.0000E+00  2.2008E-03  1.4556E-03  7.1972E-04  1.0844E-02
  7  2.0958E-04  7.4138E-03  0.0000E+00  3.0514E-03  0.0000E+00  3.9825E-03  3.2193E-03  0.0000E+00  5.6398E-03
  8  0.0000E+00  1.4132E-02  7.1504E-05  0.0000E+00  0.0000E+00  0.0000E+00  8.6337E-03  2.0289E-03  2.1591E-03
  9  0.0000E+00  2.6414E-02  1.7263E-02  0.0000E+00  2.4804E-04  2.9887E-02  1.2676E-02  0.0000E+00  2.9881E-02
 10  0.0000E+00  1.5709E-02  2.4659E-03  0.0000E+00  1.6343E-02  3.1062E-03  0.0000E+00  1.1025E-02  0.0000E+00
 11  0.0000E+00  2.4953E-02  3.4066E-03  4.0288E-03  0.0000E+00  0.0000E+00  1.8687E-02  1.2298E-02  1.9924E-03
 12  0.0000E+00  7.9620E-02  5.1134E-02  5.6116E-03  4.6307E-02  0.0000E+00  1.8263E-01  0.0000E+00  6.5395E-02
 13  2.7705E-02  2.6220E-01  1.5164E-01  1.5855E-01  4.1638E-01  0.0000E+00  0.0000E+00  3.0096E-01  2.2959E-01
 14  8.1884E-01  7.8259E-01  0.0000E+00  3.6548E-01  2.0161E-01  5.1793E-01  0.0000E+00  5.2254E-01  1.3028E-02
 15  3.2094E-01  1.4963E+00  1.9625E-01  1.9185E+00  0.0000E+00  0.0000E+00  1.6644E+00  3.0768E-01  7.1223E-01
 16  0.0000E+00  1.7536E+00  4.9660E-01  0.0000E+00  3.2184E-01  1.4209E-01  0.0000E+00  1.2205E+00  1.2879E-01
 17  0.0000E+00  2.5241E+00  0.0000E+00  0.0000E+00  4.1225E-02  8.7179E-02  1.3409E+00  2.1107E+00  2.0434E-01
 18  0.0000E+00  5.9879E-03  7.9508E-03  2.0859E-04  1.2608E-03  0.0000E+00  7.3087E-03  5.5209E-03  0.0000E+00
 19  0.0000E+00  2.0085E-03  3.0050E-04  0.0000E+00  4.4110E-04  1.5723E-03  1.8884E-03  0.0000E+00  6.1969E-05
 20  0.0000E+00  3.4967E-03  2.9213E-04  6.6710E-04  9.2994E-04  0.0000E+00  2.7532E-04  1.5456E-03  1.0482E-04
 21  0.0000E+00  3.5021E-03  0.0000E+00  0.0000E+00  2.7156E-03  1.7682E-03  1.6478E-03  2.8551E-03  0.0000E+00
 22  0.0000E+00  5.8271E-03  1.1301E-03  3.1985E-03  2.5547E-04  0.0000E+00  2.0620E-03  3.4159E-03  2.7774E-03
 23  0.0000E+00  7.3558E-03  1.0162E-03  8.7235E-04  3.4235E-03  0.0000E+00  9.6520E-04  5.8266E-03  5.4962E-03
 24  0.0000E+00  1.2869E-02  5.6036E-04  7.6574E-03  0.0000E+00  6.7588E-03  0.0000E+00  0.0000E+00  1.3099E-02
 25  0.0000E+00  1.1167E-02  4.2196E-03  5.8639E-03  5.6517E-03  7.2142E-03  1.0927E-02  1.6521E-03  0.0000E+00
 26  0.0000E+00  2.2232E-02  1.9744E-02  3.1120E-02  3.7361E-03  0.0000E+00  0.0000E+00  1.0851E-03  4.7764E-03
 27  0.0000E+00  6.6123E-02  9.2122E-02  0.0000E+00  0.0000E+00  3.4066E-03  3.2690E-02  0.0000E+00  4.2600E-03
 28  6.3329E-02  1.2505E-01  2.6360E-02  7.3915E-02  1.6888E-01  1.1876E-01  0.0000E+00  1.0660E-01  5.7935E-03
 29  0.0000E+00  2.5163E-01  1.9206E-02  1.7230E-01  2.2039E-01  1.1736E-01  8.4228E-02  2.5982E-01  9.4572E-03
 30  0.0000E+00  6.2614E-01  2.1068E-01  2.2893E-01  5.4352E-01  3.1530E-02  3.2671E-01  0.0000E+00  3.8777E-01
 31  4.8029E+00  9.8268E-01  2.0280E-01  5.3544E-01  0.0000E+00  0.0000E+00  0.0000E+00  6.3391E-01  6.7272E-01
 32  2.1554E+00  1.5818E+00  0.0000E+00  2.8883E-01  2.7314E-01  5.1481E-02  3.0231E-01  0.0000E+00  1.4962E+00
 33  0.0000E+00  2.3347E+00  0.0000E+00  0.0000E+00  8.9740E-01  0.0000E+00  0.0000E+00  3.1920E+00  8.8930E-01
 34  0.0000E+00  2.9017E+00  1.4375E+00  0.0000E+00  8.1500E-01  3.7821E+00  3.2733E+00  6.2077E-01  5.6993E+00
 35  0.0000E+00  4.1392E-03  5.5185E-04  0.0000E+00  0.0000E+00  0.0000E+00  0.0000E+00  3.8946E-04  7.7382E-04
 36  0.0000E+00  1.6749E-03  3.5198E-04  0.0000E+00  0.0000E+00  8.7881E-04  2.4364E-03  2.0029E-03  9.2037E-04
 37  3.9492E-07  2.4848E-03  8.1650E-04  3.9391E-03  1.0769E-03  1.1561E-03  5.3935E-04  2.4390E-03  1.7387E-03
 38  0.0000E+00  6.0340E-03  1.6178E-03  0.0000E+00  0.0000E+00  8.5209E-03  9.4071E-04  3.9751E-04  0.0000E+00
 39  0.0000E+00  1.3239E-02  6.9398E-03  6.6880E-03  8.5760E-03  1.0976E-02  2.0133E-02  0.0000E+00  6.5362E-03
 40  0.0000E+00  8.8537E-03  2.7040E-03  7.3194E-03  0.0000E+00  0.0000E+00  0.0000E+00  2.0606E-02  4.5774E-03
 41  0.0000E+00  2.0298E-02  0.0000E+00  1.6600E-03  5.9509E-03  0.0000E+00  0.0000E+00  1.4218E-02  1.5314E-02
 42  3.4058E-02  3.5584E-02  3.9310E-02  6.2351E-03  3.9666E-02  4.8389E-03  0.0000E+00  1.7673E-02  4.7239E-02
 43  4.2752E-01  5.8221E-02  3.3668E-02  1.9665E-02  2.8912E-03  9.3764E-03  0.0000E+00  4.4445E-03  1.0255E-02
 44  1.6411E+00  9.7432E-02  5.2612E-02  4.9945E-02  0.0000E+00  0.0000E+00  4.4641E-02  0.0000E+00  0.0000E+00
 45  7.8618E-03  1.8866E-01  2.0345E-01  1.3547E-01  2.0507E-01  6.9520E-02  6.4563E-02  1.7259E-01  1.9379E-01
 46  0.0000E+00  3.3959E-01  3.6456E-02  8.7654E-03  2.0900E-01  2.1855E-01  5.1880E-01  2.1626E-01  5.9167E-02
 47  0.0000E+00  7.7363E-01  0.0000E+00  2.3311E-01  1.1969E-01  1.4753E-01  0.0000E+00  0.0000E+00  0.0000E+00
 48  0.0000E+00  8.1710E-01  8.5222E-01  1.3904E-01  1.4550E-01  5.2607E-01  3.0834E-01  3.0856E-02  0.0000E+00
 49  3.1460E+00  2.5084E+00  1.5395E+00  2.1026E+00  2.5661E+00  3.3873E+00  1.6432E+00  2.4247E+00  2.9087E+00
 50  1.8209E-01  2.7903E+01  2.9376E+01  3.5965E+01  3.1580E+01  4.0175E+01  3.6097E+01  2.7958E+01  3.1184E+01
 51  0.0000E+00  2.2933E-03  0.0000E+00  2.2403E-04  1.6434E-03  0.0000E+00  2.9351E-04  0.0000E+00  9.8038E-05
 52  0.0000E+00  1.0025E-03  3.3706E-04  1.9564E-03  0.0000E+00  3.1277E-04  0.0000E+00  0.0000E+00  4.7168E-05
 53  1.1269E-05  1.8880E-03  1.1424E-03  7.2365E-04  1.1502E-03  0.0000E+00  0.0000E+00  0.0000E+00  5.9322E-05
 54  0.0000E+00  3.5689E-03  9.1252E-04  0.0000E+00  4.2324E-04  0.0000E+00  9.5557E-04  0.0000E+00  0.0000E+00
 55  0.0000E+00  8.3061E-03  0.0000E+00  0.0000E+00  1.6727E-03  0.0000E+00  0.0000E+00  1.2962E-03  0.0000E+00
 56  0.0000E+00  1.3815E-02  0.0000E+00  0.0000E+00  0.0000E+00  3.6355E-03  3.9653E-03  5.5971E-03  0.0000E+00
 57  0.0000E+00  1.8746E-02  1.4623E-02  0.0000E+00  4.2703E-03  8.0814E-03  0.0000E+00  1.3511E-02  5.1266E-03
 58  8.9848E-04  2.6460E-02  1.0029E-02  1.2767E-02  3.5145E-02  1.4965E-02  0.0000E+00  3.0576E-02  0.0000E+00
 59  1.6128E-01  5.2258E-02  7.5549E-03  5.3245E-02  2.0069E-02  5.0384E-02  0.0000E+00  1.6779E-02  4.5891E-03
 60  1.4302E-02  1.1609E-01  1.8092E-02  1.7566E-01  2.5068E-01  0.0000E+00  1.0380E-01  3.4886E-02  0.0000E+00
 61  3.9192E-03  2.0063E+00  2.9110E+00  3.1026E+00  2.8720E+00  3.8974E+00  3.3224E+00  2.8032E+00  3.1760E+00
 62  4.1903E+00  5.2022E-01  3.2319E-01  2.9619E-01  2.0902E-01  1.5643E-01  5.8991E-01  2.7082E-01  2.4576E-01
 63  1.5318E+01  1.1186E+00  0.0000E+00  7.8100E-01  4.4516E-01  0.0000E+00  8.1208E-02  1.8615E-01  0.0000E+00
 64  1.0362E+01  3.4545E+00  3.5204E+00  1.7107E+00  1.6522E+00  0.0000E+00  3.1950E+00  3.2301E+00  8.1426E-01
 65  1.1005E-01  1.3198E+01  1.4432E+01  1.2452E+01  9.1817E+00  1.4555E+01  1.7894E+01  1.5677E+01  1.7029E+01
 66  5.6211E+01  3.0721E+01  4.3667E+01  3.8925E+01  4.6444E+01  3.1843E+01  2.8824E+01  3.7539E+01  3.3683E+01

# AV, chi2 & Mass for <> & i_chain = 1 ...  7 solutions
AV      -1.0000     -0.9760     -1.0000     -1.0000     -1.0000     -1.0000     -1.0000     -1.0000     -1.0000
chi2 7.3440E-06  8.4714E-06  7.5654E-06  7.5583E-06  7.6004E-06  7.5789E-06  7.5862E-06  7.6723E-06  7.6589E-06
Mass 3.3201E-14  3.1934E-14  5.4270E-14  5.1250E-14  4.9369E-14  5.2483E-14  4.7724E-14  5.0659E-14  5.0572E-14
  58.78                                  [v0_min (km/s) before EX0s...]
 331.00                                  [vd_min (km/s) before EX0s...]


## Synthetic spectrum (Best Model) ##l_obs f_obs f_syn wei
 3478    [Nl_obs]
 3741.00    0.28729   0.51774    0.000
 3742.00    0.03533   0.52167    0.000
 3743.00   -0.51144   0.52143    0.000
 3744.00   -0.50417   0.51629    0.000
 3745.00   -0.17411   0.50750    0.000
 3746.00    0.51354   0.49790    0.017
 3747.00    1.38277   0.48758    0.017
 3748.00    1.31016   0.48087    0.017
 3749.00    0.82338   0.47946    0.017
 3750.00    0.54487   0.48365    0.017
 3751.00    0.34499   0.49393    0.017
 3752.00    0.20487   0.50723    0.016
 3753.00    0.08391   0.52369    0.016
 3754.00    0.31463   0.54182    0.016
 3755.00    0.63960   0.55914    0.016
 3756.00    1.01887   0.57274    0.016
 3757.00    1.41006   0.58161    0.016
 3758.00    0.91253   0.58845    0.016
 3759.00    0.25987   0.59284    0.016
 3760.00   -0.18091   0.59387    0.000
 3761.00   -0.59355   0.59258    0.000
 3762.00   -0.42798   0.58903    0.000
 3763.00   -0.20807   0.58567    0.000
 3764.00    0.42791   0.58304    0.015
 3765.00    1.08789   0.57830    0.015
 3766.00    0.67347   0.57362    0.015
 3767.00    0.23667   0.57030    0.015
 3768.00    0.17835   0.56836    0.015
 3769.00    0.12106   0.56886    0.016
 3770.00    0.08860   0.57221    0.015
 3771.00    0.06439   0.57922    0.015
 3772.00    0.14838   0.59039    0.015
 3773.00    0.21875   0.60493    0.015
 3774.00    0.16957   0.62145    0.015
 3775.00    0.08093   0.64048    0.015
 3776.00   -0.26364   0.66152    0.000
 3777.00   -0.55408   0.68208    0.000
 3778.00   -0.57061   0.70214    0.000
 3779.00   -0.44698   0.72025    0.000
 3780.00    0.25036   0.73457    0.015
 3781.00    0.81108   0.74589    0.015
 3782.00    0.90839   0.75194    0.015
 3783.00    0.97906   0.75374    0.015
 3784.00    0.97348   0.75036    0.015
 3785.00    0.99350   0.74040    0.015
 3786.00    1.07601   0.72748    0.015
 3787.00    0.95118   0.71075    0.015
 3788.00    0.38929   0.69194    0.015
 3789.00    0.02755   0.67166    0.015
 3790.00    0.03240   0.65021    0.015
 3791.00    0.12560   0.62877    0.015
 3792.00    0.36022   0.60726    0.014
 3793.00    0.50348   0.58682    0.014
 3794.00    0.51842   0.56820    0.014
 3795.00    0.44514   0.55314    0.014
 3796.00    0.26281   0.54082    0.014
 3797.00    0.28469   0.53318    0.014
 3798.00    0.52906   0.53196    0.015
 3799.00    0.63562   0.53745    0.015
 3800.00    0.60973   0.54911    0.015
 3801.00    0.49025   0.56516    0.015
 3802.00    0.29144   0.58571    0.015
 3803.00    0.03315   0.60854    0.015
 3804.00   -0.26953   0.63236    0.000
 3805.00   -0.26535   0.65473    0.000
 3806.00   -0.06000   0.67437    0.000
 3807.00   -0.20217   0.69199    0.000
 3808.00   -0.54375   0.70624    0.000
 3809.00   -0.60743   0.71646    0.000
 3810.00   -0.53220   0.72259    0.000
 3811.00   -0.12382   0.72480    0.000
 3812.00    0.42863   0.72311    0.014
 3813.00    0.55239   0.71888    0.014
 3814.00    0.51717   0.71164    0.015
 3815.00    0.42077   0.70309    0.014
 3816.00    0.30512   0.69499    0.014
 3817.00    0.30555   0.68503    0.014
 3818.00    0.33643   0.67428    0.015
 3819.00    0.32444   0.66255    0.014
 3820.00    0.30325   0.65116    0.014
 3821.00    0.30807   0.64097    0.014
 3822.00    0.31732   0.62884    0.014
 3823.00    0.53973   0.61453    0.014
 3824.00    0.78949   0.59911    0.014
 3825.00    0.53938   0.58302    0.014
 3826.00    0.24439   0.56671    0.014
 3827.00   -0.03650   0.54965    0.000
 3828.00   -0.31663   0.53147    0.000
 3829.00    0.01832   0.51356    0.014
 3830.00    0.35858   0.49588    0.014
 3831.00    0.10706   0.47829    0.014
 3832.00   -0.12143   0.46269    0.000
 3833.00    0.16176   0.44929    0.014
 3834.00    0.46641   0.43943    0.014
 3835.00    1.03783   0.43425    0.015
 3836.00    1.53252   0.43374    0.015
 3837.00    1.37875   0.43821    0.016
 3838.00    1.14437   0.44854    0.017
 3839.00    0.40289   0.46388    0.015
 3840.00   -0.13220   0.48394    0.000
 3841.00    0.35110   0.50873    0.014
 3842.00    0.67814   0.53444    0.014
 3843.00    0.37963   0.56115    0.014
 3844.00    0.16986   0.58703    0.014
 3845.00    0.25511   0.61129    0.015
 3846.00    0.58150   0.63456    0.015
 3847.00    1.58501   0.65396    0.000
 3848.00    2.12032   0.66976    0.000
 3849.00    1.53109   0.68216    0.000
 3850.00    0.89413   0.69220    0.000
 3851.00    0.15821   0.70047    0.000
 3852.00   -0.17125   0.70527    0.000
 3853.00    0.23239   0.70802    0.000
 3854.00    0.42928   0.70910    0.000
 3855.00    0.30009   0.70897    0.000
 3856.00    0.11924   0.70973    0.000
 3857.00   -0.13312   0.70941    0.000
 3858.00   -0.14407   0.70927    0.000
 3859.00    0.13914   0.71053    0.000
 3860.00    0.26494   0.71322    0.000
 3861.00    0.22167   0.71816    0.000
 3862.00    0.47062   0.72313    0.000
 3863.00    0.99646   0.72799    0.000
 3864.00    1.17439   0.73205    0.000
 3865.00    1.06169   0.73486    0.000
 3866.00    0.98089   0.73656    0.000
 3867.00    0.92357   0.73626    0.000
 3868.00    0.72221   0.73436    0.000
 3869.00    0.42779   0.72995    0.000
 3870.00    0.46398   0.72424    0.000
 3871.00    0.68700   0.71751    0.000
 3872.00    0.65093   0.71071    0.000
 3873.00    0.48742   0.70498    0.000
 3874.00    0.32176   0.69868    0.000
 3875.00    0.15518   0.69129    0.000
 3876.00    0.23683   0.68263    0.000
 3877.00    0.40889   0.67223    0.000
 3878.00    0.60236   0.66227    0.000
 3879.00    0.80242   0.65146    0.000
 3880.00    0.73770   0.63802    0.000
 3881.00    0.60501   0.62355    0.013
 3882.00    0.69702   0.60805    0.013
 3883.00    0.83600   0.59339    0.013
 3884.00    0.20928   0.57830    0.014
 3885.00   -0.54370   0.56402    0.000
 3886.00   -0.35074   0.55317    0.000
 3887.00   -0.04063   0.54488    0.000
 3888.00    0.36081   0.54077    0.014
 3889.00    0.77006   0.54237    0.014
 3890.00   -0.22219   0.54904    0.000
 3891.00   -1.28430   0.56065    0.000
 3892.00   -0.76142   0.57491    0.000
 3893.00   -0.21720   0.59242    0.000
 3894.00    0.02920   0.61142    0.014
 3895.00    0.26456   0.63128    0.014
 3896.00    0.27389   0.65172    0.014
 3897.00    0.31045   0.66941    0.014
 3898.00    0.66918   0.68634    0.013
 3899.00    1.00765   0.70068    0.013
 3900.00    1.18109   0.71482    0.013
 3901.00    1.24446   0.72753    0.013
 3902.00    0.63558   0.73785    0.013
 3903.00    0.14762   0.74976    0.012
 3904.00    0.24153   0.75948    0.012
 3905.00    0.27925   0.77007    0.011
 3906.00    0.09691   0.78249    0.012
 3907.00   -0.00061   0.79493    0.000
 3908.00    0.17839   0.80817    0.012
 3909.00    0.18464   0.81968    0.013
 3910.00   -0.28550   0.83071    0.000
 3911.00   -0.43461   0.84046    0.000
 3912.00    0.17433   0.84667    0.013
 3913.00    0.48748   0.85067    0.013
 3914.00    0.19692   0.85209    0.013
 3915.00   -0.01186   0.84916    0.000
 3916.00   -0.07539   0.84422    0.000
 3917.00    0.20542   0.83651    0.013
 3918.00    1.02129   0.82686    0.014
 3919.00    1.24963   0.81574    0.014
 3920.00    0.67632   0.80279    0.014
 3921.00    0.53804   0.79022    0.014
 3922.00    0.92235   0.77525    0.014
 3923.00    1.13343   0.75950    0.014
 3924.00    1.16106   0.74084    0.014
 3925.00    0.83622   0.71904    0.014
 3926.00    0.18208   0.69499    0.014
 3927.00   -0.09303   0.66732    0.000
 3928.00   -0.05598   0.63891    0.000
 3929.00   -0.00348   0.60902    0.000
 3930.00    0.06023   0.58020    0.014
 3931.00    0.11125   0.55381    0.014
 3932.00    0.15421   0.53128    0.014
 3933.00    0.14445   0.51620    0.014
 3934.00    0.10535   0.50909    0.014
 3935.00    0.25540   0.51056    0.014
 3936.00    0.49700   0.51992    0.014
 3937.00    0.60210   0.53597    0.014
 3938.00    0.65013   0.55766    0.014
 3939.00    0.74301   0.58280    0.014
 3940.00    0.85192   0.60944    0.014
 3941.00    0.49929   0.63678    0.014
 3942.00    0.00714   0.66275    0.014
 3943.00    0.31865   0.68646    0.014
 3944.00    0.83201   0.70877    0.014
 3945.00    1.16947   0.72937    0.014
 3946.00    1.47107   0.74694    0.015
 3947.00    0.92949   0.76153    0.014
 3948.00    0.25290   0.77452    0.014
 3949.00    0.65226   0.78555    0.015
 3950.00    1.18010   0.79403    0.015
 3951.00    1.55934   0.79948    0.015
 3952.00    1.92648   0.80233    0.015
 3953.00    1.27225   0.80245    0.015
 3954.00    0.57107   0.79776    0.014
 3955.00    0.84932   0.78905    0.014
 3956.00    1.12928   0.77696    0.014
 3957.00    0.84639   0.76080    0.014
 3958.00    0.56222   0.73999    0.014
 3959.00    0.25373   0.71425    0.014
 3960.00    0.02060   0.68391    0.000
 3961.00    0.63671   0.65004    0.000
 3962.00    1.19634   0.61342    0.000
 3963.00    1.31191   0.57549    0.000
 3964.00    1.44724   0.53774    0.000
 3965.00    1.69989   0.50091    0.000
 3966.00    1.78194   0.46738    0.000
 3967.00    1.06304   0.43898    0.000
 3968.00    0.41058   0.41838    0.000
 3969.00    0.01281   0.40747    0.000
 3970.00   -0.21374   0.40635    0.000
 3971.00    0.10695   0.41520    0.000
 3972.00    0.50285   0.43325    0.000
 3973.00    1.10240   0.45941    0.000
 3974.00    1.45378   0.49276    0.000
 3975.00    1.22888   0.53062    0.000
 3976.00    0.97275   0.57132    0.000
 3977.00    0.65385   0.61328    0.000
 3978.00    0.62981   0.65393    0.000
 3979.00    1.12151   0.69255    0.000
 3980.00    1.15874   0.72738    0.000
 3981.00    0.50020   0.75819    0.014
 3982.00    0.12753   0.78598    0.014
 3983.00    0.13932   0.80991    0.014
 3984.00    0.23826   0.83174    0.014
 3985.00    0.44041   0.85068    0.014
 3986.00    0.50001   0.86706    0.014
 3987.00    0.41077   0.88277    0.014
 3988.00    0.60656   0.89537    0.014
 3989.00    1.06488   0.90676    0.014
 3990.00    1.30047   0.91730    0.014
 3991.00    1.35523   0.92627    0.014
 3992.00    1.19068   0.93433    0.014
 3993.00    0.86944   0.93999    0.014
 3994.00    1.15366   0.94521    0.014
 3995.00    1.81752   0.94918    0.014
 3996.00    2.03174   0.95233    0.014
 3997.00    1.99955   0.95570    0.014
 3998.00    1.63969   0.95996    0.014
 3999.00    1.12376   0.96422    0.014
 4000.00    0.86732   0.96720    0.014
 4001.00    0.71755   0.97011    0.014
 4002.00    0.57734   0.97250    0.014
 4003.00    0.44049   0.97404    0.014
 4004.00    0.44075   0.97385    0.014
 4005.00    0.48164   0.97532    0.014
 4006.00    0.66321   0.97816    0.014
 4007.00    0.87935   0.98143    0.015
 4008.00    0.94284   0.98562    0.014
 4009.00    0.97598   0.99042    0.014
 4010.00    0.88894   0.99658    0.014
 4011.00    0.78322   1.00248    0.014
 4012.00    0.27420   1.00967    0.014
 4013.00   -0.28119   1.01655    0.000
 4014.00    0.22698   1.02325    0.014
 4015.00    0.81738   1.02933    0.014
 4016.00    1.18068   1.03338    0.014
 4017.00    1.53442   1.03699    0.014
 4018.00    0.89823   1.04044    0.014
 4019.00    0.26069   1.04224    0.014
 4020.00   -0.04002   1.04285    0.000
 4021.00   -0.27309   1.04236    0.000
 4022.00    0.68653   1.04129    0.014
 4023.00    1.56664   1.03845    0.014
 4024.00    1.59128   1.03478    0.014
 4025.00    1.59287   1.03125    0.014
 4026.00    1.41946   1.02603    0.014
 4027.00    1.22289   1.01966    0.014
 4028.00    0.89273   1.01222    0.014
 4029.00    0.64838   1.00298    0.013
 4030.00    0.79733   0.99424    0.013
 4031.00    0.96544   0.98766    0.013
 4032.00    1.20547   0.98245    0.013
 4033.00    1.37232   0.98066    0.013
 4034.00    1.30975   0.98150    0.013
 4035.00    1.23807   0.98536    0.013
 4036.00    1.14214   0.99088    0.013
 4037.00    0.98614   0.99673    0.013
 4038.00    0.69297   1.00207    0.013
 4039.00    0.61664   1.00541    0.013
 4040.00    0.96899   1.00667    0.013
 4041.00    1.13394   1.00610    0.014
 4042.00    0.97605   1.00267    0.014
 4043.00    0.91499   0.99639    0.014
 4044.00    1.00000   0.98898    0.014
 4045.00    1.25849   0.98250    0.014
 4046.00    1.74693   0.97997    0.014
 4047.00    1.85775   0.97871    0.014
 4048.00    1.52768   0.97888    0.014
 4049.00    1.34686   0.98099    0.014
 4050.00    1.31969   0.98352    0.014
 4051.00    1.43491   0.98559    0.014
 4052.00    1.67941   0.98656    0.014
 4053.00    1.59041   0.98648    0.014
 4054.00    1.23449   0.98449    0.014
 4055.00    1.00018   0.98197    0.014
 4056.00    0.85151   0.97728    0.014
 4057.00    0.86688   0.97121    0.014
 4058.00    0.98358   0.96567    0.014
 4059.00    1.00718   0.96032    0.014
 4060.00    0.98055   0.95485    0.014
 4061.00    0.86610   0.94883    0.014
 4062.00    0.71051   0.94306    0.014
 4063.00    0.37706   0.93897    0.014
 4064.00   -0.02825   0.93806    0.000
 4065.00    0.21270   0.93714    0.014
 4066.00    0.67648   0.93649    0.014
 4067.00    0.40290   0.93763    0.014
 4068.00   -0.08480   0.93961    0.000
 4069.00   -0.16485   0.94054    0.000
 4070.00   -0.14698   0.93955    0.000
 4071.00    0.39984   0.93840    0.014
 4072.00    1.04914   0.93851    0.014
 4073.00    1.20580   0.93725    0.014
 4074.00    1.28821   0.93487    0.014
 4075.00    0.88724   0.93161    0.014
 4076.00    0.43279   0.92901    0.014
 4077.00    0.61586   0.92873    0.014
 4078.00    0.84562   0.93047    0.013
 4079.00    0.98693   0.93362    0.014
 4080.00    1.12485   0.93842    0.014
 4081.00    1.28513   0.94403    0.014
 4082.00    1.44612   0.94931    0.014
 4083.00    1.62897   0.95478    0.014
 4084.00    1.76487   0.95970    0.014
 4085.00    1.12696   0.96405    0.014
 4086.00    0.55919   0.96756    0.013
 4087.00    0.71313   0.96947    0.013
 4088.00    0.81574   0.96856    0.013
 4089.00    0.54171   0.96422    0.013
 4090.00    0.27876   0.95704    0.013
 4091.00    0.07797   0.94585    0.013
 4092.00   -0.02530   0.93169    0.000
 4093.00    0.30785   0.91463    0.000
 4094.00    0.51936   0.89331    0.000
 4095.00    0.28420   0.86979    0.000
 4096.00    0.08969   0.84516    0.000
 4097.00    0.02021   0.82015    0.000
 4098.00    0.05063   0.79607    0.000
 4099.00    0.34216   0.77420    0.000
 4100.00    0.61865   0.75556    0.000
 4101.00    0.86134   0.74271    0.000
 4102.00    0.95056   0.73669    0.000
 4103.00    0.74116   0.73630    0.000
 4104.00    0.52256   0.74154    0.000
 4105.00    0.28838   0.75223    0.000
 4106.00    0.37653   0.76623    0.000
 4107.00    0.94383   0.78292    0.000
 4108.00    1.44576   0.80092    0.000
 4109.00    1.86226   0.81911    0.000
 4110.00    2.06420   0.83752    0.000
 4111.00    2.01917   0.85499    0.000
 4112.00    1.66860   0.87152    0.000
 4113.00    1.00786   0.88623    0.013
 4114.00    0.68470   0.89906    0.013
 4115.00    0.66378   0.91013    0.013
 4116.00    0.74391   0.91909    0.013
 4117.00    0.90377   0.92598    0.013
 4118.00    1.03202   0.93085    0.019
 4119.00    1.13835   0.93564    0.069
 4120.00    0.98716   0.93866   -1.000
 4121.00    0.67927   0.94061   -1.000
 4122.00    0.91094   0.94172   -1.000
 4123.00    1.42926   0.94230   -1.000
 4124.00    1.57754   0.94250   -1.000
 4125.00    1.55519   0.94093   -1.000
 4126.00    1.02147   0.93904   -1.000
 4127.00    0.28470   0.93578   -1.000
 4128.00    0.42625   0.93331   -1.000
 4129.00    0.86507   0.93002   -1.000
 4130.00    0.67049   0.92776   -1.000
 4131.00    0.29570   0.92542   -1.000
 4132.00    0.85266   0.92557    0.033
 4133.00    1.62837   0.92735    0.015
 4134.00    1.08646   0.93056    0.013
 4135.00    0.29585   0.93587    0.013
 4136.00    0.08548   0.94017    0.013
 4137.00   -0.04015   0.94535    0.000
 4138.00    0.63367   0.94923    0.014
 4139.00    1.39245   0.95168    0.014
 4140.00    1.24937   0.95217    0.014
 4141.00    1.04389   0.95043    0.014
 4142.00    1.16883   0.94719    0.014
 4143.00    1.30517   0.94361    0.014
 4144.00    1.35212   0.94112    0.014
 4145.00    1.40000   0.93820    0.014
 4146.00    1.48418   0.93581    0.014
 4147.00    1.57406   0.93391    0.014
 4148.00    1.75217   0.93251    0.014
 4149.00    1.88264   0.93129    0.014
 4150.00    1.54339   0.93116    0.013
 4151.00    1.15856   0.93039    0.013
 4152.00    0.45008   0.93063    0.013
 4153.00   -0.10650   0.93042    0.000
 4154.00    0.16610   0.93148    0.013
 4155.00    0.43781   0.93349    0.013
 4156.00    0.70568   0.93606    0.013
 4157.00    0.88380   0.94063    0.013
 4158.00    0.73911   0.94527    0.013
 4159.00    0.67618   0.95125    0.013
 4160.00    0.85998   0.95631    0.013
 4161.00    1.04166   0.96191    0.013
 4162.00    1.21787   0.96632    0.013
 4163.00    1.40258   0.96877    0.013
 4164.00    1.60607   0.96973    0.013
 4165.00    1.53973   0.96851    0.013
 4166.00    0.95653   0.96524    0.013
 4167.00    0.64620   0.96002    0.013
 4168.00    0.79194   0.95392    0.013
 4169.00    0.92086   0.94585    0.012
 4170.00    1.02514   0.93695    0.012
 4171.00    0.94981   0.92731    0.012
 4172.00    0.64313   0.91852    0.012
 4173.00    0.46926   0.91132    0.012
 4174.00    0.44611   0.90539    0.012
 4175.00    0.53515   0.90126    0.013
 4176.00    0.73647   0.89875    0.013
 4177.00    1.05076   0.89813    0.013
 4178.00    1.46476   0.89958    0.012
 4179.00    1.37013   0.90251    0.012
 4180.00    0.87991   0.90635    0.012
 4181.00    0.75787   0.91030    0.012
 4182.00    0.88763   0.91530    0.012
 4183.00    0.84193   0.92004    0.012
 4184.00    0.69105   0.92487    0.012
 4185.00    0.65901   0.92921    0.012
 4186.00    0.68912   0.93226    0.012
 4187.00    0.96893   0.93577    0.012
 4188.00    1.36201   0.93888    0.013
 4189.00    1.06652   0.94150    0.012
 4190.00    0.50235   0.94287    0.012
 4191.00    0.54737   0.94342    0.012
 4192.00    0.79473   0.94328    0.012
 4193.00    0.86083   0.94101    0.012
 4194.00    0.87642   0.93737    0.013
 4195.00    0.93710   0.93207    0.013
 4196.00    1.00813   0.92672    0.013
 4197.00    1.27514   0.92060    0.013
 4198.00    1.57818   0.91523    0.013
 4199.00    1.01500   0.91137    0.013
 4200.00    0.32933   0.90889    0.012
 4201.00    0.64159   0.90824    0.012
 4202.00    1.05560   0.91033    0.012
 4203.00    0.58351   0.91461    0.012
 4204.00    0.05369   0.92031    0.012
 4205.00   -0.21096   0.92767    0.000
 4206.00   -0.46618   0.93525    0.000
 4207.00    0.10209   0.94303    0.012
 4208.00    0.65828   0.94984    0.013
 4209.00    0.85971   0.95564    0.013
 4210.00    1.05665   0.96032    0.013
 4211.00    1.18831   0.96384    0.015
 4212.00    1.23653   0.96577    0.018
 4213.00    0.49579   0.96676    0.018
 4214.00   -0.16245   0.96706    0.000
 4215.00   -0.25353   0.96689    0.000
 4216.00   -0.15291   0.96743    0.000
 4217.00    0.96658   0.96660    0.018
 4218.00    1.78139   0.96502    0.017
 4219.00    1.29489   0.96128    0.014
 4220.00    0.97486   0.95616    0.012
 4221.00    1.24134   0.94819    0.012
 4222.00    1.33802   0.93826    0.013
 4223.00    0.93185   0.92693    0.013
 4224.00    0.76205   0.91490    0.013
 4225.00    1.18875   0.90422    0.013
 4226.00    1.39407   0.89526    0.013
 4227.00    1.11836   0.89066    0.012
 4228.00    0.89987   0.88909    0.012
 4229.00    0.78933   0.89057    0.012
 4230.00    0.78473   0.89460    0.012
 4231.00    0.95454   0.90040    0.012
 4232.00    1.00757   0.90689    0.011
 4233.00    0.89202   0.91388    0.012
 4234.00    0.79846   0.92117    0.012
 4235.00    0.73279   0.92708    0.012
 4236.00    0.71815   0.93355    0.012
 4237.00    0.76059   0.93929    0.011
 4238.00    0.78761   0.94538    0.011
 4239.00    0.79940   0.95132    0.011
 4240.00    1.10550   0.95760    0.012
 4241.00    1.66770   0.96363    0.012
 4242.00    1.81155   0.96839    0.012
 4243.00    1.63467   0.97250    0.012
 4244.00    1.22130   0.97439    0.012
 4245.00    0.64858   0.97418    0.012
 4246.00    0.44946   0.97188    0.012
 4247.00    0.47091   0.96767    0.013
 4248.00    0.79151   0.96251    0.013
 4249.00    1.26612   0.95620    0.013
 4250.00    1.19295   0.95007    0.012
 4251.00    0.87538   0.94460    0.012
 4252.00    0.46889   0.93984    0.012
 4253.00    0.02830   0.93615    0.012
 4254.00    0.09347   0.93404    0.012
 4255.00    0.32347   0.93330    0.012
 4256.00    0.65024   0.93391    0.012
 4257.00    1.00344   0.93500    0.012
 4258.00    1.00695   0.93717    0.012
 4259.00    0.93210   0.94047    0.012
 4260.00    1.08836   0.94458    0.012
 4261.00    1.28595   0.94970    0.012
 4262.00    1.28977   0.95455    0.012
 4263.00    1.26707   0.95890    0.012
 4264.00    1.22164   0.96135    0.012
 4265.00    1.17400   0.96214    0.012
 4266.00    1.02832   0.95979    0.012
 4267.00    0.87665   0.95480    0.012
 4268.00    0.84194   0.94706    0.012
 4269.00    0.80879   0.93748    0.011
 4270.00    0.46341   0.92725    0.011
 4271.00    0.13889   0.91713    0.011
 4272.00    0.36586   0.90939    0.011
 4273.00    0.58017   0.90375    0.011
 4274.00    0.62039   0.90144    0.011
 4275.00    0.62516   0.90226    0.011
 4276.00    0.30790   0.90591    0.012
 4277.00    0.09094   0.91081    0.012
 4278.00    0.54207   0.91686    0.012
 4279.00    0.94880   0.92217    0.012
 4280.00    1.12569   0.92668    0.012
 4281.00    1.23062   0.92950    0.012
 4282.00    1.03517   0.92970   -2.000
 4283.00    0.82330   0.92813   -2.000
 4284.00    0.55476   0.92384   -2.000
 4285.00    0.40819   0.91825   -2.000
 4286.00    0.61611   0.91092   -2.000
 4287.00    0.91741   0.90310   -2.000
 4288.00    1.45030   0.89509   -2.000
 4289.00    1.72615   0.88729   -2.000
 4290.00    1.45249   0.88069   -2.000
 4291.00    1.07258   0.87390   -2.000
 4292.00    0.49541   0.86806   -2.000
 4293.00    0.34050   0.86135   -2.000
 4294.00    0.87045   0.85444   -2.000
 4295.00    1.14206   0.84652   -2.000
 4296.00    1.04615   0.83693   -2.000
 4297.00    0.97762   0.82641   -2.000
 4298.00    0.94338   0.81463    0.012
 4299.00    1.01989   0.80258    0.012
 4300.00    1.21858   0.79048    0.012
 4301.00    1.32797   0.77945    0.012
 4302.00    1.35046   0.76918    0.012
 4303.00    1.08180   0.76115    0.012
 4304.00    0.56333   0.75500    0.012
 4305.00    0.44303   0.75132    0.012
 4306.00    0.62365   0.75081    0.012
 4307.00    0.85126   0.75325    0.012
 4308.00    1.11009   0.75965    0.012
 4309.00    1.17947   0.76932    0.012
 4310.00    1.13867   0.78290    0.012
 4311.00    1.17992   0.79950    0.012
 4312.00    1.26275   0.81899    0.012
 4313.00    1.07501   0.84092    0.011
 4314.00    0.76855   0.86310    0.011
 4315.00    0.86797   0.88541    0.011
 4316.00    1.12028   0.90488    0.012
 4317.00    1.08693   0.92173    0.012
 4318.00    0.96224   0.93325    0.011
 4319.00    1.01302   0.94092    0.011
 4320.00    1.11070   0.94242    0.012
 4321.00    0.83100   0.94015    0.012
 4322.00    0.46873   0.93361    0.012
 4323.00    0.14544   0.92531    0.011
 4324.00   -0.17107   0.91669    0.000
 4325.00    0.40251   0.90880    0.011
 4326.00    1.09381   0.90298    0.012
 4327.00    1.24814   0.89872    0.012
 4328.00    1.35229   0.89673    0.012
 4329.00    1.57485   0.89589    0.012
 4330.00    1.80417   0.89538    0.000
 4331.00    1.58471   0.89400    0.000
 4332.00    1.35117   0.89042    0.000
 4333.00    0.70054   0.88387    0.000
 4334.00    0.10596   0.87334    0.000
 4335.00    0.85716   0.85976    0.000
 4336.00    1.51121   0.84362    0.000
 4337.00    0.90071   0.82613    0.000
 4338.00    0.37574   0.80948    0.000
 4339.00    0.59794   0.79513    0.000
 4340.00    0.86547   0.78460    0.000
 4341.00    1.42570   0.77855    0.000
 4342.00    1.84735   0.77830    0.000
 4343.00    1.56981   0.78287    0.000
 4344.00    1.30547   0.79209    0.000
 4345.00    1.09502   0.80467    0.000
 4346.00    0.89969   0.81944    0.000
 4347.00    0.75555   0.83475    0.000
 4348.00    0.74441   0.84915    0.000
 4349.00    1.11279   0.86256    0.000
 4350.00    1.30386   0.87480    0.000
 4351.00    1.06264   0.88578    0.012
 4352.00    0.91928   0.89556    0.014
 4353.00    0.98177   0.90506    0.036
 4354.00    1.10041   0.91442   -1.000
 4355.00    1.32167   0.92405   -1.000
 4356.00    1.42061   0.93387   -1.000
 4357.00    1.32408   0.94461   -1.000
 4358.00    1.36600   0.95561   -1.000
 4359.00    1.60202   0.96674   -1.000
 4360.00    1.53330   0.97708   -1.000
 4361.00    1.08859   0.98693   -1.000
 4362.00    0.90849   0.99537   -1.000
 4363.00    1.01615   1.00203   -1.000
 4364.00    1.05186   1.00642   -1.000
 4365.00    1.01855   1.00865   -1.000
 4366.00    1.04840   1.00899    0.044
 4367.00    1.13166   1.00698    0.015
 4368.00    0.98605   1.00342    0.012
 4369.00    0.66997   0.99822    0.012
 4370.00    0.47805   0.99218    0.012
 4371.00    0.36738   0.98519    0.012
 4372.00    0.56442   0.97836    0.011
 4373.00    0.93771   0.97167    0.011
 4374.00    1.11593   0.96558    0.012
 4375.00    1.19686   0.95938    0.012
 4376.00    1.06421   0.95319    0.012
 4377.00    0.83940   0.94642    0.012
 4378.00    0.59999   0.93908    0.012
 4379.00    0.35519   0.93077    0.012
 4380.00    0.41546   0.92134    0.012
 4381.00    0.57140   0.91171    0.012
 4382.00    0.47858   0.90236    0.012
 4383.00    0.32069   0.89426    0.012
 4384.00    0.62034   0.88751    0.012
 4385.00    1.01772   0.88323    0.011
 4386.00    1.11691   0.88168    0.011
 4387.00    1.16568   0.88314    0.011
 4388.00    1.18416   0.88731    0.011
 4389.00    1.19877   0.89385    0.011
 4390.00    1.15115   0.90200    0.011
 4391.00    1.09798   0.91104    0.011
 4392.00    0.64279   0.92038    0.011
 4393.00    0.16618   0.92946    0.011
 4394.00    0.64354   0.93783    0.011
 4395.00    1.13483   0.94459    0.012
 4396.00    1.23935   0.94989    0.012
 4397.00    1.34808   0.95319    0.012
 4398.00    1.54923   0.95473    0.011
 4399.00    1.68440   0.95430    0.011
 4400.00    1.00422   0.95220    0.011
 4401.00    0.41357   0.94874    0.011
 4402.00    0.57616   0.94460    0.011
 4403.00    0.78779   0.94062    0.011
 4404.00    1.30681   0.93719    0.011
 4405.00    1.65524   0.93515    0.011
 4406.00    1.16461   0.93467    0.011
 4407.00    0.83419   0.93630    0.011
 4408.00    1.14333   0.93946    0.011
 4409.00    1.35059   0.94414    0.011
 4410.00    1.21996   0.94939    0.011
 4411.00    1.07804   0.95530    0.011
 4412.00    0.90448   0.96070    0.011
 4413.00    0.84229   0.96599    0.011
 4414.00    1.04704   0.97030    0.011
 4415.00    1.11916   0.97422    0.011
 4416.00    0.91675   0.97719    0.011
 4417.00    0.77957   0.97994    0.011
 4418.00    0.75979   0.98218    0.011
 4419.00    0.88480   0.98448    0.011
 4420.00    1.23772   0.98635    0.011
 4421.00    1.42230   0.98810    0.011
 4422.00    1.37426   0.98929    0.011
 4423.00    1.28279   0.99016    0.011
 4424.00    1.13851   0.99042    0.011
 4425.00    1.21665   0.98999    0.011
 4426.00    1.53329   0.98916    0.011
 4427.00    1.59366   0.98778    0.011
 4428.00    1.41165   0.98607    0.011
 4429.00    1.02542   0.98387    0.011
 4430.00    0.46890   0.98174    0.011
 4431.00    0.65468   0.97960    0.011
 4432.00    1.38544   0.97804    0.011
 4433.00    1.57086   0.97686    0.011
 4434.00    1.40469   0.97657    0.011
 4435.00    1.26494   0.97687    0.011
 4436.00    1.14009   0.97811    0.011
 4437.00    1.05305   0.97986    0.011
 4438.00    0.98458   0.98234    0.011
 4439.00    0.78595   0.98502    0.011
 4440.00    0.53208   0.98800    0.011
 4441.00    0.46124   0.99094    0.011
 4442.00    0.45692   0.99384    0.011
 4443.00    0.42697   0.99666    0.011
 4444.00    0.38913   0.99928    0.011
 4445.00    0.46319   1.00167    0.011
 4446.00    0.56590   1.00342    0.011
 4447.00    0.90072   1.00442    0.011
 4448.00    1.28391   1.00403    0.011
 4449.00    1.24270   1.00229    0.011
 4450.00    1.13176   0.99862    0.011
 4451.00    1.26504   0.99331    0.011
 4452.00    1.42842   0.98608    0.011
 4453.00    1.38631   0.97783    0.011
 4454.00    1.32672   0.96844    0.010
 4455.00    1.22530   0.95919    0.011
 4456.00    1.12182   0.95016    0.011
 4457.00    1.21540   0.94250    0.011
 4458.00    1.31211   0.93623    0.011
 4459.00    1.40925   0.93204    0.010
 4460.00    1.47740   0.92990    0.010
 4461.00    0.95845   0.92987    0.000
 4462.00    0.48022   0.93179    0.000
 4463.00    0.48054   0.93539    0.000
 4464.00    0.53426   0.94032    0.000
 4465.00    1.02101   0.94644    0.000
 4466.00    1.42797   0.95313    0.000
 4467.00    1.34942   0.96073    0.000
 4468.00    1.25330   0.96836    0.000
 4469.00    1.07290   0.97678    0.000
 4470.00    0.96613   0.98488    0.000
 4471.00    1.14688   0.99342    0.000
 4472.00    1.27829   1.00126    0.000
 4473.00    1.24923   1.00884    0.000
 4474.00    1.20108   1.01517    0.000
 4475.00    1.10040   1.02034    0.000
 4476.00    1.05792   1.02392    0.000
 4477.00    1.15263   1.02584    0.000
 4478.00    1.28198   1.02640    0.000
 4479.00    1.48189   1.02558    0.000
 4480.00    1.56867   1.02421    0.000
 4481.00    1.45488   1.02221    0.000
 4482.00    1.31941   1.02054    0.010
 4483.00    1.15032   1.01889    0.010
 4484.00    1.19909   1.01785    0.010
 4485.00    1.54459   1.01687    0.011
 4486.00    1.64454   1.01622    0.011
 4487.00    1.45009   1.01528    0.010
 4488.00    1.12478   1.01427    0.010
 4489.00    0.66114   1.01279    0.010
 4490.00    0.54984   1.01132    0.010
 4491.00    0.76710   1.00968    0.010
 4492.00    0.91787   1.00861    0.010
 4493.00    1.01397   1.00807    0.010
 4494.00    1.16443   1.00869    0.010
 4495.00    1.35422   1.01054    0.010
 4496.00    1.53118   1.01382    0.010
 4497.00    1.70001   1.01865    0.010
 4498.00    1.60134   1.02466    0.010
 4499.00    1.35410   1.03203    0.010
 4500.00    1.12357   1.03993    0.010
 4501.00    0.90112   1.04848    0.010
 4502.00    0.86569   1.05673    0.010
 4503.00    0.90829   1.06465    0.010
 4504.00    0.95145   1.07154    0.010
 4505.00    0.99481   1.07718    0.010
 4506.00    1.09100   1.08129    0.010
 4507.00    1.20313   1.08364    0.010
 4508.00    1.25506   1.08437    0.010
 4509.00    1.29191   1.08332    0.010
 4510.00    1.30288   1.08099    0.010
 4511.00    1.30858   1.07730    0.010
 4512.00    1.08095   1.07294    0.010
 4513.00    0.81609   1.06781    0.010
 4514.00    0.96621   1.06269    0.010
 4515.00    1.16564   1.05720    0.010
 4516.00    1.21838   1.05213    0.010
 4517.00    1.25926   1.04673    0.010
 4518.00    1.17324   1.04166    0.010
 4519.00    1.08145   1.03594    0.010
 4520.00    1.19811   1.03001    0.010
 4521.00    1.31583   1.02311    0.010
 4522.00    1.35670   1.01536    0.010
 4523.00    1.38559   1.00679    0.010
 4524.00    1.18963   0.99714    0.010
 4525.00    1.00556   0.98750    0.010
 4526.00    0.95476   0.97721    0.010
 4527.00    0.89867   0.96821    0.010
 4528.00    0.80123   0.95946    0.010
 4529.00    0.70948   0.95320    0.010
 4530.00    0.65139   0.94810    0.010
 4531.00    0.66581   0.94605    0.010
 4532.00    1.01964   0.94566    0.010
 4533.00    1.26285   0.94800    0.010
 4534.00    1.08327   0.95196    0.010
 4535.00    0.88163   0.95755    0.010
 4536.00    0.60965   0.96421    0.010
 4537.00    0.52785   0.97110    0.010
 4538.00    0.95997   0.97819    0.010
 4539.00    1.29910   0.98430    0.010
 4540.00    1.42276   0.98970    0.010
 4541.00    1.30827   0.99352    0.010
 4542.00    0.71643   0.99604    0.010
 4543.00    0.37223   0.99704    0.010
 4544.00    0.46038   0.99665    0.010
 4545.00    0.67865   0.99531    0.010
 4546.00    1.09578   0.99298    0.010
 4547.00    1.35197   0.99041    0.010
 4548.00    1.39213   0.98763    0.010
 4549.00    1.26402   0.98523    0.010
 4550.00    0.93702   0.98351    0.000
 4551.00    0.71069   0.98255    0.000
 4552.00    0.58929   0.98303    0.000
 4553.00    0.63754   0.98432    0.000
 4554.00    0.84177   0.98734    0.000
 4555.00    0.82092   0.99090    0.000
 4556.00    0.61765   0.99585    0.000
 4557.00    0.59735   1.00082    0.000
 4558.00    0.70753   1.00637    0.000
 4559.00    0.84606   1.01135    0.000
 4560.00    1.00233   1.01604    0.000
 4561.00    0.92757   1.01982    0.000
 4562.00    0.72645   1.02285    0.000
 4563.00    0.86982   1.02506    0.000
 4564.00    1.17695   1.02659    0.000
 4565.00    1.13795   1.02765    0.000
 4566.00    0.95699   1.02840    0.000
 4567.00    1.04936   1.02899    0.000
 4568.00    1.23749   1.02954    0.000
 4569.00    1.22543   1.02995    0.000
 4570.00    1.15419   1.03027    0.000
 4571.00    1.04006   1.03019    0.000
 4572.00    0.91542   1.02979    0.000
 4573.00    0.97734   1.02867    0.000
 4574.00    1.07624   1.02693    0.000
 4575.00    1.05776   1.02432    0.000
 4576.00    1.02110   1.02095    0.000
 4577.00    1.03871   1.01691    0.000
 4578.00    1.06254   1.01227    0.000
 4579.00    1.12329   1.00751    0.000
 4580.00    1.18688   1.00266    0.000
 4581.00    1.14457   0.99837    0.000
 4582.00    1.09785   0.99466    0.000
 4583.00    1.17200   0.99193    0.000
 4584.00    1.24449   0.99024    0.000
 4585.00    1.20103   0.98942    0.000
 4586.00    1.14824   0.98962    0.000
 4587.00    0.93232   0.99011    0.000
 4588.00    0.76092   0.99118    0.000
 4589.00    1.06576   0.99186    0.000
 4590.00    1.32446   0.99257    0.000
 4591.00    1.23448   0.99253    0.000
 4592.00    1.13827   0.99225    0.000
 4593.00    1.00624   0.99128    0.000
 4594.00    0.90810   0.99023    0.000
 4595.00    0.96480   0.98891    0.000
 4596.00    1.01411   0.98792    0.000
 4597.00    1.03578   0.98710    0.000
 4598.00    1.06814   0.98702    0.000
 4599.00    1.13389   0.98745    0.000
 4600.00    1.14778   0.98881    0.000
 4601.00    1.02399   0.99101    0.000
 4602.00    0.91925   0.99398    0.000
 4603.00    0.85790   0.99799    0.000
 4604.00    0.84974   1.00241    0.000
 4605.00    0.94652   1.00786    0.000
 4606.00    0.98899   1.01318    0.000
 4607.00    0.93809   1.01919    0.000
 4608.00    0.83738   1.02451    0.000
 4609.00    0.66166   1.03000    0.000
 4610.00    0.61758   1.03447    0.000
 4611.00    0.74769   1.03844    0.000
 4612.00    0.84953   1.04148    0.000
 4613.00    0.91842   1.04371    0.000
 4614.00    0.95185   1.04538    0.000
 4615.00    0.94885   1.04621    0.000
 4616.00    0.94134   1.04688    0.000
 4617.00    0.92972   1.04688    0.000
 4618.00    0.93068   1.04706    0.000
 4619.00    0.94170   1.04678    0.000
 4620.00    1.08465   1.04676    0.000
 4621.00    1.32034   1.04630    0.000
 4622.00    1.27591   1.04590    0.000
 4623.00    1.05876   1.04515    0.000
 4624.00    0.85121   1.04413    0.000
 4625.00    0.64883   1.04282    0.000
 4626.00    0.66237   1.04117    0.000
 4627.00    0.77691   1.03909    0.000
 4628.00    0.89504   1.03656    0.000
 4629.00    1.01461   1.03367    0.000
 4630.00    1.06943   1.03024    0.000
 4631.00    1.10197   1.02643    0.000
 4632.00    1.13003   1.02222    0.000
 4633.00    1.15681   1.01770    0.000
 4634.00    1.12102   1.01276    0.000
 4635.00    1.07026   1.00767    0.000
 4636.00    1.03991   1.00257    0.000
 4637.00    1.01349   0.99732    0.000
 4638.00    0.85978   0.99212    0.000
 4639.00    0.68696   0.98691    0.000
 4640.00    0.58330   0.98221    0.000
 4641.00    0.48725   0.97730    0.000
 4642.00    0.59036   0.97307    0.000
 4643.00    0.70796   0.96863    0.000
 4644.00    0.84988   0.96521    0.000
 4645.00    0.99273   0.96185    0.000
 4646.00    1.05360   0.95971    0.000
 4647.00    1.11035   0.95809    0.000
 4648.00    1.02981   0.95779    0.000
 4649.00    0.95472   0.95822    0.000
 4650.00    0.96866   0.96012    0.000
 4651.00    0.99013   0.96267    0.000
 4652.00    1.08871   0.96634    0.000
 4653.00    1.14076   0.97035    0.000
 4654.00    0.85274   0.97479    0.000
 4655.00    0.62053   0.97890    0.000
 4656.00    0.70030   0.98267    0.000
 4657.00    0.76159   0.98556    0.000
 4658.00    0.74044   0.98730    0.000
 4659.00    0.68363   0.98791    0.000
 4660.00    0.49620   0.98664    0.000
 4661.00    0.43581   0.98428    0.000
 4662.00    0.76520   0.97997    0.000
 4663.00    1.00067   0.97468    0.000
 4664.00    0.99119   0.96820    0.000
 4665.00    0.95898   0.96151    0.000
 4666.00    0.87582   0.95505    0.000
 4667.00    0.84080   0.94959    0.000
 4668.00    0.89925   0.94560    0.000
 4669.00    0.91356   0.94322    0.000
 4670.00    0.85309   0.94263    0.000
 4671.00    0.83636   0.94374    0.000
 4672.00    0.88453   0.94629    0.000
 4673.00    0.96476   0.94972    0.000
 4674.00    1.08679   0.95348    0.000
 4675.00    1.09357   0.95715    0.000
 4676.00    0.96792   0.96011    0.000
 4677.00    0.81571   0.96261    0.000
 4678.00    0.63661   0.96422    0.000
 4679.00    0.53445   0.96539    0.000
 4680.00    0.50107   0.96587    0.000
 4681.00    0.65198   0.96595    0.000
 4682.00    0.94804   0.96586    0.000
 4683.00    1.06166   0.96582    0.000
 4684.00    1.04891   0.96583    0.000
 4685.00    0.93398   0.96607    0.000
 4686.00    0.75698   0.96635    0.000
 4687.00    0.63432   0.96681    0.000
 4688.00    0.54046   0.96692    0.000
 4689.00    0.67311   0.96718    0.000
 4690.00    0.90998   0.96703    0.000
 4691.00    0.95399   0.96677    0.000
 4692.00    0.92159   0.96618    0.000
 4693.00    0.87477   0.96526    0.000
 4694.00    0.82308   0.96377    0.000
 4695.00    0.80109   0.96183    0.000
 4696.00    0.78754   0.95942    0.000
 4697.00    0.90767   0.95643    0.000
 4698.00    1.05908   0.95303    0.000
 4699.00    0.90014   0.94943    0.000
 4700.00    0.68281   0.94541    0.000
 4701.00    0.75564   0.94174    0.000
 4702.00    0.87067   0.93807    0.000
 4703.00    0.82849   0.93579    0.000
 4704.00    0.76969   0.93358    0.000
 4705.00    0.89337   0.93272    0.000
 4706.00    1.02957   0.93222    0.000
 4707.00    1.05344   0.93323    0.000
 4708.00    1.07348   0.93496    0.000
 4709.00    0.73032   0.93738    0.000
 4710.00    0.40471   0.94059    0.000
 4711.00    0.66815   0.94437    0.000
 4712.00    0.91435   0.94929    0.000
 4713.00    0.89615   0.95437    0.000
 4714.00    0.86132   0.96051    0.000
 4715.00    0.66343   0.96634    0.000
 4716.00    0.51593   0.97243    0.000
 4717.00    0.72468   0.97821    0.000
 4718.00    0.89730   0.98370    0.000
 4719.00    0.87337   0.98870    0.000
 4720.00    0.86449   0.99251    0.000
 4721.00    0.92123   0.99481    0.000
 4722.00    0.97987   0.99557    0.000
 4723.00    1.04528   0.99484    0.000
 4724.00    1.05172   0.99223    0.000
 4725.00    0.88059   0.98856    0.000
 4726.00    0.76120   0.98352    0.000
 4727.00    0.77437   0.97843    0.000
 4728.00    0.77220   0.97269    0.000
 4729.00    0.73624   0.96752    0.000
 4730.00    0.72038   0.96273    0.000
 4731.00    0.74294   0.95922    0.000
 4732.00    0.76931   0.95726    0.000
 4733.00    0.80206   0.95664    0.000
 4734.00    0.87026   0.95738    0.000
 4735.00    0.99029   0.95906    0.000
 4736.00    1.06865   0.96186    0.000
 4737.00    1.09340   0.96491    0.000
 4738.00    1.12375   0.96851    0.000
 4739.00    1.16044   0.97228    0.000
 4740.00    1.09000   0.97580    0.000
 4741.00    0.91254   0.97968    0.000
 4742.00    0.84072   0.98301    0.000
 4743.00    0.86197   0.98593    0.000
 4744.00    0.98761   0.98831    0.000
 4745.00    1.19429   0.99039    0.000
 4746.00    1.11289   0.99176    0.000
 4747.00    0.83484   0.99251    0.000
 4748.00    0.88160   0.99245    0.000
 4749.00    1.12269   0.99163    0.000
 4750.00    1.12289   0.99039    0.000
 4751.00    0.99735   0.98797    0.000
 4752.00    0.85627   0.98543    0.000
 4753.00    0.70815   0.98193    0.000
 4754.00    0.77247   0.97856    0.000
 4755.00    0.91950   0.97433    0.000
 4756.00    0.97282   0.97042    0.000
 4757.00    0.99510   0.96610    0.000
 4758.00    1.02931   0.96193    0.000
 4759.00    1.06685   0.95768    0.000
 4760.00    1.06986   0.95350    0.000
 4761.00    1.06497   0.94950    0.009
 4762.00    1.01107   0.94577    0.009
 4763.00    0.94820   0.94238    0.009
 4764.00    0.94627   0.93990    0.009
 4765.00    0.95292   0.93803    0.009
 4766.00    1.16968   0.93765    0.009
 4767.00    1.40775   0.93834    0.009
 4768.00    1.04282   0.94037    0.009
 4769.00    0.63891   0.94351    0.009
 4770.00    0.68019   0.94756    0.009
 4771.00    0.73547   0.95248    0.009
 4772.00    1.06255   0.95716    0.009
 4773.00    1.37623   0.96212    0.009
 4774.00    1.30187   0.96637    0.009
 4775.00    1.21142   0.97021    0.009
 4776.00    0.88840   0.97328    0.009
 4777.00    0.59914   0.97517    0.009
 4778.00    0.62752   0.97615    0.009
 4779.00    0.65413   0.97573    0.009
 4780.00    0.66857   0.97448    0.009
 4781.00    0.72835   0.97239    0.009
 4782.00    1.02831   0.96975    0.009
 4783.00    1.24261   0.96678    0.009
 4784.00    1.09213   0.96399    0.009
 4785.00    0.97233   0.96150    0.009
 4786.00    0.96034   0.95990    0.009
 4787.00    0.91069   0.95881    0.009
 4788.00    0.74981   0.95911    0.009
 4789.00    0.68224   0.96017    0.009
 4790.00    0.84963   0.96198    0.009
 4791.00    0.97707   0.96478    0.009
 4792.00    1.01788   0.96790    0.009
 4793.00    1.07290   0.97108    0.009
 4794.00    1.15468   0.97442    0.009
 4795.00    1.17565   0.97712    0.009
 4796.00    1.09670   0.97941    0.009
 4797.00    1.02431   0.98059    0.009
 4798.00    0.96138   0.98113    0.009
 4799.00    0.87808   0.98061    0.009
 4800.00    0.76896   0.97954    0.009
 4801.00    0.77690   0.97811    0.009
 4802.00    0.91559   0.97631    0.009
 4803.00    0.95830   0.97474    0.009
 4804.00    0.90647   0.97273    0.009
 4805.00    0.87609   0.97119    0.009
 4806.00    0.86434   0.96917    0.009
 4807.00    0.88190   0.96806    0.009
 4808.00    0.92188   0.96696    0.009
 4809.00    0.90638   0.96671    0.009
 4810.00    0.85355   0.96707    0.009
 4811.00    0.76384   0.96798    0.009
 4812.00    0.65239   0.96939    0.009
 4813.00    0.86160   0.97113    0.009
 4814.00    1.23558   0.97294    0.009
 4815.00    1.25520   0.97470    0.009
 4816.00    1.11705   0.97623    0.009
 4817.00    1.17240   0.97722    0.009
 4818.00    1.30178   0.97771    0.009
 4819.00    1.19192   0.97723    0.009
 4820.00    1.00428   0.97614    0.009
 4821.00    0.97735   0.97413    0.009
 4822.00    0.99418   0.97137    0.009
 4823.00    1.10285   0.96829    0.009
 4824.00    1.23204   0.96442    0.009
 4825.00    1.16560   0.96083    0.009
 4826.00    1.06430   0.95746    0.009
 4827.00    0.88896   0.95442    0.009
 4828.00    0.70355   0.95168    0.009
 4829.00    0.67878   0.94916    0.009
 4830.00    0.66962   0.94674    0.009
 4831.00    0.76515   0.94472    0.009
 4832.00    0.86703   0.94279    0.009
 4833.00    0.98960   0.94072    0.009
 4834.00    1.11127   0.93918    0.009
 4835.00    0.97405   0.93717    0.009
 4836.00    0.84017   0.93555    0.009
 4837.00    0.79345   0.93326    0.009
 4838.00    0.76151   0.93122    0.009
 4839.00    0.93135   0.92868    0.009
 4840.00    1.07873   0.92599    0.008
 4841.00    1.02308   0.92328    0.009
 4842.00    0.97187   0.92042    0.009
 4843.00    0.95013   0.91766    0.008
 4844.00    0.90539   0.91428    0.008
 4845.00    0.74192   0.91091    0.008
 4846.00    0.64315   0.90692    0.008
 4847.00    0.81371   0.90217    0.008
 4848.00    0.94722   0.89641    0.000
 4849.00    0.95321   0.88931    0.000
 4850.00    0.96152   0.88092    0.000
 4851.00    0.97659   0.87167    0.000
 4852.00    0.96053   0.86081    0.000
 4853.00    0.86742   0.84882    0.000
 4854.00    0.74958   0.83576    0.000
 4855.00    0.57895   0.82174    0.000
 4856.00    0.58271   0.80723    0.000
 4857.00    0.90964   0.79327    0.000
 4858.00    1.05481   0.78037    0.000
 4859.00    0.90575   0.76878    0.000
 4860.00    0.85116   0.75901    0.000
 4861.00    0.93070   0.75145    0.000
 4862.00    1.02457   0.74644    0.000
 4863.00    1.13634   0.74472    0.000
 4864.00    1.10899   0.74665    0.000
 4865.00    0.92844   0.75025    0.000
 4866.00    0.91610   0.75667    0.000
 4867.00    1.06715   0.76392    0.000
 4868.00    1.17255   0.77246    0.000
 4869.00    1.23886   0.78122    0.000
 4870.00    1.13162   0.79039    0.000
 4871.00    0.89348   0.79953    0.000
 4872.00    0.84680   0.80798    0.000
 4873.00    0.92704   0.81683    0.000
 4874.00    0.96361   0.82581    0.000
 4875.00    0.97485   0.83439    0.009
 4876.00    0.75990   0.84272    0.009
 4877.00    0.43054   0.85004    0.009
 4878.00    0.45012   0.85706    0.008
 4879.00    0.62248   0.86231    0.008
 4880.00    0.69555   0.86731    0.008
 4881.00    0.73130   0.87056    0.009
 4882.00    0.82762   0.87236    0.009
 4883.00    0.94327   0.87321    0.009
 4884.00    0.99200   0.87360    0.009
 4885.00    1.02287   0.87331    0.009
 4886.00    1.07482   0.87301    0.009
 4887.00    1.13136   0.87316    0.009
 4888.00    0.93202   0.87414    0.009
 4889.00    0.68833   0.87673    0.008
 4890.00    0.72912   0.87990    0.009
 4891.00    0.80738   0.88501    0.009
 4892.00    0.76138   0.89006    0.009
 4893.00    0.70384   0.89759    0.009
 4894.00    1.02108   0.90548    0.009
 4895.00    1.35957   0.91347    0.009
 4896.00    1.08392   0.92131    0.009
 4897.00    0.79948   0.92771    0.009
 4898.00    1.08437   0.93325    0.009
 4899.00    1.35481   0.93722    0.009
 4900.00    1.28229   0.93997    0.009
 4901.00    1.19410   0.94101    0.009
 4902.00    0.90339   0.94169    0.009
 4903.00    0.65798   0.94116    0.009
 4904.00    0.80651   0.93961    0.009
 4905.00    0.91946   0.93782    0.009
 4906.00    0.80345   0.93556    0.009
 4907.00    0.73540   0.93329    0.009
 4908.00    0.90855   0.93009    0.009
 4909.00    1.01004   0.92656    0.009
 4910.00    0.81982   0.92268    0.009
 4911.00    0.73562   0.91830    0.009
 4912.00    1.00917   0.91419    0.009
 4913.00    1.20463   0.90982    0.009
 4914.00    1.17778   0.90536    0.009
 4915.00    1.08018   0.90027    0.009
 4916.00    0.81044   0.89550    0.009
 4917.00    0.70895   0.89026    0.009
 4918.00    0.96064   0.88530    0.009
 4919.00    1.10869   0.88059    0.009
 4920.00    1.06763   0.87679    0.009
 4921.00    1.02000   0.87488    0.009
 4922.00    0.96189   0.87473    0.009
 4923.00    0.93853   0.87723    0.009
 4924.00    0.96381   0.88059    0.009
 4925.00    0.89978   0.88527    0.008
 4926.00    0.72576   0.89061    0.008
 4927.00    0.66709   0.89688    0.008
 4928.00    0.73364   0.90267    0.008
 4929.00    0.80971   0.90752    0.008
 4930.00    0.89491   0.91195    0.008
 4931.00    0.92919   0.91445    0.008
 4932.00    0.92049   0.91583    0.008
 4933.00    0.85917   0.91600    0.008
 4934.00    0.75872   0.91477    0.008
 4935.00    0.83049   0.91310    0.008
 4936.00    1.01473   0.91231    0.008
 4937.00    0.90866   0.91140    0.008
 4938.00    0.63665   0.91091    0.008
 4939.00    0.57435   0.91108    0.008
 4940.00    0.61645   0.91251    0.000
 4941.00    0.66331   0.91573    0.000
 4942.00    0.71222   0.92006    0.000
 4943.00    0.70329   0.92444    0.000
 4944.00    0.67301   0.92920    0.000
 4945.00    0.88579   0.93380    0.000
 4946.00    1.17460   0.93752    0.000
 4947.00    1.20670   0.94005    0.000
 4948.00    1.17182   0.94230    0.000
 4949.00    0.97680   0.94307    0.000
 4950.00    0.74769   0.94271    0.000
 4951.00    0.93568   0.94072    0.000
 4952.00    1.19394   0.93784    0.000
 4953.00    1.05029   0.93395    0.000
 4954.00    0.85551   0.92884    0.000
 4955.00    0.78007   0.92408    0.000
 4956.00    0.71522   0.91866    0.000
 4957.00    0.81732   0.91424    0.000
 4958.00    0.92822   0.90886    0.000
 4959.00    0.83469   0.90539    0.000
 4960.00    0.73806   0.90427    0.000
 4961.00    0.70493   0.90317    0.000
 4962.00    0.68163   0.90291    0.000
 4963.00    0.87219   0.90229    0.000
 4964.00    1.04809   0.90274    0.000
 4965.00    1.04383   0.90291    0.000
 4966.00    1.04002   0.90304    0.000
 4967.00    1.03998   0.90321    0.000
 4968.00    1.03707   0.90405    0.000
 4969.00    1.01625   0.90441    0.000
 4970.00    0.97515   0.90506    0.000
 4971.00    0.83457   0.90543    0.000
 4972.00    0.75024   0.90498    0.000
 4973.00    0.88987   0.90449    0.000
 4974.00    0.98324   0.90239    0.000
 4975.00    0.92359   0.89991    0.000
 4976.00    0.87379   0.89612    0.000
 4977.00    0.85154   0.89124    0.000
 4978.00    0.81780   0.88593    0.000
 4979.00    0.75653   0.87962    0.000
 4980.00    0.74179   0.87352    0.000
 4981.00    0.82314   0.86781    0.000
 4982.00    0.85205   0.86274    0.000
 4983.00    0.78675   0.85800    0.000
 4984.00    0.73543   0.85485    0.000
 4985.00    0.70610   0.85372    0.000
 4986.00    0.71723   0.85397    0.000
 4987.00    0.78416   0.85535    0.000
 4988.00    0.80246   0.85799    0.000
 4989.00    0.76173   0.86079    0.000
 4990.00    0.68567   0.86320    0.000
 4991.00    0.57177   0.86580    0.000
 4992.00    0.56322   0.86733    0.000
 4993.00    0.65411   0.86899    0.000
 4994.00    0.76908   0.86954    0.000
 4995.00    0.90407   0.86835    0.000
 4996.00    0.89385   0.86723    0.000
 4997.00    0.77722   0.86456    0.000
 4998.00    0.68509   0.86088    0.000
 4999.00    0.60871   0.85671    0.000
 5000.00    0.51934   0.85149    0.000
 5001.00    0.42265   0.84609    0.000
 5002.00    0.53105   0.84092    0.000
 5003.00    0.73994   0.83596    0.000
 5004.00    0.87304   0.83142    0.000
 5005.00    0.97405   0.82733    0.000
 5006.00    0.83390   0.82309    0.000
 5007.00    0.60631   0.81932    0.000
 5008.00    0.59740   0.81665    0.000
 5009.00    0.65559   0.81482    0.000
 5010.00    0.70445   0.81292    0.000
 5011.00    0.75093   0.81049    0.000
 5012.00    0.68530   0.80869    0.000
 5013.00    0.59639   0.80621    0.000
 5014.00    0.62154   0.80461    0.000
 5015.00    0.66537   0.80337    0.000
 5016.00    0.58811   0.80324    0.000
 5017.00    0.49598   0.80402    0.000
 5018.00    0.60168   0.80486    0.000
 5019.00    0.72411   0.80604    0.000
 5020.00    0.81004   0.80866    0.000
 5021.00    0.89418   0.81200    0.000
 5022.00    0.83532   0.81556    0.000
 5023.00    0.77680   0.81932    0.000
 5024.00    0.87386   0.82362    0.000
 5025.00    0.95998   0.82901    0.000
 5026.00    0.82684   0.83331    0.000
 5027.00    0.70307   0.83795    0.000
 5028.00    0.68876   0.84118    0.000
 5029.00    0.69263   0.84425    0.008
 5030.00    0.84318   0.84759    0.008
 5031.00    0.97825   0.84909    0.008
 5032.00    1.01944   0.84978    0.008
 5033.00    1.03875   0.84924    0.008
 5034.00    0.95349   0.84823    0.008
 5035.00    0.87360   0.84587    0.008
 5036.00    0.81459   0.84241    0.008
 5037.00    0.79000   0.83824    0.008
 5038.00    0.87701   0.83545    0.008
 5039.00    0.89813   0.83298    0.008
 5040.00    0.73838   0.82990    0.008
 5041.00    0.64156   0.82831    0.008
 5042.00    0.69271   0.82691    0.008
 5043.00    0.73150   0.82823    0.008
 5044.00    0.74516   0.83114    0.008
 5045.00    0.81420   0.83375    0.008
 5046.00    0.98123   0.83716    0.008
 5047.00    1.09796   0.84058    0.008
 5048.00    1.13682   0.84382    0.008
 5049.00    1.11812   0.84617    0.008
 5050.00    1.02117   0.84895    0.008
 5051.00    0.89872   0.85225    0.008
 5052.00    0.74575   0.85582    0.008
 5053.00    0.77067   0.85939    0.008
 5054.00    0.98334   0.86328    0.008
 5055.00    1.01212   0.86710    0.008
 5056.00    0.86973   0.87027    0.008
 5057.00    0.90035   0.87272    0.008
 5058.00    1.07295   0.87474    0.008
 5059.00    1.13684   0.87634    0.008
 5060.00    1.12221   0.87693    0.008
 5061.00    1.05849   0.87648    0.008
 5062.00    0.96364   0.87572    0.008
 5063.00    0.95320   0.87352    0.008
 5064.00    0.98955   0.87030    0.008
 5065.00    0.80388   0.86612    0.008
 5066.00    0.51117   0.86128    0.008
 5067.00    0.54995   0.85796    0.008
 5068.00    0.72672   0.85402    0.008
 5069.00    0.77212   0.85008    0.008
 5070.00    0.77073   0.84643    0.008
 5071.00    0.77147   0.84309    0.008
 5072.00    0.77285   0.83974    0.008
 5073.00    0.58269   0.83542    0.008
 5074.00    0.34469   0.83242    0.008
 5075.00    0.58562   0.82946    0.008
 5076.00    0.92360   0.82628    0.008
 5077.00    1.00306   0.82343    0.008
 5078.00    1.04142   0.82099    0.008
 5079.00    0.93723   0.81914    0.008
 5080.00    0.81617   0.81633    0.008
 5081.00    0.71575   0.81511    0.008
 5082.00    0.61700   0.81563    0.008
 5083.00    0.69528   0.81739    0.008
 5084.00    0.78153   0.81954    0.008
 5085.00    0.82163   0.82247    0.008
 5086.00    0.86081   0.82644    0.008
 5087.00    0.88171   0.83038    0.008
 5088.00    0.89817   0.83408    0.008
 5089.00    0.83216   0.83726    0.008
 5090.00    0.77767   0.84031    0.007
 5091.00    0.85148   0.84254    0.008
 5092.00    0.89817   0.84408    0.008
 5093.00    0.73355   0.84469    0.008
 5094.00    0.61004   0.84469    0.008
 5095.00    0.72878   0.84334    0.008
 5096.00    0.83311   0.84099    0.008
 5097.00    0.87025   0.83810    0.008
 5098.00    0.92801   0.83479    0.008
 5099.00    1.06433   0.83150    0.008
 5100.00    1.05736   0.82796    0.008
 5101.00    0.59458   0.82602    0.008
 5102.00    0.31356   0.82447    0.008
 5103.00    0.52261   0.82331    0.008
 5104.00    0.67181   0.82182    0.008
 5105.00    0.68267   0.82075    0.008
 5106.00    0.64669   0.82037    0.008
 5107.00    0.51700   0.82056    0.008
 5108.00    0.48068   0.82098    0.008
 5109.00    0.60706   0.82185    0.008
 5110.00    0.72370   0.82426    0.008
 5111.00    0.82548   0.82595    0.008
 5112.00    0.87410   0.82847    0.008
 5113.00    0.85151   0.83123    0.008
 5114.00    0.76102   0.83301    0.008
 5115.00    0.59043   0.83471    0.008
 5116.00    0.48001   0.83569    0.008
 5117.00    0.43219   0.83570    0.008
 5118.00    0.48639   0.83529    0.008
 5119.00    0.63422   0.83374    0.008
 5120.00    0.76218   0.83087    0.008
 5121.00    0.87408   0.82713    0.008
 5122.00    0.94098   0.82262    0.008
 5123.00    0.97586   0.81823    0.008
 5124.00    0.83368   0.81313    0.008
 5125.00    0.58089   0.80869    0.008
 5126.00    0.52148   0.80527    0.008
 5127.00    0.56762   0.80283    0.008
 5128.00    0.60686   0.80064    0.008
 5129.00    0.64283   0.79914    0.008
 5130.00    0.71671   0.79850    0.008
 5131.00    0.80611   0.79801    0.008
 5132.00    0.82716   0.79907    0.008
 5133.00    0.82432   0.79954    0.008
 5134.00    0.92142   0.80004    0.008
 5135.00    1.04799   0.80020    0.008
 5136.00    0.97933   0.80070    0.008
 5137.00    0.86299   0.80025    0.008
 5138.00    0.88252   0.79821    0.008
 5139.00    0.92890   0.79717    0.008
 5140.00    0.93958   0.79473    0.008
 5141.00    0.94476   0.79335    0.008
 5142.00    0.76773   0.79247    0.008
 5143.00    0.56994   0.78968    0.008
 5144.00    0.58425   0.78770    0.008
 5145.00    0.61475   0.78697    0.008
 5146.00    0.45312   0.78583    0.008
 5147.00    0.28359   0.78448    0.008
 5148.00    0.40562   0.78421    0.008
 5149.00    0.52783   0.78462    0.008
 5150.00    0.55678   0.78579    0.008
 5151.00    0.59764   0.78704    0.008
 5152.00    0.84467   0.78817    0.008
 5153.00    1.07109   0.78955    0.008
 5154.00    1.07818   0.79113    0.008
 5155.00    1.07180   0.79238    0.008
 5156.00    0.96411   0.79329    0.008
 5157.00    0.85228   0.79357    0.008
 5158.00    0.71678   0.79234    0.008
 5159.00    0.60552   0.78930    0.008
 5160.00    0.60469   0.78410    0.008
 5161.00    0.61118   0.77732    0.008
 5162.00    0.64496   0.76963    0.008
 5163.00    0.66407   0.75944    0.008
 5164.00    0.63741   0.74873    0.008
 5165.00    0.60853   0.73747    0.008
 5166.00    0.57374   0.72496    0.008
 5167.00    0.59160   0.71323    0.008
 5168.00    0.72920   0.70241    0.008
 5169.00    0.78573   0.69475    0.008
 5170.00    0.68264   0.68958    0.008
 5171.00    0.60614   0.68708    0.008
 5172.00    0.57526   0.68547    0.008
 5173.00    0.64628   0.68388    0.008
 5174.00    0.87043   0.68550    0.008
 5175.00    0.92622   0.68989    0.008
 5176.00    0.75965   0.69524    0.008
 5177.00    0.66948   0.69943    0.008
 5178.00    0.66819   0.70365    0.008
 5179.00    0.63707   0.70826    0.008
 5180.00    0.57536   0.71118    0.007
 5181.00    0.55862   0.71401    0.007
 5182.00    0.58257   0.71621    0.007
 5183.00    0.58526   0.71802    0.007
 5184.00    0.57099   0.71899    0.007
 5185.00    0.60001   0.72057    0.007
 5186.00    0.65940   0.72549    0.007
 5187.00    0.73655   0.72992    0.007
 5188.00    0.82465   0.73465    0.007
 5189.00    0.81743   0.73838    0.007
 5190.00    0.75898   0.74234    0.000
 5191.00    0.68988   0.74765    0.000
 5192.00    0.61580   0.75114    0.000
 5193.00    0.57935   0.75480    0.000
 5194.00    0.55805   0.75926    0.000
 5195.00    0.63656   0.76405    0.000
 5196.00    0.74932   0.76641    0.000
 5197.00    0.67993   0.76827    0.000
 5198.00    0.55790   0.77031    0.000
 5199.00    0.52945   0.77037    0.000
 5200.00    0.52335   0.77016    0.000
 5201.00    0.64061   0.76952    0.000
 5202.00    0.78161   0.76802    0.000
 5203.00    0.80824   0.76567    0.000
 5204.00    0.81777   0.76363    0.000
 5205.00    0.73227   0.76143    0.000
 5206.00    0.63635   0.75900    0.000
 5207.00    0.63359   0.75767    0.000
 5208.00    0.63756   0.75842    0.000
 5209.00    0.59682   0.75832    0.000
 5210.00    0.55441   0.75987    0.000
 5211.00    0.68064   0.76372    0.008
 5212.00    0.80460   0.76754    0.008
 5213.00    0.81717   0.77273    0.008
 5214.00    0.81943   0.77714    0.008
 5215.00    0.65439   0.78216    0.008
 5216.00    0.50006   0.78536    0.008
 5217.00    0.45485   0.78821    0.008
 5218.00    0.45214   0.79135    0.008
 5219.00    0.75876   0.79295    0.008
 5220.00    0.97339   0.79425    0.008
 5221.00    0.67547   0.79324    0.008
 5222.00    0.46270   0.79250    0.008
 5223.00    0.62877   0.79075    0.008
 5224.00    0.76466   0.78795    0.008
 5225.00    0.79035   0.78566    0.008
 5226.00    0.81240   0.78280    0.008
 5227.00    0.82333   0.78087    0.008
 5228.00    0.81458   0.77948    0.008
 5229.00    0.75461   0.78091    0.008
 5230.00    0.72954   0.78399    0.008
 5231.00    0.78252   0.78585    0.008
 5232.00    0.82029   0.78929    0.008
 5233.00    0.82858   0.79253    0.008
 5234.00    0.81392   0.79550    0.008
 5235.00    0.76047   0.80060    0.008
 5236.00    0.78542   0.80587    0.008
 5237.00    0.92650   0.81171    0.008
 5238.00    0.98568   0.81641    0.007
 5239.00    0.93823   0.82001    0.007
 5240.00    0.93485   0.82267    0.007
 5241.00    0.98200   0.82331    0.007
 5242.00    0.86783   0.82490    0.007
 5243.00    0.59048   0.82545    0.007
 5244.00    0.42435   0.82446    0.007
 5245.00    0.35742   0.82381    0.007
 5246.00    0.49536   0.82218    0.007
 5247.00    0.79435   0.81944    0.008
 5248.00    0.94536   0.81570    0.008
 5249.00    0.99406   0.81306    0.008
 5250.00    0.97028   0.81185    0.007
 5251.00    0.90256   0.80921    0.007
 5252.00    0.82279   0.80782    0.008
 5253.00    0.73663   0.80718    0.008
 5254.00    0.71913   0.80530    0.008
 5255.00    0.73316   0.80310    0.007
 5256.00    0.75889   0.79967    0.008
 5257.00    0.78924   0.79742    0.008
 5258.00    0.80011   0.79398    0.008
 5259.00    0.80443   0.78901    0.008
 5260.00    0.84673   0.78331    0.008
 5261.00    0.89978   0.77619    0.008
 5262.00    0.82790   0.76827    0.008
 5263.00    0.72684   0.75825    0.008
 5264.00    0.67576   0.74941    0.008
 5265.00    0.63404   0.74245    0.008
 5266.00    0.57503   0.73637    0.008
 5267.00    0.51351   0.73074    0.008
 5268.00    0.54602   0.72784    0.008
 5269.00    0.58842   0.72638    0.008
 5270.00    0.75009   0.72466    0.008
 5271.00    0.91989   0.72641    0.008
 5272.00    0.87238   0.73229    0.008
 5273.00    0.81758   0.73972    0.008
 5274.00    0.74452   0.74591    0.008
 5275.00    0.67766   0.75370    0.008
 5276.00    0.81033   0.76156    0.008
 5277.00    0.93191   0.76856    0.008
 5278.00    0.88466   0.77739    0.008
 5279.00    0.82835   0.78685    0.008
 5280.00    0.68368   0.79531    0.008
 5281.00    0.56216   0.80153    0.008
 5282.00    0.60364   0.80719    0.008
 5283.00    0.64977   0.81291    0.008
 5284.00    0.72114   0.81831    0.008
 5285.00    0.78894   0.82366    0.008
 5286.00    0.84122   0.82950    0.008
 5287.00    0.87343   0.83411    0.008
 5288.00    0.83379   0.83711    0.008
 5289.00    0.80351   0.83901    0.008
 5290.00    0.80136   0.83998    0.008
 5291.00    0.81088   0.84048    0.008
 5292.00    0.85024   0.83966    0.008
 5293.00    0.87266   0.83904    0.008
 5294.00    0.85780   0.83733    0.008
 5295.00    0.84435   0.83455    0.008
 5296.00    0.83359   0.83177    0.008
 5297.00    0.80775   0.82877    0.008
 5298.00    0.75678   0.82667    0.008
 5299.00    0.72464   0.82511    0.007
 5300.00    0.71996   0.82574    0.007
 5301.00    0.72146   0.82704    0.007
 5302.00    0.73088   0.82818    0.007
 5303.00    0.70937   0.83078    0.007
 5304.00    0.65288   0.83409    0.007
 5305.00    0.67630   0.83815    0.007
 5306.00    0.77941   0.84196    0.007
 5307.00    0.74160   0.84545    0.007
 5308.00    0.57983   0.84844    0.007
 5309.00    0.55964   0.85071    0.007
 5310.00    0.64916   0.85243    0.007
 5311.00    0.74110   0.85339    0.007
 5312.00    0.83468   0.85350    0.007
 5313.00    0.79014   0.85232    0.007
 5314.00    0.66310   0.85011    0.007
 5315.00    0.72791   0.84703    0.007
 5316.00    0.89266   0.84373    0.007
 5317.00    0.81173   0.83918    0.007
 5318.00    0.61981   0.83363    0.007
 5319.00    0.50785   0.82903    0.007
 5320.00    0.42695   0.82351    0.007
 5321.00    0.54074   0.81717    0.007
 5322.00    0.71889   0.80972    0.007
 5323.00    0.80655   0.80335    0.007
 5324.00    0.86912   0.79812    0.007
 5325.00    0.86158   0.79232    0.007
 5326.00    0.83805   0.78841    0.007
 5327.00    0.57374   0.78488    0.007
 5328.00    0.26548   0.78204    0.007
 5329.00    0.45746   0.77906    0.007
 5330.00    0.71960   0.77909    0.007
 5331.00    0.69470   0.78216    0.007
 5332.00    0.64085   0.78480    0.007
 5333.00    0.54774   0.78754    0.007
 5334.00    0.45212   0.78922    0.007
 5335.00    0.53994   0.79255    0.007
 5336.00    0.63312   0.79643    0.007
 5337.00    0.68484   0.79955    0.007
 5338.00    0.73061   0.80291    0.007
 5339.00    0.60606   0.80488    0.007
 5340.00    0.50399   0.80618    0.007
 5341.00    0.72427   0.80689    0.007
 5342.00    0.92564   0.80764    0.007
 5343.00    0.94998   0.81028    0.007
 5344.00    0.95247   0.81203    0.007
 5345.00    0.80595   0.81385    0.007
 5346.00    0.65516   0.81591    0.007
 5347.00    0.48186   0.81747    0.007
 5348.00    0.38092   0.82138    0.007
 5349.00    0.58721   0.82491    0.007
 5350.00    0.73311   0.82867    0.007
 5351.00    0.66732   0.83341    0.007
 5352.00    0.61394   0.83785    0.007
 5353.00    0.59709   0.84258    0.007
 5354.00    0.60644   0.84588    0.007
 5355.00    0.68157   0.84922    0.007
 5356.00    0.76686   0.85223    0.007
 5357.00    0.87412   0.85368    0.007
 5358.00    0.93246   0.85436    0.007
 5359.00    0.89888   0.85347    0.007
 5360.00    0.87987   0.85193    0.007
 5361.00    0.88478   0.84893    0.007
 5362.00    0.83206   0.84515    0.007
 5363.00    0.69647   0.84034    0.007
 5364.00    0.69178   0.83490    0.007
 5365.00    0.85268   0.82956    0.007
 5366.00    0.86957   0.82367    0.007
 5367.00    0.72593   0.81981    0.007
 5368.00    0.60272   0.81575   -2.000
 5369.00    0.49960   0.81281   -2.000
 5370.00    0.48766   0.81038   -2.000
 5371.00    0.55480   0.80789   -2.000
 5372.00    0.71632   0.80766   -2.000
 5373.00    0.94994   0.80867   -2.000
 5374.00    1.01610   0.81191   -2.000
 5375.00    0.96981   0.81433   -2.000
 5376.00    0.84159   0.81657   -2.000
 5377.00    0.66518   0.81866   -2.000
 5378.00    0.57023   0.82053   -2.000
 5379.00    0.51707   0.82349   -2.000
 5380.00    0.51992   0.82559   -2.000
 5381.00    0.54767   0.82691   -2.000
 5382.00    0.61789   0.82686   -2.000
 5383.00    0.70432   0.82614    0.007
 5384.00    0.71624   0.82464    0.007
 5385.00    0.70400   0.82285    0.007
 5386.00    0.69330   0.82106    0.007
 5387.00    0.68302   0.81811    0.007
 5388.00    0.54537   0.81456    0.007
 5389.00    0.37935   0.81076    0.007
 5390.00    0.48290   0.80627    0.007
 5391.00    0.63433   0.80155    0.007
 5392.00    0.63497   0.79752    0.007
 5393.00    0.61514   0.79334    0.007
 5394.00    0.61850   0.78937    0.007
 5395.00    0.62411   0.78535    0.007
 5396.00    0.70047   0.78181    0.007
 5397.00    0.78108   0.77833    0.007
 5398.00    0.75067   0.77384    0.007
 5399.00    0.71757   0.77122    0.007
 5400.00    0.71651   0.76942    0.007
 5401.00    0.71921   0.76734    0.007
 5402.00    0.81896   0.76542    0.007
 5403.00    0.90574   0.76372    0.007
 5404.00    0.81670   0.76247    0.007
 5405.00    0.71534   0.76139    0.007
 5406.00    0.50326   0.76109    0.007
 5407.00    0.32498   0.76237    0.007
 5408.00    0.37015   0.76505    0.007
 5409.00    0.41816   0.76766    0.007
 5410.00    0.48077   0.77006    0.007
 5411.00    0.55825   0.77297    0.007
 5412.00    0.69745   0.77780    0.007
 5413.00    0.78810   0.78336    0.007
 5414.00    0.71203   0.78808    0.007
 5415.00    0.64991   0.79228    0.007
 5416.00    0.62818   0.79603    0.007
 5417.00    0.62466   0.79996    0.007
 5418.00    0.66615   0.80312    0.007
 5419.00    0.69972   0.80528    0.007
 5420.00    0.71644   0.80668    0.007
 5421.00    0.71743   0.80738    0.007
 5422.00    0.68935   0.80746    0.007
 5423.00    0.71241   0.80661    0.007
 5424.00    0.81812   0.80525    0.007
 5425.00    0.82623   0.80267    0.007
 5426.00    0.69598   0.80064    0.007
 5427.00    0.65676   0.79968    0.007
 5428.00    0.73104   0.79751    0.007
 5429.00    0.75190   0.79526    0.007
 5430.00    0.71404   0.79168    0.007
 5431.00    0.66310   0.78972    0.007
 5432.00    0.59946   0.79139    0.007
 5433.00    0.55346   0.79138    0.007
 5434.00    0.52255   0.79168    0.007
 5435.00    0.57098   0.79173    0.007
 5436.00    0.67916   0.79259    0.007
 5437.00    0.72161   0.79616    0.007
 5438.00    0.72057   0.79850    0.007
 5439.00    0.72301   0.80152    0.007
 5440.00    0.72747   0.80316    0.007
 5441.00    0.75452   0.80387    0.007
 5442.00    0.79297   0.80521    0.007
 5443.00    0.79989   0.80532    0.007
 5444.00    0.79303   0.80620    0.007
 5445.00    0.70649   0.80529    0.007
 5446.00    0.59009   0.80328    0.007
 5447.00    0.60693   0.80104    0.007
 5448.00    0.66616   0.79824    0.007
 5449.00    0.67204   0.79722    0.007
 5450.00    0.66373   0.79571    0.007
 5451.00    0.80188   0.79353    0.007
 5452.00    0.97190   0.79132    0.007
 5453.00    0.85276   0.78979    0.007
 5454.00    0.68368   0.78915    0.007
 5455.00    0.70594   0.78848    0.007
 5456.00    0.75329   0.78698    0.007
 5457.00    0.82596   0.78604    0.007
 5458.00    0.90096   0.78708    0.007
 5459.00    0.88170   0.78724    0.006
 5460.00    0.85715   0.78734    0.006
 5461.00    0.90250   0.78687    0.007
 5462.00    0.94726   0.78621    0.007
 5463.00    0.76734   0.78695    0.007
 5464.00    0.59995   0.78640    0.007
 5465.00    0.72640   0.78634    0.007
 5466.00    0.84220   0.78621    0.007
 5467.00    0.82116   0.78454    0.007
 5468.00    0.79118   0.78356    0.007
 5469.00    0.68377   0.78183    0.007
 5470.00    0.61156   0.77981    0.007
 5471.00    0.76502   0.77798    0.007
 5472.00    0.87839   0.77510    0.007
 5473.00    0.79078   0.77329    0.007
 5474.00    0.72588   0.77130    0.007
 5475.00    0.75312   0.76886    0.007
 5476.00    0.77915   0.76741    0.007
 5477.00    0.80111   0.76479    0.007
 5478.00    0.78074   0.76379   -2.000
 5479.00    0.64014   0.76476   -2.000
 5480.00    0.56920   0.76573   -2.000
 5481.00    0.66738   0.76676   -2.000
 5482.00    0.73850   0.76618   -2.000
 5483.00    0.75294   0.76719   -2.000
 5484.00    0.71652   0.77020   -2.000
 5485.00    0.58746   0.77332   -2.000
 5486.00    0.79547   0.77555   -2.000
 5487.00    1.53999   0.77641   -2.000
 5488.00    2.05695   0.77748   -2.000
 5489.00    2.25603   0.77894   -2.000
 5490.00    2.25400   0.78115   -2.000
 5491.00    2.00473   0.78238   -2.000
 5492.00    1.46525   0.78293   -2.000
 5493.00    0.61127   0.78309   -2.000
 5494.00    0.35128   0.78261   -2.000
 5495.00    0.65909   0.78297   -2.000
 5496.00    0.78999   0.78289   -2.000
 5497.00    0.77180   0.78227   -2.000
 5498.00    0.75796   0.78100   -2.000
 5499.00    0.74735   0.77981   -2.000
 5500.00    0.74398   0.77920   -2.000
 5501.00    0.74532   0.77814   -2.000
 5502.00    0.74181   0.77599    0.006
 5503.00    0.73555   0.77366    0.006
 5504.00    0.79031   0.77291    0.006
 5505.00    0.87539   0.77204    0.006
 5506.00    0.84312   0.77073    0.006
 5507.00    0.76044   0.76859    0.006
 5508.00    0.69511   0.76682    0.006
 5509.00    0.63618   0.76751    0.006
 5510.00    0.63143   0.76746    0.006
 5511.00    0.64358   0.76728    0.006
 5512.00    0.69519   0.76752    0.006
 5513.00    0.75706   0.76741    0.006
 5514.00    0.80241   0.76957    0.006
 5515.00    0.84425   0.77147    0.006
 5516.00    0.74941   0.77282    0.006
 5517.00    0.63163   0.77487    0.006
 5518.00    0.61779   0.77593    0.006
 5519.00    0.61710   0.77806    0.006
 5520.00    0.65261   0.78004    0.006
 5521.00    0.69132   0.78066    0.006
 5522.00    0.71897   0.78121    0.006
 5523.00    0.74604   0.78111    0.006
 5524.00    0.72848   0.78098    0.006
 5525.00    0.70990   0.78108    0.006
 5526.00    0.67694   0.78019    0.006
 5527.00    0.64725   0.77906    0.006
 5528.00    0.68796   0.77797    0.006
 5529.00    0.72553   0.77653    0.006
 5530.00    0.72495   0.77662    0.006
 5531.00    0.72943   0.77688    0.006
 5532.00    0.77614   0.77696    0.006
 5533.00    0.81414   0.77716    0.006
 5534.00    0.79801   0.77688    0.006
 5535.00    0.79813   0.77840    0.006
 5536.00    0.87768   0.78007    0.006
 5537.00    0.92465   0.78168    0.006
 5538.00    0.84224   0.78334    0.006
 5539.00    0.79679   0.78408    0.006
 5540.00    0.87332   0.78596    0.006
 5541.00    0.94112   0.78777    0.006
 5542.00    0.98460   0.78946    0.006
 5543.00    1.00606   0.79113    0.006
 5544.00    0.97499   0.79188    0.006
 5545.00    0.92932   0.79318    0.006
 5546.00    0.85359   0.79472    0.006
 5547.00    0.79226   0.79559    0.006
 5548.00    0.75677   0.79611    0.006
 5549.00    0.76987   0.79653    0.006
 5550.00    0.85918   0.79673    0.006
 5551.00    0.88949   0.79684    0.006
 5552.00    0.83858   0.79647    0.006
 5553.00    0.80268   0.79550    0.006
 5554.00    0.78498   0.79457    0.006
 5555.00    0.80074   0.79334    0.006
 5556.00    0.85227   0.79165    0.006
 5557.00    0.87973   0.79013    0.006
 5558.00    0.88451   0.78803    0.006
 5559.00    0.91880   0.78545    0.006
 5560.00    0.97760   0.78358    0.006
 5561.00    0.90815   0.78125    0.006
 5562.00    0.74490   0.77918    0.006
 5563.00    0.65116   0.77697    0.006
 5564.00    0.60209   0.77431    0.006
 5565.00    0.62746   0.77318    0.006
 5566.00    0.69467   0.77147    0.006
 5567.00    0.75640   0.77004    0.006
 5568.00    0.81546   0.76894    0.006
 5569.00    0.75902   0.76756    0.006
 5570.00    0.65378   0.76788    0.006
 5571.00    0.59420   0.76766    0.006
 5572.00    0.55115   0.76761    0.006
 5573.00    0.55949   0.76778    0.006
 5574.00    0.58356   0.76735    0.006
 5575.00    0.65297   0.76809    0.006
 5576.00    0.73394   0.76853    0.006
 5577.00    0.68821   0.76812    0.006
 5578.00    0.61624   0.76725    0.006
 5579.00    0.62918   0.76593    0.006
 5580.00    0.65598   0.76469    0.006
 5581.00    0.66481   0.76337    0.006
 5582.00    0.67144   0.76051    0.006
 5583.00    0.71809   0.75687    0.006
 5584.00    0.76811   0.75425    0.006
 5585.00    0.75793   0.75096    0.006
 5586.00    0.74484   0.74810    0.006
 5587.00    0.65737   0.74527    0.006
 5588.00    0.57185   0.74131    0.006
 5589.00    0.66791   0.73949    0.006
 5590.00    0.76133   0.73797    0.006
 5591.00    0.80231   0.73703    0.006
 5592.00    0.83731   0.73733    0.006
 5593.00    0.80302   0.73638    0.006
 5594.00    0.77330   0.73649    0.006
 5595.00    0.78030   0.73769    0.006
 5596.00    0.79780   0.73933    0.006
 5597.00    0.87876   0.74188    0.006
 5598.00    0.91355   0.74337    0.006
 5599.00    0.72821   0.74423    0.006
 5600.00    0.58316   0.74681    0.006
 5601.00    0.59457   0.74990    0.006
 5602.00    0.60656   0.75295    0.006
 5603.00    0.62036   0.75570    0.006
 5604.00    0.63087   0.75722    0.006
 5605.00    0.63233   0.76036    0.006
 5606.00    0.65370   0.76344    0.006
 5607.00    0.72177   0.76567    0.006
 5608.00    0.77620   0.76777    0.006
 5609.00    0.80293   0.76826    0.006
 5610.00    0.77712   0.76908    0.006
 5611.00    0.65850   0.76875    0.006
 5612.00    0.58421   0.76818    0.006
 5613.00    0.57841   0.76795    0.006
 5614.00    0.54621   0.76589    0.006
 5615.00    0.47816   0.76347    0.006
 5616.00    0.49286   0.76015    0.006
 5617.00    0.60641   0.75831    0.006
 5618.00    0.73219   0.75792    0.006
 5619.00    0.87085   0.75596    0.006
 5620.00    0.86031   0.75348    0.006
 5621.00    0.71112   0.75123    0.006
 5622.00    0.64182   0.75130    0.006
 5623.00    0.63795   0.75261    0.006
 5624.00    0.67910   0.75264    0.006
 5625.00    0.75272   0.75211    0.006
 5626.00    0.75744   0.75215    0.006
 5627.00    0.71856   0.75398    0.006
 5628.00    0.68599   0.75589    0.006
 5629.00    0.65690   0.75663    0.006
 5630.00    0.71900   0.75700    0.006
 5631.00    0.82499   0.75751    0.006
 5632.00    0.84508   0.75842    0.006
 5633.00    0.82951   0.75890    0.006
 5634.00    0.77037   0.75860    0.006
 5635.00    0.69576   0.75810    0.006
 5636.00    0.73949   0.75762    0.006
 5637.00    0.81873   0.75663    0.006
 5638.00    0.79594   0.75579    0.006
 5639.00    0.74773   0.75514    0.006
 5640.00    0.67434   0.75433    0.006
 5641.00    0.59586   0.75398    0.006
 5642.00    0.60807   0.75312    0.006
 5643.00    0.63463   0.75288    0.006
 5644.00    0.65873   0.75323    0.006
 5645.00    0.68253   0.75298    0.006
 5646.00    0.66692   0.75317    0.006
 5647.00    0.64816   0.75328    0.006
 5648.00    0.68631   0.75337    0.006
 5649.00    0.72698   0.75320    0.006
 5650.00    0.73013   0.75232    0.006
 5651.00    0.73314   0.75156    0.006
 5652.00    0.75017   0.75118    0.006
 5653.00    0.76207   0.75006    0.006
 5654.00    0.67957   0.74766    0.006
 5655.00    0.60607   0.74571    0.006
 5656.00    0.63214   0.74446    0.006
 5657.00    0.64490   0.74346    0.006
 5658.00    0.55433   0.74185    0.006
 5659.00    0.47559   0.73933    0.006
 5660.00    0.46633   0.73856    0.006
 5661.00    0.46866   0.73932    0.006
 5662.00    0.52486   0.73970    0.006
 5663.00    0.58186   0.73962    0.006
 5664.00    0.64192   0.73991    0.006
 5665.00    0.67676   0.74185    0.006
 5666.00    0.63157   0.74462    0.006
 5667.00    0.61024   0.74682    0.006
 5668.00    0.65308   0.74852    0.006
 5669.00    0.69777   0.75085    0.006
 5670.00    0.74672   0.75379    0.006
 5671.00    0.78676   0.75633    0.006
 5672.00    0.80896   0.75855    0.006
 5673.00    0.81324   0.76026    0.006
 5674.00    0.78635   0.76180    0.006
 5675.00    0.78086   0.76317    0.006
 5676.00    0.80795   0.76379    0.006
 5677.00    0.80627   0.76418    0.006
 5678.00    0.76609   0.76383    0.006
 5679.00    0.73103   0.76301    0.006
 5680.00    0.70200   0.76231    0.006
 5681.00    0.67519   0.76131    0.006
 5682.00    0.65070   0.76010    0.006
 5683.00    0.70272   0.75836    0.006
 5684.00    0.82485   0.75679    0.006
 5685.00    0.83619   0.75608    0.006
 5686.00    0.75806   0.75568    0.006
 5687.00    0.71249   0.75490    0.006
 5688.00    0.69007   0.75423    0.006
 5689.00    0.68476   0.75387    0.006
 5690.00    0.69013   0.75418    0.006
 5691.00    0.71243   0.75481    0.006
 5692.00    0.74396   0.75450    0.006
 5693.00    0.71363   0.75445    0.006
 5694.00    0.65400   0.75393    0.006
 5695.00    0.65795   0.75333    0.006
 5696.00    0.68786   0.75292    0.006
 5697.00    0.72105   0.75082    0.006
 5698.00    0.75539   0.74915    0.006
 5699.00    0.75644   0.74689    0.006
 5700.00    0.74771   0.74425    0.006
 5701.00    0.72347   0.74231    0.006
 5702.00    0.69544   0.73853    0.006
 5703.00    0.65724   0.73558    0.006
 5704.00    0.61704   0.73341    0.006
 5705.00    0.61103   0.73059    0.006
 5706.00    0.61029   0.72929    0.006
 5707.00    0.61304   0.72719    0.006
 5708.00    0.61619   0.72560    0.006
 5709.00    0.59804   0.72639    0.006
 5710.00    0.57827   0.72658    0.006
 5711.00    0.64336   0.72793    0.006
 5712.00    0.71191   0.73012    0.006
 5713.00    0.74450   0.73184    0.006
 5714.00    0.77530   0.73573    0.006
 5715.00    0.74391   0.73963    0.006
 5716.00    0.71762   0.74307    0.006
 5717.00    0.77914   0.74745    0.006
 5718.00    0.83147   0.75096    0.006
 5719.00    0.78656   0.75488    0.006
 5720.00    0.73930   0.75905    0.006
 5721.00    0.67439   0.76195    0.006
 5722.00    0.60777   0.76440    0.006
 5723.00    0.53140   0.76623    0.006
 5724.00    0.47278   0.76811    0.006
 5725.00    0.49476   0.76991    0.006
 5726.00    0.52826   0.77074    0.006
 5727.00    0.60462   0.77056    0.006
 5728.00    0.67743   0.77012    0.006
 5729.00    0.73920   0.77072    0.006
 5730.00    0.77759   0.77104    0.006
 5731.00    0.75418   0.77069    0.006
 5732.00    0.74112   0.76991    0.006
 5733.00    0.75152   0.76909    0.006
 5734.00    0.76295   0.76950    0.006
 5735.00    0.77639   0.76959    0.006
 5736.00    0.80975   0.76922    0.006
 5737.00    0.87723   0.76902    0.006
 5738.00    0.87747   0.76838    0.006
 5739.00    0.77683   0.76810    0.006
 5740.00    0.68059   0.76802    0.000
 5741.00    0.59014   0.76777    0.000
 5742.00    0.54378   0.76755    0.000
 5743.00    0.54863   0.76649    0.000
 5744.00    0.58526   0.76494    0.000
 5745.00    0.65444   0.76434    0.000
 5746.00    0.74429   0.76411    0.000
 5747.00    0.85283   0.76330    0.000
 5748.00    0.90494   0.76168    0.000
 5749.00    0.91214   0.75961    0.000
 5750.00    0.89254   0.75848    0.000
 5751.00    0.85419   0.75827    0.000
 5752.00    0.81631   0.75747    0.000
 5753.00    0.77872   0.75590    0.000
 5754.00    0.67953   0.75468    0.000
 5755.00    0.54728   0.75414    0.000
 5756.00    0.46598   0.75413    0.000
 5757.00    0.40841   0.75401    0.000
 5758.00    0.45192   0.75326    0.000
 5759.00    0.53601   0.75319    0.000
 5760.00    0.59821   0.75414    0.000
 5761.00    0.65292   0.75480    0.000
 5762.00    0.71255   0.75520    0.000
 5763.00    0.77359   0.75557    0.000
 5764.00    0.79919   0.75632    0.000
 5765.00    0.81634   0.75772    0.000
 5766.00    0.82053   0.75865    0.000
 5767.00    0.82222   0.75898    0.000
 5768.00    0.82085   0.75924    0.000
 5769.00    0.81902   0.75975    0.000
 5770.00    0.74423   0.75980    0.000
 5771.00    0.66149   0.75901    0.000
 5772.00    0.65789   0.75806    0.000
 5773.00    0.65997   0.75654    0.000
 5774.00    0.66417   0.75512    0.000
 5775.00    0.66844   0.75320    0.000
 5776.00    0.66394   0.74973    0.000
 5777.00    0.66071   0.74668    0.000
 5778.00    0.70385   0.74397    0.000
 5779.00    0.74088   0.74122    0.000
 5780.00    0.67941   0.73869    0.000
 5781.00    0.61895   0.73472    0.000
 5782.00    0.56884   0.73185    0.000
 5783.00    0.52924   0.73100    0.000
 5784.00    0.56581   0.72951    0.000
 5785.00    0.59452   0.72899    0.000
 5786.00    0.57960   0.72822    0.000
 5787.00    0.56872   0.72801    0.000
 5788.00    0.57576   0.73046    0.000
 5789.00    0.58973   0.73168    0.000
 5790.00    0.62898   0.73362    0.000
 5791.00    0.67229   0.73657   -2.000
 5792.00    0.72806   0.73853   -2.000
 5793.00    0.75632   0.74180   -2.000
 5794.00    0.71317   0.74402   -2.000
 5795.00    0.67106   0.74648   -2.000
 5796.00    0.63127   0.75013   -2.000
 5797.00    0.62146   0.75193   -2.000
 5798.00    0.66962   0.75402   -2.000
 5799.00    0.73146   0.75569   -2.000
 5800.00    0.81636   0.75667   -2.000
 5801.00    0.87216   0.75858   -2.000
 5802.00    0.88496   0.75924   -2.000
 5803.00    0.86058   0.75993   -2.000
 5804.00    0.78790   0.76075   -2.000
 5805.00    0.77411   0.76034   -2.000
 5806.00    0.82774   0.76069   -2.000
 5807.00    0.84482   0.76072   -2.000
 5808.00    0.82499   0.76039   -2.000
 5809.00    0.79859   0.76082   -2.000
 5810.00    0.76632   0.76047   -2.000
 5811.00    0.76635   0.76027    0.000
 5812.00    0.79173   0.76023    0.000
 5813.00    0.76934   0.76004    0.000
 5814.00    0.71399   0.76089    0.000
 5815.00    0.61822   0.76132    0.000
 5816.00    0.49799   0.76152    0.000
 5817.00    0.47142   0.76208    0.000
 5818.00    0.49433   0.76258    0.000
 5819.00    0.57037   0.76364    0.000
 5820.00    0.67078   0.76451    0.000
 5821.00    0.69015   0.76529    0.000
 5822.00    0.67756   0.76624    0.000
 5823.00    0.68805   0.76690    0.000
 5824.00    0.70630   0.76760    0.000
 5825.00    0.71803   0.76819    0.000
 5826.00    0.72791   0.76870    0.000
 5827.00    0.70586   0.76903    0.000
 5828.00    0.67638   0.76920    0.000
 5829.00    0.67754   0.76932    0.000
 5830.00    0.68441   0.76905    0.000
 5831.00    0.66308   0.76867    0.000
 5832.00    0.63767   0.76863    0.000
 5833.00    0.65381   0.76849    0.000
 5834.00    0.67431   0.76785    0.000
 5835.00    0.79395   0.76720    0.000
 5836.00    0.92031   0.76675    0.000
 5837.00    0.87781   0.76654    0.000
 5838.00    0.82972   0.76611    0.000
 5839.00    0.79373   0.76511    0.000
 5840.00    0.75903   0.76430    0.000
 5841.00    0.76507   0.76365    0.000
 5842.00    0.77364   0.76259    0.000
 5843.00    0.82048   0.76109    0.000
 5844.00    0.85730   0.75936    0.000
 5845.00    0.79689   0.75769    0.000
 5846.00    0.74103   0.75584    0.000
 5847.00    0.71711   0.75351    0.000
 5848.00    0.69138   0.75051    0.000
 5849.00    0.65586   0.74740    0.000
 5850.00    0.63262   0.74479    0.000
 5851.00    0.66254   0.74233    0.000
 5852.00    0.69543   0.73960    0.000
 5853.00    0.73891   0.73602    0.000
 5854.00    0.76090   0.73295    0.000
 5855.00    0.71854   0.73126    0.000
 5856.00    0.69458   0.72966    0.000
 5857.00    0.71758   0.72820    0.000
 5858.00    0.75366   0.72624    0.000
 5859.00    0.81846   0.72522    0.000
 5860.00    0.85307   0.72592    0.000
 5861.00    0.83021   0.72603    0.000
 5862.00    0.80302   0.72611    0.000
 5863.00    0.76867   0.72660    0.000
 5864.00    0.76561   0.72782    0.000
 5865.00    0.80815   0.72987    0.000
 5866.00    0.82918   0.73089    0.000
 5867.00    0.82265   0.73157    0.000
 5868.00    0.81307   0.73283    0.000
 5869.00    0.80006   0.73407    0.000
 5870.00    0.79286   0.73522    0.000
 5871.00    0.79145   0.73553    0.000
 5872.00    0.79333   0.73516    0.000
 5873.00    0.79809   0.73492    0.000
 5874.00    0.72948   0.73419    0.000
 5875.00    0.60411   0.73272    0.000
 5876.00    0.58480   0.73037    0.000
 5877.00    0.63760   0.72727    0.000
 5878.00    0.70568   0.72417    0.000
 5879.00    0.78285   0.72025    0.000
 5880.00    0.79486   0.71474    0.000
 5881.00    0.77299   0.70867    0.000
 5882.00    0.73113   0.70241    0.000
 5883.00    0.68027   0.69551    0.000
 5884.00    0.73813   0.68802    0.000
 5885.00    0.83813   0.67863    0.000
 5886.00    0.82487   0.66872    0.000
 5887.00    0.77424   0.66175    0.000
 5888.00    0.76856   0.65441    0.000
 5889.00    0.77530   0.64619    0.000
 5890.00    0.79553   0.63961    0.000
 5891.00    0.81882   0.63201    0.000
 5892.00    0.75365   0.62735    0.000
 5893.00    0.67239   0.62647    0.000
 5894.00    0.64527   0.62464    0.000
 5895.00    0.62572   0.62573    0.000
 5896.00    0.62816   0.62805    0.000
 5897.00    0.63282   0.63023    0.000
 5898.00    0.65723   0.63632    0.000
 5899.00    0.68290   0.64202    0.000
 5900.00    0.67561   0.64797    0.000
 5901.00    0.66752   0.65668    0.006
 5902.00    0.71854   0.66424    0.006
 5903.00    0.76856   0.67164    0.006
 5904.00    0.79029   0.67858    0.006
 5905.00    0.80896   0.68406    0.006
 5906.00    0.78402   0.69044    0.006
 5907.00    0.75436   0.69637    0.006
 5908.00    0.68086   0.70084    0.006
 5909.00    0.62169   0.70418    0.006
 5910.00    0.65988   0.70663    0.006
 5911.00    0.70633   0.70909    0.006
 5912.00    0.79626   0.71088    0.006
 5913.00    0.86323   0.71248    0.006
 5914.00    0.83301   0.71338    0.006
 5915.00    0.79805   0.71333    0.006
 5916.00    0.74652   0.71458    0.006
 5917.00    0.72033   0.71514    0.006
 5918.00    0.76864   0.71490    0.006
 5919.00    0.79522   0.71579    0.006
 5920.00    0.76732   0.71606    0.006
 5921.00    0.74750   0.71673    0.006
 5922.00    0.74510   0.71750    0.005
 5923.00    0.72505   0.71689    0.005
 5924.00    0.67190   0.71767    0.005
 5925.00    0.62794   0.71822    0.005
 5926.00    0.59903   0.71766    0.005
 5927.00    0.58722   0.71848    0.005
 5928.00    0.59996   0.71864    0.005
 5929.00    0.62671   0.71851    0.005
 5930.00    0.67116   0.71858    0.005
 5931.00    0.71278   0.71761    0.005
 5932.00    0.75125   0.71824    0.005
 5933.00    0.77183   0.71876    0.005
 5934.00    0.77486   0.71803    0.006
 5935.00    0.79149   0.71845    0.006
 5936.00    0.81991   0.71837    0.006
 5937.00    0.82602   0.71831    0.006
 5938.00    0.81512   0.71859    0.006
 5939.00    0.78221   0.71805    0.006
 5940.00    0.73454   0.71860    0.006
 5941.00    0.68550   0.71894    0.006
 5942.00    0.63567   0.71832    0.006
 5943.00    0.63857   0.71841    0.006
 5944.00    0.66847   0.71794    0.006
 5945.00    0.71430   0.71721    0.006
 5946.00    0.76720   0.71728    0.006
 5947.00    0.74278   0.71720    0.006
 5948.00    0.68890   0.71669    0.006
 5949.00    0.61683   0.71578    0.006
 5950.00    0.53888   0.71513    0.006
 5951.00    0.56356   0.71531    0.005
 5952.00    0.61604   0.71524    0.005
 5953.00    0.63766   0.71446    0.005
 5954.00    0.65243   0.71425    0.005
 5955.00    0.64781   0.71525    0.005
 5956.00    0.63977   0.71585    0.005
 5957.00    0.66430   0.71573    0.005
 5958.00    0.69323   0.71629    0.005
 5959.00    0.68961   0.71747    0.005
 5960.00    0.68286   0.71890    0.005
 5961.00    0.65751   0.71966    0.005
 5962.00    0.63105   0.72018    0.005
 5963.00    0.59627   0.72188    0.005
 5964.00    0.56155   0.72312    0.005
 5965.00    0.56760   0.72379    0.005
 5966.00    0.57556   0.72454    0.005
 5967.00    0.63252   0.72487    0.005
 5968.00    0.68501   0.72565    0.005
 5969.00    0.67734   0.72588    0.005
 5970.00    0.66793   0.72541    0.006
 5971.00    0.64297   0.72530    0.006
 5972.00    0.61883   0.72451    0.006
 5973.00    0.60013   0.72363    0.006
 5974.00    0.57898   0.72275    0.006
 5975.00    0.54526   0.72130    0.006
 5976.00    0.52512   0.72017    0.006
 5977.00    0.56112   0.71858    0.005
 5978.00    0.59137   0.71711    0.005
 5979.00    0.60191   0.71585    0.005
 5980.00    0.62242   0.71380    0.005
 5981.00    0.67169   0.71289    0.006
 5982.00    0.71494   0.71230    0.006
 5983.00    0.74335   0.71112    0.005
 5984.00    0.76471   0.71055    0.005
 5985.00    0.77110   0.70961    0.005
 5986.00    0.77354   0.70958    0.005
 5987.00    0.76872   0.70991    0.005
 5988.00    0.75941   0.70914    0.005
 5989.00    0.74289   0.70975    0.005
 5990.00    0.74210   0.71051    0.005
 5991.00    0.76359   0.71053    0.005
 5992.00    0.77085   0.71078    0.005
 5993.00    0.76041   0.71034    0.005
 5994.00    0.75798   0.71085    0.005
 5995.00    0.76434   0.71116    0.005
 5996.00    0.76738   0.71013    0.005
 5997.00    0.76721   0.71040    0.005
 5998.00    0.77018   0.70984    0.005
 5999.00    0.77581   0.70857    0.005
 6000.00    0.77808   0.70833    0.005
 6001.00    0.77783   0.70675    0.005
 6002.00    0.75181   0.70597    0.006
 6003.00    0.70877   0.70555    0.005
 6004.00    0.66049   0.70327    0.005
 6005.00    0.60918   0.70292    0.006
 6006.00    0.59158   0.70232    0.006
 6007.00    0.59096   0.70050    0.006
 6008.00    0.61055   0.70030    0.006
 6009.00    0.63896   0.69871    0.006
 6010.00    0.58863   0.69786    0.006
 6011.00    0.50884   0.69849    0.005
 6012.00    0.49881   0.69675    0.006
 6013.00    0.51093   0.69615    0.006
 6014.00    0.54517   0.69655    0.005
 6015.00    0.58528   0.69585    0.005
 6016.00    0.56471   0.69603    0.005
 6017.00    0.53099   0.69539    0.005
 6018.00    0.53027   0.69532    0.005
 6019.00    0.53522   0.69697    0.005
 6020.00    0.60538   0.69683    0.005
 6021.00    0.68406   0.69719    0.005
 6022.00    0.75125   0.69888    0.005
 6023.00    0.81737   0.69977    0.005
 6024.00    0.80309   0.70137    0.005
 6025.00    0.78432   0.70282    0.005
 6026.00    0.76101   0.70453    0.005
 6027.00    0.73840   0.70702    0.005
 6028.00    0.79467   0.70839    0.005
 6029.00    0.84694   0.71045    0.005
 6030.00    0.80656   0.71284    0.005
 6031.00    0.75924   0.71431    0.005
 6032.00    0.62331   0.71610    0.005
 6033.00    0.50344   0.71779    0.005
 6034.00    0.52198   0.71940    0.005
 6035.00    0.54517   0.72056    0.005
 6036.00    0.59811   0.72144    0.005
 6037.00    0.64099   0.72273    0.006
 6038.00    0.63361   0.72334    0.005
 6039.00    0.63134   0.72400    0.005
 6040.00    0.64974   0.72467    0.005
 6041.00    0.67731   0.72480    0.006
 6042.00    0.73566   0.72537    0.005
 6043.00    0.79499   0.72547    0.005
 6044.00    0.85714   0.72546    0.005
 6045.00    0.88519   0.72580    0.005
 6046.00    0.83063   0.72539    0.005
 6047.00    0.78640   0.72527    0.005
 6048.00    0.76376   0.72530    0.005
 6049.00    0.73865   0.72442    0.005
 6050.00    0.70904   0.72371    0.005
 6051.00    0.67635   0.72327    0.005
 6052.00    0.63874   0.72239    0.005
 6053.00    0.62611   0.72135    0.005
 6054.00    0.64830   0.72036    0.005
 6055.00    0.65297   0.71945    0.005
 6056.00    0.63613   0.71861    0.005
 6057.00    0.61905   0.71752    0.005
 6058.00    0.60171   0.71623    0.005
 6059.00    0.61332   0.71575    0.005
 6060.00    0.65254   0.71557    0.005
 6061.00    0.64233   0.71459    0.005
 6062.00    0.59053   0.71447    0.005
 6063.00    0.55629   0.71488    0.005
 6064.00    0.53504   0.71480    0.005
 6065.00    0.54612   0.71545    0.005
 6066.00    0.57824   0.71545    0.005
 6067.00    0.59945   0.71578    0.005
 6068.00    0.61444   0.71742    0.005
 6069.00    0.63872   0.71739    0.005
 6070.00    0.66759   0.71772    0.005
 6071.00    0.68725   0.71880    0.005
 6072.00    0.70295   0.71857    0.005
 6073.00    0.69704   0.71890    0.005
 6074.00    0.68319   0.71832    0.005
 6075.00    0.65134   0.71697    0.005
 6076.00    0.61389   0.71700    0.005
 6077.00    0.63809   0.71562    0.005
 6078.00    0.67828   0.71364    0.005
 6079.00    0.71800   0.71251    0.005
 6080.00    0.75761   0.71053    0.005
 6081.00    0.80325   0.70920    0.005
 6082.00    0.84989   0.70753    0.005
 6083.00    0.84339   0.70485    0.005
 6084.00    0.83020   0.70430    0.005
 6085.00    0.74911   0.70346    0.005
 6086.00    0.66206   0.70110    0.005
 6087.00    0.59935   0.70046    0.005
 6088.00    0.53790   0.70021    0.005
 6089.00    0.50509   0.69936    0.005
 6090.00    0.47403   0.69881    0.005
 6091.00    0.53297   0.69821    0.005
 6092.00    0.59288   0.69825    0.005
 6093.00    0.67334   0.69834    0.005
 6094.00    0.74821   0.69763    0.005
 6095.00    0.75538   0.69701    0.005
 6096.00    0.76668   0.69711    0.005
 6097.00    0.81215   0.69734    0.006
 6098.00    0.85803   0.69626    0.006
 6099.00    0.90649   0.69588    0.005
 6100.00    0.93867   0.69638    0.005
 6101.00    0.89149   0.69540    0.005
 6102.00    0.84540   0.69559    0.005
 6103.00    0.80360   0.69552    0.005
 6104.00    0.76873   0.69432    0.005
 6105.00    0.75667   0.69594    0.005
 6106.00    0.74647   0.69593    0.005
 6107.00    0.74148   0.69480    0.005
 6108.00    0.73739   0.69686    0.005
 6109.00    0.73546   0.69695    0.005
 6110.00    0.72108   0.69701    0.005
 6111.00    0.68112   0.69849    0.005
 6112.00    0.68093   0.69721    0.005
 6113.00    0.75192   0.69762    0.005
 6114.00    0.82104   0.69858    0.005
 6115.00    0.88721   0.69633    0.005
 6116.00    0.90745   0.69636    0.005
 6117.00    0.86455   0.69647    0.005
 6118.00    0.80350   0.69430    0.005
 6119.00    0.72050   0.69414    0.005
 6120.00    0.65547   0.69278    0.005
 6121.00    0.60960   0.69067    0.005
 6122.00    0.58765   0.69082    0.005
 6123.00    0.58822   0.68896    0.005
 6124.00    0.64837   0.68744    0.005
 6125.00    0.75793   0.68784    0.005
 6126.00    0.82022   0.68595    0.005
 6127.00    0.84799   0.68495    0.005
 6128.00    0.78909   0.68538    0.005
 6129.00    0.67461   0.68374    0.005
 6130.00    0.62295   0.68222    0.005
 6131.00    0.60652   0.68196    0.005
 6132.00    0.61157   0.68107    0.005
 6133.00    0.62710   0.67981    0.005
 6134.00    0.64077   0.67891    0.005
 6135.00    0.65365   0.67800    0.005
 6136.00    0.69761   0.67783    0.005
 6137.00    0.75279   0.67748    0.005
 6138.00    0.77530   0.67607    0.005
 6139.00    0.78784   0.67645    0.005
 6140.00    0.80203   0.67737    0.005
 6141.00    0.81664   0.67676    0.005
 6142.00    0.84170   0.67736    0.005
 6143.00    0.86892   0.67888    0.005
 6144.00    0.85462   0.68006    0.005
 6145.00    0.83357   0.68061    0.005
 6146.00    0.73758   0.68058    0.005
 6147.00    0.63248   0.68138    0.005
 6148.00    0.61548   0.68183    0.005
 6149.00    0.60585   0.68126    0.005
 6150.00    0.67186   0.68051    0.005
 6151.00    0.74150   0.67947    0.005
 6152.00    0.76820   0.67840    0.005
 6153.00    0.79399   0.67634    0.005
 6154.00    0.80276   0.67337    0.005
 6155.00    0.81146   0.67079    0.005
 6156.00    0.81873   0.66790    0.005
 6157.00    0.81668   0.66503    0.005
 6158.00    0.70712   0.66178    0.005
 6159.00    0.61537   0.65753    0.005
 6160.00    0.66615   0.65502    0.006
 6161.00    0.71368   0.65285    0.006
 6162.00    0.74172   0.64851    0.005
 6163.00    0.74994   0.64603    0.005
 6164.00    0.66396   0.64547    0.005
 6165.00    0.59451   0.64340    0.005
 6166.00    0.58909   0.64184    0.005
 6167.00    0.58250   0.64182    0.005
 6168.00    0.57212   0.64263    0.005
 6169.00    0.55686   0.64385    0.005
 6170.00    0.52822   0.64387    0.005
 6171.00    0.52708   0.64528    0.005
 6172.00    0.59032   0.64851    0.005
 6173.00    0.64095   0.64929    0.005
 6174.00    0.66606   0.65024    0.005
 6175.00    0.65939   0.65371    0.005
 6176.00    0.59671   0.65594    0.005
 6177.00    0.54220   0.65719    0.005
 6178.00    0.50030   0.65882    0.005
 6179.00    0.48244   0.66035    0.005
 6180.00    0.49715   0.66179    0.005
 6181.00    0.54541   0.66166    0.005
 6182.00    0.63370   0.66205    0.005
 6183.00    0.66821   0.66348    0.005
 6184.00    0.64617   0.66188    0.005
 6185.00    0.60666   0.66097    0.005
 6186.00    0.55095   0.66204    0.005
 6187.00    0.56971   0.66025    0.005
 6188.00    0.64938   0.65913    0.006
 6189.00    0.69178   0.65909    0.006
 6190.00    0.70737   0.65769    0.005
 6191.00    0.64968   0.65776    0.005
 6192.00    0.54571   0.65678    0.005
 6193.00    0.50628   0.65586    0.005
 6194.00    0.50251   0.65783    0.005
 6195.00    0.78284   0.65719    0.005
 6196.00    1.19958   0.65669   -2.000
 6197.00    1.73310   0.65918   -2.000
 6198.00    2.31502   0.65964   -2.000
 6199.00    2.40422   0.66011   -2.000
 6200.00    2.31877   0.66135   -2.000
 6201.00    1.79562   0.66163   -2.000
 6202.00    1.14148   0.66291   -2.000
 6203.00    0.71061   0.66298   -2.000
 6204.00    0.33520   0.66226   -2.000
 6205.00    0.25712   0.66315   -2.000
 6206.00    0.23891   0.66250   -2.000
 6207.00    0.40055   0.66122   -2.000
 6208.00    0.59056   0.66054    0.006
 6209.00    0.69549   0.65846    0.006
 6210.00    0.79045   0.65707    0.006
 6211.00    0.78500   0.65539    0.005
 6212.00    0.77157   0.65228    0.005
 6213.00    0.70778   0.65065    0.005
 6214.00    0.64178   0.64830    0.005
 6215.00    0.62431   0.64544    0.005
 6216.00    0.60809   0.64430    0.005
 6217.00    0.62544   0.64163    0.005
 6218.00    0.64239   0.63956    0.005
 6219.00    0.65181   0.63911    0.005
 6220.00    0.66333   0.63683    0.005
 6221.00    0.69797   0.63609    0.005
 6222.00    0.72673   0.63627    0.005
 6223.00    0.70999   0.63420    0.005
 6224.00    0.69682   0.63382    0.005
 6225.00    0.70450   0.63397    0.005
 6226.00    0.71619   0.63293    0.005
 6227.00    0.74650   0.63339    0.005
 6228.00    0.77530   0.63293    0.005
 6229.00    0.79834   0.63214    0.005
 6230.00    0.80917   0.63280    0.005
 6231.00    0.78136   0.63193    0.005
 6232.00    0.74203   0.63147    0.005
 6233.00    0.67179   0.63192    0.005
 6234.00    0.62259   0.63080    0.005
 6235.00    0.62185   0.63045    0.005
 6236.00    0.62856   0.63050    0.005
 6237.00    0.65013   0.62988    0.005
 6238.00    0.67490   0.62976    0.005
 6239.00    0.70520   0.62911    0.005
 6240.00    0.74953   0.62868    0.005
 6241.00    0.81516   0.62793    0.005
 6242.00    0.84196   0.62682    0.005
 6243.00    0.81691   0.62681    0.005
 6244.00    0.77263   0.62528    0.005
 6245.00    0.70573   0.62424    0.005
 6246.00    0.65060   0.62478    0.005
 6247.00    0.60768   0.62276    0.005
 6248.00    0.57557   0.62173    0.005
 6249.00    0.55333   0.62241    0.005
 6250.00    0.54512   0.62063    0.005
 6251.00    0.54823   0.61961    0.005
 6252.00    0.55810   0.62005    0.005
 6253.00    0.57276   0.61914    0.005
 6254.00    0.62889   0.61846    0.005
 6255.00    0.71082   0.61859    0.005
 6256.00    0.77297   0.61845    0.005
 6257.00    0.82437   0.61852    0.005
 6258.00    0.96303   0.61910    0.005
 6259.00    1.14293   0.62000    0.006
 6260.00    1.33193   0.62114    0.006
 6261.00    1.52464   0.62270    0.007
 6262.00    1.44674   0.62388    0.007
 6263.00    1.27467   0.62537    0.007
 6264.00    0.99370   0.62818    0.007
 6265.00    0.68079   0.62999    0.007
 6266.00    0.45158   0.63120    0.006
 6267.00    0.24271   0.63370    0.006
 6268.00    0.26760   0.63586    0.006
 6269.00    0.33837   0.63658    0.005
 6270.00    0.46455   0.63782    0.005
 6271.00    0.59921   0.64009    0.005
 6272.00    0.65340   0.64101    0.005
 6273.00    0.69851   0.64120    0.005
 6274.00    0.67133   0.64269    0.005
 6275.00    0.63872   0.64332    0.005
 6276.00    0.63977   0.64353    0.005
 6277.00    0.64217   0.64486    0.005
 6278.00    0.63038   0.64477    0.005
 6279.00    0.61904   0.64507    0.005
 6280.00    0.63040   0.64629    0.000
 6281.00    0.64080   0.64584    0.000
 6282.00    0.63508   0.64660    0.000
 6283.00    0.62762   0.64754    0.000
 6284.00    0.60199   0.64687    0.000
 6285.00    0.57948   0.64783    0.000
 6286.00    0.58026   0.64816    0.000
 6287.00    0.57424   0.64784    0.000
 6288.00    0.52950   0.64877    0.000
 6289.00    0.49349   0.64805    0.000
 6290.00    0.49698   0.64757    0.000
 6291.00    0.51024   0.64766    0.000
 6292.00    0.55979   0.64643    0.000
 6293.00    0.59201   0.64614    0.000
 6294.00    0.57043   0.64513    0.000
 6295.00    0.55859   0.64339    0.000
 6296.00    0.57242   0.64313    0.000
 6297.00    0.59148   0.64189    0.000
 6298.00    0.62240   0.64058    0.000
 6299.00    0.63891   0.64049    0.000
 6300.00    0.62715   0.63945    0.000
 6301.00    0.62834   0.63860    0.000
 6302.00    0.65165   0.63850    0.000
 6303.00    0.68179   0.63828    0.000
 6304.00    0.72214   0.63832    0.000
 6305.00    0.74601   0.63805    0.000
 6306.00    0.74819   0.63788    0.000
 6307.00    0.72684   0.63822    0.000
 6308.00    0.67819   0.63811    0.000
 6309.00    0.62993   0.63803    0.000
 6310.00    0.58205   0.63783    0.000
 6311.00    0.57284   0.63747    0.000
 6312.00    0.59850   0.63744    0.000
 6313.00    0.62479   0.63679    0.000
 6314.00    0.65156   0.63633    0.000
 6315.00    0.65814   0.63623    0.000
 6316.00    0.65060   0.63524    0.000
 6317.00    0.64428   0.63545    0.000
 6318.00    0.63873   0.63607    0.000
 6319.00    0.63977   0.63507    0.000
 6320.00    0.64435   0.63561    0.000
 6321.00    0.61410   0.63725    0.005
 6322.00    0.56767   0.63701    0.005
 6323.00    0.52552   0.63747    0.005
 6324.00    0.48509   0.63953    0.005
 6325.00    0.45995   0.64021    0.005
 6326.00    0.44003   0.64037    0.005
 6327.00    0.45571   0.64190    0.005
 6328.00    0.48164   0.64257    0.005
 6329.00    0.52442   0.64242    0.005
 6330.00    0.57122   0.64341    0.005
 6331.00    0.61558   0.64317    0.005
 6332.00    0.65948   0.64259    0.005
 6333.00    0.64536   0.64310    0.005
 6334.00    0.62264   0.64201    0.005
 6335.00    0.57696   0.64128    0.005
 6336.00    0.52879   0.64132    0.005
 6337.00    0.57180   0.63995    0.005
 6338.00    0.62130   0.63971    0.005
 6339.00    0.63115   0.63944    0.005
 6340.00    0.63955   0.63776    0.005
 6341.00    0.64050   0.63813    0.005
 6342.00    0.64091   0.63842    0.005
 6343.00    0.62360   0.63717    0.005
 6344.00    0.60614   0.63756    0.005
 6345.00    0.58637   0.63766    0.005
 6346.00    0.57243   0.63719    0.005
 6347.00    0.61720   0.63746    0.005
 6348.00    0.65753   0.63652    0.005
 6349.00    0.66581   0.63630    0.005
 6350.00    0.66854   0.63659    0.005
 6351.00    0.64064   0.63492    0.005
 6352.00    0.62266   0.63415    0.005
 6353.00    0.64858   0.63382    0.005
 6354.00    0.67949   0.63191    0.005
 6355.00    0.72850   0.63072    0.005
 6356.00    0.77228   0.62959    0.005
 6357.00    0.80010   0.62794    0.005
 6358.00    0.81335   0.62700    0.005
 6359.00    0.78885   0.62550    0.005
 6360.00    0.74571   0.62446    0.005
 6361.00    0.66104   0.62468    0.005
 6362.00    0.59703   0.62393    0.005
 6363.00    0.57292   0.62364    0.005
 6364.00    0.59183   0.62505    0.005
 6365.00    0.68322   0.62575    0.005
 6366.00    0.73662   0.62657    0.005
 6367.00    0.73399   0.62865    0.005
 6368.00    0.72302   0.63033    0.005
 6369.00    0.70123   0.63223    0.005
 6370.00    0.68416   0.63453    0.005
 6371.00    0.67247   0.63621    0.005
 6372.00    0.65439   0.63841    0.005
 6373.00    0.62987   0.64051    0.005
 6374.00    0.61955   0.64159    0.005
 6375.00    0.62185   0.64316    0.005
 6376.00    0.61076   0.64464    0.005
 6377.00    0.58918   0.64533    0.005
 6378.00    0.56466   0.64622    0.005
 6379.00    0.53810   0.64659    0.005
 6380.00    0.53045   0.64678    0.005
 6381.00    0.53421   0.64740    0.005
 6382.00    0.54144   0.64698    0.005
 6383.00    0.55049   0.64649    0.005
 6384.00    0.57576   0.64687    0.005
 6385.00    0.60845   0.64627    0.005
 6386.00    0.61713   0.64543    0.005
 6387.00    0.61635   0.64550    0.005
 6388.00    0.60274   0.64488    0.005
 6389.00    0.58483   0.64371    0.005
 6390.00    0.60887   0.64334    0.005
 6391.00    0.64472   0.64291    0.005
 6392.00    0.67576   0.64176    0.005
 6393.00    0.70569   0.64124    0.005
 6394.00    0.65909   0.64084    0.005
 6395.00    0.59823   0.63973    0.005
 6396.00    0.57715   0.63962    0.005
 6397.00    0.56180   0.63919    0.005
 6398.00    0.61748   0.63777    0.005
 6399.00    0.68057   0.63861    0.005
 6400.00    0.70444   0.63882    0.005
 6401.00    0.72567   0.63689    0.005
 6402.00    0.68177   0.63817    0.005
 6403.00    0.63574   0.63890    0.005
 6404.00    0.60929   0.63661    0.005
 6405.00    0.58358   0.63781    0.005
 6406.00    0.58075   0.63875    0.005
 6407.00    0.57876   0.63684    0.005
 6408.00    0.58919   0.63768    0.005
 6409.00    0.59853   0.63792    0.005
 6410.00    0.59740   0.63687    0.005
 6411.00    0.59264   0.63758    0.005
 6412.00    0.56258   0.63668    0.005
 6413.00    0.53770   0.63633    0.005
 6414.00    0.54078   0.63748    0.005
 6415.00    0.55592   0.63609    0.005
 6416.00    0.62318   0.63590    0.005
 6417.00    0.67494   0.63735    0.005
 6418.00    0.67154   0.63638    0.005
 6419.00    0.65738   0.63627    0.005
 6420.00    0.61102   0.63747    0.005
 6421.00    0.58054   0.63721    0.005
 6422.00    0.59046   0.63730    0.005
 6423.00    0.62084   0.63804    0.005
 6424.00    0.69602   0.63833    0.005
 6425.00    0.73832   0.63839    0.005
 6426.00    0.71814   0.63854    0.005
 6427.00    0.69027   0.63938    0.005
 6428.00    0.64964   0.63938    0.005
 6429.00    0.63165   0.63886    0.005
 6430.00    0.64657   0.63996    0.005
 6431.00    0.65106   0.63998    0.005
 6432.00    0.64220   0.63916    0.005
 6433.00    0.61335   0.64019    0.005
 6434.00    0.56198   0.64006    0.005
 6435.00    0.53947   0.63946    0.005
 6436.00    0.54562   0.64046    0.005
 6437.00    0.59179   0.64015    0.005
 6438.00    0.67303   0.64011    0.005
 6439.00    0.71915   0.64087    0.005
 6440.00    0.73814   0.64029    0.005
 6441.00    0.72151   0.64088    0.005
 6442.00    0.68071   0.64105    0.005
 6443.00    0.64421   0.63979    0.005
 6444.00    0.61026   0.64050    0.005
 6445.00    0.59433   0.64026    0.005
 6446.00    0.58773   0.63873    0.005
 6447.00    0.63184   0.63898    0.005
 6448.00    0.69875   0.63832    0.005
 6449.00    0.74720   0.63724    0.008
 6450.00    0.78850   0.63696    0.042
 6451.00    0.85184   0.63583   -1.000
 6452.00    0.92244   0.63556   -1.000
 6453.00    1.05274   0.63523   -1.000
 6454.00    1.19951   0.63404   -1.000
 6455.00    1.20556   0.63454   -1.000
 6456.00    1.17970   0.63459   -1.000
 6457.00    1.02982   0.63359   -1.000
 6458.00    0.85744   0.63439   -1.000
 6459.00    0.72310   0.63514   -1.000
 6460.00    0.59404   0.63465   -1.000
 6461.00    0.56904   0.63515   -1.000
 6462.00    0.55443   0.63618   -1.000
 6463.00    0.53927   0.63588    0.011
 6464.00    0.52407   0.63597    0.005
 6465.00    0.53428   0.63740    0.005
 6466.00    0.54527   0.63730    0.005
 6467.00    0.56969   0.63680    0.005
 6468.00    0.59275   0.63821    0.005
 6469.00    0.57811   0.63818    0.005
 6470.00    0.56228   0.63716    0.005
 6471.00    0.52977   0.63831    0.005
 6472.00    0.49746   0.63856    0.005
 6473.00    0.46696   0.63730    0.005
 6474.00    0.44602   0.63766    0.005
 6475.00    0.48975   0.63766    0.006
 6476.00    0.52110   0.63614    0.006
 6477.00    0.48748   0.63582    0.006
 6478.00    0.45366   0.63547    0.006
 6479.00    0.41900   0.63365    0.006
 6480.00    0.40150   0.63262    0.005
 6481.00    0.44391   0.63192    0.005
 6482.00    0.49797   0.62982    0.005
 6483.00    0.58623   0.62775    0.005
 6484.00    0.66504   0.62648    0.005
 6485.00    0.72021   0.62432    0.005
 6486.00    0.75250   0.62136    0.005
 6487.00    0.73551   0.61924    0.005
 6488.00    0.71278   0.61700    0.005
 6489.00    0.67928   0.61348    0.005
 6490.00    0.66419   0.61081    0.005
 6491.00    0.67916   0.60878    0.005
 6492.00    0.69193   0.60550    0.005
 6493.00    0.70154   0.60322    0.005
 6494.00    0.70485   0.60174    0.005
 6495.00    0.70021   0.59921    0.005
 6496.00    0.70471   0.59835    0.005
 6497.00    0.71936   0.59820    0.005
 6498.00    0.72179   0.59698    0.005
 6499.00    0.71226   0.59800    0.005
 6500.00    0.67379   0.59946    0.005
 6501.00    0.61033   0.59976    0.005
 6502.00    0.57556   0.60213    0.005
 6503.00    0.56263   0.60456    0.005
 6504.00    0.56034   0.60629    0.005
 6505.00    0.56516   0.60935    0.005
 6506.00    0.58001   0.61164    0.005
 6507.00    0.60076   0.61357    0.005
 6508.00    0.64093   0.61622    0.005
 6509.00    0.69102   0.61796    0.005
 6510.00    0.71170   0.61935    0.005
 6511.00    0.71937   0.62094    0.005
 6512.00    0.66496   0.62200    0.005
 6513.00    0.58697   0.62264    0.005
 6514.00    0.57169   0.62325    0.005
 6515.00    0.57665   0.62387    0.005
 6516.00    0.59928   0.62384    0.005
 6517.00    0.62668   0.62381    0.005
 6518.00    0.61058   0.62444    0.005
 6519.00    0.58484   0.62412    0.005
 6520.00    0.51738   0.62376    0.005
 6521.00    0.44255   0.62444    0.005
 6522.00    0.41398   0.62412    0.005
 6523.00    0.39162   0.62369    0.005
 6524.00    0.47428   0.62431    0.005
 6525.00    0.56697   0.62407    0.005
 6526.00    0.59012   0.62379    0.005
 6527.00    0.60915   0.62416    0.006
 6528.00    0.60072   0.62396    0.000
 6529.00    0.59156   0.62390    0.000
 6530.00    0.57682   0.62387    0.000
 6531.00    0.56408   0.62354    0.000
 6532.00    0.60162   0.62358    0.000
 6533.00    0.63660   0.62325    0.000
 6534.00    0.63721   0.62272    0.000
 6535.00    0.64041   0.62250    0.000
 6536.00    0.66669   0.62188    0.000
 6537.00    0.70113   0.62122    0.000
 6538.00    0.78914   0.62043    0.000
 6539.00    0.85856   0.61926    0.000
 6540.00    0.83299   0.61829    0.000
 6541.00    0.79960   0.61674    0.000
 6542.00    0.73389   0.61494    0.000
 6543.00    0.67965   0.61346    0.000
 6544.00    0.66459   0.61099    0.000
 6545.00    0.64665   0.60848    0.000
 6546.00    0.62044   0.60631    0.000
 6547.00    0.60854   0.60296    0.000
 6548.00    0.63188   0.59979    0.000
 6549.00    0.65108   0.59665    0.000
 6550.00    0.66153   0.59243    0.000
 6551.00    0.67865   0.58873    0.000
 6552.00    0.70808   0.58458    0.000
 6553.00    0.74019   0.57965    0.000
 6554.00    0.77664   0.57556    0.000
 6555.00    0.80148   0.57061    0.000
 6556.00    0.80992   0.56572    0.000
 6557.00    0.84762   0.56173    0.000
 6558.00    0.92169   0.55653    0.000
 6559.00    1.00525   0.55274    0.000
 6560.00    1.09922   0.54984    0.000
 6561.00    1.13440   0.54536    0.000
 6562.00    1.11277   0.54377    0.000
 6563.00    1.01776   0.54294    0.000
 6564.00    0.86025   0.54014    0.000
 6565.00    0.72460   0.54140    0.000
 6566.00    0.60535   0.54313    0.000
 6567.00    0.56550   0.54223    0.000
 6568.00    0.57799   0.54602    0.000
 6569.00    0.58934   0.54999    0.000
 6570.00    0.60003   0.55054    0.000
 6571.00    0.62438   0.55555    0.000
 6572.00    0.65560   0.56089    0.000
 6573.00    0.69184   0.56223    0.000
 6574.00    0.73026   0.56705    0.000
 6575.00    0.73821   0.57270    0.000
 6576.00    0.73478   0.57446    0.000
 6577.00    0.73429   0.57820    0.000
 6578.00    0.73471   0.58278    0.000
 6579.00    0.71324   0.58427    0.000
 6580.00    0.68598   0.58703    0.000
 6581.00    0.71049   0.59036    0.000
 6582.00    0.74619   0.59125    0.000
 6583.00    0.75686   0.59315    0.000
 6584.00    0.76324   0.59520    0.000
 6585.00    0.71595   0.59531    0.000
 6586.00    0.66167   0.59653    0.000
 6587.00    0.63963   0.59761    0.000
 6588.00    0.62052   0.59705    0.000
 6589.00    0.61438   0.59768    0.000
 6590.00    0.60895   0.59809    0.000
 6591.00    0.56043   0.59713    0.000
 6592.00    0.51169   0.59748    0.000
 6593.00    0.52925   0.59774    0.000
 6594.00    0.54727   0.59675    0.000
 6595.00    0.57581   0.59708    0.000
 6596.00    0.60493   0.59747    0.000
 6597.00    0.64136   0.59665    0.000
 6598.00    0.67464   0.59709    0.000
 6599.00    0.68103   0.59778    0.000
 6600.00    0.67396   0.59719    0.000
 6601.00    0.58122   0.59764    0.000
 6602.00    0.50437   0.59848    0.000
 6603.00    0.50661   0.59810    0.000
 6604.00    0.51471   0.59847    0.000
 6605.00    0.54647   0.59936    0.000
 6606.00    0.57057   0.59930    0.000
 6607.00    0.56903   0.59960    0.000
 6608.00    0.58102   0.60035    0.000
 6609.00    0.63127   0.60056    0.005
 6610.00    0.66878   0.60094    0.005
 6611.00    0.67547   0.60164    0.005
 6612.00    0.67387   0.60204    0.005
 6613.00    0.65497   0.60250    0.005
 6614.00    0.63721   0.60307    0.005
 6615.00    0.62155   0.60349    0.005
 6616.00    0.62714   0.60391    0.005
 6617.00    0.66645   0.60413    0.005
 6618.00    0.69172   0.60432    0.005
 6619.00    0.69743   0.60446    0.005
 6620.00    0.69589   0.60413    0.005
 6621.00    0.68545   0.60393    0.005
 6622.00    0.70803   0.60367    0.005
 6623.00    0.76626   0.60270    0.005
 6624.00    0.81403   0.60212    0.005
 6625.00    0.85183   0.60150    0.005
 6626.00    0.83661   0.60005    0.005
 6627.00    0.77686   0.59932    0.005
 6628.00    0.70543   0.59851    0.005
 6629.00    0.62537   0.59688    0.005
 6630.00    0.55300   0.59632    0.005
 6631.00    0.48564   0.59562    0.005
 6632.00    0.42634   0.59404    0.005
 6633.00    0.37162   0.59382    0.005
 6634.00    0.37579   0.59351    0.005
 6635.00    0.40909   0.59218    0.005
 6636.00    0.46764   0.59228    0.005
 6637.00    0.53699   0.59242    0.005
 6638.00    0.56974   0.59141    0.005
 6639.00    0.58907   0.59171    0.005
 6640.00    0.57401   0.59226    0.005
 6641.00    0.54827   0.59151    0.005
 6642.00    0.53980   0.59183    0.005
 6643.00    0.53581   0.59254    0.005
 6644.00    0.56329   0.59198    0.005
 6645.00    0.59740   0.59222    0.005
 6646.00    0.59516   0.59286    0.005
 6647.00    0.58685   0.59239    0.005
 6648.00    0.56052   0.59248    0.005
 6649.00    0.53193   0.59285    0.005
 6650.00    0.56764   0.59240    0.005
 6651.00    0.60895   0.59232    0.005
 6652.00    0.63110   0.59220    0.005
 6653.00    0.65227   0.59169    0.005
 6654.00    0.67366   0.59148    0.005
 6655.00    0.69400   0.59083    0.005
 6656.00    0.63953   0.59017    0.005
 6657.00    0.58605   0.58992    0.005
 6658.00    0.55334   0.58884    0.005
 6659.00    0.52605   0.58809    0.005
 6660.00    0.56411   0.58796    0.005
 6661.00    0.59370   0.58669    0.005
 6662.00    0.55336   0.58596    0.005
 6663.00    0.51113   0.58610    0.005
 6664.00    0.45726   0.58492    0.005
 6665.00    0.41331   0.58435    0.005
 6666.00    0.41756   0.58481    0.005
 6667.00    0.43183   0.58386    0.005
 6668.00    0.48560   0.58352    0.005
 6669.00    0.53118   0.58421    0.005
 6670.00    0.54990   0.58341    0.005
 6671.00    0.57177   0.58326    0.005
 6672.00    0.60239   0.58402    0.005
 6673.00    0.63441   0.58322    0.005
 6674.00    0.66972   0.58315    0.005
 6675.00    0.67577   0.58390    0.005
 6676.00    0.62175   0.58304    0.005
 6677.00    0.56864   0.58301    0.005
 6678.00    0.51717   0.58380    0.005
 6679.00    0.49582   0.58294    0.005
 6680.00    0.52152   0.58298    0.005
 6681.00    0.55404   0.58387    0.005
 6682.00    0.59589   0.58315    0.005
 6683.00    0.62466   0.58326    0.005
 6684.00    0.63764   0.58419    0.005
 6685.00    0.64251   0.58364    0.005
 6686.00    0.63876   0.58372    0.005
 6687.00    0.62009   0.58450    0.005
 6688.00    0.58741   0.58402    0.005
 6689.00    0.57712   0.58393    0.005
 6690.00    0.58537   0.58441    0.005
 6691.00    0.59765   0.58383    0.005
 6692.00    0.61286   0.58355    0.005
 6693.00    0.60670   0.58367    0.005
 6694.00    0.58687   0.58292    0.005
 6695.00    0.57603   0.58254    0.005
 6696.00    0.57023   0.58240    0.000
 6697.00    0.57407   0.58150    0.000
 6698.00    0.58261   0.58114    0.000
 6699.00    0.57100   0.58086    0.000
 6700.00    0.55090   0.57988    0.000
 6701.00    0.58605   0.57963    0.000
 6702.00    0.64109   0.57923    0.000
 6703.00    0.68106   0.57818    0.000
 6704.00    0.71645   0.57799    0.000
 6705.00    0.66787   0.57744    0.000
 6706.00    0.59804   0.57627    0.000
 6707.00    0.58925   0.57604    0.000
 6708.00    0.59302   0.57530    0.000
 6709.00    0.60086   0.57403    0.000
 6710.00    0.60936   0.57369    0.000
 6711.00    0.60596   0.57285    0.000
 6712.00    0.60111   0.57161    0.000
 6713.00    0.64739   0.57121    0.000
 6714.00    0.69791   0.57049    0.000
 6715.00    0.71158   0.56950    0.000
 6716.00    0.72350   0.56922    0.000
 6717.00    0.70636   0.56887    0.000
 6718.00    0.68825   0.56833    0.000
 6719.00    0.63902   0.56833    0.000
 6720.00    0.59342   0.56846    0.000
 6721.00    0.61876   0.56840    0.000
 6722.00    0.64739   0.56872    0.000
 6723.00    0.71364   0.56925    0.000
 6724.00    0.76960   0.56951    0.000
 6725.00    0.74361   0.57001    0.000
 6726.00    0.71633   0.57068    0.000
 6727.00    0.68128   0.57098    0.000
 6728.00    0.65092   0.57144    0.000
 6729.00    0.64280   0.57198    0.000
 6730.00    0.62902   0.57207    0.000
 6731.00    0.59340   0.57229    0.000
 6732.00    0.57023   0.57251    0.000
 6733.00    0.58719   0.57230    0.000
 6734.00    0.59631   0.57220    0.000
 6735.00    0.58404   0.57201    0.000
 6736.00    0.57349   0.57151    0.000
 6737.00    0.56697   0.57116    0.000
 6738.00    0.57308   0.57064    0.000
 6739.00    0.60472   0.56996    0.000
 6740.00    0.63844   0.56953    0.000
 6741.00    0.67581   0.56884    0.000
 6742.00    0.68721   0.56808    0.000
 6743.00    0.65863   0.56778    0.000
 6744.00    0.60500   0.56718    0.000
 6745.00    0.51751   0.56644    0.000
 6746.00    0.48319   0.56643    0.000
 6747.00    0.51217   0.56617    0.000
 6748.00    0.53022   0.56553    0.000
 6749.00    0.53677   0.56589    0.000
 6750.00    0.53930   0.56615    0.000
 6751.00    0.53812   0.56567    0.000
 6752.00    0.56628   0.56635    0.000
 6753.00    0.61839   0.56711    0.005
 6754.00    0.64916   0.56680    0.006
 6755.00    0.66461   0.56766    0.006
 6756.00    0.63279   0.56871    0.006
 6757.00    0.57115   0.56847    0.006
 6758.00    0.49851   0.56930    0.006
 6759.00    0.41980   0.57034    0.006
 6760.00    0.43824   0.57003    0.006
 6761.00    0.50324   0.57065    0.006
 6762.00    0.56755   0.57145    0.006
 6763.00    0.63158   0.57100    0.006
 6764.00    0.68201   0.57137    0.006
 6765.00    0.72762   0.57191    0.006
 6766.00    0.68171   0.57135    0.006
 6767.00    0.60849   0.57153    0.006
 6768.00    0.61808   0.57196    0.006
 6769.00    0.64819   0.57142    0.006
 6770.00    0.64570   0.57150    0.006
 6771.00    0.63667   0.57197    0.006
 6772.00    0.59864   0.57153    0.006
 6773.00    0.55605   0.57149    0.006
 6774.00    0.54275   0.57200    0.005
 6775.00    0.53287   0.57163    0.005
 6776.00    0.52189   0.57133    0.005
 6777.00    0.51084   0.57176    0.005
 6778.00    0.55171   0.57135    0.005
 6779.00    0.59485   0.57067    0.005
 6780.00    0.62516   0.57090    0.005
 6781.00    0.65371   0.57040    0.006
 6782.00    0.60667   0.56937    0.006
 6783.00    0.55946   0.56940    0.006
 6784.00    0.50917   0.56892    0.005
 6785.00    0.46352   0.56771    0.005
 6786.00    0.46858   0.56768    0.005
 6787.00    0.47960   0.56739    0.006
 6788.00    0.53643   0.56625    0.006
 6789.00    0.59003   0.56626    0.006
 6790.00    0.62485   0.56628    0.006
 6791.00    0.64611   0.56541    0.006
 6792.00    0.60463   0.56549    0.006
 6793.00    0.56791   0.56577    0.006
 6794.00    0.54923   0.56525    0.006
 6795.00    0.52506   0.56539    0.005
 6796.00    0.48353   0.56573    0.005
 6797.00    0.46301   0.56555    0.005
 6798.00    0.49875   0.56572    0.005
 6799.00    0.53888   0.56592    0.005
 6800.00    0.58907   0.56600    0.005
 6801.00    0.61722   0.56620    0.005
 6802.00    0.60155   0.56611    0.005
 6803.00    0.59911   0.56633    0.005
 6804.00    0.61960   0.56658    0.005
 6805.00    0.62509   0.56620    0.005
 6806.00    0.60783   0.56644    0.005
 6807.00    0.61198   0.56674    0.005
 6808.00    0.64464   0.56621    0.005
 6809.00    0.67555   0.56643    0.005
 6810.00    0.70441   0.56675    0.006
 6811.00    0.70885   0.56626    0.006
 6812.00    0.68803   0.56648    0.006
 6813.00    0.68917   0.56680    0.006
 6814.00    0.71036   0.56648    0.006
 6815.00    0.67034   0.56675    0.006
 6816.00    0.58107   0.56705    0.006
 6817.00    0.55383   0.56692    0.005
 6818.00    0.57052   0.56725    0.005
 6819.00    0.59112   0.56749    0.005
 6820.00    0.61416   0.56747    0.005
 6821.00    0.61031   0.56778    0.005
 6822.00    0.59188   0.56793    0.005
 6823.00    0.56133   0.56786    0.005
 6824.00    0.52506   0.56806    0.005
 6825.00    0.50791   0.56805    0.005
 6826.00    0.49852   0.56783    0.005
 6827.00    0.49962   0.56780    0.005
 6828.00    0.50436   0.56757    0.005
 6829.00    0.57275   0.56713    0.005
 6830.00    0.65977   0.56685    0.006
 6831.00    0.65873   0.56633    0.006
 6832.00    0.63635   0.56567    0.006
 6833.00    0.63238   0.56518    0.006
 6834.00    0.63201   0.56443    0.006
 6835.00    0.61720   0.56359    0.006
 6836.00    0.60018   0.56303    0.006
 6837.00    0.59070   0.56218    0.006
 6838.00    0.58208   0.56129    0.006
 6839.00    0.60824   0.56082    0.006
 6840.00    0.63701   0.56011    0.006
 6841.00    0.58034   0.55930    0.006
 6842.00    0.52028   0.55905    0.006
 6843.00    0.46564   0.55866    0.005
 6844.00    0.41606   0.55797    0.005
 6845.00    0.56605   0.55795    0.005
 6846.00    0.70434   0.55791    0.005
 6847.00    0.64496   0.55726    0.005
 6848.00    0.59329   0.55731    0.005
 6849.00    0.62214   0.55753    0.005
 6850.00    0.64721   0.55674    0.005
 6851.00    0.64416   0.55665    0.005
 6852.00    0.64066   0.55702    0.005
 6853.00    0.63464   0.55603    0.005
 6854.00    0.62886   0.55562    0.005
 6855.00    0.62417   0.55608    0.005
 6856.00    0.60857   0.55505    0.005
 6857.00    0.55257   0.55429    0.005
 6858.00    0.50955   0.55482    0.005
 6859.00    0.50673   0.55402    0.005
 6860.00    0.52231   0.55304    0.005
 6861.00    0.58628   0.55356    0.005
 6862.00    0.62868   0.55323    0.005
 6863.00    0.62234   0.55223    0.005
 6864.00    0.60929   0.55261    0.005
 6865.00    0.58311   0.55277    0.005
 6866.00    0.57990   0.55197    0.005
 6867.00    0.61588   0.55214    0.005
 6868.00    0.61767   0.55263    0.005
 6869.00    0.56834   0.55218    0.005
 6870.00    0.52282   0.55217    0.005
 6871.00    0.48227   0.55275    0.005
 6872.00    0.48353   0.55266    0.005
 6873.00    0.53314   0.55266    0.005
 6874.00    0.56789   0.55319    0.005
 6875.00    0.58748   0.55333    0.005
 6876.00    0.57438   0.55353    0.005
 6877.00    0.53187   0.55405    0.005
 6878.00    0.47850   0.55424    0.005
 6879.00    0.41652   0.55469    0.005
 6880.00    0.41883   0.55539    0.005
 6881.00    0.46599   0.55553    0.005
 6882.00    0.50086   0.55613    0.005
 6883.00    0.52821   0.55717    0.005
 6884.00    0.52020   0.55729    0.005
 6885.00    0.49332   0.55784    0.005
 6886.00    0.46263   0.55921    0.005
 6887.00    0.43018   0.55944    0.005
 6888.00    0.45704   0.55977    0.005
 6889.00    0.50761   0.56126    0.005
 6890.00    0.50903   0.56169    0.005
 6891.00    0.49370   0.56174    0.005
 6892.00    0.52201   0.56303    0.005
 6893.00    0.56284   0.56367    0.005
 6894.00    0.55791   0.56353    0.005
 6895.00    0.54213   0.56439    0.005
 6896.00    0.55773   0.56511    0.005
 6897.00    0.57931   0.56490    0.005
 6898.00    0.53770   0.56532    0.005
 6899.00    0.48676   0.56597    0.005
 6900.00    0.53667   0.56578    0.005
 6901.00    0.59746   0.56586    0.005
 6902.00    0.58798   0.56636    0.005
 6903.00    0.57354   0.56611    0.005
 6904.00    0.55829   0.56598    0.005
 6905.00    0.54301   0.56631    0.005
 6906.00    0.54566   0.56591    0.005
 6907.00    0.54776   0.56562    0.005
 6908.00    0.52896   0.56583    0.005
 6909.00    0.51111   0.56520    0.005
 6910.00    0.50836   0.56475    0.005
 6911.00    0.50593   0.56490    0.005
 6912.00    0.50675   0.56411    0.005
 6913.00    0.50130   0.56348    0.005
 6914.00    0.45082   0.56364    0.005
 6915.00    0.40297   0.56284    0.005
 6916.00    0.36966   0.56206    0.005
 6917.00    0.34208   0.56221    0.005
 6918.00    0.33973   0.56159    0.005
 6919.00    0.34892   0.56073    0.005
 6920.00    0.39994   0.56084    0.005
 6921.00    0.44452   0.56046    0.005
 6922.00    0.46949   0.55963    0.005
 6923.00    0.48259   0.55967    0.005
 6924.00    0.46499   0.55954    0.005
 6925.00    0.44987   0.55881    0.005
 6926.00    0.44028   0.55879    0.005
 6927.00    0.43859   0.55890    0.005
 6928.00    0.45213   0.55829    0.005
 6929.00    0.46360   0.55826    0.005
 6930.00    0.47159   0.55857    0.005
 6931.00    0.50672   0.55807    0.005
 6932.00    0.58183   0.55803    0.005
 6933.00    0.60935   0.55850    0.005
 6934.00    0.57522   0.55805    0.005
 6935.00    0.54740   0.55796    0.005
 6936.00    0.52678   0.55849    0.005
 6937.00    0.51891   0.55799    0.006
 6938.00    0.52387   0.55780    0.006
 6939.00    0.55323   0.55834    0.006
 6940.00    0.60424   0.55772    0.006
 6941.00    0.59992   0.55739    0.006
 6942.00    0.55232   0.55794    0.005
 6943.00    0.54952   0.55721    0.005
 6944.00    0.57752   0.55674    0.005
 6945.00    0.58153   0.55735    0.005
 6946.00    0.57109   0.55664    0.005
 6947.00    0.55009   0.55611    0.005
 6948.00    0.52354   0.55683    0.005
 6949.00    0.48920   0.55633    0.005
 6950.00    0.45131   0.55586    0.005
 6951.00    0.47243   0.55670    0.005
 6952.00    0.51674   0.55653    0.005
 6953.00    0.55728   0.55624    0.005
 6954.00    0.59657   0.55715    0.005
 6955.00    0.59727   0.55731    0.005
 6956.00    0.58714   0.55728    0.005
 6957.00    0.48966   0.55815    0.005
 6958.00    0.37198   0.55849    0.005
 6959.00    0.39376   0.55873    0.005
 6960.00    0.44142   0.55945    0.006
 6961.00    0.46197   0.55968    0.006
 6962.00    0.47863   0.56006    0.005
 6963.00    0.54138   0.56057    0.006
 6964.00    0.60891   0.56040    0.006
 6965.00    0.53524   0.56068    0.005
 6966.00    0.45216   0.56098    0.005
 6967.00    0.44544   0.56027    0.005
 6968.00    0.44119   0.56020    0.005
 6969.00    0.48731   0.56035    0.005
 6970.00    0.52887   0.55919    0.005
 6971.00    0.43038   0.55865    0.005
 6972.00    0.33801   0.55878    0.005
 6973.00    0.33655   0.55744    0.005
 6974.00    0.34256   0.55651    0.005
 6975.00    0.42041   0.55678    0.005
 6976.00    0.49110   0.55573    0.005
 6977.00    0.51197   0.55468    0.005
 6978.00    0.52508   0.55517    0.006
 6979.00    0.49654   0.55478    0.006
 6980.00    0.48765   0.55396    0.006
 6981.00    0.56336   0.55464    0.006
 6982.00    0.63030   0.55500    0.006
 6983.00    0.66609   0.55461    0.006
 6984.00    0.67570   0.55530    0.006
 6985.00    0.60723   0.55615    0.005
 6986.00    0.55901   0.55618    0.005
 6987.00    0.56222   0.55671    0.005
 6988.00    0.56114   0.55757    0.005
 6989.00    0.55070   0.55771    0.005
 6990.00    0.51951   0.55798    0.005
 6991.00    0.44895   0.55854    0.005
 6992.00    0.42062   0.55851    0.005
 6993.00    0.46220   0.55843    0.005
 6994.00    0.46890   0.55855    0.005
 6995.00    0.42497   0.55822    0.005
 6996.00    0.43101   0.55781    0.005
 6997.00    0.50086   0.55759    0.005
 6998.00    0.49836   0.55704    0.005
 6999.00    0.41450   0.55636    0.005
 7000.00    0.39396   0.55594    0.005
 7001.00    0.43624   0.55536    0.006
 7002.00    0.52954   0.55453    0.006
 7003.00    0.66747   0.55404    0.006
 7004.00    0.66089   0.55363    0.006
 7005.00    0.54294   0.55272    0.006
 7006.00    0.47749   0.55218    0.006
 7007.00    0.44762   0.55210    0.005
 7008.00    0.42731   0.55126    0.005
 7009.00    0.41267   0.55063    0.005
 7010.00    0.37664   0.55085    0.005
 7011.00    0.32953   0.55020    0.005
 7012.00    0.36764   0.54946    0.005
 7013.00    0.44402   0.54984    0.005
 7014.00    0.51194   0.54950    0.005
 7015.00    0.57660   0.54872    0.005
 7016.00    0.50175   0.54914    0.005
 7017.00    0.38111   0.54918    0.005
 7018.00    0.32664   0.54850    0.005
 7019.00    0.29038   0.54889    0.006
 7020.00    0.38045   0.54932    0.006
 7021.00    0.49907   0.54884    0.006
 7022.00    0.51006   0.54918    0.006
 7023.00    0.50160   0.54992    0.006
 7024.00    0.48925   0.54968    0.006
 7025.00    0.47636   0.55006    0.006
 7026.00    0.48671   0.55102    0.006
 7027.00    0.49936   0.55091    0.005
 7028.00    0.50285   0.55140    0.006
 7029.00    0.50576   0.55262    0.006
 7030.00    0.49702   0.55254    0.006
 7031.00    0.48810   0.55306    0.005
 7032.00    0.52183   0.55461    0.005
 7033.00    0.55165   0.55463    0.006
 7034.00    0.47409   0.55504    0.006
 7035.00    0.40421   0.55685    0.006
 7036.00    0.44226   0.55705    0.006
 7037.00    0.47874   0.55715    0.006
 7038.00    0.50069   0.55900    0.006
 7039.00    0.51943   0.55950    0.006
 7040.00    0.51659   0.55927    0.006
 7041.00    0.50892   0.56069    0.006
 7042.00    0.47602   0.56127    0.006
 7043.00    0.46781   0.56067    0.006
 7044.00    0.56354   0.56122    0.006
 7045.00    0.63827   0.56146    0.006
 7046.00    0.63999   0.56048    0.006
 7047.00    0.64465   0.56001    0.006
 7048.00    0.65791   0.55951    0.006
 7049.00    0.64206   0.55808    0.006
 7050.00    0.55352   0.55675   -2.000
 7051.00    0.51721   0.55534   -2.000
 7052.00    0.59325   0.55334   -2.000
 7053.00    0.64197   0.55154   -2.000
 7054.00    0.63969   0.54958   -2.000
 7055.00    0.68155   0.54713   -2.000
 7056.00    0.79538   0.54531   -2.000
 7057.00    0.81540   0.54328   -2.000
 7058.00    0.70123   0.54067   -2.000
 7059.00    0.64037   0.53912   -2.000
 7060.00    0.64662   0.53749   -2.000
 7061.00    0.62748   0.53510   -2.000
 7062.00    0.58018   0.53404   -2.000
 7063.00    0.53830   0.53320   -2.000
 7064.00    0.50172   0.53134   -2.000
 7065.00    0.52702   0.53065   -2.000
 7066.00    0.60571   0.53058   -2.000
 7067.00    0.60961   0.52945   -2.000
 7068.00    0.55670   0.52899   -2.000
 7069.00    0.50886   0.52947   -2.000
 7070.00    0.46440   0.52901   -2.000
 7071.00    0.47094   0.52859   -2.000
 7072.00    0.50730   0.52925   -2.000
 7073.00    0.59924   0.52916   -2.000
 7074.00    0.71952   0.52856   -2.000
 7075.00    0.65657   0.52899   -2.000
 7076.00    0.51273   0.52871   -2.000
 7077.00    0.49425   0.52766   -2.000
 7078.00    0.52330   0.52771   -2.000
 7079.00    0.54601   0.52702   -2.000
 7080.00    0.56667   0.52541   -2.000
 7081.00    0.52129   0.52489   -2.000
 7082.00    0.45812   0.52362   -2.000
 7083.00    0.48895   0.52159   -2.000
 7084.00    0.54053   0.52067   -2.000
 7085.00    0.61281   0.51906   -2.000
 7086.00    0.68873   0.51685   -2.000
 7087.00    0.65941   0.51576   -2.000
 7088.00    0.61598   0.51430   -2.000
 7089.00    0.59148   0.51227   -2.000
 7090.00    0.56877   0.51124   -2.000
 7091.00    0.61976   0.51032   -2.000
 7092.00    0.67508   0.50878   -2.000
 7093.00    0.65164   0.50801   -2.000
 7094.00    0.62615   0.50774   -2.000
 7095.00    0.58642   0.50675   -2.000
 7096.00    0.55222   0.50631   -2.000
 7097.00    0.65570   0.50665   -2.000
 7098.00    0.75003   0.50616   -2.000
 7099.00    0.72292   0.50586   -2.000
 7100.00    0.68070   0.50645   -2.000
 7101.00    0.50455   0.50640   -2.000
 7102.00    0.35757   0.50617   -2.000
 7103.00    0.40109   0.50660   -2.000
 7104.00    0.44880   0.50673   -2.000
 7105.00    0.51784   0.50659   -2.000
 7106.00    0.57709   0.50673   -2.000
 7107.00    0.59609   0.50684   -2.000
 7108.00    0.62080   0.50674   -2.000
 7109.00    0.66503   0.50664   -2.000
 7110.00    0.67899   0.50662   -2.000
 7111.00    0.60598   0.50647   -2.000
 7112.00    0.55045   0.50624   -2.000
 7113.00    0.53783   0.50613   -2.000
 7114.00    0.52292   0.50581   -2.000
 7115.00    0.50317   0.50551   -2.000
 7116.00    0.48209   0.50539   -2.000
 7117.00    0.45858   0.50487   -2.000
 7118.00    0.43021   0.50440   -2.000
 7119.00    0.39403   0.50423   -2.000
 7120.00    0.43646   0.50366   -2.000
 7121.00    0.58970   0.50302   -2.000
 7122.00    0.69641   0.50260   -2.000
 7123.00    0.74541   0.50207   -2.000
 7124.00    0.74887   0.50145   -2.000
 7125.00    0.70256   0.50081   -2.000
 7126.00    0.67504   0.50045   -2.000
 7127.00    0.66566   0.50001   -2.000
 7128.00    0.75726   0.49923   -2.000
 7129.00    0.93472   0.49919   -2.000
 7130.00    0.92122   0.49914   -2.000
 7131.00    0.76472   0.49825   -2.000
 7132.00    0.68957   0.49843   -2.000
 7133.00    0.66794   0.49896   -2.000
 7134.00    0.58822   0.49819   -2.000
 7135.00    0.47504   0.49834   -2.000
 7136.00    0.50613   0.49936   -2.000
 7137.00    0.60962   0.49882   -2.000
 7138.00    0.70513   0.49885   -2.000
 7139.00    0.79719   0.50010   -2.000
 7140.00    0.73113   0.49966   -2.000
 7141.00    0.60616   0.49944   -2.000
 7142.00    0.58340   0.50083   -2.000
 7143.00    0.59291   0.50051   -2.000
 7144.00    0.59657   0.50000   -2.000
 7145.00    0.59869   0.50139   -2.000
 7146.00    0.54941   0.50138   -2.000
 7147.00    0.48904   0.50055   -2.000
 7148.00    0.42437   0.50180   -2.000
 7149.00    0.35897   0.50232   -2.000
 7150.00    0.40337   0.50122   -2.000
 7151.00    0.46198   0.50206   -2.000
 7152.00    0.53579   0.50317   -2.000
 7153.00    0.61099   0.50211   -2.000
 7154.00    0.63530   0.50245   -2.000
 7155.00    0.65683   0.50384   -2.000
 7156.00    0.62919   0.50297   -2.000
 7157.00    0.60022   0.50284   -2.000
 7158.00    0.54524   0.50425   -2.000
 7159.00    0.50087   0.50373   -2.000
 7160.00    0.69741   0.50319   -2.000
 7161.00    0.88525   0.50433   -2.000
 7162.00    0.96359   0.50436   -2.000
 7163.00    1.00141   0.50377   -2.000
 7164.00    0.69346   0.50453   -2.000
 7165.00    0.40973   0.50490   -2.000
 7166.00    0.27947   0.50442   -2.000
 7167.00    0.23766   0.50493   -2.000
 7168.00    0.63498   0.50542   -2.000
 7169.00    0.95452   0.50511   -2.000
 7170.00    0.96094   0.50549   -2.000
 7171.00    0.91374   0.50584   -2.000
 7172.00    0.68741   0.50554   -2.000
 7173.00    0.50456   0.50579   -2.000
 7174.00    0.44433   0.50603   -2.000
 7175.00    0.43106   0.50560   -2.000
 7176.00    0.53105   0.50534   -2.000
 7177.00    0.57810   0.50539   -2.000
 7178.00    0.51493   0.50510   -2.000
 7179.00    0.48316   0.50438   -2.000
 7180.00    0.50822   0.50411   -2.000
 7181.00    0.54060   0.50383   -2.000
 7182.00    0.58457   0.50274   -2.000
 7183.00    0.55985   0.50227   -2.000
 7184.00    0.43970   0.50213   -2.000
 7185.00    0.47472   0.50104   -2.000
 7186.00    0.69949   0.50048   -2.000
 7187.00    0.75941   0.50058   -2.000
 7188.00    0.64164   0.49978   -2.000
 7189.00    0.54747   0.49900   -2.000
 7190.00    0.47574   0.49943   -2.000
 7191.00    0.48880   0.49933   -2.000
 7192.00    0.57295   0.49831   -2.000
 7193.00    0.59695   0.49874   -2.000
 7194.00    0.57654   0.49939   -2.000
 7195.00    0.53056   0.49854   -2.000
 7196.00    0.46800   0.49876   -2.000
 7197.00    0.40495   0.49972   -2.000
 7198.00    0.34163   0.49911   -2.000
 7199.00    0.44983   0.49900   -2.000
 7200.00    0.64272   0.50017   -2.000
 7201.00    0.85161   0.49992   -2.000
 7202.00    1.06732   0.49923   -2.000
 7203.00    0.92700   0.50032   -2.000
 7204.00    0.65641   0.50058   -2.000
 7205.00    0.49445   0.49966   -2.000
 7206.00    0.36612   0.50062   -2.000
 7207.00    0.36437   0.50131   -2.000
 7208.00    0.39527   0.50029   -2.000
 7209.00    0.37941   0.50082   -2.000
 7210.00    0.35371   0.50194   -2.000
 7211.00    0.53437   0.50138   -2.000
 7212.00    0.74930   0.50157   -2.000
 7213.00    0.62429   0.50299   -2.000
 7214.00    0.45681   0.50299   -2.000
 7215.00    0.57604   0.50285   -2.000
 7216.00    0.72010   0.50439   -2.000
 7217.00    0.68654   0.50505   -2.000
 7218.00    0.64396   0.50466   -2.000
