###################################################################
## OUTPUT of StarlightChains_v04.for    [Cid@UFSC - 01/Apr/2007] ##
###################################################################

## Some input info
KUG0210-078._29_27.txt                   [arq_obs]
Base.CB07.vall.4m                        [arq_base]
Masks.EmLines.NEW.gm                     [arq_masks]
StCv04.C11.config                        [arq_config]
   66                                    [N_base]
    0                                    [N_YAV_components = # of components with extra extinction!]
    0                                    [i_FitPowerLaw (1/0 = Yes/No)]
-9.99                                    [alpha_PowerLaw]
CCM                                      [red_law_option]
 1.458241                                [q_norm = A(l_norm)/A(V)]

## (Re)Sampling Parameters
 3741.00                                 [l_ini (A)]
 7218.00                                 [l_fin (A)]
    1.00                                 [dl    (A)]     (OBS: dl_cushion =    50.00 A)

## Normalization info
 4020.00                                 [l_norm (A) - for base]
 4010.00                                 [llow_norm (A) - window for f_obs]
 4060.00                                 [lupp_norm (A) - window for f_obs]
1.843828E-17                             [fobs_norm (in input units)]

## S/N
 3691.00                                 [llow_SN (A) - window for S/N]
 7268.00                                 [lupp_SN (A) - window for S/N]
   5.540                                 [S/N in S/N window]
   4.618                                 [S/N in norm. window]
   0.032                                 [S/N_err in S/N window]
   0.027                                 [S/N_err in norm. window]
  1.0000                                 [fscale_chi2]

## etc...
    -2007403                             [idum_orig]
  2414                                   [NOl_eff]
  2133                                   [Nl_eff]
   281    NSIGMA                         [Ntot_cliped & clip_method]
 15392160                                [Nglobal_steps]
   7                                     [N_chains]
  28                                     [NEX0s_base = N_base in EX0s-fits]
 0   0   1      281   2.0   1.376E+04    [Clip-Bug, RC-Crash & Burn-In warning-flags, n_censored_weights, wei_nsig_threshold & wei_limit]
   115    113.719    112.789      0.930  [idt_all, wdt_TotTime, wdt_UsrTime & wdt_SysTime (sec)]

## Synthesis Results - Best model ##

 1.38943E-05                             [chi2/Nl_eff]
     6.84243                             [adev (%)]

   120.73286                             [sum-of-x (%)]
 3.69847E-17                             [Flux_tot (units of input spectrum!)]
 7.48561E-13                             [Mini_tot (???)]
 4.01169E-13                             [Mcor_tot (???)]

 160.91                                  [v0_min  (km/s)]
  48.07                                  [vd_min  (km/s)]
 0.3780                                  [AV_min  (mag)]
 0.0000                                  [YAV_min (mag)]

# j     x_j(%)      Mini_j(%)     Mcor_j(%)     age_j(yr)     Z_j      (L/M)_j    YAV?  Mstars   component_j        a/Fe...       SSP_chi2r SSP_adev(%)   SSP_AV   SSP_x(%)
  1      0.9210     3.4452E-03    6.4285E-03    1.000000E+06  0.00400  1.094E-02    0   1.0000   age020_m42            0.0000     2.3815E-05     9.2430   3.0557   108.3407
  2      0.0000     0.0000E+00    0.0000E+00    3.160000E+06  0.00400  4.007E-02    0   0.9999   age045_m42            0.0000     2.2762E-05     8.5722   2.4241   112.1544
  3      0.0000     0.0000E+00    0.0000E+00    5.010000E+06  0.00400  2.539E-02    0   0.9488   age055_m42            0.0000     2.2862E-05     8.7867   2.7000   111.0875
  4     21.1044     3.2964E-02    5.6712E-02    6.610000E+06  0.00400  2.620E-02    0   0.9220   age061_m42            0.0000     2.2198E-05     8.4103   2.3519   112.5074
  5      0.0000     0.0000E+00    0.0000E+00    1.000000E+07  0.00400  1.322E-02    0   0.8862   age070_m42            0.0000     2.0399E-05     7.8761   2.0664   116.3695
  6      0.0000     0.0000E+00    0.0000E+00    1.445000E+07  0.00400  7.883E-03    0   0.8571   age078_m42            0.0000     2.1171E-05     8.0917   2.3702   114.1010
  7      0.0000     0.0000E+00    0.0000E+00    2.512000E+07  0.00400  5.251E-03    0   0.8174   age090_m42            0.0000     2.0143E-05     7.8299   1.9454   116.9631
  8      0.0000     0.0000E+00    0.0000E+00    4.000000E+07  0.00400  3.649E-03    0   0.7851   age104_m42            0.0000     1.9611E-05     7.7553   1.7316   117.2448
  9      0.0000     0.0000E+00    0.0000E+00    5.500000E+07  0.00400  3.098E-03    0   0.7629   age110_m42            0.0000     2.0494E-05     7.8892   1.8988   116.0293
 10      0.0000     0.0000E+00    0.0000E+00    1.015200E+08  0.00400  2.228E-03    0   0.7207   age116_m42            0.0000     2.0810E-05     7.9284   1.9312   115.4293
 11      0.0000     0.0000E+00    0.0000E+00    2.861200E+08  0.00400  1.093E-03    0   0.6648   age125_m42            0.0000     2.0376E-05     7.9682   1.3867   118.6324
 12      0.0000     0.0000E+00    0.0000E+00    5.088000E+08  0.00400  6.597E-04    0   0.6365   age130_m42            0.0000     2.0073E-05     7.8132   1.3968   118.2126
 13      0.0000     0.0000E+00    0.0000E+00    1.434000E+09  0.00400  2.132E-04    0   0.5798   age139_m42            0.0000     1.6532E-05     7.0500   0.4564   119.0633
 14      0.0000     0.0000E+00    0.0000E+00    4.250000E+09  0.00400  5.895E-05    0   0.5377   age158_m42            0.0000     1.5429E-05     7.0858  -0.0029   114.6441
 15      0.0000     0.0000E+00    0.0000E+00    7.500000E+09  0.00400  3.510E-05    0   0.5212   age171_m42            0.0000     1.5327E-05     7.1821  -0.1858   113.4614
 16      0.0000     0.0000E+00    0.0000E+00    1.300000E+10  0.00400  2.005E-05    0   0.5034   age193_m42            0.0000     1.5474E-05     7.3168  -0.3468   112.5922
 17      0.0000     0.0000E+00    0.0000E+00    1.800000E+10  0.00400  1.525E-05    0   0.4967   age213_m42            0.0000     1.5460E-05     7.3154  -0.3755   112.2978
 18      0.0000     0.0000E+00    0.0000E+00    1.000000E+06  0.00800  1.238E-02    0   1.0000   age020_m52            0.0000     2.3732E-05     9.2460   3.0510   108.5918
 19      0.0000     0.0000E+00    0.0000E+00    3.160000E+06  0.00800  3.074E-02    0   0.9966   age045_m52            0.0000     2.3664E-05     9.2159   2.9801   109.2784
 20      0.0000     0.0000E+00    0.0000E+00    5.010000E+06  0.00800  2.668E-02    0   0.9443   age055_m52            0.0000     2.2691E-05     8.7825   2.7708   110.5905
 21      0.0000     0.0000E+00    0.0000E+00    6.610000E+06  0.00800  2.136E-02    0   0.9177   age061_m52            0.0000     1.7698E-05     7.4496   1.5662   117.9329
 22      0.0000     0.0000E+00    0.0000E+00    1.000000E+07  0.00800  1.215E-02    0   0.8827   age070_m52            0.0000     2.0379E-05     7.9490   2.2327   116.9514
 23      0.0000     0.0000E+00    0.0000E+00    1.445000E+07  0.00800  8.717E-03    0   0.8552   age078_m52            0.0000     2.0687E-05     7.9772   2.3428   115.4228
 24      0.0000     0.0000E+00    0.0000E+00    2.512000E+07  0.00800  5.592E-03    0   0.8162   age090_m52            0.0000     1.9957E-05     7.8428   2.0111   118.1646
 25      0.8135     8.5444E-03    1.2501E-02    4.000000E+07  0.00800  3.896E-03    0   0.7841   age104_m52            0.0000     1.9930E-05     7.8866   1.9417   118.0736
 26      0.0000     0.0000E+00    0.0000E+00    1.015200E+08  0.00800  2.148E-03    0   0.7226   age116_m52            0.0000     1.9687E-05     7.8592   1.8988   116.6627
 27      1.0131     4.1771E-02    5.2090E-02    2.861200E+08  0.00800  9.925E-04    0   0.6683   age125_m52            0.0000     1.9054E-05     7.8221   1.4538   119.4489
 28      0.0000     0.0000E+00    0.0000E+00    9.047900E+08  0.00800  3.141E-04    0   0.6138   age135_m52            0.0000     1.7062E-05     7.4633   0.7116   121.3705
 29      0.0000     0.0000E+00    0.0000E+00    1.434000E+09  0.00800  1.719E-04    0   0.5853   age139_m52            0.0000     1.5174E-05     7.2050   0.1116   119.9654
 30      0.1618     8.4091E-02    8.7870E-02    2.500000E+09  0.00800  7.872E-05    0   0.5600   age150_m52            0.0000     1.4592E-05     7.2191  -0.1588   116.1474
 31      0.0000     0.0000E+00    0.0000E+00    4.250000E+09  0.00800  4.336E-05    0   0.5426   age158_m52            0.0000     1.4701E-05     7.2847  -0.1756   115.0782
 32      0.0000     0.0000E+00    0.0000E+00    6.250000E+09  0.00800  3.159E-05    0   0.5319   age166_m52            0.0000     1.4967E-05     7.4795  -0.3684   114.3228
 33      0.0000     0.0000E+00    0.0000E+00    1.300000E+10  0.00800  1.361E-05    0   0.5073   age193_m52            0.0000     1.5740E-05     7.8697  -0.8340   112.8878
 34      0.0000     0.0000E+00    0.0000E+00    1.800000E+10  0.00800  9.886E-06    0   0.4990   age213_m52            0.0000     1.6474E-05     8.1490  -0.9335   111.7498
 35      2.7862     7.3847E-03    1.3780E-02    1.000000E+06  0.02000  1.544E-02    0   1.0000   age020_m62            0.0000     2.3679E-05     9.2475   3.0462   108.8906
 36      0.0000     0.0000E+00    0.0000E+00    3.160000E+06  0.02000  3.762E-02    0   0.9858   age045_m62            0.0000     2.3873E-05     9.3023   2.9830   109.8719
 37      0.0000     0.0000E+00    0.0000E+00    5.010000E+06  0.02000  3.296E-02    0   0.9342   age055_m62            0.0000     2.2682E-05     8.7630   2.6703   111.8676
 38      0.0000     0.0000E+00    0.0000E+00    8.710000E+06  0.02000  1.154E-02    0   0.8861   age067_m62            0.0000     1.9830E-05     8.4646   1.6576   124.8208
 39      0.0000     0.0000E+00    0.0000E+00    1.445000E+07  0.02000  7.663E-03    0   0.8472   age078_m62            0.0000     1.9483E-05     8.0035   1.8832   120.5846
 40      0.0000     0.0000E+00    0.0000E+00    2.512000E+07  0.02000  4.532E-03    0   0.8099   age090_m62            0.0000     1.9739E-05     8.1135   1.8810   120.2178
 41      0.0000     0.0000E+00    0.0000E+00    5.500000E+07  0.02000  2.733E-03    0   0.7595   age110_m62            0.0000     1.8866E-05     7.6896   1.9194   117.7619
 42      0.0000     0.0000E+00    0.0000E+00    1.609000E+08  0.02000  1.369E-03    0   0.6985   age120_m62            0.0000     1.9125E-05     7.7326   1.7932   118.8010
 43      3.6170     1.6423E-01    2.0575E-01    2.861200E+08  0.02000  9.013E-04    0   0.6714   age125_m62            0.0000     1.8683E-05     7.6142   1.5713   120.6553
 44      0.0000     0.0000E+00    0.0000E+00    5.088000E+08  0.02000  5.028E-04    0   0.6449   age130_m62            0.0000     1.7965E-05     7.6046   1.2328   121.3802
 45      0.9198     1.5502E-01    1.7874E-01    9.047900E+08  0.02000  2.428E-04    0   0.6179   age135_m62            0.0000     1.5447E-05     7.2149   0.6600   120.0593
 46      0.0000     0.0000E+00    0.0000E+00    1.434000E+09  0.02000  1.263E-04    0   0.5908   age139_m62            0.0000     1.4103E-05     7.1121   0.2039   118.6421
 47      3.9274     2.6854E+00    2.8426E+00    2.500000E+09  0.02000  5.985E-05    0   0.5673   age150_m62            0.0000     1.4360E-05     7.3907  -0.1679   116.8332
 48     16.0456     2.0075E+01    2.0482E+01    4.250000E+09  0.02000  3.271E-05    0   0.5468   age158_m62            0.0000     1.5345E-05     7.8147  -0.4633   114.9114
 49      0.0000     0.0000E+00    0.0000E+00    1.000000E+10  0.02000  1.360E-05    0   0.5167   age181_m62            0.0000     1.6749E-05     8.2529  -0.7938   113.3808
 50      0.0000     0.0000E+00    0.0000E+00    1.800000E+10  0.02000  7.124E-06    0   0.5013   age213_m62            0.0000     1.8352E-05     8.7760  -1.0000   111.9870
 51     16.4168     2.5919E-02    4.8354E-02    1.000000E+06  0.05000  2.592E-02    0   0.9998   age020_m72            0.0000     2.3446E-05     9.2569   3.0309   109.2810
 52      4.2927     3.6258E-03    6.4794E-03    3.160000E+06  0.05000  4.845E-02    0   0.9577   age045_m72            0.0000     2.3824E-05     9.2005   2.8891   110.2900
 53      0.0000     0.0000E+00    0.0000E+00    5.010000E+06  0.05000  3.072E-02    0   0.9147   age055_m72            0.0000     2.1438E-05     8.5708   2.4383   116.0931
 54      0.0000     0.0000E+00    0.0000E+00    6.610000E+06  0.05000  1.455E-02    0   0.8877   age061_m72            0.0000     2.7801E-05    10.9570   1.6814   128.5297
 55      2.8760     1.2970E-02    2.0630E-02    1.000000E+07  0.05000  9.074E-03    0   0.8524   age070_m72            0.0000     2.4725E-05     9.8225   2.6141   116.1347
 56      2.7930     2.6894E-02    3.9654E-02    2.512000E+07  0.05000  4.250E-03    0   0.7902   age090_m72            0.0000     2.2515E-05     8.9368   2.3533   116.7050
 57      0.0000     0.0000E+00    0.0000E+00    4.000000E+07  0.05000  3.087E-03    0   0.7618   age104_m72            0.0000     2.2217E-05     8.8368   2.1404   118.2720
 58      0.0000     0.0000E+00    0.0000E+00    1.015200E+08  0.05000  1.700E-03    0   0.7096   age116_m72            0.0000     1.9959E-05     7.9725   1.9262   118.8972
 59      6.9534     3.8537E-01    4.7696E-01    2.861200E+08  0.05000  7.384E-04    0   0.6633   age125_m72            0.0000     1.8102E-05     7.5365   1.4598   120.9005
 60      0.0000     0.0000E+00    0.0000E+00    5.088000E+08  0.05000  3.819E-04    0   0.6372   age130_m72            0.0000     1.6046E-05     7.2441   0.9911   121.3086
 61      2.9124     7.1113E-01    8.1075E-01    9.047900E+08  0.05000  1.676E-04    0   0.6110   age135_m72            0.0000     1.4530E-05     7.4402   0.2932   118.6577
 62      0.0000     0.0000E+00    0.0000E+00    1.434000E+09  0.05000  8.837E-05    0   0.5874   age139_m72            0.0000     1.4377E-05     7.4507  -0.1581   117.9136
 63     10.1021     9.7664E+00    1.0202E+01    2.500000E+09  0.05000  4.233E-05    0   0.5598   age150_m72            0.0000     1.5757E-05     8.0879  -0.4680   115.8067
 64     23.0768     6.5810E+01    6.4457E+01    6.250000E+09  0.05000  1.435E-05    0   0.5249   age166_m72            0.0000     1.7394E-05     8.5921  -0.8974   112.9142
 65      0.0000     0.0000E+00    0.0000E+00    1.300000E+10  0.05000  6.513E-06    0   0.5036   age193_m72            0.0000     2.1295E-05     8.2156  -1.0000   106.0149
 66      0.0000     0.0000E+00    0.0000E+00    1.800000E+10  0.05000  4.527E-06    0   0.4945   age213_m72            0.0000     2.6038E-05     8.0448  -1.0000    98.9709


## Synthesis Results - Average & Chains ##

# j      x_j: min, <> & last-chain-values for 1 ...  7 chains
  1      0.9210      1.4052      1.6532      0.0308      0.0333      2.1413      4.0224      0.2425      0.1914
  2      0.0000      0.4019      0.0000      0.0023      0.0064      0.0638      0.1878      0.0000      0.0039
  3      0.0000      0.4078      0.0014      0.0000      0.0162      0.0000      0.0535      0.0162      0.0068
  4     21.1044      0.4660      0.0000      0.0032      0.0000      0.1400      0.1459      0.0000      0.0208
  5      0.0000      0.3201      0.0000      0.0000      0.0000      0.1131      0.1410      0.0000      0.0000
  6      0.0000      0.3416      0.0000      0.0079      0.0000      0.1721      0.1021      0.0000      0.0004
  7      0.0000      0.3255      0.0067      0.0021      0.0133      0.0560      0.0632      0.0000      0.0142
  8      0.0000      0.3412      0.0031      0.0000      0.0066      0.0866      0.0000      0.0000      0.0077
  9      0.0000      0.3794      0.0000      0.0010      0.0012      0.0589      0.0644      0.0055      0.0076
 10      0.0000      0.3173      0.0000      0.0098      0.0043      0.1388      0.1027      0.0000      0.0666
 11      0.0000      0.2760      0.0042      0.0001      0.0000      0.0995      0.0173      0.0014      0.0000
 12      0.0000      0.4108      0.0065      0.0001      0.0440      0.0630      0.0657      0.0035      0.0096
 13      0.0000      0.3372      0.0054      0.0025      0.0008      0.0391      0.0920      0.0000      0.0029
 14      0.0000      0.3868      0.0034      0.0000      0.0048      0.0878      0.0746      0.0351      0.0379
 15      0.0000      0.3152      0.0123      0.0154      0.0099      0.0000      0.2379      0.0061      0.0101
 16      0.0000      9.5469     12.7304     21.3066      0.2814      2.7454     17.5422     12.9351     13.0502
 17      0.0000     47.6278     62.5622     53.9390     75.3956     70.6218     53.5471     61.6314     62.1995
 18      0.0000      0.8053      0.4575      0.0225      2.5677      0.5282      0.3575      0.0879      0.0961
 19      0.0000      1.9880      1.7347      1.7050      1.0981      0.4436      0.4903      5.2838      0.8933
 20      0.0000      0.3037      0.0141      0.0008      0.0188      0.0615      0.0000      0.0090      0.0000
 21      0.0000      0.3930      0.0039      0.0022      0.0092      0.0499      0.1338      0.0000      0.0000
 22      0.0000      0.3503      0.0000      0.0028      0.0086      0.2083      0.2089      0.0000      0.0096
 23      0.0000      0.2883      0.0014      0.0000      0.0118      0.0541      0.1085      0.0216      0.0032
 24      0.0000      0.3958      0.0071      0.0000      0.0000      0.0000      0.0921      0.0022      0.0000
 25      0.8135      0.3734      0.0034      0.0000      0.0003      0.2581      0.0354      0.0000      0.0000
 26      0.0000      0.3854      0.0019      0.0000      0.0072      0.0757      0.1726      0.0011      0.0000
 27      1.0131      0.3741      0.0068      0.0011      0.0171      0.2082      0.1690      0.0250      0.0068
 28      0.0000      0.4331      0.0060      0.0122      0.0196      0.2096      0.0000      0.0000      0.0044
 29      0.0000      0.4050      0.0000      0.0000      0.0026      0.0209      0.0672      0.0022      0.0327
 30      0.1618      0.4039      0.0000      0.0082      0.0233      0.2581      0.1490      0.0000      0.0000
 31      0.0000      0.4151      0.0095      0.0002      0.0001      0.1020      0.0884      0.0034      0.0000
 32      0.0000      0.3383      0.0074      0.0262      0.0157      0.0000      0.5394      0.1163      0.0000
 33      0.0000      0.3252      0.0381      0.0036      0.0000      0.0576      0.0000      0.0000      0.0000
 34      0.0000      0.4095      0.0000      0.0058      0.0096      0.0232      0.0468      0.0060      0.0000
 35      2.7862      1.1085      1.3690      1.2658      0.0805      3.2630      0.2437      1.3165      0.1363
 36      0.0000      7.3205     10.2313      3.4740     13.9496      8.8455      7.1649      9.0220      9.4610
 37      0.0000      0.4099      0.0037      0.0025      0.0042      0.0044      0.0286      0.0000      0.0065
 38      0.0000      0.3093      0.0043      0.0010      0.0000      0.0241      0.2013      0.0016      0.0021
 39      0.0000      0.3758      0.0000      0.0070      0.0000      0.1284      0.0000      0.0011      0.0009
 40      0.0000      0.3516      0.0124      0.0008      0.0005      0.1067      0.2646      0.0000      0.0000
 41      0.0000      0.3702      0.0072      0.0049      0.0000      0.0000      0.0000      0.0109      0.0177
 42      0.0000      0.3254      0.0033      0.0013      0.0094      0.0992      0.0798      0.0058      0.0265
 43      3.6170      0.3774      0.0000      0.0048      0.0000      0.1528      0.0000      0.0020      0.0396
 44      0.0000      0.2962      0.0093      0.0014      0.0009      0.0000      0.1348      0.0027      0.0056
 45      0.9198      0.4109      0.0043      0.0078      0.0039      0.3849      0.1712      0.0025      0.0000
 46      0.0000      0.4353      0.0207      0.0000      0.0075      0.0000      0.0431      0.0482      0.0148
 47      3.9274      0.3345      0.0023      0.0000      0.0150      0.1609      0.2814      0.0346      0.0041
 48     16.0456      0.3495      0.0019      0.0102      0.0079      0.1784      0.1132      0.0014      0.0028
 49      0.0000      0.4554      0.0008      0.0038      0.0034      0.0356      0.0000      0.0078      0.0103
 50      0.0000      0.4627      0.0023      0.0039      0.0125      0.0000      0.2078      0.0021      0.0077
 51     16.4168     10.6601     10.8879     20.1076      8.0634      7.5530     12.8726     11.0247     15.3992
 52      4.2927      0.5858      0.1341      0.0104      0.0846      0.5613      0.1381      0.0188      0.1057
 53      0.0000      0.5018      0.0000      0.0000      0.0000      0.1178      0.1154      0.0032      0.0198
 54      0.0000      0.3633      0.0127      0.0000      0.0047      0.0664      0.0000      0.0019      0.0146
 55      2.8760      0.2921      0.0022      0.0026      0.0047      0.1445      0.0466      0.0000      0.0081
 56      2.7930      0.3263      0.0002      0.0000      0.0000      0.2121      0.0000      0.0000      0.0029
 57      0.0000      0.3077      0.0019      0.0026      0.0117      0.0355      0.0000      0.0024      0.0211
 58      0.0000      0.3934      0.0098      0.0000      0.0017      0.1175      0.0210      0.0023      0.0067
 59      6.9534      0.3562      0.0109      0.0000      0.0225      0.1806      0.0507      0.0306      0.0155
 60      0.0000      0.3491      0.0000      0.0010      0.0250      0.2051      0.1823      0.0097      0.0068
 61      2.9124      0.3407      0.0087      0.0000      0.0154      0.1431      0.0156      0.0043      0.0093
 62      0.0000      0.4081      0.0064      0.0034      0.0237      0.0671      0.0092      0.0033      0.0043
 63     10.1021      0.3434      0.0000      0.0013      0.0000      0.1804      0.3477      0.0346      0.0000
 64     23.0768      0.3355      0.0042      0.0015      0.0148      0.1758      0.1545      0.0000      0.0224
 65      0.0000      0.3837      0.0000      0.0000      0.0083      0.0146      0.0116      0.0064      0.0076
 66      0.0000      0.3739      0.0121      0.0033      0.0336      0.0904      0.0323      0.0007      0.0000

# j      m_j: min, <> & last-chain-values for 1 ...  7 chains
  1  6.4285E-03  6.3999E-03  6.3973E-03  1.2248E-04  1.2311E-04  8.1322E-03  1.6417E-02  9.4794E-04  7.4212E-04
  2  0.0000E+00  4.9966E-04  0.0000E+00  2.5052E-06  6.4779E-06  6.6112E-05  2.0930E-04  0.0000E+00  4.1457E-06
  3  0.0000E+00  7.5937E-04  2.2260E-06  0.0000E+00  2.4425E-05  0.0000E+00  8.9312E-05  2.5901E-05  1.0703E-05
  4  5.6712E-02  8.1704E-04  0.0000E+00  4.8841E-06  0.0000E+00  2.0474E-04  2.2926E-04  0.0000E+00  3.1004E-05
  5  0.0000E+00  1.0691E-03  0.0000E+00  0.0000E+00  0.0000E+00  3.1488E-04  4.2198E-04  0.0000E+00  0.0000E+00
  6  0.0000E+00  1.8507E-03  0.0000E+00  3.7279E-05  0.0000E+00  7.7730E-04  4.9574E-04  0.0000E+00  1.7637E-06
  7  0.0000E+00  2.5248E-03  4.4374E-05  1.3959E-05  8.3552E-05  3.6250E-04  4.3931E-04  0.0000E+00  9.3847E-05
  8  0.0000E+00  3.6577E-03  2.7864E-05  0.0000E+00  5.7111E-05  7.7369E-04  0.0000E+00  0.0000E+00  7.0069E-05
  9  0.0000E+00  4.6550E-03  0.0000E+00  1.0200E-05  1.2256E-05  6.0266E-04  7.0762E-04  5.8343E-05  7.8889E-05
 10  0.0000E+00  5.1134E-03  0.0000E+00  1.3754E-04  5.6458E-05  1.8652E-03  1.4841E-03  0.0000E+00  9.1318E-04
 11  0.0000E+00  8.3660E-03  1.0718E-04  2.1776E-06  0.0000E+00  2.5142E-03  4.7024E-04  3.6036E-05  0.0000E+00
 12  0.0000E+00  1.9749E-02  2.6553E-04  6.2248E-06  1.7185E-03  2.5243E-03  2.8319E-03  1.4451E-04  3.9430E-04
 13  0.0000E+00  4.5696E-02  6.1820E-04  3.0044E-04  8.9505E-05  4.4160E-03  1.1170E-02  0.0000E+00  3.3098E-04
 14  0.0000E+00  1.7578E-01  1.3082E-03  0.0000E+00  1.7604E-03  3.3264E-02  3.0367E-02  1.3693E-02  1.4677E-02
 15  0.0000E+00  2.3320E-01  7.7047E-03  9.9905E-03  5.9554E-03  0.0000E+00  1.5772E-01  3.8797E-03  6.3862E-03
 16  0.0000E+00  1.1943E+01  1.3531E+01  2.3309E+01  2.8583E-01  2.8639E+00  1.9666E+01  1.3891E+01  1.3897E+01
 17  0.0000E+00  7.7294E+01  8.6262E+01  7.6548E+01  9.9365E+01  9.5568E+01  7.7875E+01  8.5859E+01  8.5924E+01
 18  0.0000E+00  3.2411E-03  1.5645E-03  7.9139E-05  8.3923E-03  1.7726E-03  1.2895E-03  3.0360E-04  3.2940E-04
 19  0.0000E+00  3.2114E-03  2.3808E-03  2.4085E-03  1.4406E-03  5.9756E-04  7.0971E-04  7.3269E-03  1.2283E-03
 20  0.0000E+00  5.3553E-04  2.1115E-05  1.2805E-06  2.6952E-05  9.0410E-05  0.0000E+00  1.3661E-05  0.0000E+00
 21  0.0000E+00  8.4120E-04  7.1657E-06  4.0856E-06  1.5947E-05  8.9061E-05  2.5659E-04  0.0000E+00  0.0000E+00
 22  0.0000E+00  1.2680E-03  0.0000E+00  8.8700E-06  2.5254E-05  6.2871E-04  6.7778E-04  0.0000E+00  2.9465E-05
 23  0.0000E+00  1.4092E-03  5.9938E-06  0.0000E+00  4.6756E-05  2.2044E-04  4.7534E-04  9.0847E-05  1.3334E-05
 24  0.0000E+00  2.8784E-03  4.4037E-05  0.0000E+00  0.0000E+00  0.0000E+00  6.0008E-04  1.3948E-05  0.0000E+00
 25  1.2501E-02  3.7441E-03  2.8923E-05  0.0000E+00  2.6434E-06  2.1584E-03  3.1832E-04  0.0000E+00  0.0000E+00
 26  0.0000E+00  6.4607E-03  2.7609E-05  0.0000E+00  9.7425E-05  1.0579E-03  2.5923E-03  1.6070E-05  0.0000E+00
 27  5.2090E-02  1.2553E-02  1.9367E-04  3.2565E-05  4.6703E-04  5.8234E-03  5.0826E-03  7.1898E-04  1.9486E-04
 28  0.0000E+00  4.2170E-02  4.9348E-04  1.0398E-03  1.5527E-03  1.7021E-02  0.0000E+00  0.0000E+00  3.6765E-04
 29  0.0000E+00  6.8714E-02  0.0000E+00  0.0000E+00  3.5757E-04  2.9534E-03  1.0216E-02  3.1557E-04  4.7234E-03
 30  8.7870E-02  1.4317E-01  0.0000E+00  2.5552E-03  6.7212E-03  7.6285E-02  4.7326E-02  0.0000E+00  0.0000E+00
 31  0.0000E+00  2.5882E-01  5.0442E-03  1.1320E-04  6.6042E-05  5.3056E-02  4.9412E-02  1.7987E-03  0.0000E+00
 32  0.0000E+00  2.8386E-01  5.2980E-03  1.9254E-02  1.0697E-02  0.0000E+00  4.0555E-01  8.3751E-02  0.0000E+00
 33  0.0000E+00  6.0391E-01  6.0059E-02  5.8419E-03  0.0000E+00  8.9230E-02  0.0000E+00  0.0000E+00  0.0000E+00
 34  0.0000E+00  1.0298E+00  0.0000E+00  1.2759E-02  1.9586E-02  4.8671E-02  1.0552E-01  1.2850E-02  0.0000E+00
 35  1.3780E-02  3.5771E-03  3.7537E-03  3.5720E-03  2.1088E-04  8.7806E-03  7.0473E-04  3.6469E-03  3.7436E-04
 36  0.0000E+00  9.5580E-03  1.1350E-02  3.9665E-03  1.4791E-02  9.6303E-03  8.3834E-03  1.0112E-02  1.0515E-02
 37  0.0000E+00  5.7892E-04  4.4013E-06  3.0951E-06  4.8371E-06  5.1393E-06  3.6255E-05  0.0000E+00  7.7888E-06
 38  0.0000E+00  1.1834E-03  1.3917E-05  3.3943E-06  0.0000E+00  7.6945E-05  6.9032E-04  5.2710E-06  6.7303E-06
 39  0.0000E+00  2.0702E-03  0.0000E+00  3.3647E-05  0.0000E+00  5.9000E-04  0.0000E+00  5.1359E-06  4.1505E-06
 40  0.0000E+00  3.1311E-03  9.3688E-05  6.2877E-06  3.7870E-06  7.9217E-04  2.1117E-03  0.0000E+00  0.0000E+00
 41  0.0000E+00  5.1264E-03  8.4393E-05  5.8749E-05  0.0000E+00  0.0000E+00  0.0000E+00  1.2909E-04  2.0904E-04
 42  0.0000E+00  8.2737E-03  7.1323E-05  2.9393E-05  1.9505E-04  2.1019E-03  1.8180E-03  1.2687E-04  5.7244E-04
 43  2.0575E-01  1.4008E-02  0.0000E+00  1.5498E-04  0.0000E+00  4.7294E-03  0.0000E+00  6.3881E-05  1.2516E-03
 44  0.0000E+00  1.8930E-02  5.0604E-04  7.8520E-05  4.5716E-05  0.0000E+00  7.7176E-03  1.4809E-04  3.0206E-04
 45  1.7874E-01  5.2106E-02  4.6394E-04  8.6821E-04  4.0359E-04  4.0696E-02  1.9456E-02  2.6890E-04  0.0000E+00
 46  0.0000E+00  1.0146E-01  4.0925E-03  0.0000E+00  1.4165E-03  0.0000E+00  9.0057E-03  9.6528E-03  2.9308E-03
 47  2.8426E+00  1.5799E-01  9.2292E-04  0.0000E+00  5.7358E-03  6.3377E-02  1.1910E-01  1.4039E-02  1.6672E-03
 48  2.0482E+01  2.9108E-01  1.3390E-03  7.3976E-03  5.3285E-03  1.2388E-01  8.4498E-02  1.0235E-03  2.0048E-03
 49  0.0000E+00  8.6206E-01  1.3403E-03  6.3692E-03  5.2885E-03  5.6249E-02  0.0000E+00  1.2732E-02  1.6546E-02
 50  0.0000E+00  1.6224E+00  6.7604E-03  1.1914E-02  3.5554E-02  0.0000E+00  6.5278E-01  6.2149E-03  2.2961E-02
 51  4.8354E-02  2.0488E-02  1.7779E-02  3.3794E-02  1.2585E-02  1.2104E-02  2.2171E-02  1.8189E-02  2.5193E-02
 52  6.4794E-03  5.7699E-04  1.1224E-04  8.9202E-06  6.7678E-05  4.6096E-04  1.2190E-04  1.5923E-05  8.8612E-05
 53  0.0000E+00  7.4442E-04  0.0000E+00  0.0000E+00  0.0000E+00  1.4575E-04  1.5349E-04  4.0230E-06  2.5015E-05
 54  0.0000E+00  1.1043E-03  3.2786E-05  0.0000E+00  1.1548E-05  1.6819E-04  0.0000E+00  4.9515E-06  3.7674E-05
 55  2.0630E-02  1.3673E-03  8.8680E-06  1.0762E-05  1.7883E-05  5.6384E-04  1.9561E-04  0.0000E+00  3.2081E-05
 56  3.9654E-02  3.0227E-03  1.2448E-06  0.0000E+00  0.0000E+00  1.6382E-03  0.0000E+00  0.0000E+00  2.2830E-05
 57  0.0000E+00  3.7831E-03  2.0060E-05  2.7668E-05  1.1656E-04  3.6439E-04  0.0000E+00  2.5085E-05  2.2079E-04
 58  0.0000E+00  8.1815E-03  1.7301E-04  0.0000E+00  2.9369E-05  2.0379E-03  3.9108E-04  4.1932E-05  1.1779E-04
 59  4.7696E-01  1.5942E-02  4.1493E-04  0.0000E+00  8.1884E-04  6.7386E-03  2.0332E-03  1.1760E-03  5.9026E-04
 60  0.0000E+00  2.9020E-02  0.0000E+00  7.0400E-05  1.6856E-03  1.4216E-02  1.3578E-02  6.9088E-04  4.7854E-04
 61  8.1075E-01  6.1882E-02  1.3407E-03  0.0000E+00  2.2718E-03  2.1668E-02  2.5389E-03  6.7404E-04  1.4311E-03
 62  0.0000E+00  1.3518E-01  1.8147E-03  9.9032E-04  6.3743E-03  1.8525E-02  2.7244E-03  9.2571E-04  1.2050E-03
 63  1.0202E+01  2.2630E-01  0.0000E+00  7.2725E-04  0.0000E+00  9.9114E-02  2.0534E-01  1.9585E-02  0.0000E+00
 64  6.4457E+01  6.1147E-01  6.5061E-03  2.4659E-03  2.1948E-02  2.6711E-01  2.5236E-01  3.8993E-05  3.4675E-02
 65  0.0000E+00  1.4783E+00  0.0000E+00  0.0000E+00  2.6003E-02  4.6790E-02  4.0123E-02  2.1103E-02  2.4893E-02
 66  0.0000E+00  2.0353E+00  5.6076E-02  1.5763E-02  1.4838E-01  4.1012E-01  1.5746E-01  3.1434E-03  0.0000E+00

# AV, chi2 & Mass for <> & i_chain = 1 ...  7 solutions
AV       0.3780      0.3169      0.3419      0.3481      0.3256      0.3284      0.3735      0.3534      0.3420
chi2 1.3894E-05  3.5780E-05  1.9873E-05  1.9878E-05  1.9828E-05  1.9610E-05  1.9987E-05  1.9936E-05  1.9869E-05
Mass 4.0117E-13  5.6635E-13  6.8937E-13  6.7536E-13  7.0566E-13  6.8981E-13  6.8196E-13  6.9292E-13  6.8820E-13
 160.91                                  [v0_min (km/s) before EX0s...]
  48.07                                  [vd_min (km/s) before EX0s...]


## Synthetic spectrum (Best Model) ##l_obs f_obs f_syn wei
 3478    [Nl_obs]
 3741.00    0.51999   0.83470    0.000
 3742.00    0.58274   0.88753    0.000
 3743.00    0.58121   0.90567    0.000
 3744.00    0.50822   0.88660    0.000
 3745.00    0.39361   0.84943   -1.000
 3746.00    0.40445   0.81386   -1.000
 3747.00    0.47901   0.77879   -1.000
 3748.00    0.52509   0.74350   -1.000
 3749.00    0.55864   0.70549   -1.000
 3750.00    0.69986   0.65106   -1.000
 3751.00    0.88174   0.60189   -1.000
 3752.00    0.81822   0.60562   -1.000
 3753.00    0.67606   0.66771   -1.000
 3754.00    0.82633   0.74695   -1.000
 3755.00    1.05496   0.81485   -1.000
 3756.00    1.03099   0.87248   -1.000
 3757.00    0.95157   0.91340   -1.000
 3758.00    0.86804   0.91344   -1.000
 3759.00    0.78378   0.86853   -1.000
 3760.00    0.72985   0.82171   -1.000
 3761.00    0.67995   0.81465   -1.000
 3762.00    0.72074   0.84176   -1.000
 3763.00    0.77006   0.87191   -1.000
 3764.00    0.83174   0.88304   -1.000
 3765.00    0.89413   0.87621   -1.000
 3766.00    0.79930   0.86863   -1.000
 3767.00    0.70240   0.86059   -1.000
 3768.00    0.80667   0.83116   -1.000
 3769.00    0.90912   0.79014   -1.000
 3770.00    0.96739   0.76257   -1.000
 3771.00    1.00726   0.73728   -1.000
 3772.00    0.80596   0.70778   -1.000
 3773.00    0.63280   0.71084   -1.000
 3774.00    0.70673   0.76072   -1.000
 3775.00    0.76837   0.81931   -1.000
 3776.00    0.75028   0.85830   -1.000
 3777.00    0.76353   0.88563   -1.000
 3778.00    0.93532   0.91257   -1.000
 3779.00    1.05010   0.93760   -1.000
 3780.00    0.93149   0.95935   -1.000
 3781.00    0.86572   0.98612   -1.000
 3782.00    0.97916   1.01444   -1.000
 3783.00    1.04999   1.02905   -1.000
 3784.00    0.99894   1.03287   -1.000
 3785.00    0.96101   1.03984   -1.000
 3786.00    0.95518   1.04256   -1.000
 3787.00    0.87451   1.01601   -1.000
 3788.00    0.63614   0.96531   -1.000
 3789.00    0.55030   0.92546   -1.000
 3790.00    0.74386   0.90466   -1.000
 3791.00    0.83103   0.89026   -1.000
 3792.00    0.74790   0.88296   -1.000
 3793.00    0.73264   0.88375   -1.000
 3794.00    0.81273   0.87437   -1.000
 3795.00    0.82348   0.84016   -1.000
 3796.00    0.74851   0.79040   -1.000
 3797.00    0.65307   0.74163   -1.000
 3798.00    0.53530   0.69327   -1.000
 3799.00    0.52059   0.63969   -1.000
 3800.00    0.60491   0.60821   -1.000
 3801.00    0.59486   0.63587   -1.000
 3802.00    0.50484   0.71187   -1.000
 3803.00    0.57545   0.79238   -1.000
 3804.00    0.76593   0.85699   -1.000
 3805.00    0.99632   0.90877   -1.000
 3806.00    1.25289   0.94175   -1.000
 3807.00    1.27465   0.94777   -1.000
 3808.00    1.16168   0.93465   -1.000
 3809.00    1.02892   0.92890   -1.000
 3810.00    0.88625   0.95090   -1.000
 3811.00    0.65854   0.98859   -1.000
 3812.00    0.39404   1.01699   -1.000
 3813.00    0.54521   1.02153   -1.000
 3814.00    0.85052   0.99838   -1.000
 3815.00    0.92267   0.95781   -1.000
 3816.00    0.92153   0.92055   -1.000
 3817.00    0.77843   0.89890   -1.000
 3818.00    0.59808   0.89897   -1.000
 3819.00    0.76856   0.91447   -1.000
 3820.00    1.01420   0.90940   -1.000
 3821.00    1.27042   0.86499   -1.000
 3822.00    1.52845   0.82521   -1.000
 3823.00    1.38856   0.83732   -1.000
 3824.00    1.19761   0.87926   -1.000
 3825.00    1.19750   0.89479   -1.000
 3826.00    1.21453   0.86762   -1.000
 3827.00    1.17009   0.82913   -1.000
 3828.00    1.12236   0.80700   -1.000
 3829.00    0.72860   0.79907   -1.000
 3830.00    0.33122   0.79337   -1.000
 3831.00    0.21337   0.78594   -1.000
 3832.00    0.10274   0.77268   -1.000
 3833.00    0.15247   0.73989   -1.000
 3834.00    0.19964   0.68405   -1.000
 3835.00    0.21508   0.62368   -1.000
 3836.00    0.21064   0.57643   -1.000
 3837.00    0.03811   0.55653   -1.000
 3838.00   -0.11563   0.57190    0.000
 3839.00   -0.15122   0.60651    0.000
 3840.00   -0.07358   0.64128    0.000
 3841.00    0.56270   0.67598   -1.000
 3842.00    1.10330   0.71507   -1.000
 3843.00    1.26084   0.76532   -1.000
 3844.00    1.34905   0.82516   -1.000
 3845.00    1.20671   0.87412   -1.000
 3846.00    1.10545   0.90088   -1.000
 3847.00    1.11950   0.91270    0.000
 3848.00    0.99001   0.92224    0.000
 3849.00    0.51574   0.93612    0.000
 3850.00    0.37298   0.94260    0.000
 3851.00    0.91772   0.93037    0.000
 3852.00    1.27541   0.91956    0.000
 3853.00    1.29569   0.93375    0.000
 3854.00    1.24714   0.95595    0.000
 3855.00    1.09003   0.95903    0.000
 3856.00    1.14070   0.94592    0.000
 3857.00    1.47900   0.92954    0.000
 3858.00    1.45164   0.91782    0.000
 3859.00    0.97875   0.91389    0.000
 3860.00    0.92488   0.90330    0.000
 3861.00    1.32113   0.88155    0.000
 3862.00    1.38004   0.87582    0.000
 3863.00    1.11932   0.90435    0.000
 3864.00    0.94816   0.94719    0.000
 3865.00    0.85183   0.97409    0.000
 3866.00    1.06167   0.97638    0.000
 3867.00    1.49669   0.96490    0.000
 3868.00    1.46759   0.95342    0.000
 3869.00    1.13871   0.94745    0.000
 3870.00    0.85308   0.94534    0.000
 3871.00    0.59190   0.93927    0.000
 3872.00    0.44535   0.91914    0.000
 3873.00    0.35519   0.88976    0.000
 3874.00    0.37662   0.87246    0.000
 3875.00    0.44550   0.88619    0.000
 3876.00    0.52937   0.92326    0.000
 3877.00    0.61869   0.95154    0.000
 3878.00    0.79256   0.94721    0.000
 3879.00    0.99249   0.91261    0.000
 3880.00    0.96751   0.87391    0.000
 3881.00    0.88478   0.86233   -1.000
 3882.00    0.70576   0.86920   -1.000
 3883.00    0.50660   0.85854   -1.000
 3884.00    0.72251   0.83317   -1.000
 3885.00    1.00687   0.82395   -1.000
 3886.00    1.03723   0.82093   -1.000
 3887.00    1.03615   0.78330   -1.000
 3888.00    0.66516   0.71492   -1.000
 3889.00    0.26253   0.65347   -1.000
 3890.00    0.34312   0.61172   -1.000
 3891.00    0.44779   0.60070   -1.000
 3892.00    0.92012   0.64360   -1.000
 3893.00    1.38896   0.72570   -1.000
 3894.00    1.24367   0.80285   -1.000
 3895.00    1.12875   0.85048   -1.000
 3896.00    1.63535   0.87187   -1.000
 3897.00    2.06956   0.88324   -1.000
 3898.00    1.64776   0.90400   -1.000
 3899.00    1.25968   0.93160   -1.000
 3900.00    1.14641   0.94308   -1.000
 3901.00    1.04178   0.94101   -1.000
 3902.00    0.98992   0.95076   -1.000
 3903.00    0.96092   0.97447   -1.000
 3904.00    1.04192   0.98436   -1.000
 3905.00    1.03921   0.97464   -1.000
 3906.00    0.70869   0.96340   -1.000
 3907.00    0.49604   0.95126   -1.000
 3908.00    0.66755   0.94823   -1.000
 3909.00    0.72869   0.97465   -1.000
 3910.00    0.48545   1.01699   -1.000
 3911.00    0.25474   1.04692   -1.000
 3912.00    0.05363   1.05906   -1.000
 3913.00    0.10882   1.06537   -1.000
 3914.00    0.68713   1.06924   -1.000
 3915.00    1.04723   1.06507   -1.000
 3916.00    1.01979   1.05744   -1.000
 3917.00    0.93977   1.05201   -1.000
 3918.00    0.77805   1.04249   -1.000
 3919.00    0.72864   1.02941   -1.000
 3920.00    0.83244   1.01255   -1.000
 3921.00    0.76199   0.98555   -1.000
 3922.00    0.48221   0.95508   -1.000
 3923.00    0.21946   0.93903   -1.000
 3924.00   -0.02527   0.94317    0.000
 3925.00   -0.10351   0.95528    0.000
 3926.00   -0.02623   0.96285    0.000
 3927.00   -0.07942   0.95407    0.000
 3928.00   -0.24006   0.92709    0.000
 3929.00   -0.11799   0.89351    0.000
 3930.00    0.20902   0.85946   -1.000
 3931.00    0.41865   0.82610   -1.000
 3932.00    0.55358   0.79484   -1.000
 3933.00    0.21773   0.76270   -1.000
 3934.00   -0.38013   0.72604    0.000
 3935.00   -0.63276   0.69152    0.000
 3936.00   -0.71826   0.67830    0.000
 3937.00   -0.60647   0.69885    0.000
 3938.00   -0.41219   0.74379    0.000
 3939.00   -0.07028   0.79383    0.000
 3940.00    0.32446   0.83914   -1.000
 3941.00    0.60435   0.87887   -1.000
 3942.00    0.84954   0.90901   -1.000
 3943.00    1.11526   0.92377   -1.000
 3944.00    1.38614   0.92423   -1.000
 3945.00    0.88055   0.91541   -1.000
 3946.00    0.21662   0.91334   -1.000
 3947.00   -0.04767   0.93922    0.000
 3948.00   -0.24797   0.97931    0.000
 3949.00   -0.00564   0.99657    0.000
 3950.00    0.28954   0.99277   -1.000
 3951.00    0.44357   0.99989   -1.000
 3952.00    0.58611   1.02223   -1.000
 3953.00    0.60566   1.03270   -1.000
 3954.00    0.61955   1.02021   -1.000
 3955.00    0.35932   1.01126   -1.000
 3956.00    0.10119   1.02190   -1.000
 3957.00    0.13449   1.02305   -1.000
 3958.00    0.17899   0.99868   -1.000
 3959.00    0.43552   0.97792   -1.000
 3960.00    0.64566   0.97971    0.000
 3961.00    0.33311   0.98054    0.000
 3962.00    0.09160   0.94555    0.000
 3963.00    0.40857   0.87570    0.000
 3964.00    0.68250   0.81268    0.000
 3965.00    0.70099   0.77830    0.000
 3966.00    0.65877   0.74893    0.000
 3967.00    0.33149   0.70330    0.000
 3968.00    0.05369   0.64226    0.000
 3969.00   -0.03447   0.57332    0.000
 3970.00   -0.05258   0.50689    0.000
 3971.00    0.15325   0.45959    0.000
 3972.00    0.32627   0.45345    0.000
 3973.00    0.41046   0.49826    0.000
 3974.00    0.42251   0.57412    0.000
 3975.00    0.26705   0.65255    0.000
 3976.00    0.21731   0.72455    0.000
 3977.00    0.37990   0.79066    0.000
 3978.00    0.48510   0.84603    0.000
 3979.00    0.48989   0.89278    0.000
 3980.00    0.42999   0.93956    0.000
 3981.00    0.27106   0.98520   -1.000
 3982.00    0.32371   1.01840   -1.000
 3983.00    0.66090   1.02843   -1.000
 3984.00    0.89341   1.02192   -1.000
 3985.00    1.00196   1.01909   -1.000
 3986.00    0.98007   1.02955   -1.000
 3987.00    0.82197   1.04782   -1.000
 3988.00    0.73612   1.06388   -1.000
 3989.00    0.71683   1.08020   -1.000
 3990.00    0.67834   1.09984   -1.000
 3991.00    0.62426   1.10620   -1.000
 3992.00    0.59488   1.09987   -1.000
 3993.00    0.58316   1.10395   -1.000
 3994.00    0.63789   1.12035   -1.000
 3995.00    0.73430   1.13167   -1.000
 3996.00    0.61421   1.12702   -1.000
 3997.00    0.37547   1.11116   -1.000
 3998.00    0.43360   1.09216   -1.000
 3999.00    0.63312   1.07636   -1.000
 4000.00    0.65612   1.08050   -1.000
 4001.00    0.60657   1.11375   -1.000
 4002.00    0.84372   1.15075   -1.000
 4003.00    1.18157   1.16638   -1.000
 4004.00    1.13822   1.17003   -1.000
 4005.00    0.98192   1.16641   -1.000
 4006.00    0.70946   1.13397   -1.000
 4007.00    0.40847   1.07898   -1.000
 4008.00    0.28495   1.05349   -1.000
 4009.00    0.19671   1.07873   -1.000
 4010.00    0.36291   1.11682   -1.000
 4011.00    0.56864   1.13615   -1.000
 4012.00    0.69302   1.14381   -1.000
 4013.00    0.80805   1.15227   -1.000
 4014.00    0.75849   1.16029   -1.000
 4015.00    0.69621   1.16677   -1.000
 4016.00    1.00186   1.17406   -1.000
 4017.00    1.32300   1.18335   -1.000
 4018.00    1.23046   1.18491   -1.000
 4019.00    1.12920   1.17364   -1.000
 4020.00    0.81111   1.17139   -1.000
 4021.00    0.52185   1.18878   -1.000
 4022.00    0.74070   1.19920   -1.000
 4023.00    0.95175   1.18839   -1.000
 4024.00    1.07895   1.17176   -1.000
 4025.00    1.19582   1.15415   -1.000
 4026.00    1.23429   1.12601   -1.000
 4027.00    1.23714   1.09942   -1.000
 4028.00    1.03456   1.10235   -1.000
 4029.00    0.82135   1.13796   -1.000
 4030.00    0.55935   1.17493   -1.000
 4031.00    0.41235   1.17359   -1.000
 4032.00    0.69676   1.12589   -1.000
 4033.00    0.92944   1.07165   -1.000
 4034.00    1.00000   1.04578   -1.000
 4035.00    0.96273   1.04312   -1.000
 4036.00    0.63861   1.05710   -1.000
 4037.00    0.59651   1.09193   -1.000
 4038.00    1.19839   1.14474   -1.000
 4039.00    1.55229   1.19759   -1.000
 4040.00    1.41597   1.22534   -1.000
 4041.00    1.36983   1.21925   -1.000
 4042.00    1.47905   1.19499   -1.000
 4043.00    1.44745   1.17946   -1.000
 4044.00    1.20342   1.18146   -1.000
 4045.00    1.10322   1.16722   -1.000
 4046.00    1.19368   1.10346   -1.000
 4047.00    1.03526   1.02080   -1.000
 4048.00    0.58625   0.99257   -1.000
 4049.00    0.52493   1.04511   -1.000
 4050.00    0.86275   1.12277   -1.000
 4051.00    1.02491   1.17149   -1.000
 4052.00    1.02757   1.19318   -1.000
 4053.00    1.07235   1.19778   -1.000
 4054.00    1.15085   1.18362   -1.000
 4055.00    1.09155   1.15876   -1.000
 4056.00    0.93524   1.13402   -1.000
 4057.00    0.84330   1.11669   -1.000
 4058.00    0.79112   1.10839   -1.000
 4059.00    0.87246   1.09752   -1.000
 4060.00    1.02584   1.08803   -1.000
 4061.00    1.12201   1.10276   -1.000
 4062.00    1.19137   1.13510   -1.000
 4063.00    1.28662   1.14495   -1.000
 4064.00    1.39232   1.10513   -1.000
 4065.00    1.25898   1.04140   -1.000
 4066.00    1.04321   1.01709   -1.000
 4067.00    1.05982   1.05057   -1.000
 4068.00    1.14390   1.08687   -1.000
 4069.00    1.13598   1.09514   -1.000
 4070.00    1.10596   1.10743   -1.000
 4071.00    1.00806   1.13167   -1.000
 4072.00    0.89701   1.12587   -1.000
 4073.00    1.00095   1.08152   -1.000
 4074.00    1.13729   1.05719   -1.000
 4075.00    1.14319   1.08875   -1.000
 4076.00    1.13466   1.12700   -1.000
 4077.00    1.01818   1.11638   -1.000
 4078.00    0.89380   1.06452   -1.000
 4079.00    0.95574   1.01734   -1.000
 4080.00    1.02482   1.01408   -1.000
 4081.00    1.25600   1.05762   -1.000
 4082.00    1.48293   1.11988   -1.000
 4083.00    1.51576   1.16715   -1.000
 4084.00    1.54841   1.17540   -1.000
 4085.00    1.57814   1.14939   -1.000
 4086.00    1.60915   1.11903   -1.000
 4087.00    1.65334   1.10668   -1.000
 4088.00    1.66937   1.11809   -1.000
 4089.00    1.47871   1.14677   -1.000
 4090.00    1.33967   1.17149   -1.000
 4091.00    1.49014   1.17557   -1.000
 4092.00    1.59708   1.16381    0.000
 4093.00    1.50925   1.14562    0.000
 4094.00    1.35974   1.12586    0.000
 4095.00    0.98368   1.11331    0.000
 4096.00    0.76218   1.09979    0.000
 4097.00    1.01602   1.06054    0.000
 4098.00    1.14576   1.00233    0.000
 4099.00    0.95115   0.95540    0.000
 4100.00    0.85436   0.92524    0.000
 4101.00    0.97728   0.88793    0.000
 4102.00    0.99859   0.81979    0.000
 4103.00    0.82220   0.73856    0.000
 4104.00    0.79641   0.70551    0.000
 4105.00    1.02617   0.75024    0.000
 4106.00    1.16877   0.83524    0.000
 4107.00    1.18180   0.91850    0.000
 4108.00    1.18171   0.98514    0.000
 4109.00    1.16448   1.02642    0.000
 4110.00    1.08520   1.04254    0.000
 4111.00    0.93451   1.04377    0.000
 4112.00    1.00118   1.04083    0.000
 4113.00    1.28849   1.04445    0.046
 4114.00    1.29030   1.06158    0.046
 4115.00    1.03650   1.08999    0.045
 4116.00    0.91800   1.11698    0.045
 4117.00    0.90627   1.13276    0.044
 4118.00    1.03502   1.14086    0.044
 4119.00    1.26127   1.13882    0.044
 4120.00    1.40665   1.11674    0.044
 4121.00    1.50282   1.09014    0.044
 4122.00    1.44187   1.08556    0.045
 4123.00    1.29743   1.09630    0.045
 4124.00    1.23295   1.10366    0.045
 4125.00    1.20534   1.11132    0.045
 4126.00    1.09767   1.12994    0.045
 4127.00    0.95821   1.14957    0.044
 4128.00    0.86287   1.14876    0.044
 4129.00    0.78246   1.12710    0.044
 4130.00    0.86396   1.10519    0.044
 4131.00    0.99151   1.09702    0.044
 4132.00    1.05037   1.09234    0.044
 4133.00    1.09311   1.07433    0.044
 4134.00    1.18192   1.04784    0.044
 4135.00    1.27942   1.03799    0.045
 4136.00    1.26580   1.05680    0.045
 4137.00    1.23595   1.09767    0.045
 4138.00    1.22636   1.14007    0.045
 4139.00    1.21892   1.16067    0.045
 4140.00    1.21098   1.16730    0.046
 4141.00    1.20301   1.17633    0.046
 4142.00    0.98639   1.17993    0.046
 4143.00    0.76258   1.15890    0.045
 4144.00    1.05553   1.09955    0.045
 4145.00    1.33800   1.02445    0.046
 4146.00    1.24020   0.99553    0.046
 4147.00    1.14325   1.03619    0.046
 4148.00    1.05945   1.09651    0.046
 4149.00    0.96812   1.13014    0.045
 4150.00    0.80248   1.13438    0.045
 4151.00    0.68188   1.11987    0.045
 4152.00    0.88102   1.10306    0.046
 4153.00    1.01536   1.09870    0.046
 4154.00    0.79595   1.09929    0.045
 4155.00    0.63799   1.09313    0.045
 4156.00    0.74865   1.08185    0.045
 4157.00    0.88632   1.07470    0.045
 4158.00    1.12119   1.07397    0.045
 4159.00    1.29200   1.08151    0.045
 4160.00    1.26955   1.10443    0.044
 4161.00    1.25258   1.13278    0.044
 4162.00    1.24973   1.14823    0.044
 4163.00    1.21848   1.15297    0.045
 4164.00    1.12450   1.16342    0.045
 4165.00    1.01034   1.17544    0.045
 4166.00    0.85755   1.17243    0.044
 4167.00    0.81887   1.15793    0.044
 4168.00    0.97091   1.13962    0.044
 4169.00    1.10558   1.11893    0.044
 4170.00    1.21481   1.11178    0.044
 4171.00    1.20811   1.12697    0.044
 4172.00    1.05209   1.13781    0.043
 4173.00    0.93128   1.11421    0.043
 4174.00    0.85041   1.06306    0.043
 4175.00    0.83955   1.02585    0.043
 4176.00    0.89876   1.02949    0.043
 4177.00    0.93356   1.05639    0.043
 4178.00    0.94679   1.07464    0.043
 4179.00    0.96789   1.07321    0.042
 4180.00    0.99510   1.06802    0.042
 4181.00    0.96538   1.07900    0.042
 4182.00    0.89674   1.09819    0.041
 4183.00    0.88042   1.10178    0.041
 4184.00    0.89546   1.09169    0.042
 4185.00    0.94137   1.09243    0.042
 4186.00    1.00342   1.11258    0.043
 4187.00    1.03461   1.13428    0.043
 4188.00    1.05179   1.12671    0.042
 4189.00    1.04014   1.09009    0.041
 4190.00    1.01724   1.07214    0.041
 4191.00    1.01203   1.09407    0.041
 4192.00    1.01270   1.11998    0.041
 4193.00    1.13090   1.12626    0.041
 4194.00    1.28186   1.13556    0.042
 4195.00    1.27665   1.15976    0.042
 4196.00    1.23560   1.16615    0.042
 4197.00    1.17969   1.13359    0.042
 4198.00    1.12104   1.08768    0.043
 4199.00    1.07131   1.05423    0.042
 4200.00    1.02284   1.03139    0.042
 4201.00    1.00460   1.02245    0.041
 4202.00    0.98944   1.03182    0.041
 4203.00    0.85943   1.04006    0.041
 4204.00    0.72193   1.04183    0.041
 4205.00    0.83770   1.05750    0.041
 4206.00    0.96130   1.08534    0.041
 4207.00    1.11760   1.10979    0.041
 4208.00    1.26682   1.13236    0.041
 4209.00    1.20804   1.15446    0.042
 4210.00    1.14576   1.16767    0.042
 4211.00    1.03248   1.16359    0.042
 4212.00    0.92624   1.15002    0.043
 4213.00    0.88656   1.14895    0.041
 4214.00    0.86787   1.16134    0.040
 4215.00    0.99345   1.16215    0.041
 4216.00    1.10946   1.13376    0.042
 4217.00    1.17464   1.08842    0.042
 4218.00    1.27522   1.07125    0.042
 4219.00    1.52701   1.10926    0.042
 4220.00    1.62655   1.16637    0.042
 4221.00    1.18965   1.20026    0.042
 4222.00    0.87207   1.21212    0.041
 4223.00    0.90780   1.21207    0.041
 4224.00    0.88941   1.19058    0.041
 4225.00    0.73444   1.14416    0.041
 4226.00    0.70533   1.08163    0.041
 4227.00    0.94971   1.00519    0.041
 4228.00    1.10511   0.92730    0.041
 4229.00    1.09270   0.89746    0.041
 4230.00    1.09470   0.95520    0.040
 4231.00    1.12040   1.05956    0.040
 4232.00    1.19950   1.14127    0.039
 4233.00    1.35569   1.17796    0.038
 4234.00    1.33452   1.16945    0.037
 4235.00    1.08818   1.13255    0.036
 4236.00    1.02286   1.10726    0.036
 4237.00    1.16005   1.09886    0.036
 4238.00    1.19927   1.08794    0.036
 4239.00    1.14182   1.08596    0.036
 4240.00    1.20159   1.09825    0.036
 4241.00    1.36338   1.10933    0.036
 4242.00    1.38610   1.12364    0.036
 4243.00    1.30222   1.14908    0.036
 4244.00    1.31118   1.16998    0.037
 4245.00    1.38269   1.18362    0.038
 4246.00    1.26351   1.20694    0.038
 4247.00    1.03175   1.22445    0.038
 4248.00    0.83983   1.20618    0.038
 4249.00    0.66843   1.16240    0.038
 4250.00    0.61715   1.12477    0.037
 4251.00    0.61945   1.09875    0.037
 4252.00    0.76016   1.07537    0.037
 4253.00    0.95393   1.07340    0.037
 4254.00    1.16043   1.10164    0.037
 4255.00    1.37107   1.11799    0.037
 4256.00    1.48228   1.09850    0.037
 4257.00    1.56635   1.08422    0.037
 4258.00    1.53367   1.11280    0.037
 4259.00    1.47482   1.15546    0.037
 4260.00    1.38468   1.15658    0.037
 4261.00    1.28895   1.10999    0.038
 4262.00    1.30858   1.05764    0.037
 4263.00    1.34399   1.04582    0.037
 4264.00    1.30666   1.09239    0.037
 4265.00    1.26223   1.16384    0.037
 4266.00    1.25797   1.21285    0.037
 4267.00    1.25616   1.23117    0.037
 4268.00    1.29440   1.22862    0.037
 4269.00    1.33335   1.20346    0.036
 4270.00    1.30177   1.16566    0.036
 4271.00    1.27145   1.12944    0.036
 4272.00    1.27428   1.08229    0.036
 4273.00    1.27054   1.01863    0.036
 4274.00    1.17644   0.97768    0.036
 4275.00    1.08794   0.98644    0.036
 4276.00    1.05033   1.01118    0.036
 4277.00    1.01940   1.03251    0.036
 4278.00    1.03299   1.07553    0.036
 4279.00    1.04798   1.13763    0.036
 4280.00    1.07024   1.18181    0.036
 4281.00    1.12014   1.18337    0.036
 4282.00    1.28546   1.15203   -2.000
 4283.00    1.43934   1.12552   -2.000
 4284.00    1.55378   1.12272   -2.000
 4285.00    1.61666   1.13127   -2.000
 4286.00    1.52972   1.13536   -2.000
 4287.00    1.34495   1.12370   -2.000
 4288.00    0.91755   1.10670   -2.000
 4289.00    0.55925   1.09987   -2.000
 4290.00    0.34866   1.08485   -2.000
 4291.00    0.38687   1.04088   -2.000
 4292.00    0.88703   0.99781   -2.000
 4293.00    1.24834   1.00378   -2.000
 4294.00    1.38447   1.05593   -2.000
 4295.00    1.34906   1.10338   -2.000
 4296.00    1.06964   1.11034   -2.000
 4297.00    0.87450   1.09652   -2.000
 4298.00    0.78486   1.08734    0.038
 4299.00    0.77925   1.07034    0.037
 4300.00    0.86631   1.02822    0.037
 4301.00    0.93087   0.96688    0.037
 4302.00    0.97355   0.92099    0.037
 4303.00    1.00443   0.91759    0.038
 4304.00    1.02519   0.93456    0.038
 4305.00    1.00433   0.94716    0.038
 4306.00    0.95202   0.96014    0.038
 4307.00    0.91764   0.96806    0.038
 4308.00    0.89517   0.95698    0.037
 4309.00    0.91069   0.92684    0.037
 4310.00    0.94831   0.89338    0.037
 4311.00    1.03757   0.88570    0.037
 4312.00    1.15299   0.91534    0.037
 4313.00    1.22891   0.96304    0.036
 4314.00    1.28749   1.00677    0.036
 4315.00    1.25117   1.03902    0.036
 4316.00    1.17911   1.06635    0.036
 4317.00    1.12609   1.11297    0.036
 4318.00    1.07918   1.19015    0.036
 4319.00    1.11345   1.25869    0.037
 4320.00    1.16943   1.27975    0.037
 4321.00    1.27602   1.26431    0.037
 4322.00    1.39368   1.23738    0.038
 4323.00    1.48104   1.21010    0.038
 4324.00    1.56314   1.18284    0.038
 4325.00    1.30508   1.13475    0.037
 4326.00    1.00202   1.05298    0.036
 4327.00    1.01019   0.96913    0.036
 4328.00    1.04745   0.94125    0.036
 4329.00    1.19107   1.00106    0.036
 4330.00    1.34077   1.10679    0.000
 4331.00    1.31830   1.17968    0.000
 4332.00    1.29017   1.18823    0.000
 4333.00    1.07288   1.16788    0.000
 4334.00    0.87278   1.15967    0.000
 4335.00    1.08525   1.16384    0.000
 4336.00    1.29846   1.16827    0.000
 4337.00    1.52118   1.16485    0.000
 4338.00    1.68361   1.12582    0.000
 4339.00    1.31934   1.03013    0.000
 4340.00    1.01442   0.91112    0.000
 4341.00    1.09291   0.81246    0.000
 4342.00    1.15304   0.74864    0.000
 4343.00    1.12053   0.74821    0.000
 4344.00    1.09638   0.82472    0.000
 4345.00    1.10639   0.92123    0.000
 4346.00    1.14862   0.98784    0.000
 4347.00    1.29984   1.03877    0.000
 4348.00    1.40250   1.08391    0.000
 4349.00    1.36659   1.11445    0.000
 4350.00    1.32785   1.14569    0.000
 4351.00    1.28223   1.18129    0.036
 4352.00    1.26652   1.17725    0.036
 4353.00    1.31375   1.11036    0.036
 4354.00    1.37864   1.04187    0.036
 4355.00    1.47580   1.04263    0.036
 4356.00    1.46053   1.09532    0.035
 4357.00    1.26565   1.14465    0.035
 4358.00    1.17229   1.18071    0.035
 4359.00    1.22128   1.20682    0.035
 4360.00    1.29989   1.20395    0.035
 4361.00    1.41505   1.17749    0.035
 4362.00    1.57057   1.17176    0.035
 4363.00    1.77000   1.20366    0.036
 4364.00    1.81308   1.23939    0.036
 4365.00    1.70617   1.25576    0.036
 4366.00    1.48113   1.27043    0.035
 4367.00    1.15616   1.28975    0.035
 4368.00    1.02712   1.28323    0.035
 4369.00    1.04402   1.23962    0.035
 4370.00    1.16067   1.19580    0.035
 4371.00    1.34261   1.18411    0.035
 4372.00    1.38336   1.19389    0.035
 4373.00    1.34327   1.20469    0.035
 4374.00    1.29144   1.20694    0.035
 4375.00    1.23377   1.18613    0.034
 4376.00    1.20561   1.13899    0.034
 4377.00    1.19018   1.09962    0.035
 4378.00    1.26121   1.10977    0.035
 4379.00    1.36423   1.16567    0.036
 4380.00    1.28657   1.21992    0.036
 4381.00    1.15226   1.23598    0.035
 4382.00    1.05999   1.21880    0.035
 4383.00    0.97873   1.18344    0.035
 4384.00    0.92887   1.11610    0.034
 4385.00    0.88571   1.01043    0.034
 4386.00    0.96315   0.92711    0.034
 4387.00    1.06098   0.93705    0.035
 4388.00    1.12204   1.02045    0.035
 4389.00    1.17841   1.09308    0.034
 4390.00    1.05946   1.11582    0.034
 4391.00    0.92486   1.11422    0.034
 4392.00    1.03821   1.11387    0.035
 4393.00    1.16475   1.12404    0.035
 4394.00    1.14127   1.14790    0.035
 4395.00    1.11671   1.16809    0.035
 4396.00    1.24258   1.16407    0.035
 4397.00    1.35746   1.15288    0.035
 4398.00    1.23071   1.17435    0.035
 4399.00    1.10571   1.22549    0.035
 4400.00    1.00226   1.25487    0.035
 4401.00    0.91971   1.23335    0.034
 4402.00    1.01289   1.18456    0.035
 4403.00    1.08349   1.15806    0.036
 4404.00    1.01259   1.17278    0.035
 4405.00    0.92056   1.17489    0.035
 4406.00    0.72462   1.11786    0.035
 4407.00    0.60219   1.05596    0.035
 4408.00    0.77325   1.05831    0.036
 4409.00    0.91557   1.09664    0.036
 4410.00    0.96259   1.11817    0.037
 4411.00    0.99499   1.13976    0.037
 4412.00    0.98643   1.18872    0.037
 4413.00    0.97491   1.24333    0.037
 4414.00    0.95631   1.27622    0.036
 4415.00    0.97708   1.27388    0.036
 4416.00    1.07933   1.22202    0.036
 4417.00    1.21596   1.14591    0.036
 4418.00    1.41444   1.11159    0.036
 4419.00    1.44610   1.13876    0.036
 4420.00    1.21513   1.19250    0.035
 4421.00    1.11465   1.24546    0.035
 4422.00    1.19447   1.27742    0.035
 4423.00    1.27509   1.26706    0.035
 4424.00    1.35668   1.22320    0.035
 4425.00    1.38612   1.18928    0.036
 4426.00    1.35965   1.19226    0.036
 4427.00    1.29365   1.21048    0.036
 4428.00    1.19025   1.21726    0.035
 4429.00    1.22476   1.21786    0.035
 4430.00    1.37427   1.22533    0.036
 4431.00    1.31930   1.22817    0.036
 4432.00    1.11419   1.21066    0.035
 4433.00    1.03305   1.19600    0.035
 4434.00    1.03184   1.20486    0.036
 4435.00    1.16251   1.20534    0.036
 4436.00    1.36758   1.17029    0.037
 4437.00    1.19732   1.12737    0.037
 4438.00    0.84280   1.12451    0.036
 4439.00    0.91528   1.17444    0.036
 4440.00    1.16894   1.24366    0.036
 4441.00    1.24274   1.29023    0.036
 4442.00    1.25117   1.28951    0.036
 4443.00    1.26246   1.24303    0.036
 4444.00    1.27463   1.18218    0.036
 4445.00    1.18555   1.14770    0.036
 4446.00    1.07054   1.16389    0.036
 4447.00    1.19810   1.22020    0.036
 4448.00    1.37622   1.27056    0.036
 4449.00    1.30174   1.28294    0.035
 4450.00    1.18577   1.27842    0.035
 4451.00    1.23616   1.27779    0.035
 4452.00    1.30706   1.26922    0.036
 4453.00    1.37074   1.25681    0.036
 4454.00    1.43380   1.25275    0.036
 4455.00    1.45899   1.23765    0.035
 4456.00    1.48231   1.19244    0.035
 4457.00    1.38471   1.13851    0.035
 4458.00    1.28581   1.11644    0.035
 4459.00    1.22666   1.12909    0.034
 4460.00    1.16497   1.14123    0.034
 4461.00    1.05151   1.13762    0.000
 4462.00    0.96108   1.12907    0.000
 4463.00    1.14120   1.11834    0.000
 4464.00    1.30681   1.11665    0.000
 4465.00    1.35465   1.14887    0.000
 4466.00    1.38388   1.19780    0.000
 4467.00    1.29986   1.22072    0.000
 4468.00    1.24098   1.21762    0.000
 4469.00    1.30270   1.21111    0.000
 4470.00    1.33402   1.20153    0.000
 4471.00    1.24664   1.18180    0.000
 4472.00    1.21373   1.16420    0.000
 4473.00    1.35797   1.16688    0.000
 4474.00    1.45012   1.19568    0.000
 4475.00    1.39899   1.24302    0.000
 4476.00    1.32883   1.28468    0.000
 4477.00    1.21384   1.30151    0.000
 4478.00    1.19044   1.30867    0.000
 4479.00    1.35362   1.32756    0.000
 4480.00    1.46905   1.34028    0.000
 4481.00    1.49982   1.31106    0.000
 4482.00    1.48086   1.23992    0.034
 4483.00    1.38477   1.16962    0.034
 4484.00    1.35087   1.14771    0.034
 4485.00    1.40165   1.18688    0.034
 4486.00    1.38888   1.25582    0.034
 4487.00    1.29991   1.31297    0.034
 4488.00    1.24711   1.34039    0.034
 4489.00    1.23255   1.33382    0.034
 4490.00    1.28505   1.29330    0.034
 4491.00    1.40009   1.23896    0.033
 4492.00    1.45076   1.20771    0.033
 4493.00    1.44849   1.22000    0.034
 4494.00    1.36502   1.25617    0.034
 4495.00    1.22279   1.27203    0.034
 4496.00    1.19192   1.24591    0.034
 4497.00    1.23179   1.20741    0.034
 4498.00    1.25171   1.19797    0.034
 4499.00    1.26054   1.22383    0.033
 4500.00    1.32575   1.26631    0.033
 4501.00    1.41820   1.30104    0.034
 4502.00    1.46161   1.30783    0.034
 4503.00    1.48456   1.28962    0.034
 4504.00    1.43886   1.28439    0.033
 4505.00    1.36866   1.32271    0.033
 4506.00    1.38659   1.37602    0.033
 4507.00    1.43110   1.39849    0.033
 4508.00    1.57076   1.38549    0.033
 4509.00    1.73425   1.35865    0.033
 4510.00    1.57027   1.33845    0.033
 4511.00    1.33972   1.33670    0.032
 4512.00    1.25800   1.34943    0.032
 4513.00    1.20003   1.35670    0.032
 4514.00    1.21907   1.34167    0.032
 4515.00    1.24726   1.31029    0.032
 4516.00    1.30110   1.28166    0.032
 4517.00    1.35701   1.27032    0.033
 4518.00    1.32210   1.27718    0.033
 4519.00    1.28306   1.28404    0.033
 4520.00    1.28026   1.28111    0.033
 4521.00    1.27946   1.28713    0.033
 4522.00    1.35789   1.31138    0.032
 4523.00    1.43540   1.33273    0.032
 4524.00    1.49547   1.32590    0.032
 4525.00    1.53675   1.29490    0.032
 4526.00    1.36744   1.26846    0.032
 4527.00    1.22391   1.24895    0.032
 4528.00    1.28223   1.21769    0.032
 4529.00    1.32826   1.17764    0.033
 4530.00    1.30166   1.14459    0.033
 4531.00    1.27764   1.13055    0.033
 4532.00    1.26569   1.14044    0.032
 4533.00    1.26767   1.16724    0.032
 4534.00    1.32291   1.19627    0.032
 4535.00    1.31142   1.20503    0.032
 4536.00    1.08719   1.18191    0.032
 4537.00    0.93858   1.15709    0.032
 4538.00    0.99429   1.17698    0.032
 4539.00    1.08414   1.24567    0.032
 4540.00    1.25311   1.30805    0.032
 4541.00    1.41457   1.31483    0.033
 4542.00    1.56098   1.27802    0.033
 4543.00    1.59295   1.24203    0.033
 4544.00    1.42511   1.23947    0.032
 4545.00    1.27898   1.26306    0.032
 4546.00    1.16605   1.27392    0.032
 4547.00    1.15789   1.25970    0.032
 4548.00    1.29037   1.24881    0.032
 4549.00    1.35845   1.25304    0.032
 4550.00    1.35041   1.24932    0.000
 4551.00    1.33468   1.22594    0.000
 4552.00    1.31094   1.21112    0.000
 4553.00    1.35127   1.22727    0.000
 4554.00    1.45053   1.24602    0.000
 4555.00    1.42125   1.23938    0.000
 4556.00    1.28779   1.21873    0.000
 4557.00    1.28696   1.20666    0.000
 4558.00    1.38072   1.22207    0.000
 4559.00    1.45302   1.26584    0.000
 4560.00    1.51190   1.31051    0.000
 4561.00    1.42623   1.33284    0.000
 4562.00    1.26149   1.33731    0.000
 4563.00    1.28597   1.33843    0.000
 4564.00    1.40041   1.33636    0.000
 4565.00    1.44899   1.31353    0.000
 4566.00    1.47056   1.26869    0.000
 4567.00    1.53711   1.23461    0.000
 4568.00    1.61941   1.24159    0.000
 4569.00    1.56196   1.28463    0.000
 4570.00    1.46320   1.32848    0.000
 4571.00    1.40312   1.34394    0.000
 4572.00    1.35251   1.32840    0.000
 4573.00    1.41683   1.29180    0.000
 4574.00    1.50393   1.26595    0.000
 4575.00    1.43696   1.28425    0.000
 4576.00    1.34614   1.32144    0.000
 4577.00    1.32946   1.33416    0.000
 4578.00    1.32126   1.32914    0.000
 4579.00    1.32213   1.32538    0.000
 4580.00    1.32370   1.31378    0.000
 4581.00    1.40448   1.28139    0.000
 4582.00    1.48855   1.23981    0.000
 4583.00    1.38223   1.21746    0.000
 4584.00    1.27650   1.22529    0.000
 4585.00    1.26701   1.24184    0.000
 4586.00    1.25567   1.24532    0.000
 4587.00    1.21182   1.23972    0.000
 4588.00    1.16925   1.23913    0.000
 4589.00    1.14037   1.25546    0.000
 4590.00    1.13527   1.28926    0.000
 4591.00    1.30990   1.32072    0.000
 4592.00    1.43929   1.32668    0.000
 4593.00    1.30872   1.30315    0.000
 4594.00    1.19041   1.27029    0.000
 4595.00    1.12814   1.25218    0.000
 4596.00    1.09656   1.24888    0.000
 4597.00    1.17979   1.24479    0.000
 4598.00    1.25549   1.23946    0.000
 4599.00    1.30759   1.24242    0.000
 4600.00    1.33617   1.25371    0.000
 4601.00    1.30234   1.26515    0.000
 4602.00    1.26775   1.26381    0.000
 4603.00    1.23145   1.25329    0.000
 4604.00    1.24023   1.25430    0.000
 4605.00    1.33792   1.26515    0.000
 4606.00    1.43463   1.26839    0.000
 4607.00    1.52963   1.26224    0.000
 4608.00    1.52973   1.26289    0.000
 4609.00    1.38692   1.28690    0.000
 4610.00    1.31354   1.33092    0.000
 4611.00    1.33203   1.37043    0.000
 4612.00    1.37770   1.37941    0.000
 4613.00    1.45504   1.35787    0.000
 4614.00    1.52175   1.32964    0.000
 4615.00    1.57754   1.31210    0.000
 4616.00    1.60560   1.31195    0.000
 4617.00    1.60852   1.32697    0.000
 4618.00    1.57176   1.34001    0.000
 4619.00    1.50332   1.34384    0.000
 4620.00    1.47364   1.34100    0.000
 4621.00    1.47120   1.32788    0.000
 4622.00    1.40140   1.31958    0.000
 4623.00    1.29008   1.33224    0.000
 4624.00    1.27774   1.34722    0.000
 4625.00    1.31871   1.34939    0.000
 4626.00    1.32554   1.34726    0.000
 4627.00    1.31641   1.34089    0.000
 4628.00    1.35251   1.32996    0.000
 4629.00    1.40684   1.32728    0.000
 4630.00    1.47985   1.33017    0.000
 4631.00    1.55930   1.32345    0.000
 4632.00    1.51188   1.31703    0.000
 4633.00    1.42772   1.32883    0.000
 4634.00    1.36947   1.34062    0.000
 4635.00    1.31743   1.32675    0.000
 4636.00    1.25640   1.30176    0.000
 4637.00    1.19363   1.29127    0.000
 4638.00    1.27328   1.29077    0.000
 4639.00    1.37430   1.28152    0.000
 4640.00    1.37648   1.26212    0.000
 4641.00    1.36777   1.24566    0.000
 4642.00    1.30457   1.24126    0.000
 4643.00    1.23741   1.25543    0.000
 4644.00    1.16302   1.28112    0.000
 4645.00    1.08835   1.29265    0.000
 4646.00    1.21322   1.27998    0.000
 4647.00    1.33747   1.25093    0.000
 4648.00    1.40115   1.20853    0.000
 4649.00    1.46164   1.16794    0.000
 4650.00    1.47025   1.15730    0.000
 4651.00    1.47039   1.18171    0.000
 4652.00    1.38392   1.22143    0.000
 4653.00    1.30888   1.25794    0.000
 4654.00    1.31740   1.28460    0.000
 4655.00    1.31786   1.29674    0.000
 4656.00    1.27324   1.28417    0.000
 4657.00    1.23915   1.25406    0.000
 4658.00    1.25202   1.23498    0.000
 4659.00    1.27292   1.24622    0.000
 4660.00    1.32326   1.28839    0.000
 4661.00    1.37681   1.34264    0.000
 4662.00    1.44019   1.37633    0.000
 4663.00    1.47858   1.37015    0.000
 4664.00    1.45181   1.33300    0.000
 4665.00    1.40889   1.29051    0.000
 4666.00    1.32974   1.26372    0.000
 4667.00    1.27752   1.24736    0.000
 4668.00    1.27759   1.21213    0.000
 4669.00    1.25496   1.15379    0.000
 4670.00    1.19390   1.11684    0.000
 4671.00    1.16222   1.13741    0.000
 4672.00    1.17417   1.19728    0.000
 4673.00    1.23862   1.25424    0.000
 4674.00    1.37157   1.28125    0.000
 4675.00    1.42995   1.27794    0.000
 4676.00    1.40265   1.26718    0.000
 4677.00    1.36242   1.27247    0.000
 4678.00    1.30908   1.29511    0.000
 4679.00    1.33522   1.31156    0.000
 4680.00    1.43240   1.29969    0.000
 4681.00    1.45966   1.26814    0.000
 4682.00    1.43185   1.24027    0.000
 4683.00    1.39635   1.22583    0.000
 4684.00    1.35552   1.22740    0.000
 4685.00    1.35576   1.24580    0.000
 4686.00    1.38095   1.26634    0.000
 4687.00    1.39981   1.27126    0.000
 4688.00    1.41531   1.26533    0.000
 4689.00    1.41874   1.26066    0.000
 4690.00    1.41661   1.25914    0.000
 4691.00    1.39987   1.26161    0.000
 4692.00    1.37735   1.26464    0.000
 4693.00    1.34346   1.26063    0.000
 4694.00    1.30573   1.25549    0.000
 4695.00    1.24063   1.26064    0.000
 4696.00    1.16777   1.27585    0.000
 4697.00    1.23815   1.29678    0.000
 4698.00    1.34206   1.31472    0.000
 4699.00    1.31374   1.31063    0.000
 4700.00    1.26055   1.27605    0.000
 4701.00    1.30615   1.23535    0.000
 4702.00    1.36611   1.21900    0.000
 4703.00    1.36734   1.22079    0.000
 4704.00    1.36236   1.21566    0.000
 4705.00    1.31669   1.20420    0.000
 4706.00    1.26822   1.20896    0.000
 4707.00    1.28280   1.23285    0.000
 4708.00    1.29953   1.24902    0.000
 4709.00    1.33624   1.24022    0.000
 4710.00    1.37157   1.22000    0.000
 4711.00    1.36088   1.21033    0.000
 4712.00    1.34466   1.22321    0.000
 4713.00    1.24371   1.25472    0.000
 4714.00    1.15581   1.27780    0.000
 4715.00    1.19577   1.26912    0.000
 4716.00    1.23424   1.24118    0.000
 4717.00    1.26213   1.22873    0.000
 4718.00    1.29393   1.25190    0.000
 4719.00    1.34705   1.29337    0.000
 4720.00    1.39132   1.32522    0.000
 4721.00    1.39699   1.34531    0.000
 4722.00    1.42009   1.36012    0.000
 4723.00    1.50574   1.36292    0.000
 4724.00    1.55645   1.35088    0.000
 4725.00    1.50197   1.33939    0.000
 4726.00    1.42899   1.34537    0.000
 4727.00    1.30859   1.36045    0.000
 4728.00    1.22087   1.35427    0.000
 4729.00    1.20521   1.30919    0.000
 4730.00    1.24673   1.24671    0.000
 4731.00    1.39758   1.20662    0.000
 4732.00    1.48989   1.20106    0.000
 4733.00    1.48456   1.21533    0.000
 4734.00    1.40760   1.23886    0.000
 4735.00    1.22589   1.26481    0.000
 4736.00    1.18419   1.28452    0.000
 4737.00    1.32249   1.29400    0.000
 4738.00    1.38496   1.28760    0.000
 4739.00    1.36153   1.27381    0.000
 4740.00    1.28643   1.28211    0.000
 4741.00    1.15969   1.30928    0.000
 4742.00    1.13293   1.31892    0.000
 4743.00    1.19427   1.30689    0.000
 4744.00    1.30247   1.30128    0.000
 4745.00    1.44705   1.31220    0.000
 4746.00    1.47723   1.32242    0.000
 4747.00    1.42931   1.32146    0.000
 4748.00    1.42642   1.32359    0.000
 4749.00    1.45047   1.33632    0.000
 4750.00    1.51792   1.34468    0.000
 4751.00    1.60804   1.34361    0.000
 4752.00    1.62914   1.34278    0.000
 4753.00    1.61900   1.34000    0.000
 4754.00    1.50865   1.32609    0.000
 4755.00    1.35928   1.30541    0.000
 4756.00    1.38805   1.28800    0.000
 4757.00    1.47585   1.27778    0.000
 4758.00    1.45358   1.27514    0.000
 4759.00    1.40072   1.27943    0.000
 4760.00    1.35847   1.29011    0.000
 4761.00    1.31864   1.30515    0.030
 4762.00    1.33066   1.31646    0.030
 4763.00    1.35217   1.30902    0.030
 4764.00    1.37802   1.27955    0.030
 4765.00    1.40449   1.24854    0.031
 4766.00    1.33999   1.22973    0.030
 4767.00    1.26627   1.21414    0.029
 4768.00    1.30007   1.20107    0.029
 4769.00    1.34083   1.20691    0.030
 4770.00    1.40631   1.23675    0.030
 4771.00    1.47241   1.27655    0.030
 4772.00    1.47141   1.30588    0.030
 4773.00    1.46979   1.30760    0.030
 4774.00    1.45000   1.29013    0.030
 4775.00    1.42922   1.28592    0.030
 4776.00    1.39419   1.30863    0.029
 4777.00    1.37014   1.33600    0.029
 4778.00    1.44938   1.34591    0.030
 4779.00    1.50668   1.34731    0.030
 4780.00    1.41379   1.35170    0.029
 4781.00    1.33317   1.34956    0.029
 4782.00    1.31748   1.33836    0.029
 4783.00    1.32304   1.32777    0.029
 4784.00    1.41906   1.31407    0.028
 4785.00    1.48879   1.29120    0.028
 4786.00    1.46615   1.27532    0.029
 4787.00    1.41753   1.27615    0.029
 4788.00    1.29216   1.27394    0.029
 4789.00    1.21175   1.26441    0.029
 4790.00    1.24452   1.26491    0.029
 4791.00    1.29485   1.27016    0.029
 4792.00    1.38326   1.27082    0.029
 4793.00    1.46421   1.27672    0.029
 4794.00    1.53115   1.29352    0.030
 4795.00    1.55287   1.32094    0.030
 4796.00    1.50031   1.35685    0.030
 4797.00    1.44954   1.38561    0.030
 4798.00    1.40135   1.38919    0.030
 4799.00    1.35985   1.36790    0.030
 4800.00    1.32682   1.33405    0.030
 4801.00    1.34030   1.30030    0.030
 4802.00    1.40573   1.28249    0.030
 4803.00    1.41398   1.29387    0.030
 4804.00    1.36590   1.32715    0.030
 4805.00    1.35484   1.35445    0.030
 4806.00    1.37592   1.35335    0.029
 4807.00    1.37917   1.32897    0.030
 4808.00    1.36877   1.30483    0.030
 4809.00    1.34369   1.29064    0.030
 4810.00    1.30873   1.28094    0.030
 4811.00    1.32838   1.28075    0.030
 4812.00    1.38021   1.29489    0.030
 4813.00    1.45572   1.31094    0.030
 4814.00    1.54340   1.31728    0.030
 4815.00    1.56488   1.31668    0.030
 4816.00    1.55689   1.31724    0.030
 4817.00    1.53672   1.32308    0.030
 4818.00    1.51189   1.33432    0.030
 4819.00    1.43053   1.34846    0.030
 4820.00    1.33080   1.36141    0.031
 4821.00    1.28502   1.37109    0.031
 4822.00    1.25391   1.37465    0.031
 4823.00    1.28790   1.36745    0.031
 4824.00    1.33643   1.34429    0.031
 4825.00    1.42040   1.30285    0.031
 4826.00    1.51067   1.26552    0.031
 4827.00    1.44685   1.26624    0.031
 4828.00    1.36202   1.29745    0.030
 4829.00    1.37393   1.31987    0.031
 4830.00    1.39523   1.31649    0.031
 4831.00    1.34342   1.30290    0.031
 4832.00    1.28717   1.29686    0.031
 4833.00    1.28393   1.29161    0.030
 4834.00    1.28228   1.27675    0.030
 4835.00    1.31310   1.26988    0.030
 4836.00    1.34094   1.28595    0.030
 4837.00    1.29126   1.30705    0.030
 4838.00    1.25566   1.31418    0.030
 4839.00    1.41236   1.31136    0.030
 4840.00    1.54383   1.30275    0.030
 4841.00    1.44728   1.28235    0.030
 4842.00    1.36214   1.25817    0.030
 4843.00    1.35268   1.24990    0.030
 4844.00    1.34806   1.25574    0.030
 4845.00    1.36845   1.25712    0.030
 4846.00    1.37026   1.25829    0.031
 4847.00    1.29473   1.27620    0.030
 4848.00    1.24095   1.29917    0.000
 4849.00    1.26211   1.29919    0.000
 4850.00    1.27527   1.27127    0.000
 4851.00    1.26522   1.24214    0.000
 4852.00    1.25920   1.23975    0.000
 4853.00    1.26317   1.25492    0.000
 4854.00    1.26542   1.25999    0.000
 4855.00    1.26397   1.24773    0.000
 4856.00    1.23677   1.21605    0.000
 4857.00    1.16184   1.16394    0.000
 4858.00    1.16125   1.11987    0.000
 4859.00    1.28100   1.11046    0.000
 4860.00    1.29251   1.10885    0.000
 4861.00    1.15032   1.06732    0.000
 4862.00    1.09281   0.97650    0.000
 4863.00    1.14111   0.87785    0.000
 4864.00    1.12440   0.84054    0.000
 4865.00    1.03609   0.89218    0.000
 4866.00    0.99547   0.98109    0.000
 4867.00    1.00115   1.05331    0.000
 4868.00    1.09697   1.10549    0.000
 4869.00    1.27000   1.14401    0.000
 4870.00    1.28311   1.16778    0.000
 4871.00    1.17560   1.17963    0.000
 4872.00    1.10285   1.17131    0.000
 4873.00    1.05315   1.13277    0.000
 4874.00    1.09745   1.09664    0.000
 4875.00    1.19633   1.10839    0.029
 4876.00    1.20046   1.15508    0.029
 4877.00    1.15666   1.19196    0.029
 4878.00    1.16594   1.21019    0.029
 4879.00    1.19847   1.22659    0.029
 4880.00    1.21311   1.24787    0.029
 4881.00    1.22102   1.27563    0.029
 4882.00    1.26129   1.29836    0.029
 4883.00    1.31187   1.29135    0.029
 4884.00    1.25114   1.26524    0.029
 4885.00    1.16074   1.25443    0.029
 4886.00    1.19427   1.25359    0.029
 4887.00    1.25484   1.23476    0.029
 4888.00    1.27546   1.20423    0.029
 4889.00    1.28915   1.19141    0.029
 4890.00    1.29287   1.20199    0.029
 4891.00    1.29528   1.21116    0.029
 4892.00    1.31596   1.19371    0.029
 4893.00    1.33835   1.15827    0.029
 4894.00    1.31723   1.15479    0.029
 4895.00    1.29365   1.21218    0.029
 4896.00    1.27255   1.29380    0.029
 4897.00    1.25255   1.35471    0.029
 4898.00    1.34658   1.38344    0.029
 4899.00    1.43793   1.38755    0.029
 4900.00    1.46578   1.37816    0.029
 4901.00    1.49119   1.35689    0.029
 4902.00    1.48510   1.32773    0.029
 4903.00    1.47315   1.31089    0.028
 4904.00    1.41036   1.30960    0.029
 4905.00    1.36408   1.30278    0.029
 4906.00    1.42409   1.29317    0.028
 4907.00    1.45306   1.30611    0.028
 4908.00    1.32590   1.33883    0.028
 4909.00    1.23706   1.35702    0.028
 4910.00    1.30415   1.33967    0.028
 4911.00    1.36355   1.29733    0.029
 4912.00    1.39697   1.25291    0.029
 4913.00    1.44456   1.23021    0.029
 4914.00    1.53253   1.24164    0.029
 4915.00    1.60304   1.27337    0.029
 4916.00    1.63105   1.30467    0.029
 4917.00    1.56516   1.33083    0.029
 4918.00    1.30214   1.34598    0.029
 4919.00    1.12560   1.32958    0.028
 4920.00    1.10686   1.26914    0.028
 4921.00    1.13630   1.18251    0.028
 4922.00    1.24259   1.11109    0.028
 4923.00    1.27262   1.09116    0.028
 4924.00    1.19591   1.12647    0.028
 4925.00    1.17380   1.17921    0.028
 4926.00    1.21893   1.20797    0.028
 4927.00    1.28481   1.21959    0.028
 4928.00    1.37322   1.24731    0.027
 4929.00    1.41287   1.29082    0.027
 4930.00    1.40583   1.32701    0.027
 4931.00    1.40704   1.35285    0.028
 4932.00    1.41520   1.37044    0.028
 4933.00    1.38350   1.37334    0.029
 4934.00    1.32215   1.35721    0.028
 4935.00    1.30193   1.31778    0.028
 4936.00    1.30857   1.27385    0.028
 4937.00    1.30599   1.26407    0.028
 4938.00    1.29815   1.28067    0.028
 4939.00    1.26237   1.27327    0.028
 4940.00    1.21269   1.22829    0.000
 4941.00    1.24763   1.18740    0.000
 4942.00    1.31902   1.19619    0.000
 4943.00    1.34675   1.25205    0.000
 4944.00    1.35837   1.30990    0.000
 4945.00    1.40153   1.34312    0.000
 4946.00    1.45455   1.35816    0.000
 4947.00    1.36426   1.35627    0.000
 4948.00    1.23657   1.34056    0.000
 4949.00    1.18095   1.33406    0.000
 4950.00    1.14068   1.34670    0.000
 4951.00    1.23737   1.36213    0.000
 4952.00    1.35715   1.37060    0.000
 4953.00    1.45251   1.37650    0.000
 4954.00    1.54476   1.37621    0.000
 4955.00    1.46003   1.36236    0.000
 4956.00    1.35961   1.34373    0.000
 4957.00    1.32441   1.32715    0.000
 4958.00    1.29264   1.29208    0.000
 4959.00    1.22844   1.22066    0.000
 4960.00    1.16622   1.15789    0.000
 4961.00    1.30779   1.17530    0.000
 4962.00    1.44280   1.25733    0.000
 4963.00    1.43512   1.32348    0.000
 4964.00    1.42645   1.34312    0.000
 4965.00    1.40572   1.34215    0.000
 4966.00    1.37590   1.33484    0.000
 4967.00    1.26989   1.30967    0.000
 4968.00    1.18823   1.27311    0.000
 4969.00    1.25857   1.25184    0.000
 4970.00    1.31943   1.25152    0.000
 4971.00    1.33383   1.25950    0.000
 4972.00    1.35529   1.26988    0.000
 4973.00    1.40483   1.28374    0.000
 4974.00    1.42061   1.30366    0.000
 4975.00    1.32473   1.32546    0.000
 4976.00    1.27040   1.34161    0.000
 4977.00    1.33221   1.34842    0.000
 4978.00    1.34367   1.34280    0.000
 4979.00    1.23470   1.32533    0.000
 4980.00    1.17442   1.29868    0.000
 4981.00    1.21472   1.27044    0.000
 4982.00    1.22567   1.25162    0.000
 4983.00    1.18390   1.23228    0.000
 4984.00    1.18597   1.19146    0.000
 4985.00    1.25691   1.14181    0.000
 4986.00    1.29260   1.12185    0.000
 4987.00    1.27965   1.14264    0.000
 4988.00    1.27971   1.18514    0.000
 4989.00    1.29557   1.23486    0.000
 4990.00    1.29112   1.27715    0.000
 4991.00    1.26495   1.29288    0.000
 4992.00    1.26930   1.28265    0.000
 4993.00    1.30247   1.26582    0.000
 4994.00    1.31636   1.26104    0.000
 4995.00    1.31418   1.26769    0.000
 4996.00    1.29761   1.27047    0.000
 4997.00    1.27049   1.27331    0.000
 4998.00    1.27732   1.28544    0.000
 4999.00    1.30598   1.29442    0.000
 5000.00    1.34351   1.28795    0.000
 5001.00    1.38603   1.26370    0.000
 5002.00    1.36874   1.22815    0.000
 5003.00    1.32214   1.19994    0.000
 5004.00    1.29553   1.19083    0.000
 5005.00    1.27740   1.19536    0.000
 5006.00    1.23012   1.19753    0.000
 5007.00    1.17227   1.17971    0.000
 5008.00    1.13407   1.14712    0.000
 5009.00    1.10190   1.13674    0.000
 5010.00    1.14662   1.17274    0.000
 5011.00    1.21097   1.22652    0.000
 5012.00    1.16722   1.25340    0.000
 5013.00    1.10100   1.24259    0.000
 5014.00    1.12301   1.20588    0.000
 5015.00    1.15945   1.15900    0.000
 5016.00    1.17067   1.12374    0.000
 5017.00    1.17880   1.11687    0.000
 5018.00    1.21146   1.13601    0.000
 5019.00    1.24620   1.15596    0.000
 5020.00    1.29023   1.15812    0.000
 5021.00    1.33472   1.15882    0.000
 5022.00    1.25243   1.17503    0.000
 5023.00    1.16970   1.19145    0.000
 5024.00    1.17973   1.19073    0.000
 5025.00    1.18834   1.18777    0.000
 5026.00    1.16875   1.20412    0.000
 5027.00    1.15555   1.22964    0.000
 5028.00    1.21704   1.23957    0.000
 5029.00    1.27598   1.22651    0.027
 5030.00    1.31443   1.20846    0.027
 5031.00    1.34915   1.21437    0.027
 5032.00    1.36130   1.24283    0.027
 5033.00    1.37457   1.26928    0.027
 5034.00    1.39327   1.29121    0.027
 5035.00    1.40864   1.31537    0.027
 5036.00    1.41109   1.32567    0.027
 5037.00    1.39214   1.29906    0.027
 5038.00    1.30378   1.24707    0.027
 5039.00    1.24545   1.21338    0.027
 5040.00    1.26953   1.20940    0.027
 5041.00    1.27013   1.19580    0.027
 5042.00    1.21553   1.14789    0.027
 5043.00    1.19799   1.09160    0.027
 5044.00    1.25579   1.07943    0.027
 5045.00    1.29050   1.13510    0.027
 5046.00    1.28436   1.21963    0.028
 5047.00    1.28877   1.28603    0.028
 5048.00    1.30951   1.32426    0.027
 5049.00    1.28941   1.32872    0.027
 5050.00    1.21378   1.29225    0.027
 5051.00    1.17929   1.23716    0.027
 5052.00    1.19404   1.20145    0.028
 5053.00    1.22718   1.19459    0.028
 5054.00    1.27973   1.20177    0.028
 5055.00    1.34054   1.21931    0.028
 5056.00    1.40902   1.24981    0.028
 5057.00    1.45157   1.28054    0.028
 5058.00    1.47284   1.29627    0.028
 5059.00    1.44303   1.30015    0.028
 5060.00    1.37633   1.30532    0.028
 5061.00    1.34543   1.31426    0.028
 5062.00    1.33724   1.32324    0.028
 5063.00    1.37657   1.33504    0.028
 5064.00    1.44225   1.34595    0.028
 5065.00    1.39867   1.33729    0.028
 5066.00    1.30243   1.29562    0.029
 5067.00    1.29848   1.23960    0.028
 5068.00    1.33295   1.21037    0.028
 5069.00    1.28423   1.21619    0.028
 5070.00    1.20589   1.22585    0.028
 5071.00    1.19396   1.22946    0.028
 5072.00    1.20199   1.24244    0.029
 5073.00    1.17677   1.25598    0.029
 5074.00    1.14325   1.24819    0.029
 5075.00    1.18691   1.23279    0.028
 5076.00    1.24621   1.23541    0.028
 5077.00    1.26815   1.24578    0.028
 5078.00    1.28416   1.24748    0.028
 5079.00    1.23118   1.24821    0.028
 5080.00    1.17005   1.24302    0.028
 5081.00    1.12006   1.20590    0.028
 5082.00    1.07097   1.14782    0.027
 5083.00    1.17597   1.12049    0.027
 5084.00    1.28790   1.13958    0.028
 5085.00    1.20795   1.16980    0.027
 5086.00    1.12862   1.18999    0.027
 5087.00    1.19324   1.21160    0.027
 5088.00    1.26310   1.23706    0.026
 5089.00    1.43022   1.25222    0.027
 5090.00    1.57203   1.25557    0.027
 5091.00    1.43191   1.25951    0.027
 5092.00    1.30567   1.26755    0.027
 5093.00    1.28759   1.27441    0.027
 5094.00    1.27223   1.28319    0.027
 5095.00    1.27294   1.29873    0.026
 5096.00    1.27942   1.31095    0.026
 5097.00    1.31279   1.30541    0.026
 5098.00    1.32885   1.28093    0.026
 5099.00    1.27891   1.24419    0.026
 5100.00    1.23307   1.20019    0.026
 5101.00    1.20023   1.16131    0.026
 5102.00    1.16613   1.15358    0.026
 5103.00    1.12861   1.18809    0.026
 5104.00    1.12257   1.23561    0.026
 5105.00    1.18930   1.25921    0.026
 5106.00    1.20943   1.25455    0.026
 5107.00    1.13632   1.24122    0.026
 5108.00    1.13486   1.23018    0.026
 5109.00    1.25824   1.21571    0.026
 5110.00    1.32903   1.19779    0.026
 5111.00    1.31958   1.18681    0.026
 5112.00    1.31879   1.18429    0.026
 5113.00    1.32962   1.19149    0.026
 5114.00    1.32103   1.21437    0.027
 5115.00    1.28952   1.24157    0.027
 5116.00    1.26765   1.25873    0.027
 5117.00    1.25578   1.26862    0.028
 5118.00    1.24273   1.27845    0.027
 5119.00    1.22861   1.29287    0.027
 5120.00    1.25038   1.30854    0.027
 5121.00    1.30119   1.31279    0.027
 5122.00    1.27812   1.29907    0.027
 5123.00    1.20246   1.27251    0.027
 5124.00    1.13535   1.24030    0.027
 5125.00    1.07360   1.20409    0.027
 5126.00    1.09809   1.16921    0.027
 5127.00    1.16966   1.15193    0.027
 5128.00    1.15385   1.15692    0.027
 5129.00    1.09658   1.16749    0.027
 5130.00    1.05574   1.17020    0.027
 5131.00    1.02163   1.16836    0.027
 5132.00    1.09069   1.17241    0.027
 5133.00    1.19582   1.18817    0.027
 5134.00    1.19599   1.20903    0.027
 5135.00    1.16521   1.22317    0.027
 5136.00    1.12597   1.23240    0.027
 5137.00    1.08466   1.24674    0.027
 5138.00    1.17296   1.25692    0.027
 5139.00    1.28686   1.24280    0.028
 5140.00    1.26575   1.20938    0.028
 5141.00    1.22383   1.17955    0.028
 5142.00    1.21139   1.17207    0.028
 5143.00    1.20231   1.18627    0.028
 5144.00    1.17952   1.19128    0.028
 5145.00    1.15567   1.17645    0.028
 5146.00    1.15541   1.17340    0.027
 5147.00    1.15612   1.18709    0.027
 5148.00    1.13593   1.18851    0.028
 5149.00    1.11609   1.17404    0.028
 5150.00    1.11837   1.16538    0.028
 5151.00    1.12161   1.17407    0.027
 5152.00    1.14149   1.18823    0.027
 5153.00    1.15902   1.18833    0.027
 5154.00    1.15159   1.17516    0.027
 5155.00    1.14079   1.16402    0.027
 5156.00    1.10464   1.16259    0.027
 5157.00    1.08839   1.17409    0.027
 5158.00    1.18615   1.20021    0.028
 5159.00    1.26871   1.23363    0.028
 5160.00    1.28202   1.26103    0.028
 5161.00    1.28731   1.27311    0.028
 5162.00    1.26261   1.27358    0.028
 5163.00    1.22233   1.26885    0.028
 5164.00    1.13340   1.25369    0.027
 5165.00    1.07095   1.22889    0.027
 5166.00    1.07860   1.20254    0.027
 5167.00    1.06868   1.16195    0.027
 5168.00    1.01882   1.08896    0.027
 5169.00    0.96560   0.99751    0.027
 5170.00    0.90575   0.93311    0.027
 5171.00    0.88821   0.93548    0.027
 5172.00    0.94327   0.98936    0.027
 5173.00    0.96602   1.02304    0.027
 5174.00    0.94022   0.98747    0.027
 5175.00    0.92215   0.93132    0.027
 5176.00    0.91428   0.94540    0.026
 5177.00    0.94061   1.03846    0.026
 5178.00    1.00673   1.13567    0.026
 5179.00    1.06324   1.18772    0.026
 5180.00    1.10990   1.20771    0.026
 5181.00    1.09562   1.21456    0.026
 5182.00    1.02619   1.20611    0.026
 5183.00    0.98364   1.17472    0.026
 5184.00    0.96255   1.10994    0.026
 5185.00    0.97294   1.01240    0.025
 5186.00    1.00543   0.93140    0.025
 5187.00    1.02360   0.93876    0.025
 5188.00    1.03294   1.03422    0.025
 5189.00    1.06336   1.13951    0.025
 5190.00    1.10510   1.19645    0.000
 5191.00    1.08549   1.21532    0.000
 5192.00    1.03725   1.22523    0.000
 5193.00    1.05699   1.21489    0.000
 5194.00    1.10409   1.16736    0.000
 5195.00    1.13124   1.12218    0.000
 5196.00    1.15155   1.12208    0.000
 5197.00    1.20201   1.14596    0.000
 5198.00    1.26117   1.16191    0.000
 5199.00    1.34261   1.17701    0.000
 5200.00    1.42938   1.20135    0.000
 5201.00    1.45283   1.22797    0.000
 5202.00    1.46410   1.24826    0.000
 5203.00    1.36424   1.25569    0.000
 5204.00    1.24777   1.24869    0.000
 5205.00    1.16063   1.23131    0.000
 5206.00    1.07670   1.20031    0.000
 5207.00    1.03288   1.15061    0.000
 5208.00    0.99196   1.10183    0.000
 5209.00    1.06008   1.07965    0.000
 5210.00    1.13227   1.07563    0.000
 5211.00    1.16318   1.07602    0.027
 5212.00    1.19375   1.09527    0.027
 5213.00    1.21871   1.14117    0.027
 5214.00    1.24375   1.19732    0.027
 5215.00    1.27009   1.24394    0.027
 5216.00    1.29461   1.26374    0.027
 5217.00    1.30066   1.24830    0.028
 5218.00    1.30421   1.21347    0.028
 5219.00    1.28954   1.19325    0.028
 5220.00    1.29250   1.20694    0.028
 5221.00    1.39365   1.24271    0.028
 5222.00    1.45817   1.27574    0.028
 5223.00    1.35977   1.29332    0.028
 5224.00    1.27743   1.29568    0.028
 5225.00    1.25383   1.28014    0.028
 5226.00    1.22009   1.24200    0.027
 5227.00    1.15531   1.18397    0.027
 5228.00    1.10416   1.11779    0.027
 5229.00    1.08849   1.06952    0.027
 5230.00    1.09204   1.07567    0.027
 5231.00    1.13858   1.13978    0.027
 5232.00    1.18517   1.21365    0.027
 5233.00    1.23181   1.25497    0.027
 5234.00    1.25943   1.25650    0.027
 5235.00    1.25490   1.22698    0.027
 5236.00    1.25811   1.19450    0.027
 5237.00    1.27278   1.19026    0.027
 5238.00    1.31823   1.21775    0.027
 5239.00    1.40376   1.25961    0.027
 5240.00    1.42605   1.29347    0.027
 5241.00    1.37581   1.30627    0.026
 5242.00    1.36207   1.30414    0.026
 5243.00    1.38526   1.30083    0.026
 5244.00    1.38695   1.29946    0.026
 5245.00    1.36946   1.29718    0.026
 5246.00    1.32991   1.30085    0.026
 5247.00    1.27301   1.31114    0.026
 5248.00    1.25966   1.30310    0.026
 5249.00    1.27643   1.26258    0.026
 5250.00    1.25507   1.22100    0.026
 5251.00    1.21061   1.20755    0.026
 5252.00    1.23612   1.20490    0.026
 5253.00    1.29867   1.19764    0.025
 5254.00    1.25607   1.20324    0.025
 5255.00    1.16518   1.22461    0.025
 5256.00    1.16772   1.23616    0.026
 5257.00    1.20720   1.22822    0.026
 5258.00    1.27479   1.22774    0.026
 5259.00    1.35186   1.25988    0.026
 5260.00    1.30273   1.30771    0.026
 5261.00    1.21789   1.33645    0.026
 5262.00    1.21396   1.33122    0.026
 5263.00    1.22892   1.29538    0.027
 5264.00    1.16695   1.23799    0.027
 5265.00    1.09055   1.17172    0.027
 5266.00    1.08599   1.11146    0.027
 5267.00    1.09184   1.06712    0.027
 5268.00    1.04435   1.04613    0.027
 5269.00    0.99124   1.05817    0.028
 5270.00    0.99217   1.08579    0.028
 5271.00    0.99679   1.07780    0.028
 5272.00    1.02272   1.03253    0.028
 5273.00    1.04937   1.02402    0.028
 5274.00    1.07227   1.08539    0.028
 5275.00    1.09813   1.15903    0.028
 5276.00    1.21901   1.19211    0.028
 5277.00    1.33067   1.19039    0.029
 5278.00    1.30186   1.18792    0.028
 5279.00    1.28078   1.21633    0.027
 5280.00    1.33507   1.27097    0.027
 5281.00    1.39086   1.31058    0.027
 5282.00    1.45724   1.30896    0.027
 5283.00    1.49218   1.27766    0.027
 5284.00    1.35669   1.24091    0.027
 5285.00    1.25668   1.21204    0.027
 5286.00    1.31087   1.19923    0.027
 5287.00    1.35320   1.21928    0.027
 5288.00    1.35315   1.27495    0.028
 5289.00    1.36505   1.33151    0.028
 5290.00    1.41282   1.35488    0.028
 5291.00    1.46336   1.35267    0.028
 5292.00    1.52100   1.35261    0.027
 5293.00    1.51299   1.36148    0.027
 5294.00    1.36058   1.36407    0.027
 5295.00    1.28809   1.35195    0.027
 5296.00    1.36812   1.33496    0.027
 5297.00    1.37766   1.32007    0.027
 5298.00    1.26984   1.29300    0.027
 5299.00    1.24845   1.24048    0.026
 5300.00    1.35319   1.18444    0.026
 5301.00    1.38860   1.16834    0.027
 5302.00    1.33502   1.19926    0.027
 5303.00    1.33605   1.23533    0.027
 5304.00    1.39883   1.25023    0.027
 5305.00    1.44531   1.26432    0.026
 5306.00    1.47555   1.29785    0.026
 5307.00    1.49344   1.33773    0.026
 5308.00    1.50048   1.35840    0.026
 5309.00    1.46327   1.35280    0.026
 5310.00    1.39177   1.33950    0.026
 5311.00    1.33012   1.34104    0.026
 5312.00    1.27518   1.35677    0.026
 5313.00    1.27268   1.36826    0.026
 5314.00    1.30149   1.36538    0.025
 5315.00    1.34997   1.35267    0.025
 5316.00    1.40870   1.33893    0.025
 5317.00    1.39714   1.32734    0.025
 5318.00    1.35383   1.31299    0.025
 5319.00    1.41001   1.29704    0.025
 5320.00    1.50485   1.29203    0.026
 5321.00    1.48085   1.29996    0.026
 5322.00    1.41756   1.30786    0.025
 5323.00    1.33083   1.30894    0.026
 5324.00    1.23760   1.30344    0.026
 5325.00    1.28220   1.28635    0.026
 5326.00    1.35824   1.25601    0.026
 5327.00    1.33272   1.22962    0.026
 5328.00    1.28867   1.21871    0.026
 5329.00    1.22156   1.19405    0.026
 5330.00    1.15121   1.13018    0.025
 5331.00    1.24387   1.07320    0.026
 5332.00    1.35299   1.09115    0.026
 5333.00    1.34261   1.17096    0.027
 5334.00    1.32458   1.24097    0.027
 5335.00    1.28469   1.26931    0.027
 5336.00    1.24424   1.28190    0.026
 5337.00    1.24471   1.30319    0.027
 5338.00    1.24646   1.32267    0.027
 5339.00    1.28475   1.32474    0.027
 5340.00    1.32320   1.31316    0.027
 5341.00    1.36377   1.29090    0.027
 5342.00    1.40045   1.25184    0.027
 5343.00    1.40074   1.21316    0.027
 5344.00    1.39628   1.21196    0.026
 5345.00    1.35941   1.24950    0.026
 5346.00    1.31586   1.28658    0.026
 5347.00    1.23711   1.29611    0.027
 5348.00    1.19032   1.28426    0.027
 5349.00    1.27928   1.27190    0.027
 5350.00    1.34021   1.26492    0.027
 5351.00    1.30286   1.25416    0.027
 5352.00    1.29383   1.24856    0.026
 5353.00    1.36827   1.26783    0.026
 5354.00    1.39902   1.30398    0.026
 5355.00    1.32003   1.33165    0.026
 5356.00    1.28690   1.34726    0.026
 5357.00    1.35298   1.36499    0.026
 5358.00    1.39282   1.38484    0.027
 5359.00    1.38335   1.39591    0.026
 5360.00    1.36697   1.39753    0.026
 5361.00    1.33922   1.39527    0.026
 5362.00    1.32566   1.38914    0.025
 5363.00    1.33249   1.37373    0.025
 5364.00    1.33724   1.34829    0.024
 5365.00    1.33936   1.32347    0.025
 5366.00    1.30751   1.30723    0.025
 5367.00    1.23780   1.29422    0.025
 5368.00    1.20190   1.28255   -2.000
 5369.00    1.19927   1.27750   -2.000
 5370.00    1.17354   1.27466   -2.000
 5371.00    1.12780   1.26023   -2.000
 5372.00    1.07183   1.22343   -2.000
 5373.00    1.00804   1.17603   -2.000
 5374.00    1.06251   1.15740   -2.000
 5375.00    1.19638   1.19445   -2.000
 5376.00    1.31519   1.26449   -2.000
 5377.00    1.42513   1.32234   -2.000
 5378.00    1.46425   1.34692   -2.000
 5379.00    1.46705   1.34474   -2.000
 5380.00    1.43886   1.33587   -2.000
 5381.00    1.39691   1.33472   -2.000
 5382.00    1.37873   1.33490   -2.000
 5383.00    1.36961   1.32616    0.026
 5384.00    1.39128   1.31169    0.026
 5385.00    1.42293   1.29845    0.026
 5386.00    1.44696   1.29353    0.026
 5387.00    1.46892   1.30366    0.027
 5388.00    1.43760   1.32033    0.026
 5389.00    1.39442   1.32707    0.026
 5390.00    1.39701   1.32044    0.026
 5391.00    1.40772   1.30413    0.026
 5392.00    1.38775   1.28095    0.026
 5393.00    1.36361   1.25903    0.026
 5394.00    1.26602   1.24674    0.027
 5395.00    1.16135   1.24334    0.027
 5396.00    1.19020   1.24364    0.027
 5397.00    1.22709   1.24233    0.027
 5398.00    1.29530   1.22913    0.027
 5399.00    1.36370   1.19987    0.027
 5400.00    1.32913   1.18033    0.027
 5401.00    1.29449   1.19865    0.027
 5402.00    1.25817   1.23643    0.026
 5403.00    1.22354   1.26062    0.026
 5404.00    1.21184   1.27013    0.026
 5405.00    1.20900   1.26721    0.026
 5406.00    1.28591   1.23582    0.025
 5407.00    1.34615   1.17872    0.025
 5408.00    1.29632   1.13335    0.025
 5409.00    1.25029   1.13294    0.026
 5410.00    1.22386   1.16770    0.026
 5411.00    1.21037   1.19462    0.026
 5412.00    1.25056   1.19179    0.025
 5413.00    1.28851   1.18673    0.025
 5414.00    1.31874   1.21143    0.025
 5415.00    1.35017   1.25375    0.025
 5416.00    1.38506   1.28103    0.025
 5417.00    1.41839   1.28730    0.025
 5418.00    1.44786   1.29400    0.025
 5419.00    1.45007   1.31374    0.025
 5420.00    1.39424   1.33225    0.025
 5421.00    1.37084   1.33150    0.025
 5422.00    1.40745   1.31333    0.025
 5423.00    1.42546   1.29501    0.024
 5424.00    1.41345   1.29056    0.024
 5425.00    1.39632   1.29151    0.024
 5426.00    1.37196   1.27903    0.025
 5427.00    1.34808   1.26428    0.025
 5428.00    1.32482   1.27719    0.025
 5429.00    1.32537   1.31208    0.025
 5430.00    1.35209   1.32636    0.025
 5431.00    1.32399   1.29177    0.025
 5432.00    1.24275   1.23557    0.025
 5433.00    1.23312   1.21428    0.025
 5434.00    1.28471   1.23282    0.025
 5435.00    1.31166   1.24277    0.026
 5436.00    1.32005   1.22424    0.025
 5437.00    1.34006   1.20160    0.026
 5438.00    1.36777   1.19913    0.026
 5439.00    1.41746   1.22236    0.026
 5440.00    1.47988   1.26481    0.026
 5441.00    1.46387   1.31289    0.025
 5442.00    1.40827   1.34990    0.025
 5443.00    1.44592   1.36790    0.026
 5444.00    1.52432   1.37183    0.027
 5445.00    1.51100   1.36880    0.027
 5446.00    1.46328   1.35566    0.026
 5447.00    1.41504   1.32089    0.026
 5448.00    1.36663   1.26306    0.026
 5449.00    1.39628   1.20690    0.026
 5450.00    1.44667   1.19229    0.026
 5451.00    1.40898   1.23010    0.026
 5452.00    1.35212   1.28394    0.026
 5453.00    1.27124   1.31582    0.026
 5454.00    1.18622   1.32004    0.026
 5455.00    1.17070   1.30643    0.026
 5456.00    1.16429   1.27769    0.026
 5457.00    1.19868   1.23426    0.026
 5458.00    1.23684   1.19726    0.025
 5459.00    1.28707   1.20199    0.025
 5460.00    1.33798   1.25036    0.026
 5461.00    1.33991   1.30168    0.025
 5462.00    1.34084   1.32170    0.025
 5463.00    1.35168   1.30981    0.025
 5464.00    1.35995   1.28120    0.024
 5465.00    1.30807   1.24974    0.025
 5466.00    1.26106   1.23349    0.025
 5467.00    1.27676   1.24550    0.025
 5468.00    1.29513   1.27010    0.024
 5469.00    1.33655   1.28462    0.025
 5470.00    1.36115   1.29092    0.025
 5471.00    1.27795   1.29518    0.025
 5472.00    1.21047   1.29094    0.025
 5473.00    1.22185   1.27937    0.025
 5474.00    1.23576   1.27074    0.024
 5475.00    1.25993   1.26271    0.024
 5476.00    1.27618   1.24896    0.024
 5477.00    1.26574   1.23308    0.024
 5478.00    1.24570   1.20998   -2.000
 5479.00    1.19844   1.17825   -2.000
 5480.00    1.18584   1.16966   -2.000
 5481.00    1.25734   1.20371   -2.000
 5482.00    1.25108   1.24254   -2.000
 5483.00    1.08191   1.24424   -2.000
 5484.00    0.97001   1.22238   -2.000
 5485.00    0.96240   1.21835   -2.000
 5486.00    0.64017   1.24476   -2.000
 5487.00   -0.18287   1.28230   -2.000
 5488.00   -0.29388   1.30441   -2.000
 5489.00    0.58978   1.29515   -2.000
 5490.00    1.19754   1.26713   -2.000
 5491.00    1.46612   1.25128   -2.000
 5492.00    1.81511   1.25757   -2.000
 5493.00    2.25124   1.27174   -2.000
 5494.00    2.22254   1.28294   -2.000
 5495.00    1.74952   1.28507   -2.000
 5496.00    1.48904   1.27753   -2.000
 5497.00    1.40769   1.27332   -2.000
 5498.00    1.37637   1.27679   -2.000
 5499.00    1.38218   1.27387   -2.000
 5500.00    1.39565   1.26585   -2.000
 5501.00    1.41413   1.27365   -2.000
 5502.00    1.39920   1.29296    0.026
 5503.00    1.36522   1.29314    0.025
 5504.00    1.31458   1.26917    0.025
 5505.00    1.25566   1.24850    0.025
 5506.00    1.25186   1.24712    0.025
 5507.00    1.27175   1.25197    0.025
 5508.00    1.28514   1.24507    0.025
 5509.00    1.29613   1.23162    0.025
 5510.00    1.29038   1.23447    0.025
 5511.00    1.27941   1.25486    0.024
 5512.00    1.24923   1.26860    0.025
 5513.00    1.21406   1.26224    0.025
 5514.00    1.17276   1.24021    0.024
 5515.00    1.13016   1.21506    0.024
 5516.00    1.20212   1.20365    0.024
 5517.00    1.29331   1.21175    0.024
 5518.00    1.34417   1.23038    0.024
 5519.00    1.38992   1.25150    0.024
 5520.00    1.37709   1.27558    0.024
 5521.00    1.35909   1.30142    0.024
 5522.00    1.32036   1.31779    0.024
 5523.00    1.28056   1.31856    0.025
 5524.00    1.24833   1.31230    0.024
 5525.00    1.21690   1.30848    0.024
 5526.00    1.23496   1.30687    0.024
 5527.00    1.25240   1.30099    0.024
 5528.00    1.25675   1.28525    0.024
 5529.00    1.26480   1.25850    0.024
 5530.00    1.31811   1.22619    0.024
 5531.00    1.36541   1.20734    0.025
 5532.00    1.36270   1.22141    0.025
 5533.00    1.35646   1.25728    0.026
 5534.00    1.32824   1.28354    0.026
 5535.00    1.30634   1.28780    0.026
 5536.00    1.31529   1.27902    0.025
 5537.00    1.30407   1.26670    0.025
 5538.00    1.21280   1.25887    0.025
 5539.00    1.16495   1.26228    0.026
 5540.00    1.26044   1.27176    0.026
 5541.00    1.34955   1.28097    0.026
 5542.00    1.42082   1.29413    0.026
 5543.00    1.46822   1.31051    0.026
 5544.00    1.45860   1.31768    0.026
 5545.00    1.43488   1.30783    0.026
 5546.00    1.38207   1.29071    0.026
 5547.00    1.35580   1.28166    0.025
 5548.00    1.37711   1.28144    0.026
 5549.00    1.39541   1.28514    0.026
 5550.00    1.40899   1.29741    0.025
 5551.00    1.43954   1.31790    0.025
 5552.00    1.49346   1.33422    0.025
 5553.00    1.49199   1.33956    0.025
 5554.00    1.42340   1.33553    0.024
 5555.00    1.37389   1.32281    0.024
 5556.00    1.34476   1.30438    0.024
 5557.00    1.33960   1.29028    0.024
 5558.00    1.35703   1.28862    0.024
 5559.00    1.36933   1.29406    0.024
 5560.00    1.37738   1.29616    0.024
 5561.00    1.35477   1.29513    0.024
 5562.00    1.30973   1.29545    0.024
 5563.00    1.31841   1.29382    0.024
 5564.00    1.36158   1.28532    0.024
 5565.00    1.36332   1.27200    0.024
 5566.00    1.34176   1.26227    0.024
 5567.00    1.34494   1.25930    0.024
 5568.00    1.36022   1.25548    0.024
 5569.00    1.33353   1.24909    0.024
 5570.00    1.28911   1.24717    0.024
 5571.00    1.29672   1.24847    0.024
 5572.00    1.32316   1.24936    0.024
 5573.00    1.30933   1.25528    0.024
 5574.00    1.28318   1.26147    0.025
 5575.00    1.30394   1.25463    0.025
 5576.00    1.33664   1.24804    0.025
 5577.00    1.33719   1.26011    0.025
 5578.00    1.33107   1.27665    0.025
 5579.00    1.35208   1.28307    0.025
 5580.00    1.37750   1.28631    0.025
 5581.00    1.39241   1.28983    0.025
 5582.00    1.40603   1.29260    0.025
 5583.00    1.35012   1.29493    0.048
 5584.00    1.28838   1.29215    1.086
 5585.00    1.26891   1.28505   -1.000
 5586.00    1.25149   1.27923   -1.000
 5587.00    1.23799   1.26824   -1.000
 5588.00    1.22427   1.24112   -1.000
 5589.00    1.19385   1.19971   -1.000
 5590.00    1.16282   1.16102   -1.000
 5591.00    1.11967   1.14403   -1.000
 5592.00    1.08718   1.15343    0.638
 5593.00    1.17854   1.17938    0.047
 5594.00    1.25959   1.20480    0.026
 5595.00    1.25780   1.21702    0.026
 5596.00    1.26097   1.21846    0.026
 5597.00    1.29403   1.22399    0.026
 5598.00    1.31121   1.24638    0.026
 5599.00    1.25264   1.27315    0.025
 5600.00    1.20903   1.27479    0.025
 5601.00    1.22355   1.25013    0.025
 5602.00    1.22789   1.22563    0.025
 5603.00    1.19934   1.21043    0.025
 5604.00    1.20196   1.19641    0.025
 5605.00    1.28997   1.18889    0.024
 5606.00    1.37244   1.20398    0.024
 5607.00    1.44186   1.24427    0.024
 5608.00    1.47829   1.29017    0.024
 5609.00    1.44777   1.32070    0.024
 5610.00    1.41780   1.33128    0.024
 5611.00    1.38880   1.32919    0.024
 5612.00    1.37267   1.32420    0.024
 5613.00    1.37645   1.32347    0.023
 5614.00    1.37948   1.32860    0.023
 5615.00    1.38150   1.33085    0.023
 5616.00    1.35090   1.31087    0.024
 5617.00    1.28131   1.25789    0.024
 5618.00    1.24302   1.19884    0.024
 5619.00    1.23769   1.18083    0.024
 5620.00    1.28278   1.20760    0.024
 5621.00    1.37472   1.23815    0.024
 5622.00    1.38790   1.25017    0.024
 5623.00    1.33655   1.25676    0.024
 5624.00    1.32490   1.26924    0.024
 5625.00    1.34186   1.27478    0.024
 5626.00    1.33127   1.25507    0.024
 5627.00    1.30324   1.21874    0.024
 5628.00    1.26472   1.19978    0.024
 5629.00    1.22040   1.21381    0.024
 5630.00    1.25335   1.24227    0.025
 5631.00    1.32349   1.26806    0.025
 5632.00    1.31613   1.29070    0.025
 5633.00    1.27659   1.30824    0.024
 5634.00    1.27791   1.31495    0.024
 5635.00    1.29375   1.31043    0.024
 5636.00    1.29250   1.29851    0.024
 5637.00    1.28613   1.28342    0.024
 5638.00    1.27874   1.26753    0.024
 5639.00    1.27109   1.25160    0.024
 5640.00    1.31222   1.24024    0.024
 5641.00    1.36320   1.24030    0.024
 5642.00    1.36722   1.24739    0.023
 5643.00    1.36380   1.24743    0.023
 5644.00    1.37246   1.23918    0.023
 5645.00    1.38254   1.23663    0.023
 5646.00    1.38646   1.24436    0.023
 5647.00    1.38988   1.25464    0.023
 5648.00    1.35687   1.26359    0.023
 5649.00    1.32223   1.27179    0.023
 5650.00    1.33295   1.27750    0.023
 5651.00    1.34367   1.27652    0.023
 5652.00    1.32892   1.27020    0.023
 5653.00    1.31503   1.26887    0.023
 5654.00    1.31686   1.27878    0.023
 5655.00    1.31929   1.29016    0.023
 5656.00    1.32845   1.28719    0.023
 5657.00    1.33168   1.26931    0.023
 5658.00    1.28897   1.25394    0.023
 5659.00    1.25832   1.24616    0.023
 5660.00    1.29853   1.22522    0.023
 5661.00    1.32934   1.19069    0.023
 5662.00    1.31641   1.17898    0.023
 5663.00    1.30409   1.20010    0.023
 5664.00    1.29408   1.21937    0.023
 5665.00    1.30393   1.22078    0.023
 5666.00    1.37679   1.22577    0.023
 5667.00    1.41038   1.24698    0.024
 5668.00    1.33830   1.26802    0.024
 5669.00    1.29583   1.27075    0.024
 5670.00    1.32169   1.25858    0.024
 5671.00    1.33887   1.24863    0.024
 5672.00    1.33870   1.24976    0.024
 5673.00    1.34359   1.25858    0.024
 5674.00    1.35726   1.27274    0.023
 5675.00    1.31818   1.29291    0.023
 5676.00    1.19880   1.31158    0.023
 5677.00    1.17935   1.31704    0.024
 5678.00    1.29357   1.31211    0.024
 5679.00    1.36764   1.31042    0.024
 5680.00    1.39443   1.31265    0.023
 5681.00    1.39943   1.30865    0.023
 5682.00    1.38178   1.29874    0.023
 5683.00    1.33322   1.28898    0.023
 5684.00    1.25632   1.27511    0.022
 5685.00    1.24221   1.25502    0.022
 5686.00    1.27881   1.24314    0.022
 5687.00    1.28737   1.24862    0.022
 5688.00    1.27599   1.25722    0.022
 5689.00    1.27040   1.25216    0.022
 5690.00    1.26840   1.23808    0.022
 5691.00    1.28608   1.23283    0.022
 5692.00    1.31447   1.24485    0.022
 5693.00    1.31143   1.26685    0.022
 5694.00    1.29350   1.28802    0.022
 5695.00    1.29683   1.30340    0.023
 5696.00    1.30884   1.30950    0.023
 5697.00    1.30387   1.30629    0.023
 5698.00    1.29297   1.30098    0.023
 5699.00    1.23190   1.29735    0.023
 5700.00    1.15609   1.28882    0.023
 5701.00    1.23381   1.27275    0.023
 5702.00    1.34893   1.25701    0.024
 5703.00    1.31480   1.24359    0.023
 5704.00    1.25127   1.23020    0.023
 5705.00    1.21659   1.22519    0.023
 5706.00    1.18633   1.23500    0.023
 5707.00    1.23866   1.24771    0.023
 5708.00    1.30034   1.24548    0.023
 5709.00    1.32007   1.22620    0.023
 5710.00    1.33662   1.20142    0.023
 5711.00    1.32162   1.17994    0.023
 5712.00    1.30535   1.16786    0.023
 5713.00    1.31243   1.16904    0.023
 5714.00    1.31856   1.17879    0.022
 5715.00    1.27784   1.19652    0.022
 5716.00    1.23870   1.22596    0.022
 5717.00    1.22675   1.25709    0.022
 5718.00    1.21987   1.27780    0.022
 5719.00    1.26669   1.28847    0.022
 5720.00    1.30853   1.29285    0.022
 5721.00    1.31301   1.29551    0.022
 5722.00    1.31770   1.30148    0.022
 5723.00    1.32354   1.31026    0.022
 5724.00    1.33764   1.31991    0.022
 5725.00    1.38923   1.32952    0.022
 5726.00    1.42514   1.33535    0.022
 5727.00    1.40269   1.33402    0.022
 5728.00    1.37007   1.32462    0.021
 5729.00    1.30581   1.30757    0.021
 5730.00    1.25602   1.29180    0.021
 5731.00    1.24447   1.29128    0.022
 5732.00    1.24686   1.30166    0.022
 5733.00    1.28084   1.30208    0.022
 5734.00    1.31161   1.28864    0.022
 5735.00    1.33604   1.28187    0.022
 5736.00    1.36135   1.29396    0.022
 5737.00    1.38815   1.31242    0.022
 5738.00    1.40828   1.32138    0.022
 5739.00    1.41841   1.31850    0.023
 5740.00    1.41323   1.31086    0.000
 5741.00    1.38788   1.30565    0.000
 5742.00    1.38927   1.30453    0.000
 5743.00    1.42172   1.30468    0.000
 5744.00    1.41440   1.30265    0.000
 5745.00    1.36636   1.29806    0.000
 5746.00    1.33419   1.29671    0.000
 5747.00    1.31634   1.30504    0.000
 5748.00    1.30304   1.31781    0.000
 5749.00    1.29338   1.31908    0.000
 5750.00    1.30871   1.30204    0.000
 5751.00    1.34153   1.28311    0.000
 5752.00    1.32285   1.28346    0.000
 5753.00    1.27254   1.29829    0.000
 5754.00    1.26171   1.30178    0.000
 5755.00    1.27208   1.28020    0.000
 5756.00    1.26721   1.24795    0.000
 5757.00    1.25525   1.23330    0.000
 5758.00    1.27887   1.25075    0.000
 5759.00    1.31676   1.28647    0.000
 5760.00    1.31933   1.31522    0.000
 5761.00    1.30981   1.32345    0.000
 5762.00    1.31560   1.31107    0.000
 5763.00    1.32581   1.28474    0.000
 5764.00    1.36455   1.25507    0.000
 5765.00    1.41008   1.23573    0.000
 5766.00    1.40021   1.24090    0.000
 5767.00    1.37971   1.27126    0.000
 5768.00    1.37454   1.30644    0.000
 5769.00    1.37164   1.32726    0.000
 5770.00    1.38502   1.33332    0.000
 5771.00    1.40017   1.33169    0.000
 5772.00    1.40161   1.32617    0.000
 5773.00    1.40207   1.31856    0.000
 5774.00    1.40828   1.30946    0.000
 5775.00    1.41471   1.30052    0.000
 5776.00    1.40766   1.29447    0.000
 5777.00    1.40135   1.29155    0.000
 5778.00    1.42332   1.29290    0.000
 5779.00    1.44340   1.30012    0.000
 5780.00    1.43297   1.30774    0.000
 5781.00    1.42307   1.30544    0.000
 5782.00    1.41857   1.28523    0.000
 5783.00    1.40817   1.24764    0.000
 5784.00    1.35493   1.20890    0.000
 5785.00    1.30634   1.18992    0.000
 5786.00    1.28354   1.19024    0.000
 5787.00    1.26178   1.19176    0.000
 5788.00    1.24464   1.19134    0.000
 5789.00    1.23690   1.20451    0.000
 5790.00    1.26339   1.23418    0.000
 5791.00    1.27969   1.26345   -2.000
 5792.00    1.26490   1.27731   -2.000
 5793.00    1.24019   1.27394   -2.000
 5794.00    1.18974   1.26578   -2.000
 5795.00    1.14909   1.26858   -2.000
 5796.00    1.13029   1.28376   -2.000
 5797.00    1.15619   1.30191   -2.000
 5798.00    1.26856   1.31299   -2.000
 5799.00    1.33922   1.30795   -2.000
 5800.00    1.33949   1.28923   -2.000
 5801.00    1.32086   1.27773   -2.000
 5802.00    1.27427   1.28989   -2.000
 5803.00    1.28477   1.31576   -2.000
 5804.00    1.36946   1.33517   -2.000
 5805.00    1.43610   1.33894   -2.000
 5806.00    1.48207   1.32640   -2.000
 5807.00    1.46445   1.30381   -2.000
 5808.00    1.38260   1.28557   -2.000
 5809.00    1.33715   1.28132   -2.000
 5810.00    1.32409   1.28745   -2.000
 5811.00    1.31443   1.29573    0.000
 5812.00    1.30743   1.30298    0.000
 5813.00    1.31826   1.31004    0.000
 5814.00    1.34141   1.31550    0.000
 5815.00    1.36779   1.31672    0.000
 5816.00    1.39614   1.31290    0.000
 5817.00    1.37113   1.30231    0.000
 5818.00    1.31794   1.28545    0.000
 5819.00    1.28737   1.27340    0.000
 5820.00    1.26717   1.28008    0.000
 5821.00    1.31437   1.30339    0.000
 5822.00    1.38817   1.32651    0.000
 5823.00    1.41782   1.33805    0.000
 5824.00    1.43262   1.33868    0.000
 5825.00    1.40808   1.33324    0.000
 5826.00    1.37242   1.32714    0.000
 5827.00    1.36542   1.32553    0.000
 5828.00    1.36510   1.32846    0.000
 5829.00    1.37941   1.33101    0.000
 5830.00    1.39644   1.33099    0.000
 5831.00    1.38112   1.33161    0.000
 5832.00    1.36112   1.33456    0.000
 5833.00    1.38107   1.33631    0.000
 5834.00    1.40520   1.33421    0.000
 5835.00    1.39702   1.32978    0.000
 5836.00    1.38665   1.32318    0.000
 5837.00    1.34741   1.31409    0.000
 5838.00    1.30720   1.30839    0.000
 5839.00    1.32899   1.31040    0.000
 5840.00    1.34992   1.31327    0.000
 5841.00    1.34224   1.31166    0.000
 5842.00    1.33601   1.31305    0.000
 5843.00    1.35153   1.32348    0.000
 5844.00    1.36671   1.33665    0.000
 5845.00    1.37866   1.34414    0.000
 5846.00    1.38738   1.34381    0.000
 5847.00    1.37350   1.33688    0.000
 5848.00    1.35965   1.32492    0.000
 5849.00    1.34594   1.31024    0.000
 5850.00    1.32324   1.29735    0.000
 5851.00    1.26155   1.29171    0.000
 5852.00    1.21822   1.29413    0.000
 5853.00    1.24040   1.29765    0.000
 5854.00    1.26215   1.29264    0.000
 5855.00    1.28262   1.27620    0.000
 5856.00    1.28651   1.25817    0.000
 5857.00    1.24810   1.25163    0.000
 5858.00    1.23876   1.25318    0.000
 5859.00    1.29324   1.24508    0.000
 5860.00    1.31716   1.22405    0.000
 5861.00    1.28287   1.21081    0.000
 5862.00    1.26067   1.22125    0.000
 5863.00    1.25859   1.24595    0.000
 5864.00    1.26074   1.26512    0.000
 5865.00    1.26907   1.27098    0.000
 5866.00    1.27894   1.27181    0.000
 5867.00    1.29078   1.27587    0.000
 5868.00    1.29181   1.27826    0.000
 5869.00    1.28064   1.27312    0.000
 5870.00    1.26747   1.26890    0.000
 5871.00    1.25230   1.27693    0.000
 5872.00    1.24219   1.29377    0.000
 5873.00    1.23652   1.30679    0.000
 5874.00    1.26738   1.30889    0.000
 5875.00    1.32651   1.30199    0.000
 5876.00    1.35955   1.29285    0.000
 5877.00    1.37484   1.28672    0.000
 5878.00    1.37962   1.28305    0.000
 5879.00    1.37814   1.27931    0.000
 5880.00    1.37973   1.27581    0.000
 5881.00    1.38292   1.27152    0.000
 5882.00    1.36110   1.26274    0.000
 5883.00    1.32800   1.25263    0.000
 5884.00    1.27372   1.25021    0.000
 5885.00    1.21123   1.25478    0.000
 5886.00    1.16328   1.25584    0.000
 5887.00    1.12013   1.25134    0.000
 5888.00    1.10574   1.24828    0.000
 5889.00    1.09929   1.24196    0.000
 5890.00    1.11385   1.20931    0.000
 5891.00    1.13318   1.12895    0.000
 5892.00    1.08863   1.01642    0.000
 5893.00    1.03246   0.93644    0.000
 5894.00    1.02018   0.94349    0.000
 5895.00    1.01403   1.01409    0.000
 5896.00    1.05929   1.07625    0.000
 5897.00    1.10971   1.08195    0.000
 5898.00    1.14502   1.03646    0.000
 5899.00    1.17938   0.99635    0.000
 5900.00    1.19933   1.01788    0.000
 5901.00    1.21882   1.08939    0.020
 5902.00    1.22713   1.15843    0.019
 5903.00    1.23486   1.20305    0.019
 5904.00    1.22629   1.23089    0.020
 5905.00    1.21723   1.24773    0.020
 5906.00    1.20106   1.25587    0.020
 5907.00    1.19102   1.25769    0.020
 5908.00    1.23804   1.25463    0.020
 5909.00    1.27808   1.25206    0.019
 5910.00    1.27071   1.25631    0.020
 5911.00    1.26106   1.26525    0.020
 5912.00    1.23947   1.27210    0.020
 5913.00    1.22960   1.27623    0.020
 5914.00    1.26940   1.27975    0.020
 5915.00    1.29763   1.27718    0.020
 5916.00    1.28546   1.26137    0.019
 5917.00    1.27759   1.23844    0.019
 5918.00    1.28240   1.22386    0.020
 5919.00    1.28889   1.22530    0.020
 5920.00    1.29958   1.23847    0.020
 5921.00    1.30769   1.25467    0.020
 5922.00    1.31022   1.26756    0.020
 5923.00    1.31634   1.27475    0.020
 5924.00    1.32916   1.27502    0.020
 5925.00    1.34340   1.27060    0.020
 5926.00    1.35995   1.26855    0.020
 5927.00    1.37678   1.27255    0.020
 5928.00    1.39402   1.27941    0.020
 5929.00    1.39854   1.28367    0.020
 5930.00    1.38702   1.28023    0.019
 5931.00    1.36407   1.26754    0.019
 5932.00    1.32841   1.25125    0.019
 5933.00    1.32390   1.24320    0.019
 5934.00    1.34996   1.25140    0.019
 5935.00    1.36341   1.26707    0.019
 5936.00    1.36594   1.27143    0.019
 5937.00    1.35014   1.26083    0.019
 5938.00    1.32035   1.25180    0.019
 5939.00    1.30656   1.25734    0.019
 5940.00    1.30349   1.27177    0.019
 5941.00    1.29383   1.28361    0.019
 5942.00    1.28030   1.28694    0.019
 5943.00    1.27626   1.27870    0.019
 5944.00    1.27708   1.26307    0.019
 5945.00    1.28188   1.25325    0.019
 5946.00    1.28844   1.25707    0.019
 5947.00    1.29589   1.26991    0.020
 5948.00    1.30369   1.28316    0.020
 5949.00    1.28267   1.28916    0.020
 5950.00    1.25232   1.28198    0.019
 5951.00    1.24263   1.26422    0.020
 5952.00    1.23855   1.25026    0.020
 5953.00    1.24120   1.25146    0.020
 5954.00    1.24535   1.25896    0.020
 5955.00    1.28392   1.25681    0.020
 5956.00    1.32858   1.24900    0.020
 5957.00    1.32047   1.25030    0.020
 5958.00    1.30523   1.25744    0.020
 5959.00    1.30967   1.25606    0.020
 5960.00    1.31601   1.24767    0.020
 5961.00    1.29533   1.24622    0.020
 5962.00    1.27303   1.25716    0.019
 5963.00    1.28128   1.27424    0.019
 5964.00    1.29037   1.28913    0.019
 5965.00    1.30758   1.29719    0.019
 5966.00    1.32439   1.29798    0.019
 5967.00    1.33092   1.29287    0.019
 5968.00    1.33837   1.28412    0.019
 5969.00    1.35836   1.27790    0.019
 5970.00    1.37659   1.28065    0.019
 5971.00    1.37900   1.28997    0.019
 5972.00    1.37666   1.29890    0.019
 5973.00    1.34308   1.30549    0.019
 5974.00    1.32204   1.30996    0.019
 5975.00    1.36531   1.31101    0.019
 5976.00    1.39343   1.30729    0.019
 5977.00    1.35881   1.29698    0.019
 5978.00    1.32295   1.27900    0.019
 5979.00    1.28279   1.25832    0.019
 5980.00    1.25327   1.24475    0.020
 5981.00    1.25449   1.24437    0.020
 5982.00    1.25620   1.25588    0.020
 5983.00    1.25910   1.27210    0.020
 5984.00    1.25883   1.28157    0.020
 5985.00    1.25185   1.27465    0.020
 5986.00    1.25677   1.25213    0.019
 5987.00    1.28364   1.22832    0.019
 5988.00    1.32186   1.22138    0.020
 5989.00    1.37836   1.23363    0.020
 5990.00    1.40728   1.25083    0.020
 5991.00    1.39719   1.26367    0.019
 5992.00    1.39210   1.27269    0.019
 5993.00    1.39326   1.27618    0.019
 5994.00    1.39247   1.27305    0.019
 5995.00    1.38953   1.27170    0.019
 5996.00    1.37220   1.28020    0.019
 5997.00    1.34094   1.29219    0.019
 5998.00    1.33113   1.29413    0.019
 5999.00    1.33962   1.28158    0.019
 6000.00    1.35545   1.26244    0.019
 6001.00    1.37680   1.24981    0.019
 6002.00    1.37207   1.25104    0.019
 6003.00    1.35012   1.26083    0.018
 6004.00    1.31524   1.26673    0.018
 6005.00    1.27288   1.26263    0.018
 6006.00    1.26569   1.25588    0.018
 6007.00    1.27621   1.25629    0.019
 6008.00    1.28968   1.25909    0.019
 6009.00    1.30445   1.25123    0.019
 6010.00    1.30018   1.23174    0.019
 6011.00    1.28880   1.21648    0.019
 6012.00    1.28926   1.22314    0.019
 6013.00    1.29349   1.24838    0.019
 6014.00    1.31961   1.26675    0.020
 6015.00    1.35153   1.26207    0.020
 6016.00    1.36755   1.24579    0.020
 6017.00    1.38011   1.23756    0.021
 6018.00    1.34162   1.23967    0.020
 6019.00    1.29435   1.24093    0.020
 6020.00    1.24959   1.23890    0.019
 6021.00    1.20517   1.23840    0.019
 6022.00    1.22477   1.23614    0.019
 6023.00    1.25025   1.22884    0.019
 6024.00    1.27285   1.22398    0.019
 6025.00    1.29528   1.22757    0.019
 6026.00    1.32952   1.23575    0.019
 6027.00    1.36355   1.24464    0.018
 6028.00    1.35253   1.25470    0.018
 6029.00    1.34180   1.26379    0.018
 6030.00    1.33774   1.26921    0.018
 6031.00    1.33354   1.27510    0.018
 6032.00    1.32752   1.28376    0.018
 6033.00    1.32131   1.28987    0.018
 6034.00    1.31334   1.29197    0.018
 6035.00    1.30939   1.29476    0.018
 6036.00    1.33109   1.29939    0.018
 6037.00    1.35014   1.30240    0.019
 6038.00    1.35596   1.30292    0.019
 6039.00    1.35902   1.30325    0.019
 6040.00    1.35087   1.30397    0.019
 6041.00    1.33982   1.30281    0.019
 6042.00    1.31901   1.29792    0.019
 6043.00    1.30521   1.29094    0.019
 6044.00    1.31127   1.28580    0.019
 6045.00    1.31191   1.28568    0.019
 6046.00    1.29941   1.29187    0.019
 6047.00    1.29732   1.30160    0.019
 6048.00    1.31701   1.30898    0.019
 6049.00    1.33950   1.31202    0.019
 6050.00    1.36707   1.31259    0.019
 6051.00    1.39489   1.31164    0.019
 6052.00    1.42307   1.31064    0.019
 6053.00    1.42708   1.31168    0.019
 6054.00    1.39737   1.31214    0.019
 6055.00    1.38184   1.30654    0.019
 6056.00    1.38372   1.29516    0.019
 6057.00    1.39155   1.28352    0.019
 6058.00    1.40582   1.27445    0.019
 6059.00    1.39632   1.26788    0.018
 6060.00    1.36412   1.26655    0.018
 6061.00    1.35560   1.27339    0.018
 6062.00    1.36699   1.28520    0.018
 6063.00    1.36374   1.29480    0.018
 6064.00    1.34963   1.29654    0.018
 6065.00    1.32739   1.28900    0.018
 6066.00    1.29987   1.27410    0.018
 6067.00    1.28556   1.25496    0.018
 6068.00    1.27878   1.23957    0.018
 6069.00    1.28501   1.24211    0.018
 6070.00    1.29769   1.26684    0.018
 6071.00    1.30658   1.29701    0.019
 6072.00    1.31385   1.31494    0.019
 6073.00    1.34338   1.32020    0.019
 6074.00    1.38111   1.32132    0.019
 6075.00    1.38764   1.32306    0.019
 6076.00    1.38446   1.32471    0.019
 6077.00    1.39295   1.32412    0.019
 6078.00    1.40447   1.31970    0.019
 6079.00    1.38653   1.30991    0.019
 6080.00    1.36235   1.29404    0.019
 6081.00    1.32382   1.27551    0.019
 6082.00    1.28288   1.26322    0.019
 6083.00    1.28983   1.26088    0.019
 6084.00    1.30283   1.25959    0.019
 6085.00    1.32581   1.25361    0.019
 6086.00    1.34966   1.25041    0.019
 6087.00    1.34933   1.25374    0.018
 6088.00    1.34775   1.25725    0.018
 6089.00    1.36102   1.25933    0.018
 6090.00    1.37387   1.26428    0.018
 6091.00    1.33662   1.26926    0.018
 6092.00    1.29998   1.26558    0.018
 6093.00    1.27649   1.25341    0.018
 6094.00    1.25523   1.24360    0.018
 6095.00    1.26090   1.24273    0.018
 6096.00    1.26734   1.24873    0.018
 6097.00    1.28017   1.26013    0.018
 6098.00    1.29532   1.27396    0.018
 6099.00    1.32487   1.28143    0.018
 6100.00    1.34659   1.27990    0.018
 6101.00    1.33018   1.27866    0.018
 6102.00    1.31232   1.28314    0.019
 6103.00    1.28877   1.28299    0.019
 6104.00    1.27120   1.26124    0.019
 6105.00    1.27333   1.21875    0.019
 6106.00    1.27871   1.18722    0.019
 6107.00    1.29313   1.19663    0.019
 6108.00    1.30400   1.23394    0.019
 6109.00    1.30646   1.26331    0.019
 6110.00    1.30310   1.27135    0.018
 6111.00    1.28779   1.27061    0.018
 6112.00    1.28331   1.27432    0.018
 6113.00    1.29821   1.27977    0.019
 6114.00    1.32301   1.27857    0.019
 6115.00    1.36331   1.27557    0.018
 6116.00    1.37271   1.28092    0.018
 6117.00    1.33963   1.29090    0.018
 6118.00    1.29681   1.29284    0.018
 6119.00    1.24222   1.28429    0.018
 6120.00    1.22263   1.27616    0.018
 6121.00    1.24038   1.27377    0.018
 6122.00    1.25655   1.26686    0.018
 6123.00    1.27124   1.24611    0.018
 6124.00    1.28479   1.21659    0.018
 6125.00    1.29739   1.19537    0.018
 6126.00    1.31464   1.20058    0.018
 6127.00    1.33529   1.22914    0.018
 6128.00    1.34500   1.25476    0.018
 6129.00    1.34769   1.26067    0.018
 6130.00    1.34455   1.25316    0.018
 6131.00    1.33814   1.24504    0.018
 6132.00    1.33123   1.24535    0.018
 6133.00    1.32408   1.25644    0.019
 6134.00    1.31732   1.27199    0.019
 6135.00    1.31073   1.28331    0.019
 6136.00    1.29528   1.28467    0.019
 6137.00    1.27663   1.26936    0.020
 6138.00    1.25670   1.23054    0.019
 6139.00    1.23637   1.17447    0.019
 6140.00    1.22502   1.13077    0.019
 6141.00    1.21594   1.13406    0.018
 6142.00    1.22348   1.18205    0.018
 6143.00    1.23444   1.23030    0.018
 6144.00    1.27263   1.24487    0.018
 6145.00    1.31525   1.23938    0.018
 6146.00    1.36268   1.24538    0.018
 6147.00    1.41069   1.26676    0.018
 6148.00    1.40808   1.28439    0.018
 6149.00    1.40124   1.28743    0.018
 6150.00    1.39667   1.27869    0.018
 6151.00    1.39221   1.26367    0.018
 6152.00    1.36462   1.24836    0.018
 6153.00    1.33634   1.23982    0.018
 6154.00    1.28784   1.24212    0.018
 6155.00    1.24103   1.25189    0.018
 6156.00    1.22760   1.25887    0.018
 6157.00    1.21249   1.25468    0.018
 6158.00    1.17816   1.24404    0.018
 6159.00    1.15061   1.23872    0.019
 6160.00    1.17732   1.24026    0.019
 6161.00    1.20198   1.24042    0.019
 6162.00    1.21420   1.22979    0.019
 6163.00    1.21905   1.19808    0.019
 6164.00    1.18891   1.14519    0.019
 6165.00    1.16474   1.09623    0.019
 6166.00    1.16373   1.08308    0.019
 6167.00    1.16921   1.10951    0.019
 6168.00    1.19563   1.15068    0.019
 6169.00    1.21344   1.18310    0.018
 6170.00    1.20775   1.19860    0.018
 6171.00    1.19710   1.19262    0.018
 6172.00    1.17481   1.16713    0.018
 6173.00    1.16321   1.14679    0.018
 6174.00    1.17325   1.15693    0.018
 6175.00    1.17709   1.18762    0.018
 6176.00    1.17003   1.21080    0.018
 6177.00    1.15948   1.21878    0.018
 6178.00    1.14358   1.22004    0.018
 6179.00    1.14153   1.21915    0.017
 6180.00    1.15826   1.21937    0.017
 6181.00    1.16111   1.22526    0.017
 6182.00    1.14742   1.23343    0.017
 6183.00    1.15317   1.23774    0.017
 6184.00    1.17938   1.24129    0.018
 6185.00    1.19240   1.24786    0.018
 6186.00    1.19318   1.25313    0.018
 6187.00    1.19787   1.25277    0.018
 6188.00    1.20574   1.24573    0.018
 6189.00    1.21597   1.23157    0.019
 6190.00    1.22789   1.21474    0.019
 6191.00    1.21711   1.20266    0.019
 6192.00    1.19197   1.19443    0.018
 6193.00    1.18580   1.17970    0.018
 6194.00    1.19010   1.15742    0.018
 6195.00    1.14916   1.14859    0.019
 6196.00    1.08651   1.16918   -2.000
 6197.00    0.84093   1.20404   -2.000
 6198.00    0.51953   1.23042   -2.000
 6199.00    0.32161   1.24439   -2.000
 6200.00    0.16745   1.24940   -2.000
 6201.00    0.45302   1.24204   -2.000
 6202.00    0.87018   1.22181   -2.000
 6203.00    1.26381   1.20336   -2.000
 6204.00    1.65160   1.20428   -2.000
 6205.00    1.68732   1.22317   -2.000
 6206.00    1.65215   1.24268   -2.000
 6207.00    1.48036   1.25140   -2.000
 6208.00    1.28702   1.25223    0.019
 6209.00    1.24827   1.25222    0.018
 6210.00    1.22763   1.25326    0.018
 6211.00    1.24045   1.25338    0.018
 6212.00    1.25593   1.25087    0.018
 6213.00    1.22656   1.24477    0.018
 6214.00    1.19521   1.23415    0.018
 6215.00    1.18485   1.21657    0.018
 6216.00    1.17533   1.19002    0.018
 6217.00    1.19520   1.16146    0.018
 6218.00    1.21222   1.14494    0.018
 6219.00    1.17744   1.14780    0.018
 6220.00    1.14503   1.16374    0.018
 6221.00    1.13874   1.17656    0.018
 6222.00    1.13496   1.17468    0.018
 6223.00    1.15062   1.16525    0.018
 6224.00    1.16490   1.16449    0.018
 6225.00    1.17107   1.17620    0.018
 6226.00    1.17115   1.18954    0.018
 6227.00    1.14294   1.19565    0.018
 6228.00    1.11745   1.19777    0.019
 6229.00    1.10229   1.20132    0.018
 6230.00    1.09694   1.20415    0.018
 6231.00    1.12261   1.19910    0.018
 6232.00    1.15108   1.17910    0.018
 6233.00    1.18702   1.14695    0.017
 6234.00    1.21111   1.12198    0.017
 6235.00    1.20791   1.12255    0.017
 6236.00    1.20847   1.14704    0.016
 6237.00    1.21652   1.18217    0.017
 6238.00    1.21885   1.21329    0.017
 6239.00    1.21125   1.22748    0.017
 6240.00    1.19779   1.22120    0.017
 6241.00    1.17540   1.20200    0.018
 6242.00    1.16685   1.18004    0.018
 6243.00    1.17677   1.16360    0.018
 6244.00    1.18834   1.15746    0.018
 6245.00    1.20187   1.15520    0.018
 6246.00    1.21223   1.14726    0.018
 6247.00    1.21930   1.13832    0.018
 6248.00    1.21274   1.13718    0.018
 6249.00    1.19370   1.14439    0.018
 6250.00    1.18984   1.16030    0.018
 6251.00    1.19822   1.18317    0.018
 6252.00    1.20348   1.20218    0.018
 6253.00    1.20653   1.20651    0.018
 6254.00    1.19146   1.19294    0.018
 6255.00    1.16511   1.16662    0.018
 6256.00    1.13226   1.14178    0.018
 6257.00    1.09587   1.13036    0.018
 6258.00    1.07805   1.12919    0.018
 6259.00    1.06901   1.12585    0.018
 6260.00    1.01562   1.11484    0.019
 6261.00    0.94416   1.10440    0.020
 6262.00    0.93148   1.10850    0.020
 6263.00    0.93926   1.13087    0.021
 6264.00    1.04320   1.16007    0.021
 6265.00    1.17535   1.18597    0.021
 6266.00    1.30717   1.20441    0.020
 6267.00    1.43892   1.20874    0.019
 6268.00    1.40365   1.19885    0.018
 6269.00    1.33561   1.19011    0.018
 6270.00    1.29069   1.19320    0.018
 6271.00    1.24931   1.19965    0.017
 6272.00    1.25132   1.19931    0.018
 6273.00    1.25821   1.19553    0.018
 6274.00    1.24696   1.19647    0.018
 6275.00    1.23434   1.20375    0.018
 6276.00    1.20827   1.21209    0.018
 6277.00    1.18166   1.21624    0.018
 6278.00    1.21347   1.21676    0.018
 6279.00    1.24485   1.21669    0.017
 6280.00    1.24149   1.21583    0.000
 6281.00    1.23826   1.21170    0.000
 6282.00    1.23714   1.20197    0.000
 6283.00    1.23784   1.18813    0.000
 6284.00    1.25779   1.17929    0.000
 6285.00    1.27330   1.18341    0.000
 6286.00    1.25569   1.19769    0.000
 6287.00    1.23975   1.21241    0.000
 6288.00    1.23341   1.22049    0.000
 6289.00    1.23191   1.22474    0.000
 6290.00    1.25236   1.23194    0.000
 6291.00    1.26782   1.24182    0.000
 6292.00    1.26477   1.24697    0.000
 6293.00    1.26009   1.24125    0.000
 6294.00    1.25034   1.22746    0.000
 6295.00    1.24124   1.21469    0.000
 6296.00    1.23383   1.20921    0.000
 6297.00    1.22503   1.21053    0.000
 6298.00    1.21304   1.21050    0.000
 6299.00    1.20471   1.20048    0.000
 6300.00    1.20355   1.18451    0.000
 6301.00    1.21152   1.17598    0.000
 6302.00    1.23513   1.17875    0.000
 6303.00    1.25561   1.18138    0.000
 6304.00    1.27141   1.17432    0.000
 6305.00    1.28754   1.16524    0.000
 6306.00    1.30410   1.16816    0.000
 6307.00    1.31603   1.18263    0.000
 6308.00    1.32261   1.19707    0.000
 6309.00    1.29452   1.20836    0.000
 6310.00    1.23100   1.22184    0.000
 6311.00    1.20015   1.23527    0.000
 6312.00    1.19876   1.23891    0.000
 6313.00    1.20952   1.22930    0.000
 6314.00    1.22993   1.21402    0.000
 6315.00    1.24907   1.20340    0.000
 6316.00    1.26730   1.19899    0.000
 6317.00    1.27246   1.19229    0.000
 6318.00    1.26961   1.17997    0.000
 6319.00    1.26210   1.16986    0.000
 6320.00    1.25211   1.16336    0.000
 6321.00    1.23967   1.15550    0.017
 6322.00    1.22609   1.15339    0.017
 6323.00    1.23795   1.16568    0.017
 6324.00    1.25999   1.18401    0.017
 6325.00    1.26544   1.19634    0.017
 6326.00    1.26523   1.20465    0.017
 6327.00    1.25980   1.21585    0.017
 6328.00    1.25286   1.22740    0.018
 6329.00    1.27709   1.23285    0.018
 6330.00    1.30871   1.23200    0.018
 6331.00    1.32728   1.23063    0.018
 6332.00    1.34336   1.23098    0.017
 6333.00    1.33603   1.22943    0.017
 6334.00    1.32523   1.22775    0.017
 6335.00    1.30423   1.23132    0.017
 6336.00    1.28212   1.23559    0.017
 6337.00    1.24670   1.22682    0.017
 6338.00    1.21034   1.20033    0.017
 6339.00    1.20594   1.17267    0.017
 6340.00    1.20269   1.16447    0.017
 6341.00    1.23065   1.17596    0.017
 6342.00    1.25827   1.19309    0.017
 6343.00    1.27022   1.20870    0.017
 6344.00    1.28118   1.21960    0.017
 6345.00    1.27658   1.21840    0.017
 6346.00    1.27285   1.20323    0.017
 6347.00    1.27788   1.18596    0.017
 6348.00    1.28283   1.18153    0.017
 6349.00    1.28719   1.19073    0.017
 6350.00    1.29078   1.20387    0.017
 6351.00    1.29014   1.21583    0.017
 6352.00    1.29129   1.22624    0.017
 6353.00    1.30039   1.23353    0.017
 6354.00    1.30477   1.23717    0.017
 6355.00    1.29202   1.23698    0.017
 6356.00    1.27772   1.22987    0.017
 6357.00    1.25869   1.21445    0.018
 6358.00    1.24852   1.19842    0.018
 6359.00    1.26132   1.19129    0.018
 6360.00    1.26458   1.18833    0.018
 6361.00    1.24660   1.17729    0.018
 6362.00    1.22272   1.15944    0.018
 6363.00    1.18743   1.14559    0.018
 6364.00    1.17119   1.13750    0.018
 6365.00    1.18699   1.13163    0.018
 6366.00    1.20848   1.13151    0.018
 6367.00    1.23836   1.14221    0.017
 6368.00    1.26734   1.16093    0.017
 6369.00    1.29515   1.18109    0.017
 6370.00    1.31873   1.19989    0.017
 6371.00    1.33748   1.21576    0.017
 6372.00    1.35362   1.22395    0.017
 6373.00    1.36712   1.22325    0.017
 6374.00    1.36411   1.22219    0.017
 6375.00    1.34642   1.22922    0.017
 6376.00    1.32230   1.24118    0.017
 6377.00    1.29313   1.24855    0.017
 6378.00    1.28033   1.24880    0.017
 6379.00    1.27882   1.24646    0.018
 6380.00    1.27101   1.24266    0.018
 6381.00    1.25940   1.23455    0.018
 6382.00    1.26032   1.22417    0.017
 6383.00    1.26784   1.21749    0.017
 6384.00    1.29187   1.21718    0.017
 6385.00    1.32345   1.22180    0.017
 6386.00    1.34061   1.22641    0.017
 6387.00    1.35210   1.22686    0.017
 6388.00    1.36067   1.22639    0.018
 6389.00    1.36826   1.23078    0.018
 6390.00    1.36417   1.23848    0.018
 6391.00    1.35679   1.24372    0.017
 6392.00    1.33987   1.24525    0.017
 6393.00    1.32073   1.24408    0.017
 6394.00    1.30152   1.23620    0.017
 6395.00    1.28229   1.21543    0.018
 6396.00    1.28043   1.18734    0.017
 6397.00    1.28106   1.17294    0.017
 6398.00    1.30073   1.18603    0.017
 6399.00    1.32238   1.21463    0.017
 6400.00    1.32161   1.23550    0.018
 6401.00    1.31934   1.23357    0.018
 6402.00    1.31844   1.20745    0.018
 6403.00    1.31759   1.17564    0.018
 6404.00    1.32623   1.16909    0.018
 6405.00    1.33405   1.19530    0.018
 6406.00    1.31622   1.22931    0.018
 6407.00    1.29963   1.24833    0.017
 6408.00    1.30162   1.24952    0.018
 6409.00    1.30317   1.23792    0.018
 6410.00    1.30048   1.21907    0.018
 6411.00    1.30200   1.20362    0.017
 6412.00    1.33301   1.20212    0.017
 6413.00    1.36008   1.20849    0.017
 6414.00    1.36590   1.20773    0.018
 6415.00    1.36794   1.20137    0.018
 6416.00    1.35369   1.20130    0.017
 6417.00    1.33751   1.20828    0.017
 6418.00    1.31443   1.21655    0.017
 6419.00    1.29537   1.22409    0.017
 6420.00    1.28830   1.22826    0.017
 6421.00    1.28930   1.22405    0.017
 6422.00    1.31083   1.20895    0.017
 6423.00    1.32064   1.18797    0.017
 6424.00    1.30476   1.17557    0.017
 6425.00    1.29331   1.18519    0.017
 6426.00    1.29027   1.21227    0.017
 6427.00    1.28735   1.23681    0.017
 6428.00    1.28462   1.24749    0.017
 6429.00    1.28953   1.25097    0.018
 6430.00    1.30556   1.25526    0.018
 6431.00    1.31824   1.25629    0.018
 6432.00    1.32663   1.24378    0.018
 6433.00    1.32502   1.21608    0.018
 6434.00    1.31213   1.18864    0.018
 6435.00    1.29673   1.18176    0.018
 6436.00    1.27881   1.19782    0.018
 6437.00    1.26645   1.22157    0.018
 6438.00    1.25896   1.23903    0.017
 6439.00    1.25733   1.24476    0.017
 6440.00    1.26023   1.23609    0.017
 6441.00    1.27495   1.21389    0.017
 6442.00    1.29770   1.19254    0.017
 6443.00    1.30537   1.19346    0.017
 6444.00    1.30407   1.21837    0.017
 6445.00    1.27771   1.24649    0.017
 6446.00    1.23835   1.26179    0.017
 6447.00    1.23015   1.26610    0.017
 6448.00    1.23596   1.26807    0.017
 6449.00    1.24470   1.27029    0.017
 6450.00    1.25457   1.26523    0.017
 6451.00    1.26212   1.24069    0.017
 6452.00    1.26891   1.19570    0.017
 6453.00    1.28051   1.15391    0.017
 6454.00    1.29344   1.14601    0.017
 6455.00    1.30932   1.17352    0.017
 6456.00    1.32587   1.20893    0.017
 6457.00    1.30739   1.22679    0.017
 6458.00    1.28256   1.22220    0.017
 6459.00    1.26210   1.21039    0.017
 6460.00    1.24226   1.21162    0.018
 6461.00    1.23388   1.23019    0.018
 6462.00    1.22665   1.25210    0.017
 6463.00    1.23144   1.26023    0.017
 6464.00    1.23699   1.24493    0.017
 6465.00    1.25505   1.21074    0.017
 6466.00    1.27346   1.18141    0.017
 6467.00    1.28877   1.18053    0.017
 6468.00    1.30309   1.20396    0.017
 6469.00    1.29026   1.22996    0.017
 6470.00    1.27791   1.24584    0.017
 6471.00    1.27245   1.25030    0.017
 6472.00    1.26823   1.24489    0.017
 6473.00    1.27557   1.23348    0.017
 6474.00    1.27783   1.22262    0.017
 6475.00    1.24579   1.21953    0.017
 6476.00    1.21744   1.22604    0.017
 6477.00    1.20844   1.23334    0.017
 6478.00    1.20736   1.23334    0.017
 6479.00    1.23978   1.23130    0.017
 6480.00    1.26963   1.23502    0.017
 6481.00    1.29050   1.24121    0.017
 6482.00    1.30107   1.24267    0.017
 6483.00    1.28143   1.23591    0.017
 6484.00    1.27010   1.21896    0.017
 6485.00    1.27951   1.19643    0.017
 6486.00    1.29229   1.18297    0.017
 6487.00    1.31231   1.18843    0.018
 6488.00    1.31529   1.20602    0.018
 6489.00    1.28637   1.22261    0.017
 6490.00    1.26321   1.23247    0.017
 6491.00    1.24945   1.23609    0.017
 6492.00    1.23895   1.23316    0.017
 6493.00    1.23312   1.22289    0.017
 6494.00    1.22376   1.20736    0.017
 6495.00    1.20996   1.18648    0.017
 6496.00    1.18942   1.15334    0.017
 6497.00    1.16140   1.10624    0.017
 6498.00    1.14340   1.06296    0.017
 6499.00    1.13521   1.04624    0.017
 6500.00    1.13029   1.05876    0.017
 6501.00    1.12821   1.08523    0.017
 6502.00    1.14106   1.11129    0.017
 6503.00    1.16526   1.13488    0.017
 6504.00    1.19434   1.15926    0.017
 6505.00    1.22667   1.18202    0.017
 6506.00    1.24237   1.19908    0.018
 6507.00    1.24833   1.21087    0.018
 6508.00    1.25735   1.21977    0.018
 6509.00    1.26795   1.22606    0.018
 6510.00    1.27978   1.22716    0.018
 6511.00    1.29216   1.22227    0.017
 6512.00    1.27216   1.21687    0.017
 6513.00    1.23985   1.21763    0.017
 6514.00    1.24797   1.22375    0.017
 6515.00    1.26913   1.22904    0.017
 6516.00    1.27482   1.23010    0.017
 6517.00    1.27634   1.22648    0.017
 6518.00    1.26787   1.21752    0.017
 6519.00    1.25718   1.20509    0.017
 6520.00    1.25602   1.19369    0.017
 6521.00    1.25655   1.18627    0.017
 6522.00    1.27008   1.18592    0.017
 6523.00    1.28536   1.19594    0.017
 6524.00    1.29974   1.21212    0.017
 6525.00    1.31403   1.22474    0.017
 6526.00    1.29355   1.23009    0.017
 6527.00    1.27101   1.23129    0.017
 6528.00    1.27134   1.22941    0.000
 6529.00    1.27221   1.22141    0.000
 6530.00    1.26723   1.20940    0.000
 6531.00    1.26309   1.20327    0.000
 6532.00    1.28016   1.20809    0.000
 6533.00    1.29565   1.21643    0.000
 6534.00    1.29003   1.21769    0.000
 6535.00    1.28705   1.20977    0.000
 6536.00    1.30763   1.20076    0.000
 6537.00    1.32561   1.20064    0.000
 6538.00    1.32654   1.21053    0.000
 6539.00    1.32748   1.22130    0.000
 6540.00    1.32857   1.22484    0.000
 6541.00    1.32656   1.22423    0.000
 6542.00    1.31175   1.22739    0.000
 6543.00    1.30313   1.23363    0.000
 6544.00    1.31563   1.23462    0.000
 6545.00    1.32442   1.22683    0.000
 6546.00    1.32253   1.21454    0.000
 6547.00    1.31688   1.20138    0.000
 6548.00    1.30203   1.18597    0.000
 6549.00    1.29306   1.16902    0.000
 6550.00    1.29660   1.15979    0.000
 6551.00    1.29135   1.16548    0.000
 6552.00    1.26993   1.17875    0.000
 6553.00    1.24957   1.18617    0.000
 6554.00    1.23093   1.18279    0.000
 6555.00    1.22606   1.17280    0.000
 6556.00    1.24061   1.16030    0.000
 6557.00    1.24308   1.14480    0.000
 6558.00    1.23052   1.12748    0.000
 6559.00    1.22944   1.11511    0.000
 6560.00    1.24094   1.11230    0.000
 6561.00    1.23594   1.11344    0.000
 6562.00    1.21502   1.10643    0.000
 6563.00    1.17846   1.07857    0.000
 6564.00    1.12857   1.01765    0.000
 6565.00    1.12819   0.92717    0.000
 6566.00    1.16495   0.85141    0.000
 6567.00    1.17397   0.85032    0.000
 6568.00    1.16470   0.92809    0.000
 6569.00    1.15840   1.02692    0.000
 6570.00    1.15381   1.09673    0.000
 6571.00    1.17227   1.12865    0.000
 6572.00    1.20233   1.13511    0.000
 6573.00    1.21917   1.13312    0.000
 6574.00    1.23025   1.13363    0.000
 6575.00    1.21894   1.13417    0.000
 6576.00    1.19926   1.12864    0.000
 6577.00    1.20753   1.12044    0.000
 6578.00    1.22463   1.12020    0.000
 6579.00    1.26404   1.13502    0.000
 6580.00    1.30935   1.16061    0.000
 6581.00    1.34227   1.18353    0.000
 6582.00    1.37251   1.19301    0.000
 6583.00    1.39768   1.18837    0.000
 6584.00    1.42198   1.17819    0.000
 6585.00    1.40370   1.17382    0.000
 6586.00    1.37988   1.17928    0.000
 6587.00    1.36165   1.18799    0.000
 6588.00    1.34393   1.19219    0.000
 6589.00    1.31157   1.19171    0.000
 6590.00    1.27840   1.19277    0.000
 6591.00    1.24020   1.19963    0.000
 6592.00    1.20238   1.20829    0.000
 6593.00    1.21017   1.21041    0.000
 6594.00    1.21729   1.19873    0.000
 6595.00    1.20928   1.17061    0.000
 6596.00    1.20069   1.13696    0.000
 6597.00    1.18483   1.12084    0.000
 6598.00    1.17330   1.13332    0.000
 6599.00    1.19898   1.15870    0.000
 6600.00    1.22339   1.17504    0.000
 6601.00    1.23980   1.17819    0.000
 6602.00    1.25907   1.17916    0.000
 6603.00    1.29264   1.18776    0.000
 6604.00    1.31050   1.20221    0.000
 6605.00    1.26499   1.21277    0.000
 6606.00    1.22378   1.21308    0.000
 6607.00    1.19701   1.20442    0.000
 6608.00    1.18386   1.19201    0.000
 6609.00    1.20923   1.18053    0.018
 6610.00    1.22624   1.17059    0.018
 6611.00    1.22302   1.16007    0.017
 6612.00    1.22191   1.15174    0.017
 6613.00    1.22520   1.15484    0.017
 6614.00    1.23430   1.17251    0.017
 6615.00    1.25393   1.19266    0.018
 6616.00    1.26660   1.20189    0.018
 6617.00    1.26821   1.20230    0.017
 6618.00    1.26714   1.20457    0.017
 6619.00    1.26234   1.21071    0.017
 6620.00    1.26008   1.21407    0.017
 6621.00    1.26092   1.21325    0.017
 6622.00    1.27593   1.21361    0.017
 6623.00    1.30624   1.21729    0.017
 6624.00    1.32118   1.22057    0.017
 6625.00    1.32147   1.21839    0.018
 6626.00    1.32359   1.20781    0.018
 6627.00    1.32725   1.19092    0.018
 6628.00    1.30198   1.17661    0.018
 6629.00    1.25533   1.17408    0.018
 6630.00    1.23660   1.18181    0.018
 6631.00    1.23602   1.18965    0.018
 6632.00    1.22157   1.19172    0.018
 6633.00    1.19925   1.18870    0.018
 6634.00    1.19275   1.18159    0.018
 6635.00    1.19407   1.16961    0.018
 6636.00    1.20421   1.15366    0.018
 6637.00    1.21813   1.14139    0.018
 6638.00    1.23350   1.14318    0.017
 6639.00    1.24941   1.15956    0.017
 6640.00    1.24004   1.17888    0.017
 6641.00    1.22282   1.18965    0.017
 6642.00    1.22013   1.18995    0.017
 6643.00    1.22120   1.18643    0.017
 6644.00    1.24050   1.18571    0.017
 6645.00    1.26365   1.18494    0.017
 6646.00    1.27817   1.17693    0.017
 6647.00    1.29124   1.16637    0.017
 6648.00    1.25571   1.16565    0.017
 6649.00    1.21407   1.17458    0.018
 6650.00    1.19677   1.18215    0.018
 6651.00    1.18159   1.18465    0.018
 6652.00    1.17916   1.18669    0.018
 6653.00    1.17739   1.18978    0.018
 6654.00    1.20342   1.19065    0.018
 6655.00    1.22962   1.18826    0.018
 6656.00    1.23352   1.18548    0.018
 6657.00    1.23652   1.18479    0.018
 6658.00    1.22084   1.18599    0.018
 6659.00    1.20717   1.18725    0.018
 6660.00    1.21774   1.18727    0.017
 6661.00    1.22627   1.18670    0.017
 6662.00    1.21787   1.18559    0.017
 6663.00    1.20832   1.18183    0.018
 6664.00    1.19162   1.17388    0.018
 6665.00    1.18316   1.16153    0.018
 6666.00    1.21469   1.14681    0.017
 6667.00    1.23283   1.13687    0.017
 6668.00    1.19812   1.13817    0.017
 6669.00    1.17409   1.14617    0.017
 6670.00    1.18513   1.15223    0.017
 6671.00    1.19672   1.15646    0.018
 6672.00    1.20983   1.16413    0.018
 6673.00    1.21988   1.17579    0.018
 6674.00    1.22271   1.18650    0.018
 6675.00    1.21525   1.19206    0.018
 6676.00    1.18667   1.19319    0.018
 6677.00    1.17544   1.19285    0.018
 6678.00    1.19520   1.19050    0.018
 6679.00    1.20758   1.18010    0.018
 6680.00    1.20843   1.15675    0.018
 6681.00    1.21060   1.12888    0.018
 6682.00    1.21457   1.11666    0.018
 6683.00    1.20344   1.12848    0.018
 6684.00    1.17406   1.14979    0.018
 6685.00    1.16109   1.16477    0.018
 6686.00    1.16558   1.17284    0.017
 6687.00    1.16616   1.17867    0.017
 6688.00    1.16309   1.18302    0.017
 6689.00    1.17078   1.18469    0.018
 6690.00    1.18738   1.18359    0.018
 6691.00    1.18740   1.18141    0.018
 6692.00    1.17532   1.18074    0.018
 6693.00    1.18420   1.18268    0.018
 6694.00    1.20648   1.18519    0.018
 6695.00    1.22408   1.18611    0.018
 6696.00    1.23904   1.18512    0.000
 6697.00    1.22626   1.18127    0.000
 6698.00    1.19997   1.17198    0.000
 6699.00    1.19335   1.15768    0.000
 6700.00    1.19502   1.14565    0.000
 6701.00    1.21655   1.14388    0.000
 6702.00    1.24522   1.15275    0.000
 6703.00    1.21774   1.16631    0.000
 6704.00    1.17317   1.17709    0.000
 6705.00    1.15297   1.17922    0.000
 6706.00    1.13895   1.17224    0.000
 6707.00    1.15237   1.16165    0.000
 6708.00    1.17145   1.15529    0.000
 6709.00    1.18614   1.15678    0.000
 6710.00    1.20012   1.16249    0.000
 6711.00    1.19295   1.16701    0.000
 6712.00    1.18322   1.16825    0.000
 6713.00    1.18353   1.16634    0.000
 6714.00    1.18467   1.16259    0.000
 6715.00    1.20825   1.15871    0.000
 6716.00    1.23289   1.15371    0.000
 6717.00    1.22583   1.14567    0.000
 6718.00    1.21829   1.13454    0.000
 6719.00    1.20870   1.12108    0.000
 6720.00    1.19725   1.10879    0.000
 6721.00    1.14945   1.10583    0.000
 6722.00    1.10728   1.11754    0.000
 6723.00    1.12966   1.13686    0.000
 6724.00    1.14854   1.15085    0.000
 6725.00    1.13953   1.15640    0.000
 6726.00    1.12778   1.16012    0.000
 6727.00    1.09950   1.16463    0.000
 6728.00    1.08616   1.16506    0.000
 6729.00    1.14356   1.15967    0.000
 6730.00    1.19645   1.15489    0.000
 6731.00    1.23192   1.15645    0.000
 6732.00    1.25262   1.16276    0.000
 6733.00    1.22572   1.16925    0.000
 6734.00    1.19478   1.17315    0.000
 6735.00    1.15280   1.17291    0.000
 6736.00    1.13388   1.16897    0.000
 6737.00    1.16884   1.16495    0.000
 6738.00    1.19781   1.16450    0.000
 6739.00    1.21466   1.16628    0.000
 6740.00    1.21391   1.16472    0.000
 6741.00    1.18223   1.15695    0.000
 6742.00    1.15897   1.14779    0.000
 6743.00    1.14866   1.14442    0.000
 6744.00    1.15041   1.14706    0.000
 6745.00    1.16847   1.14910    0.000
 6746.00    1.16531   1.14701    0.000
 6747.00    1.13688   1.14497    0.000
 6748.00    1.12587   1.14654    0.000
 6749.00    1.13317   1.14851    0.000
 6750.00    1.12366   1.14699    0.000
 6751.00    1.09861   1.14254    0.000
 6752.00    1.05846   1.13750    0.000
 6753.00    1.00599   1.13395    0.020
 6754.00    0.99508   1.13347    0.020
 6755.00    1.01404   1.13512    0.020
 6756.00    1.04170   1.13642    0.020
 6757.00    1.07484   1.13869    0.021
 6758.00    1.08962   1.14477    0.021
 6759.00    1.09428   1.15352    0.022
 6760.00    1.16440   1.16281    0.022
 6761.00    1.26588   1.17178    0.022
 6762.00    1.35565   1.17890    0.023
 6763.00    1.44058   1.18253    0.023
 6764.00    1.42985   1.18230    0.024
 6765.00    1.38528   1.17950    0.024
 6766.00    1.34881   1.17684    0.024
 6767.00    1.31476   1.17554    0.023
 6768.00    1.30351   1.17259    0.023
 6769.00    1.29790   1.16414    0.023
 6770.00    1.29103   1.15155    0.023
 6771.00    1.28391   1.14192    0.022
 6772.00    1.26378   1.14046    0.022
 6773.00    1.24160   1.14367    0.021
 6774.00    1.22035   1.14513    0.021
 6775.00    1.19921   1.14602    0.021
 6776.00    1.18819   1.15221    0.021
 6777.00    1.17797   1.16399    0.021
 6778.00    1.21753   1.17583    0.021
 6779.00    1.25927   1.18327    0.021
 6780.00    1.18622   1.18601    0.021
 6781.00    1.11493   1.18671    0.021
 6782.00    1.18195   1.18803    0.021
 6783.00    1.24755   1.18882    0.022
 6784.00    1.28717   1.18453    0.022
 6785.00    1.31967   1.17217    0.022
 6786.00    1.27417   1.15361    0.022
 6787.00    1.22950   1.13540    0.022
 6788.00    1.19118   1.12511    0.022
 6789.00    1.16566   1.12600    0.022
 6790.00    1.21468   1.13579    0.023
 6791.00    1.25287   1.14904    0.023
 6792.00    1.24099   1.15957    0.023
 6793.00    1.23266   1.16432    0.023
 6794.00    1.23774   1.16525    0.022
 6795.00    1.24234   1.16407    0.022
 6796.00    1.24540   1.15940    0.022
 6797.00    1.23907   1.15216    0.022
 6798.00    1.20759   1.14699    0.021
 6799.00    1.20262   1.14661    0.021
 6800.00    1.25856   1.14990    0.021
 6801.00    1.27728   1.15470    0.021
 6802.00    1.22201   1.15928    0.021
 6803.00    1.17961   1.16321    0.021
 6804.00    1.15951   1.16686    0.021
 6805.00    1.15523   1.16918    0.021
 6806.00    1.17494   1.16830    0.021
 6807.00    1.18573   1.16478    0.021
 6808.00    1.18465   1.16173    0.021
 6809.00    1.18760   1.16052    0.021
 6810.00    1.19530   1.15970    0.022
 6811.00    1.18367   1.15886    0.022
 6812.00    1.15205   1.15819    0.023
 6813.00    1.12610   1.15699    0.023
 6814.00    1.10533   1.15656    0.023
 6815.00    1.10049   1.15847    0.023
 6816.00    1.10846   1.15979    0.022
 6817.00    1.16707   1.15691    0.022
 6818.00    1.26151   1.15241    0.022
 6819.00    1.26636   1.15307    0.022
 6820.00    1.21555   1.16060    0.022
 6821.00    1.22462   1.16809    0.021
 6822.00    1.26620   1.16844    0.021
 6823.00    1.26966   1.16313    0.021
 6824.00    1.25516   1.15982    0.021
 6825.00    1.23135   1.16369    0.021
 6826.00    1.20375   1.17254    0.021
 6827.00    1.17136   1.18026    0.021
 6828.00    1.13730   1.18305    0.021
 6829.00    1.15047   1.18033    0.022
 6830.00    1.17745   1.17222    0.022
 6831.00    1.16604   1.16075    0.022
 6832.00    1.14533   1.15240    0.022
 6833.00    1.17124   1.15333    0.022
 6834.00    1.20625   1.16137    0.022
 6835.00    1.22801   1.16835    0.022
 6836.00    1.24774   1.17048    0.023
 6837.00    1.26673   1.17121    0.023
 6838.00    1.28565   1.17364    0.023
 6839.00    1.23811   1.17500    0.023
 6840.00    1.18559   1.17081    0.024
 6841.00    1.11997   1.16038    0.023
 6842.00    1.05382   1.14587    0.022
 6843.00    1.10842   1.12952    0.022
 6844.00    1.16304   1.11431    0.021
 6845.00    1.18551   1.10516    0.021
 6846.00    1.20595   1.10714    0.021
 6847.00    1.19235   1.12071    0.021
 6848.00    1.17811   1.13958    0.021
 6849.00    1.15714   1.15526    0.021
 6850.00    1.13918   1.16377    0.021
 6851.00    1.14353   1.16670    0.021
 6852.00    1.14542   1.16688    0.021
 6853.00    1.13339   1.16583    0.021
 6854.00    1.12491   1.16478    0.021
 6855.00    1.13246   1.16439    0.022
 6856.00    1.13306   1.16232    0.022
 6857.00    1.10795   1.15403    0.022
 6858.00    1.07830   1.13951    0.022
 6859.00    1.03460   1.12685    0.022
 6860.00    1.02563   1.12386    0.022
 6861.00    1.10800   1.12897    0.022
 6862.00    1.15643   1.13467    0.022
 6863.00    1.12814   1.13500    0.022
 6864.00    1.12708   1.12930    0.022
 6865.00    1.17932   1.12469    0.022
 6866.00    1.20058   1.13064    0.022
 6867.00    1.16898   1.14624    0.022
 6868.00    1.16254   1.15927    0.022
 6869.00    1.19369   1.15973    0.022
 6870.00    1.17734   1.14856    0.021
 6871.00    1.09858   1.13476    0.021
 6872.00    1.09128   1.12838    0.021
 6873.00    1.16668   1.13223    0.021
 6874.00    1.18118   1.13881    0.021
 6875.00    1.13352   1.13984    0.021
 6876.00    1.13388   1.13669    0.021
 6877.00    1.17747   1.13560    0.022
 6878.00    1.17918   1.13780    0.022
 6879.00    1.14767   1.14129    0.022
 6880.00    1.16360   1.14659    0.022
 6881.00    1.21263   1.15401    0.022
 6882.00    1.19364   1.15965    0.022
 6883.00    1.13303   1.15868    0.022
 6884.00    1.14157   1.15014    0.022
 6885.00    1.18707   1.13797    0.022
 6886.00    1.15848   1.12973    0.022
 6887.00    1.09552   1.13115    0.021
 6888.00    1.09011   1.13971    0.021
 6889.00    1.10769   1.14798    0.021
 6890.00    1.13852   1.15370    0.021
 6891.00    1.17388   1.16004    0.021
 6892.00    1.18320   1.16778    0.021
 6893.00    1.18505   1.17454    0.021
 6894.00    1.17105   1.17879    0.021
 6895.00    1.15329   1.17990    0.021
 6896.00    1.14513   1.17756    0.021
 6897.00    1.13880   1.17306    0.021
 6898.00    1.14825   1.16842    0.022
 6899.00    1.16002   1.16514    0.022
 6900.00    1.19591   1.16472    0.022
 6901.00    1.23441   1.16719    0.022
 6902.00    1.18510   1.16945    0.022
 6903.00    1.12959   1.16900    0.022
 6904.00    1.17949   1.16825    0.022
 6905.00    1.23317   1.17076    0.022
 6906.00    1.17332   1.17505    0.022
 6907.00    1.11433   1.17666    0.022
 6908.00    1.09807   1.17510    0.022
 6909.00    1.08616   1.17440    0.021
 6910.00    1.14296   1.17731    0.021
 6911.00    1.19078   1.18203    0.021
 6912.00    1.14872   1.18518    0.021
 6913.00    1.11165   1.18517    0.021
 6914.00    1.11048   1.18169    0.021
 6915.00    1.11894   1.17462    0.021
 6916.00    1.18042   1.16456    0.021
 6917.00    1.22440   1.15392    0.021
 6918.00    1.19116   1.14683    0.021
 6919.00    1.16472   1.14575    0.021
 6920.00    1.16293   1.14895    0.022
 6921.00    1.15726   1.15436    0.022
 6922.00    1.13976   1.16230    0.022
 6923.00    1.11608   1.17219    0.022
 6924.00    1.07639   1.18080    0.022
 6925.00    1.07990   1.18417    0.022
 6926.00    1.17940   1.17891    0.023
 6927.00    1.23038   1.16471    0.023
 6928.00    1.18789   1.14754    0.022
 6929.00    1.16191   1.13743    0.022
 6930.00    1.16369   1.13995    0.022
 6931.00    1.13424   1.15115    0.022
 6932.00    1.05880   1.16247    0.022
 6933.00    1.05493   1.16865    0.021
 6934.00    1.14371   1.16908    0.022
 6935.00    1.16286   1.16463    0.021
 6936.00    1.10258   1.15772    0.021
 6937.00    1.04795   1.15394    0.021
 6938.00    0.99902   1.15729    0.021
 6939.00    0.99820   1.16437    0.021
 6940.00    1.04008   1.16888    0.022
 6941.00    1.10311   1.17017    0.022
 6942.00    1.18266   1.17232    0.022
 6943.00    1.19362   1.17717    0.022
 6944.00    1.15742   1.18150    0.022
 6945.00    1.14095   1.18018    0.022
 6946.00    1.13638   1.17079    0.022
 6947.00    1.13850   1.15563    0.023
 6948.00    1.14414   1.14127    0.023
 6949.00    1.12580   1.13611    0.023
 6950.00    1.09651   1.14352    0.022
 6951.00    1.10407   1.15754    0.022
 6952.00    1.12610   1.16855    0.022
 6953.00    1.13009   1.17098    0.022
 6954.00    1.12804   1.16480    0.022
 6955.00    1.14387   1.15467    0.022
 6956.00    1.16471   1.14683    0.022
 6957.00    1.09693   1.14439    0.022
 6958.00    1.00863   1.14735    0.021
 6959.00    0.99245   1.15481    0.021
 6960.00    0.98965   1.16395    0.021
 6961.00    1.03826   1.17066    0.021
 6962.00    1.09423   1.17342    0.022
 6963.00    1.14512   1.17424    0.022
 6964.00    1.19549   1.17572    0.022
 6965.00    1.17042   1.17857    0.022
 6966.00    1.14032   1.18165    0.023
 6967.00    1.11296   1.18291    0.023
 6968.00    1.08569   1.18077    0.023
 6969.00    1.08687   1.17676    0.023
 6970.00    1.08900   1.17611    0.023
 6971.00    1.12054   1.18163    0.023
 6972.00    1.15027   1.18841    0.023
 6973.00    1.15323   1.18916    0.023
 6974.00    1.15427   1.18355    0.023
 6975.00    1.13672   1.17871    0.022
 6976.00    1.11582   1.17950    0.022
 6977.00    1.07150   1.18115    0.022
 6978.00    1.04385   1.17529    0.022
 6979.00    1.10566   1.15971    0.022
 6980.00    1.13917   1.13719    0.021
 6981.00    1.05071   1.11207    0.021
 6982.00    0.98711   1.09399    0.021
 6983.00    1.01177   1.09532    0.022
 6984.00    1.02681   1.11745    0.022
 6985.00    1.01316   1.14743    0.022
 6986.00    1.01122   1.17173    0.022
 6987.00    1.03903   1.18587    0.022
 6988.00    1.07532   1.19139    0.023
 6989.00    1.13015   1.19151    0.023
 6990.00    1.15639   1.18875    0.023
 6991.00    1.12840   1.18354    0.023
 6992.00    1.10754   1.17631    0.023
 6993.00    1.09848   1.17072    0.023
 6994.00    1.09091   1.17162    0.023
 6995.00    1.08551   1.17884    0.023
 6996.00    1.08930   1.18618    0.022
 6997.00    1.10482   1.18820    0.022
 6998.00    1.11847   1.18595    0.022
 6999.00    1.13002   1.18422    0.022
 7000.00    1.11193   1.18417    0.022
 7001.00    1.06441   1.18110    0.022
 7002.00    1.06619   1.17091    0.022
 7003.00    1.11109   1.15756    0.022
 7004.00    1.12991   1.15109    0.022
 7005.00    1.12864   1.15546    0.022
 7006.00    1.10585   1.16262    0.022
 7007.00    1.06847   1.16243    0.023
 7008.00    1.06929   1.15494    0.023
 7009.00    1.09280   1.14839    0.023
 7010.00    1.10035   1.14882    0.023
 7011.00    1.09962   1.15569    0.024
 7012.00    1.07337   1.16470    0.024
 7013.00    1.03567   1.17089    0.023
 7014.00    1.02781   1.17168    0.023
 7015.00    1.03147   1.16958    0.023
 7016.00    1.01052   1.16844    0.023
 7017.00    0.98150   1.16568    0.023
 7018.00    1.00034   1.15339    0.023
 7019.00    1.03235   1.13142    0.023
 7020.00    1.02295   1.11485    0.023
 7021.00    1.00417   1.12010    0.023
 7022.00    1.06335   1.14499    0.022
 7023.00    1.13660   1.17169    0.022
 7024.00    1.10530   1.18570    0.022
 7025.00    1.05952   1.18336    0.022
 7026.00    1.08244   1.16799    0.022
 7027.00    1.11217   1.14866    0.023
 7028.00    1.07950   1.13756    0.023
 7029.00    1.04292   1.14054    0.023
 7030.00    1.04576   1.15202    0.023
 7031.00    1.04959   1.16285    0.024
 7032.00    1.02072   1.16962    0.024
 7033.00    0.99474   1.17394    0.024
 7034.00    1.04809   1.17670    0.024
 7035.00    1.09653   1.17697    0.024
 7036.00    1.07620   1.17491    0.024
 7037.00    1.06710   1.17281    0.024
 7038.00    1.16154   1.17313    0.024
 7039.00    1.22861   1.17500    0.024
 7040.00    1.11120   1.17256    0.023
 7041.00    1.01113   1.16203    0.023
 7042.00    1.00167   1.15244    0.023
 7043.00    1.00332   1.15892    0.023
 7044.00    1.05181   1.18281    0.023
 7045.00    1.10286   1.20917    0.023
 7046.00    1.16283   1.22327    0.023
 7047.00    1.18613   1.22157    0.023
 7048.00    1.10208   1.21070    0.023
 7049.00    1.05292   1.20218    0.023
 7050.00    1.09087   1.20412   -2.000
 7051.00    1.13010   1.21479   -2.000
 7052.00    1.17209   1.22561   -2.000
 7053.00    1.19926   1.22875   -2.000
 7054.00    1.19875   1.22027   -2.000
 7055.00    1.18395   1.19964   -2.000
 7056.00    1.14584   1.17108   -2.000
 7057.00    1.13146   1.14459   -2.000
 7058.00    1.15101   1.13026   -2.000
 7059.00    1.17361   1.13066   -2.000
 7060.00    1.20004   1.13966   -2.000
 7061.00    1.20100   1.14659   -2.000
 7062.00    1.17373   1.14325   -2.000
 7063.00    1.14301   1.13086   -2.000
 7064.00    1.10892   1.11916   -2.000
 7065.00    1.11917   1.11650   -2.000
 7066.00    1.16768   1.12260   -2.000
 7067.00    1.17493   1.13183   -2.000
 7068.00    1.15082   1.13787   -2.000
 7069.00    1.10449   1.13496   -2.000
 7070.00    1.04333   1.12152   -2.000
 7071.00    1.08922   1.10421   -2.000
 7072.00    1.19773   1.09509   -2.000
 7073.00    1.22222   1.10208   -2.000
 7074.00    1.20389   1.12104   -2.000
 7075.00    1.18263   1.13967   -2.000
 7076.00    1.16008   1.15004   -2.000
 7077.00    1.16529   1.15324   -2.000
 7078.00    1.18102   1.15316   -2.000
 7079.00    1.20978   1.15202   -2.000
 7080.00    1.24273   1.15161   -2.000
 7081.00    1.15847   1.15346   -2.000
 7082.00    1.04263   1.15740   -2.000
 7083.00    1.00953   1.16179   -2.000
 7084.00    0.99470   1.16391   -2.000
 7085.00    1.09337   1.15889   -2.000
 7086.00    1.21199   1.14213   -2.000
 7087.00    0.58505   1.11595   -2.000
 7088.00   -0.14177   1.09155   -2.000
 7089.00    0.20272   1.07981   -2.000
 7090.00    0.64900   1.08011   -2.000
 7091.00    0.75536   1.08264   -2.000
 7092.00    0.84177   1.08074   -2.000
 7093.00    0.85858   1.07553   -2.000
 7094.00    0.87368   1.07121   -2.000
 7095.00    0.88903   1.07021   -2.000
 7096.00    0.89862   1.07157   -2.000
 7097.00    0.76495   1.07317   -2.000
 7098.00    0.64283   1.07449   -2.000
 7099.00    0.67410   1.07598   -2.000
 7100.00    0.70350   1.07867   -2.000
 7101.00    0.71619   1.08445   -2.000
 7102.00    0.72731   1.09383   -2.000
 7103.00    0.72817   1.10328   -2.000
 7104.00    0.73339   1.10738   -2.000
 7105.00    0.76081   1.10487   -2.000
 7106.00    0.76721   1.10062   -2.000
 7107.00    0.68711   1.10080   -2.000
 7108.00    0.63760   1.10590   -2.000
 7109.00    0.69239   1.10974   -2.000
 7110.00    0.72567   1.10754   -2.000
 7111.00    0.69719   1.10204   -2.000
 7112.00    0.68990   1.09796   -2.000
 7113.00    0.73461   1.09423   -2.000
 7114.00    0.76149   1.08779   -2.000
 7115.00    0.75065   1.08158   -2.000
 7116.00    0.74091   1.08179   -2.000
 7117.00    0.73320   1.08916   -2.000
 7118.00    0.74715   1.09850   -2.000
 7119.00    0.79591   1.10521   -2.000
 7120.00    0.82730   1.10818   -2.000
 7121.00    0.83421   1.10808   -2.000
 7122.00    0.82196   1.10603   -2.000
 7123.00    0.78597   1.10295   -2.000
 7124.00    0.69037   1.09897   -2.000
 7125.00    0.52960   1.09475   -2.000
 7126.00    0.51357   1.09282   -2.000
 7127.00    0.63711   1.09431   -2.000
 7128.00    0.70075   1.09501   -2.000
 7129.00    0.71347   1.09036   -2.000
 7130.00    0.68672   1.08279   -2.000
 7131.00    0.63040   1.07755   -2.000
 7132.00    0.63503   1.07365   -2.000
 7133.00    0.67977   1.06583   -2.000
 7134.00    0.76597   1.05522   -2.000
 7135.00    0.87605   1.05079   -2.000
 7136.00    0.85414   1.05823   -2.000
 7137.00    0.76600   1.07338   -2.000
 7138.00    0.72045   1.08796   -2.000
 7139.00    0.69340   1.09757   -2.000
 7140.00    0.63352   1.10259   -2.000
 7141.00    0.56142   1.10352   -2.000
 7142.00    0.67596   1.09980   -2.000
 7143.00    0.84944   1.09465   -2.000
 7144.00    0.74018   1.09396   -2.000
 7145.00    0.55634   1.09808   -2.000
 7146.00    0.58171   1.10173   -2.000
 7147.00    0.65217   1.10199   -2.000
 7148.00    0.65950   1.10009   -2.000
 7149.00    0.65604   1.09630   -2.000
 7150.00    0.69759   1.08801   -2.000
 7151.00    0.74497   1.07488   -2.000
 7152.00    0.67847   1.06386   -2.000
 7153.00    0.60163   1.06342   -2.000
 7154.00    0.61349   1.07386   -2.000
 7155.00    0.63021   1.08917   -2.000
 7156.00    0.70736   1.10368   -2.000
 7157.00    0.78407   1.11241   -2.000
 7158.00    0.70543   1.11306   -2.000
 7159.00    0.61980   1.11062   -2.000
 7160.00    0.37555   1.11236   -2.000
 7161.00    0.14775   1.11715   -2.000
 7162.00    0.12719   1.11744   -2.000
 7163.00    0.15299   1.11153   -2.000
 7164.00    0.57440   1.10575   -2.000
 7165.00    0.95258   1.10396   -2.000
 7166.00    1.05682   1.10062   -2.000
 7167.00    1.09350   1.08798   -2.000
 7168.00    0.79470   1.06968   -2.000
 7169.00    0.55803   1.06079   -2.000
 7170.00    0.57142   1.07078   -2.000
 7171.00    0.61350   1.09236   -2.000
 7172.00    0.75149   1.11056   -2.000
 7173.00    0.85943   1.11839   -2.000
 7174.00    0.88263   1.12054   -2.000
 7175.00    0.89026   1.12422   -2.000
 7176.00    0.86033   1.13000   -2.000
 7177.00    0.79465   1.13238   -2.000
 7178.00    0.65453   1.12718   -2.000
 7179.00    0.59188   1.11703   -2.000
 7180.00    0.66947   1.11000   -2.000
 7181.00    0.71804   1.11057   -2.000
 7182.00    0.72065   1.11200   -2.000
 7183.00    0.73108   1.10377   -2.000
 7184.00    0.75239   1.08727   -2.000
 7185.00    0.74117   1.07706   -2.000
 7186.00    0.69019   1.08402   -2.000
 7187.00    0.64755   1.10205   -2.000
 7188.00    0.61391   1.11500   -2.000
 7189.00    0.58859   1.11252   -2.000
 7190.00    0.57120   1.09616   -2.000
 7191.00    0.63100   1.07588   -2.000
 7192.00    0.75552   1.06336   -2.000
 7193.00    0.79795   1.06424   -2.000
 7194.00    0.77977   1.07443   -2.000
 7195.00    0.77683   1.08418   -2.000
 7196.00    0.78377   1.08746   -2.000
 7197.00    0.77451   1.08762   -2.000
 7198.00    0.75608   1.09089   -2.000
 7199.00    0.60861   1.09630   -2.000
 7200.00    0.39743   1.09858   -2.000
 7201.00    0.32576   1.09821   -2.000
 7202.00    0.31368   1.10017   -2.000
 7203.00    0.38754   1.10441   -2.000
 7204.00    0.49286   1.10607   -2.000
 7205.00    0.69280   1.10423   -2.000
 7206.00    0.92205   1.10464   -2.000
 7207.00    0.86877   1.11114   -2.000
 7208.00    0.74256   1.11740   -2.000
 7209.00    0.70896   1.11161   -2.000
 7210.00    0.69485   1.09087   -2.000
 7211.00    0.01768   1.06802   -2.000
 7212.00   -0.76962   1.06028   -2.000
 7213.00   -0.21766   1.07268   -2.000
 7214.00    0.50164   1.09535   -2.000
 7215.00    0.54034   1.11346   -2.000
 7216.00    0.52008   1.11814   -2.000
 7217.00    0.61760   1.11171   -2.000
 7218.00    0.72109   1.10344   -2.000
