###################################################################
## OUTPUT of StarlightChains_v04.for    [Cid@UFSC - 01/Apr/2007] ##
###################################################################

## Some input info
KUG0210-078._51_46.txt                   [arq_obs]
Base.CB07.vall.4m                        [arq_base]
Masks.EmLines.NEW.gm                     [arq_masks]
StCv04.C11.config                        [arq_config]
   66                                    [N_base]
    0                                    [N_YAV_components = # of components with extra extinction!]
    0                                    [i_FitPowerLaw (1/0 = Yes/No)]
-9.99                                    [alpha_PowerLaw]
CCM                                      [red_law_option]
 1.458241                                [q_norm = A(l_norm)/A(V)]

## (Re)Sampling Parameters
 3741.00                                 [l_ini (A)]
 7218.00                                 [l_fin (A)]
    1.00                                 [dl    (A)]     (OBS: dl_cushion =    50.00 A)

## Normalization info
 4020.00                                 [l_norm (A) - for base]
 4010.00                                 [llow_norm (A) - window for f_obs]
 4060.00                                 [lupp_norm (A) - window for f_obs]
6.575754E-18                             [fobs_norm (in input units)]

## S/N
 3691.00                                 [llow_SN (A) - window for S/N]
 7268.00                                 [lupp_SN (A) - window for S/N]
   2.578                                 [S/N in S/N window]
   3.906                                 [S/N in norm. window]
   0.005                                 [S/N_err in S/N window]
   0.007                                 [S/N_err in norm. window]
  1.0000                                 [fscale_chi2]

## etc...
    -2007974                             [idum_orig]
  2372                                   [NOl_eff]
  2341                                   [Nl_eff]
    31    NSIGMA                         [Ntot_cliped & clip_method]
   421330                                [Nglobal_steps]
   7                                     [N_chains]
   7                                     [NEX0s_base = N_base in EX0s-fits]
 0   0   1       31   2.0   1.555E+03    [Clip-Bug, RC-Crash & Burn-In warning-flags, n_censored_weights, wei_nsig_threshold & wei_limit]
    14     14.078     13.575      0.503  [idt_all, wdt_TotTime, wdt_UsrTime & wdt_SysTime (sec)]

## Synthesis Results - Best model ##

 8.57859E-06                             [chi2/Nl_eff]
    31.48153                             [adev (%)]

    89.53889                             [sum-of-x (%)]
 4.71015E-17                             [Flux_tot (units of input spectrum!)]
 2.81325E-15                             [Mini_tot (???)]
 2.70100E-15                             [Mcor_tot (???)]

 360.99                                  [v0_min  (km/s)]
 101.36                                  [vd_min  (km/s)]
 1.5482                                  [AV_min  (mag)]
 0.0000                                  [YAV_min (mag)]

# j     x_j(%)      Mini_j(%)     Mcor_j(%)     age_j(yr)     Z_j      (L/M)_j    YAV?  Mstars   component_j        a/Fe...       SSP_chi2r SSP_adev(%)   SSP_AV   SSP_x(%)
  1      8.8717     1.5164E+01    1.5794E+01    1.000000E+06  0.00400  1.094E-02    0   1.0000   age020_m42            0.0000     8.6470E-06    31.8151   1.9682    87.5244
  2      0.0000     0.0000E+00    0.0000E+00    3.160000E+06  0.00400  4.007E-02    0   0.9999   age045_m42            0.0000     8.9232E-06    31.9780   1.2379    93.1558
  3      0.0000     0.0000E+00    0.0000E+00    5.010000E+06  0.00400  2.539E-02    0   0.9488   age055_m42            0.0000     8.8161E-06    31.8547   1.5735    90.7169
  4      0.0000     0.0000E+00    0.0000E+00    6.610000E+06  0.00400  2.620E-02    0   0.9220   age061_m42            0.0000     9.0094E-06    31.8813   1.1820    92.8551
  5      0.0000     0.0000E+00    0.0000E+00    1.000000E+07  0.00400  1.322E-02    0   0.8862   age070_m42            0.0000     8.8875E-06    31.4558   0.9742    93.2286
  6      0.0000     0.0000E+00    0.0000E+00    1.445000E+07  0.00400  7.883E-03    0   0.8571   age078_m42            0.0000     8.8044E-06    31.4954   1.2876    91.2531
  7      0.0000     0.0000E+00    0.0000E+00    2.512000E+07  0.00400  5.251E-03    0   0.8174   age090_m42            0.0000     8.8813E-06    31.4432   0.8522    93.5210
  8      0.0000     0.0000E+00    0.0000E+00    4.000000E+07  0.00400  3.649E-03    0   0.7851   age104_m42            0.0000     8.9320E-06    31.4775   0.6165    94.4818
  9      0.0000     0.0000E+00    0.0000E+00    5.500000E+07  0.00400  3.098E-03    0   0.7629   age110_m42            0.0000     9.0794E-06    31.6688   0.7362    95.1217
 10      0.0000     0.0000E+00    0.0000E+00    1.015200E+08  0.00400  2.228E-03    0   0.7207   age116_m42            0.0000     9.2514E-06    31.7461   0.7458    95.4460
 11      0.0000     0.0000E+00    0.0000E+00    2.861200E+08  0.00400  1.093E-03    0   0.6648   age125_m42            0.0000     9.3855E-06    31.6095   0.2011    97.5026
 12      0.0000     0.0000E+00    0.0000E+00    5.088000E+08  0.00400  6.597E-04    0   0.6365   age130_m42            0.0000     9.5939E-06    31.8321   0.1541    99.1311
 13      0.0000     0.0000E+00    0.0000E+00    1.434000E+09  0.00400  2.132E-04    0   0.5798   age139_m42            0.0000     9.6263E-06    32.0947  -0.8603   102.1110
 14      0.0000     0.0000E+00    0.0000E+00    4.250000E+09  0.00400  5.895E-05    0   0.5377   age158_m42            0.0000     9.8866E-06    31.7689  -1.0000    94.2799
 15      0.0000     0.0000E+00    0.0000E+00    7.500000E+09  0.00400  3.510E-05    0   0.5212   age171_m42            0.0000     1.0329E-05    33.2564  -1.0000    90.5586
 16      0.0000     0.0000E+00    0.0000E+00    1.300000E+10  0.00400  2.005E-05    0   0.5034   age193_m42            0.0000     1.0831E-05    35.3105  -1.0000    87.1123
 17      0.0000     0.0000E+00    0.0000E+00    1.800000E+10  0.00400  1.525E-05    0   0.4967   age213_m42            0.0000     1.0849E-05    35.6401  -1.0000    86.2957
 18     13.9142     2.1016E+01    2.1890E+01    1.000000E+06  0.00800  1.238E-02    0   1.0000   age020_m52            0.0000     8.6452E-06    31.8228   1.9645    87.7042
 19      0.0000     0.0000E+00    0.0000E+00    3.160000E+06  0.00800  3.074E-02    0   0.9966   age045_m52            0.0000     8.6738E-06    31.8407   1.8892    88.4047
 20      0.0000     0.0000E+00    0.0000E+00    5.010000E+06  0.00800  2.668E-02    0   0.9443   age055_m52            0.0000     8.7763E-06    31.8107   1.6585    89.8893
 21      0.0000     0.0000E+00    0.0000E+00    6.610000E+06  0.00800  2.136E-02    0   0.9177   age061_m52            0.0000     8.7803E-06    31.4805   0.4508    94.9944
 22      0.0000     0.0000E+00    0.0000E+00    1.000000E+07  0.00800  1.215E-02    0   0.8827   age070_m52            0.0000     8.8097E-06    31.3943   1.1693    92.7360
 23      0.0000     0.0000E+00    0.0000E+00    1.445000E+07  0.00800  8.717E-03    0   0.8552   age078_m52            0.0000     8.8240E-06    31.4569   1.2579    92.3995
 24      0.0000     0.0000E+00    0.0000E+00    2.512000E+07  0.00800  5.592E-03    0   0.8162   age090_m52            0.0000     8.9039E-06    31.4483   0.9217    94.5021
 25      0.0000     0.0000E+00    0.0000E+00    4.000000E+07  0.00800  3.896E-03    0   0.7841   age104_m52            0.0000     8.9968E-06    31.5389   0.8158    95.5211
 26      0.0000     0.0000E+00    0.0000E+00    1.015200E+08  0.00800  2.148E-03    0   0.7226   age116_m52            0.0000     9.2124E-06    31.6615   0.7303    95.7451
 27      0.0000     0.0000E+00    0.0000E+00    2.861200E+08  0.00800  9.925E-04    0   0.6683   age125_m52            0.0000     9.6221E-06    31.8736   0.2211    99.8900
 28      0.0000     0.0000E+00    0.0000E+00    9.047900E+08  0.00800  3.141E-04    0   0.6138   age135_m52            0.0000     9.9747E-06    32.6418  -0.6625   106.0560
 29      0.0000     0.0000E+00    0.0000E+00    1.434000E+09  0.00800  1.719E-04    0   0.5853   age139_m52            0.0000     9.8611E-06    31.6838  -1.0000   100.3718
 30      0.0000     0.0000E+00    0.0000E+00    2.500000E+09  0.00800  7.872E-05    0   0.5600   age150_m52            0.0000     1.0479E-05    33.1922  -1.0000    93.4521
 31      0.0000     0.0000E+00    0.0000E+00    4.250000E+09  0.00800  4.336E-05    0   0.5426   age158_m52            0.0000     1.0562E-05    33.3643  -1.0000    92.3107
 32      0.0000     0.0000E+00    0.0000E+00    6.250000E+09  0.00800  3.159E-05    0   0.5319   age166_m52            0.0000     1.1306E-05    35.7658  -1.0000    88.4408
 33      0.0000     0.0000E+00    0.0000E+00    1.300000E+10  0.00800  1.361E-05    0   0.5073   age193_m52            0.0000     1.3322E-05    42.8546  -1.0000    77.8122
 34      0.0000     0.0000E+00    0.0000E+00    1.800000E+10  0.00800  9.886E-06    0   0.4990   age213_m52            0.0000     1.4154E-05    44.2814  -1.0000    74.8652
 35      0.0000     0.0000E+00    0.0000E+00    1.000000E+06  0.02000  1.544E-02    0   1.0000   age020_m62            0.0000     8.6493E-06    31.8246   1.9586    87.9183
 36      0.0000     0.0000E+00    0.0000E+00    3.160000E+06  0.02000  3.762E-02    0   0.9858   age045_m62            0.0000     8.6633E-06    31.8280   1.9033    88.6380
 37      0.0000     0.0000E+00    0.0000E+00    5.010000E+06  0.02000  3.296E-02    0   0.9342   age055_m62            0.0000     8.9104E-06    31.9012   1.5306    91.8161
 38      0.5674     9.1936E-01    8.4850E-01    8.710000E+06  0.02000  1.154E-02    0   0.8861   age067_m62            0.0000     8.6434E-06    31.8354   0.7376    92.9312
 39      0.0000     0.0000E+00    0.0000E+00    1.445000E+07  0.02000  7.663E-03    0   0.8472   age078_m62            0.0000     8.7249E-06    31.4544   0.8441    94.2425
 40      0.0000     0.0000E+00    0.0000E+00    2.512000E+07  0.02000  4.532E-03    0   0.8099   age090_m62            0.0000     8.7793E-06    31.4866   0.8500    93.5484
 41      0.0000     0.0000E+00    0.0000E+00    5.500000E+07  0.02000  2.733E-03    0   0.7595   age110_m62            0.0000     9.0090E-06    31.4918   0.8053    94.6390
 42      0.0000     0.0000E+00    0.0000E+00    1.609000E+08  0.02000  1.369E-03    0   0.6985   age120_m62            0.0000     9.4497E-06    31.6629   0.6179    97.5918
 43      0.0000     0.0000E+00    0.0000E+00    2.861200E+08  0.02000  9.013E-04    0   0.6714   age125_m62            0.0000     9.7517E-06    31.8545   0.3388   100.9553
 44      0.0000     0.0000E+00    0.0000E+00    5.088000E+08  0.02000  5.028E-04    0   0.6449   age130_m62            0.0000     1.0017E-05    32.5987  -0.1227   105.6971
 45      0.0000     0.0000E+00    0.0000E+00    9.047900E+08  0.02000  2.428E-04    0   0.6179   age135_m62            0.0000     1.0044E-05    33.1415  -0.7613   106.2859
 46      0.0000     0.0000E+00    0.0000E+00    1.434000E+09  0.02000  1.263E-04    0   0.5908   age139_m62            0.0000     1.0153E-05    31.9705  -1.0000   101.7480
 47      0.0000     0.0000E+00    0.0000E+00    2.500000E+09  0.02000  5.985E-05    0   0.5673   age150_m62            0.0000     1.0880E-05    33.4816  -1.0000    94.2342
 48      0.0000     0.0000E+00    0.0000E+00    4.250000E+09  0.02000  3.271E-05    0   0.5468   age158_m62            0.0000     1.2063E-05    37.1806  -1.0000    87.3194
 49      0.0000     0.0000E+00    0.0000E+00    1.000000E+10  0.02000  1.360E-05    0   0.5167   age181_m62            0.0000     1.3987E-05    42.1457  -1.0000    79.0364
 50      0.0000     0.0000E+00    0.0000E+00    1.800000E+10  0.02000  7.124E-06    0   0.5013   age213_m62            0.0000     1.5424E-05    44.9403  -1.0000    73.3546
 51     39.3041     2.8354E+01    2.9527E+01    1.000000E+06  0.05000  2.592E-02    0   0.9998   age020_m72            0.0000     8.6320E-06    31.7455   1.9600    87.8114
 52      0.0000     0.0000E+00    0.0000E+00    3.160000E+06  0.05000  4.845E-02    0   0.9577   age045_m72            0.0000     8.7570E-06    31.9219   1.7813    89.7069
 53      0.0000     0.0000E+00    0.0000E+00    5.010000E+06  0.05000  3.072E-02    0   0.9147   age055_m72            0.0000     8.7208E-06    31.5303   1.3867    91.6474
 54     26.8815     3.4547E+01    3.1941E+01    6.610000E+06  0.05000  1.455E-02    0   0.8877   age061_m72            0.0000     8.6771E-06    32.8458   0.8195    92.6908
 55      0.0000     0.0000E+00    0.0000E+00    1.000000E+07  0.05000  9.074E-03    0   0.8524   age070_m72            0.0000     8.7298E-06    31.9649   1.5631    91.3640
 56      0.0000     0.0000E+00    0.0000E+00    2.512000E+07  0.05000  4.250E-03    0   0.7902   age090_m72            0.0000     8.8837E-06    31.6968   1.2757    92.6100
 57      0.0000     0.0000E+00    0.0000E+00    4.000000E+07  0.05000  3.087E-03    0   0.7618   age104_m72            0.0000     8.9923E-06    31.6789   1.0674    93.6263
 58      0.0000     0.0000E+00    0.0000E+00    1.015200E+08  0.05000  1.700E-03    0   0.7096   age116_m72            0.0000     9.3572E-06    31.5523   0.7842    96.6208
 59      0.0000     0.0000E+00    0.0000E+00    2.861200E+08  0.05000  7.384E-04    0   0.6633   age125_m72            0.0000     9.9179E-06    32.2164   0.1665   103.3044
 60      0.0000     0.0000E+00    0.0000E+00    5.088000E+08  0.05000  3.819E-04    0   0.6372   age130_m72            0.0000     1.0045E-05    33.1006  -0.4133   107.1358
 61      0.0000     0.0000E+00    0.0000E+00    9.047900E+08  0.05000  1.676E-04    0   0.6110   age135_m72            0.0000     1.0316E-05    32.6442  -1.0000   104.2869
 62      0.0000     0.0000E+00    0.0000E+00    1.434000E+09  0.05000  8.837E-05    0   0.5874   age139_m72            0.0000     1.1029E-05    33.5699  -1.0000    95.6233
 63      0.0000     0.0000E+00    0.0000E+00    2.500000E+09  0.05000  4.233E-05    0   0.5598   age150_m72            0.0000     1.2265E-05    37.2248  -1.0000    88.0842
 64      0.0000     0.0000E+00    0.0000E+00    6.250000E+09  0.05000  1.435E-05    0   0.5249   age166_m72            0.0000     1.4508E-05    43.6133  -1.0000    76.5159
 65      0.0000     0.0000E+00    0.0000E+00    1.300000E+10  0.05000  6.513E-06    0   0.5036   age193_m72            0.0000     1.6476E-05    47.0578  -1.0000    70.2551
 66      0.0000     0.0000E+00    0.0000E+00    1.800000E+10  0.05000  4.527E-06    0   0.4945   age213_m72            0.0000     1.7712E-05    48.7345  -1.0000    66.0474


## Synthesis Results - Average & Chains ##

# j      x_j: min, <> & last-chain-values for 1 ...  7 chains
  1      8.8717     17.0747     52.9473     52.3810     52.9289     52.8268     53.0142     52.6748     50.1218
  2      0.0000      0.9457      0.0000      0.0000      0.0000      0.0000      0.0000      0.0000      0.0000
  3      0.0000      1.1838      0.0000      0.0000      0.0000      0.0000      0.0000      0.0000      0.0000
  4      0.0000      1.0442      0.0000      0.0000      0.0000      0.0000      0.0000      0.0000      0.0000
  5      0.0000      1.0862      0.0000      0.0000      0.0000      0.0000      0.0000      0.0000      0.0000
  6      0.0000      0.8767      0.0000      0.0000      0.0000      0.0000      0.0000      0.0001      0.0000
  7      0.0000      1.0659      0.0000      0.0000      0.0000      0.0000      0.0000      0.0000      0.0000
  8      0.0000      0.7826      0.0000      0.0000      0.0000      0.0000      0.0000      0.0000      0.0000
  9      0.0000      0.8857      0.0000      0.0000      0.0000      0.0000      0.0000      0.0000      0.0000
 10      0.0000      1.0478      0.0000      0.0000      0.0000      0.0000      0.0000      0.0000      0.0000
 11      0.0000      0.9602      0.0000      0.0000      0.0000      0.0000      0.0000      0.0000      0.0000
 12      0.0000      0.9328      0.0000      0.0000      0.0000      0.0000      0.0000      0.0000      0.0000
 13      0.0000      1.0057      0.0000      0.0000      0.0000      0.0000      0.0000      0.0000      0.0000
 14      0.0000      0.8952      0.0000      0.0000      0.0000      0.0000      0.0000      0.0000      0.0000
 15      0.0000      0.9960      0.0000      0.0000      0.0000      0.0000      0.0000      0.0000      0.0000
 16      0.0000      0.9941      0.0000      0.0000      0.0000      0.0000      0.0000      0.0000      0.0000
 17      0.0000      0.9026      0.0000      0.0000      0.0000      0.0000      0.0000      0.0000      0.0000
 18     13.9142      1.4938      4.0201      3.0183      1.6238      1.4684      3.8174      4.3438      4.0659
 19      0.0000      1.4058      0.0000      0.0000      0.0008      0.0000      0.0000      0.0000      0.0022
 20      0.0000      0.8240      0.0000      0.0000      0.0000      0.0000      0.0000      0.0000      0.0000
 21      0.0000      1.0180      0.0000      0.0000      0.0000      0.0000      0.0000      0.0000      0.0000
 22      0.0000      1.1804      0.0000      0.0000      0.0000      0.0000      0.0000      0.0000      0.0000
 23      0.0000      0.8064      0.0000      0.0000      0.0000      0.0000      0.0000      0.0000      0.0000
 24      0.0000      1.1109      0.0000      0.0000      0.0000      0.0000      0.0000      0.0000      0.0000
 25      0.0000      0.8185      0.0000      0.0000      0.0000      0.0000      0.0000      0.0000      0.0000
 26      0.0000      0.9028      0.0000      0.0000      0.0000      0.0000      0.0000      0.0000      0.0000
 27      0.0000      0.6577      0.0000      0.0000      0.0000      0.0000      0.0000      0.0000      0.0000
 28      0.0000      0.9076      0.0000      0.0000      0.0000      0.0000      0.0000      0.0000      0.0000
 29      0.0000      0.9562      0.0000      0.0000      0.0000      0.0000      0.0000      0.0000      0.0000
 30      0.0000      0.9704      0.0000      0.0000      0.0000      0.0000      0.0000      0.0000      0.0000
 31      0.0000      1.2099      0.0000      0.0000      0.0000      0.0000      0.0000      0.0000      0.0000
 32      0.0000      0.8402      0.0000      0.0000      0.0000      0.0000      0.0000      0.0000      0.0000
 33      0.0000      1.1077      0.0000      0.0000      0.0000      0.0000      0.0000      0.0000      0.0000
 34      0.0000      1.0851      0.0000      0.0000      0.0000      0.0000      0.0000      0.0000      0.0000
 35      0.0000      4.0792     10.0427      9.9273      9.8218     10.0277      9.8034      9.2028      9.9193
 36      0.0000      4.2859     11.0439     12.9446     10.9416     12.5481     11.4350     12.0977     12.3978
 37      0.0000      0.9085      0.0000      0.0000      0.0000      0.0000      0.0000      0.0000      0.0000
 38      0.5674      1.2053      0.1839      0.0000      0.4023      0.3890      0.0000      0.0326      0.0000
 39      0.0000      0.8745      0.0000      0.0000      0.0000      0.0000      0.0000      0.0000      0.0000
 40      0.0000      0.8192      0.0000      0.0000      0.0000      0.0000      0.0000      0.0000      0.0000
 41      0.0000      0.7684      0.0000      0.0000      0.0000      0.0000      0.0000      0.0000      0.0000
 42      0.0000      1.0960      0.0000      0.0000      0.0000      0.0000      0.0000      0.0000      0.0000
 43      0.0000      0.7223      0.0000      0.0000      0.0000      0.0000      0.0000      0.0000      0.0000
 44      0.0000      1.2836      0.0000      0.0000      0.0000      0.0000      0.0000      0.0000      0.0000
 45      0.0000      0.9804      0.0000      0.0000      0.0000      0.0000      0.0000      0.0000      0.0000
 46      0.0000      0.7423      0.0000      0.0000      0.0000      0.0000      0.0000      0.0000      0.0000
 47      0.0000      0.9816      0.0000      0.0000      0.0000      0.0000      0.0000      0.0000      0.0000
 48      0.0000      0.8858      0.0000      0.0000      0.0000      0.0000      0.0000      0.0000      0.0000
 49      0.0000      0.7346      0.0000      0.0000      0.0000      0.0000      0.0000      0.0000      0.0000
 50      0.0000      0.9165      0.0000      0.0000      0.0000      0.0000      0.0000      0.0000      0.0000
 51     39.3041      5.9396     13.6998     13.0394     16.2138     14.1006     14.2971     13.4965     14.8787
 52      0.0000      1.0870      0.0000      0.0000      0.0000      0.0483      0.0000      0.0000      0.0000
 53      0.0000      0.9522      0.0000      0.0000      0.0000      0.0000      0.0000      0.0004      0.0000
 54     26.8815      0.9639      0.9199      1.3437      0.9330      1.2611      0.7040      1.1635      1.6687
 55      0.0000      1.1159      0.0000      0.0000      0.0129      0.0009      0.0000      0.0000      0.0000
 56      0.0000      1.2145      0.0000      0.0000      0.0000      0.0000      0.0000      0.0000      0.0010
 57      0.0000      1.0099      0.0000      0.0000      0.0000      0.0000      0.0000      0.0000      0.0000
 58      0.0000      1.1873      0.0000      0.0000      0.0000      0.0000      0.0000      0.0000      0.0000
 59      0.0000      1.0496      0.0000      0.0000      0.0000      0.0000      0.0000      0.0000      0.0000
 60      0.0000      0.9647      0.0000      0.0000      0.0000      0.0000      0.0000      0.0000      0.0000
 61      0.0000      0.9444      0.0000      0.0000      0.0000      0.0000      0.0000      0.0000      0.0000
 62      0.0000      0.9375      0.0000      0.0000      0.0000      0.0000      0.0000      0.0000      0.0000
 63      0.0000      1.1315      0.0000      0.0000      0.0000      0.0000      0.0000      0.0000      0.0000
 64      0.0000      0.7671      0.0000      0.0000      0.0000      0.0000      0.0000      0.0000      0.0000
 65      0.0000      1.1387      0.0000      0.0000      0.0000      0.0000      0.0000      0.0000      0.0000
 66      0.0000      0.8397      0.2320      0.5727      0.0000      0.3758      0.0000      0.0000      0.0015

# j      m_j: min, <> & last-chain-values for 1 ...  7 chains
  1  1.5794E+01  2.6652E-01  1.5104E+01  6.9232E+00  7.3232E+01  1.0140E+01  7.2508E+01  7.2156E+01  6.8241E+01
  2  0.0000E+00  4.0296E-03  0.0000E+00  0.0000E+00  0.0000E+00  0.0000E+00  0.0000E+00  0.0000E+00  0.0000E+00
  3  0.0000E+00  7.5540E-03  0.0000E+00  0.0000E+00  0.0000E+00  0.0000E+00  0.0000E+00  0.0000E+00  0.0000E+00
  4  0.0000E+00  6.2747E-03  0.0000E+00  0.0000E+00  0.0000E+00  0.0000E+00  0.0000E+00  0.0000E+00  0.0000E+00
  5  0.0000E+00  1.2433E-02  0.0000E+00  0.0000E+00  0.0000E+00  0.0000E+00  0.0000E+00  0.0000E+00  0.0000E+00
  6  0.0000E+00  1.6277E-02  0.0000E+00  0.0000E+00  0.0000E+00  0.0000E+00  0.0000E+00  8.3993E-05  0.0000E+00
  7  0.0000E+00  2.8334E-02  0.0000E+00  0.0000E+00  0.0000E+00  0.0000E+00  0.0000E+00  0.0000E+00  0.0000E+00
  8  0.0000E+00  2.8754E-02  0.0000E+00  0.0000E+00  0.0000E+00  0.0000E+00  0.0000E+00  0.0000E+00  0.0000E+00
  9  0.0000E+00  3.7243E-02  0.0000E+00  0.0000E+00  0.0000E+00  0.0000E+00  0.0000E+00  0.0000E+00  0.0000E+00
 10  0.0000E+00  5.7876E-02  0.0000E+00  0.0000E+00  0.0000E+00  0.0000E+00  0.0000E+00  0.0000E+00  0.0000E+00
 11  0.0000E+00  9.9730E-02  0.0000E+00  0.0000E+00  0.0000E+00  0.0000E+00  0.0000E+00  0.0000E+00  0.0000E+00
 12  0.0000E+00  1.5368E-01  0.0000E+00  0.0000E+00  0.0000E+00  0.0000E+00  0.0000E+00  0.0000E+00  0.0000E+00
 13  0.0000E+00  4.6704E-01  0.0000E+00  0.0000E+00  0.0000E+00  0.0000E+00  0.0000E+00  0.0000E+00  0.0000E+00
 14  0.0000E+00  1.3943E+00  0.0000E+00  0.0000E+00  0.0000E+00  0.0000E+00  0.0000E+00  0.0000E+00  0.0000E+00
 15  0.0000E+00  2.5254E+00  0.0000E+00  0.0000E+00  0.0000E+00  0.0000E+00  0.0000E+00  0.0000E+00  0.0000E+00
 16  0.0000E+00  4.2621E+00  0.0000E+00  0.0000E+00  0.0000E+00  0.0000E+00  0.0000E+00  0.0000E+00  0.0000E+00
 17  0.0000E+00  5.0198E+00  0.0000E+00  0.0000E+00  0.0000E+00  0.0000E+00  0.0000E+00  0.0000E+00  0.0000E+00
 18  2.1890E+01  2.0604E-02  1.0134E+00  3.5254E-01  1.9853E+00  2.4906E-01  4.6138E+00  5.2582E+00  4.8918E+00
 19  0.0000E+00  7.7828E-03  0.0000E+00  0.0000E+00  3.8696E-04  0.0000E+00  0.0000E+00  0.0000E+00  1.0389E-03
 20  0.0000E+00  4.9803E-03  0.0000E+00  0.0000E+00  0.0000E+00  0.0000E+00  0.0000E+00  0.0000E+00  0.0000E+00
 21  0.0000E+00  7.4689E-03  0.0000E+00  0.0000E+00  0.0000E+00  0.0000E+00  0.0000E+00  0.0000E+00  0.0000E+00
 22  0.0000E+00  1.4644E-02  0.0000E+00  0.0000E+00  0.0000E+00  0.0000E+00  0.0000E+00  0.0000E+00  0.0000E+00
 23  0.0000E+00  1.3510E-02  0.0000E+00  0.0000E+00  0.0000E+00  0.0000E+00  0.0000E+00  0.0000E+00  0.0000E+00
 24  0.0000E+00  2.7689E-02  0.0000E+00  0.0000E+00  0.0000E+00  0.0000E+00  0.0000E+00  0.0000E+00  0.0000E+00
 25  0.0000E+00  2.8130E-02  0.0000E+00  0.0000E+00  0.0000E+00  0.0000E+00  0.0000E+00  0.0000E+00  0.0000E+00
 26  0.0000E+00  5.1860E-02  0.0000E+00  0.0000E+00  0.0000E+00  0.0000E+00  0.0000E+00  0.0000E+00  0.0000E+00
 27  0.0000E+00  7.5624E-02  0.0000E+00  0.0000E+00  0.0000E+00  0.0000E+00  0.0000E+00  0.0000E+00  0.0000E+00
 28  0.0000E+00  3.0286E-01  0.0000E+00  0.0000E+00  0.0000E+00  0.0000E+00  0.0000E+00  0.0000E+00  0.0000E+00
 29  0.0000E+00  5.5595E-01  0.0000E+00  0.0000E+00  0.0000E+00  0.0000E+00  0.0000E+00  0.0000E+00  0.0000E+00
 30  0.0000E+00  1.1787E+00  0.0000E+00  0.0000E+00  0.0000E+00  0.0000E+00  0.0000E+00  0.0000E+00  0.0000E+00
 31  0.0000E+00  2.5855E+00  0.0000E+00  0.0000E+00  0.0000E+00  0.0000E+00  0.0000E+00  0.0000E+00  0.0000E+00
 32  0.0000E+00  2.4158E+00  0.0000E+00  0.0000E+00  0.0000E+00  0.0000E+00  0.0000E+00  0.0000E+00  0.0000E+00
 33  0.0000E+00  7.0502E+00  0.0000E+00  0.0000E+00  0.0000E+00  0.0000E+00  0.0000E+00  0.0000E+00  0.0000E+00
 34  0.0000E+00  9.3524E+00  0.0000E+00  0.0000E+00  0.0000E+00  0.0000E+00  0.0000E+00  0.0000E+00  0.0000E+00
 35  0.0000E+00  4.5114E-02  2.0298E+00  9.2969E-01  9.6287E+00  1.3638E+00  9.5003E+00  8.9322E+00  9.5690E+00
 36  0.0000E+00  1.9178E-02  9.0313E-01  4.9047E-01  4.3398E+00  6.9046E-01  4.4835E+00  4.7507E+00  4.8389E+00
 37  0.0000E+00  4.3969E-03  0.0000E+00  0.0000E+00  0.0000E+00  0.0000E+00  0.0000E+00  0.0000E+00  0.0000E+00
 38  8.4850E-01  1.5804E-02  4.4068E-02  0.0000E+00  4.6752E-01  6.2729E-02  0.0000E+00  3.7485E-02  0.0000E+00
 39  0.0000E+00  1.6509E-02  0.0000E+00  0.0000E+00  0.0000E+00  0.0000E+00  0.0000E+00  0.0000E+00  0.0000E+00
 40  0.0000E+00  2.4998E-02  0.0000E+00  0.0000E+00  0.0000E+00  0.0000E+00  0.0000E+00  0.0000E+00  0.0000E+00
 41  0.0000E+00  3.6466E-02  0.0000E+00  0.0000E+00  0.0000E+00  0.0000E+00  0.0000E+00  0.0000E+00  0.0000E+00
 42  0.0000E+00  9.5487E-02  0.0000E+00  0.0000E+00  0.0000E+00  0.0000E+00  0.0000E+00  0.0000E+00  0.0000E+00
 43  0.0000E+00  9.1878E-02  0.0000E+00  0.0000E+00  0.0000E+00  0.0000E+00  0.0000E+00  0.0000E+00  0.0000E+00
 44  0.0000E+00  2.8114E-01  0.0000E+00  0.0000E+00  0.0000E+00  0.0000E+00  0.0000E+00  0.0000E+00  0.0000E+00
 45  0.0000E+00  4.2604E-01  0.0000E+00  0.0000E+00  0.0000E+00  0.0000E+00  0.0000E+00  0.0000E+00  0.0000E+00
 46  0.0000E+00  5.9295E-01  0.0000E+00  0.0000E+00  0.0000E+00  0.0000E+00  0.0000E+00  0.0000E+00  0.0000E+00
 47  0.0000E+00  1.5889E+00  0.0000E+00  0.0000E+00  0.0000E+00  0.0000E+00  0.0000E+00  0.0000E+00  0.0000E+00
 48  0.0000E+00  2.5286E+00  0.0000E+00  0.0000E+00  0.0000E+00  0.0000E+00  0.0000E+00  0.0000E+00  0.0000E+00
 49  0.0000E+00  4.7658E+00  0.0000E+00  0.0000E+00  0.0000E+00  0.0000E+00  0.0000E+00  0.0000E+00  0.0000E+00
 50  0.0000E+00  1.1012E+01  0.0000E+00  0.0000E+00  0.0000E+00  0.0000E+00  0.0000E+00  0.0000E+00  0.0000E+00
 51  2.9527E+01  3.9122E-02  1.6491E+00  7.2726E-01  9.4665E+00  1.1421E+00  8.2516E+00  7.8016E+00  8.5483E+00
 52  0.0000E+00  3.6692E-03  0.0000E+00  0.0000E+00  0.0000E+00  2.0048E-03  0.0000E+00  0.0000E+00  0.0000E+00
 53  0.0000E+00  4.8415E-03  0.0000E+00  0.0000E+00  0.0000E+00  0.0000E+00  0.0000E+00  1.9702E-04  0.0000E+00
 54  3.1941E+01  1.0042E-02  1.7514E-01  1.1854E-01  8.6159E-01  1.6157E-01  6.4263E-01  1.0638E+00  1.5164E+00
 55  0.0000E+00  1.7900E-02  0.0000E+00  0.0000E+00  1.8337E-02  1.8161E-04  0.0000E+00  0.0000E+00  0.0000E+00
 56  0.0000E+00  3.8561E-02  0.0000E+00  0.0000E+00  0.0000E+00  0.0000E+00  0.0000E+00  0.0000E+00  2.7153E-03
 57  0.0000E+00  4.2558E-02  0.0000E+00  0.0000E+00  0.0000E+00  0.0000E+00  0.0000E+00  0.0000E+00  0.0000E+00
 58  0.0000E+00  8.4628E-02  0.0000E+00  0.0000E+00  0.0000E+00  0.0000E+00  0.0000E+00  0.0000E+00  0.0000E+00
 59  0.0000E+00  1.6101E-01  0.0000E+00  0.0000E+00  0.0000E+00  0.0000E+00  0.0000E+00  0.0000E+00  0.0000E+00
 60  0.0000E+00  2.7484E-01  0.0000E+00  0.0000E+00  0.0000E+00  0.0000E+00  0.0000E+00  0.0000E+00  0.0000E+00
 61  0.0000E+00  5.8794E-01  0.0000E+00  0.0000E+00  0.0000E+00  0.0000E+00  0.0000E+00  0.0000E+00  0.0000E+00
 62  0.0000E+00  1.0641E+00  0.0000E+00  0.0000E+00  0.0000E+00  0.0000E+00  0.0000E+00  0.0000E+00  0.0000E+00
 63  0.0000E+00  2.5552E+00  0.0000E+00  0.0000E+00  0.0000E+00  0.0000E+00  0.0000E+00  0.0000E+00  0.0000E+00
 64  0.0000E+00  4.7915E+00  0.0000E+00  0.0000E+00  0.0000E+00  0.0000E+00  0.0000E+00  0.0000E+00  0.0000E+00
 65  0.0000E+00  1.5036E+01  0.0000E+00  0.0000E+00  0.0000E+00  0.0000E+00  0.0000E+00  0.0000E+00  0.0000E+00
 66  0.0000E+00  1.5662E+01  7.9082E+01  9.0458E+01  0.0000E+00  8.6188E+01  0.0000E+00  0.0000E+00  2.3912E+00

# AV, chi2 & Mass for <> & i_chain = 1 ...  7 solutions
AV       1.5482      2.4387      2.3951      2.4700      2.2013      2.2722      2.3874      2.3474      2.3090
chi2 8.5786E-06  4.9203E-05  9.9860E-06  1.0679E-05  9.1850E-06  9.5818E-06  9.7913E-06  9.6503E-06  9.5378E-06
Mass 2.7010E-15  1.0187E-12  5.2569E-14  1.2546E-13  8.3548E-15  6.6238E-14  1.0852E-14  1.0268E-14  9.8122E-15
 360.99                                  [v0_min (km/s) before EX0s...]
 101.36                                  [vd_min (km/s) before EX0s...]


## Synthetic spectrum (Best Model) ##l_obs f_obs f_syn wei
 3478    [Nl_obs]
 3741.00    1.16922   0.83939    0.000
 3742.00    1.39789   0.86878    0.000
 3743.00    1.57047   0.89499    0.000
 3744.00    1.23059   0.91465    0.000
 3745.00    0.59213   0.92750   -1.000
 3746.00    0.48941   0.93420   -1.000
 3747.00    0.65873   0.93484   -1.000
 3748.00    1.52594   0.92902   -1.000
 3749.00    2.70003   0.91653   -1.000
 3750.00    1.36237   0.89749   -1.000
 3751.00   -0.92356   0.87169    0.000
 3752.00   -1.15036   0.83929    0.000
 3753.00   -0.71723   0.80492    0.000
 3754.00   -1.03125   0.78006    0.000
 3755.00   -1.54549   0.77650    0.000
 3756.00   -1.16868   0.79491    0.000
 3757.00   -0.59629   0.82351    0.000
 3758.00   -0.51414   0.84975    0.000
 3759.00   -0.51756   0.87002    0.000
 3760.00    0.77867   0.88647   -1.000
 3761.00    2.24755   0.89969   -1.000
 3762.00    0.98399   0.90806   -1.000
 3763.00   -0.53634   0.91147    0.000
 3764.00   -0.89291   0.91341    0.000
 3765.00   -1.18233   0.91809    0.000
 3766.00   -0.48935   0.92495    0.000
 3767.00    0.22380   0.92959   -1.000
 3768.00    0.55472   0.92874   -1.000
 3769.00    0.84895   0.92081   -1.000
 3770.00    0.25212   0.90449   -1.000
 3771.00   -0.30671   0.87898    0.000
 3772.00   -0.36749   0.84419    0.000
 3773.00   -0.34041   0.80287    0.000
 3774.00    0.45805   0.76470   -1.000
 3775.00    1.12120   0.74462   -1.000
 3776.00    0.90697   0.75171   -1.000
 3777.00    0.70530   0.78100   -1.000
 3778.00    0.56718   0.81958   -1.000
 3779.00    0.35887   0.85731   -1.000
 3780.00   -0.13674   0.88905    0.000
 3781.00   -0.56586   0.91257    0.000
 3782.00   -0.76949   0.92868    0.000
 3783.00   -0.74194   0.94029    0.000
 3784.00   -0.05323   0.94967    0.000
 3785.00    0.55030   0.95714    0.020
 3786.00    0.94569   0.96207    0.021
 3787.00    0.96734   0.96419    0.021
 3788.00    0.20128   0.96403    0.021
 3789.00   -0.21859   0.96274    0.000
 3790.00   -0.00433   0.96134    0.000
 3791.00    0.29946   0.95970    0.021
 3792.00    0.74656   0.95644    0.020
 3793.00    0.80922   0.94952    0.020
 3794.00    0.33187   0.93748    0.019
 3795.00    0.54983   0.92142    0.019
 3796.00    1.62718   0.90453    0.019
 3797.00    1.80932   0.88721    0.019
 3798.00    1.01615   0.86445    0.019
 3799.00    0.14703   0.83060    0.019
 3800.00   -0.79509   0.78610    0.000
 3801.00   -1.08705   0.74095    0.000
 3802.00   -0.82807   0.71241    0.000
 3803.00   -0.78958   0.71447    0.000
 3804.00   -0.91561   0.74606    0.000
 3805.00   -0.57392   0.79213    0.000
 3806.00    0.07438   0.83659    0.018
 3807.00    0.72210   0.87139    0.019
 3808.00    1.36949   0.89541    0.019
 3809.00    1.39839   0.91022    0.019
 3810.00    1.11817   0.91919    0.018
 3811.00    0.55556   0.92717    0.019
 3812.00   -0.12917   0.93694    0.000
 3813.00   -0.03285   0.94694    0.000
 3814.00    0.35313   0.95417    0.019
 3815.00   -0.44744   0.95793    0.000
 3816.00   -1.62099   0.95938    0.000
 3817.00   -1.36032   0.95965    0.000
 3818.00   -0.72343   0.95912    0.000
 3819.00    0.21643   0.95740    0.018
 3820.00    1.22120   0.95273    0.018
 3821.00    0.73504   0.94176    0.018
 3822.00   -0.00415   0.92210    0.000
 3823.00    0.15555   0.89825    0.018
 3824.00    0.43060   0.88323    0.018
 3825.00    0.38412   0.88746    0.018
 3826.00    0.30879   0.90682    0.018
 3827.00   -0.42629   0.92754    0.000
 3828.00   -1.19683   0.94011    0.000
 3829.00   -0.96253   0.94377    0.000
 3830.00   -0.70973   0.94152    0.000
 3831.00   -0.59552   0.93556    0.000
 3832.00   -0.45157   0.92625    0.000
 3833.00    0.35324   0.91292    0.018
 3834.00    1.07056   0.89436    0.018
 3835.00    0.69992   0.86888    0.018
 3836.00    0.48042   0.83430    0.018
 3837.00    1.53841   0.78963    0.018
 3838.00    2.40983   0.73919    0.019
 3839.00    2.10751   0.69639    0.018
 3840.00    1.74668   0.67896    0.018
 3841.00    1.09717   0.69527    0.018
 3842.00    0.62882   0.73682    0.018
 3843.00    0.88565   0.78653    0.018
 3844.00    1.13982   0.83130    0.018
 3845.00    1.38518   0.86589    0.018
 3846.00    1.55983   0.89050    0.018
 3847.00    1.53593   0.90768    0.000
 3848.00    1.37774   0.92016    0.000
 3849.00    0.89702   0.92956    0.000
 3850.00    0.83801   0.93652    0.000
 3851.00    1.65359   0.94131    0.000
 3852.00    1.90154   0.94430    0.000
 3853.00    1.12570   0.94583    0.000
 3854.00    0.64758   0.94625    0.000
 3855.00    0.63898   0.94644    0.000
 3856.00    0.92063   0.94740    0.000
 3857.00    1.60410   0.94871    0.000
 3858.00    1.72229   0.94867    0.000
 3859.00    1.15170   0.94645    0.000
 3860.00    0.50713   0.94338    0.000
 3861.00   -0.21688   0.94169    0.000
 3862.00   -0.48295   0.94224    0.000
 3863.00   -0.31511   0.94376    0.000
 3864.00   -0.11840   0.94458    0.000
 3865.00    0.10242   0.94419    0.000
 3866.00    0.28614   0.94289    0.000
 3867.00    0.44256   0.94098    0.000
 3868.00    0.24851   0.93887    0.000
 3869.00   -0.17192   0.93707    0.000
 3870.00   -0.13234   0.93534    0.000
 3871.00    0.16721   0.93350    0.000
 3872.00    0.09341   0.93297    0.000
 3873.00   -0.16405   0.93476    0.000
 3874.00    0.03058   0.93631    0.000
 3875.00    0.41745   0.93418    0.000
 3876.00    0.52657   0.92929    0.000
 3877.00    0.53451   0.92565    0.000
 3878.00    0.18487   0.92431    0.000
 3879.00   -0.27499   0.92243    0.000
 3880.00    0.05303   0.91869    0.000
 3881.00    0.58332   0.91547    0.016
 3882.00    0.72104   0.91460    0.016
 3883.00    0.77669   0.91427    0.016
 3884.00   -0.03014   0.91122    0.000
 3885.00   -0.97920   0.90362    0.000
 3886.00   -0.94454   0.89136    0.000
 3887.00   -0.78806   0.87512    0.000
 3888.00   -0.42658   0.85477    0.000
 3889.00   -0.04757   0.82806    0.000
 3890.00    0.26316   0.79146    0.017
 3891.00    0.57048   0.74410    0.017
 3892.00    0.88128   0.69297    0.017
 3893.00    1.18635   0.65485    0.017
 3894.00    1.11802   0.64772    0.017
 3895.00    1.03985   0.67564    0.017
 3896.00    0.76031   0.72485    0.017
 3897.00    0.51853   0.77641    0.016
 3898.00    0.72319   0.81908    0.016
 3899.00    0.89665   0.85051    0.016
 3900.00    0.81593   0.87250    0.015
 3901.00    0.72171   0.88736    0.014
 3902.00    0.54493   0.89699    0.014
 3903.00    0.40908   0.90347    0.014
 3904.00    0.47024   0.90917    0.014
 3905.00    0.44828   0.91530    0.014
 3906.00    0.10086   0.92126    0.014
 3907.00   -0.13040   0.92600    0.000
 3908.00    0.01696   0.92928    0.014
 3909.00    0.27585   0.93146    0.015
 3910.00    0.84233   0.93287    0.015
 3911.00    1.21341   0.93392    0.015
 3912.00    1.12308   0.93496    0.015
 3913.00    1.05166   0.93577    0.016
 3914.00    1.01886   0.93540    0.016
 3915.00    0.97421   0.93333    0.016
 3916.00    0.90852   0.93074    0.016
 3917.00    0.88784   0.92984    0.016
 3918.00    0.93713   0.93130    0.016
 3919.00    1.01355   0.93341    0.016
 3920.00    1.12699   0.93373    0.016
 3921.00    1.28864   0.93042    0.016
 3922.00    1.50821   0.92259    0.016
 3923.00    1.26183   0.91150    0.016
 3924.00    0.52196   0.90114    0.016
 3925.00    0.15096   0.89548    0.016
 3926.00    0.12454   0.89464    0.016
 3927.00    0.37191   0.89523    0.016
 3928.00    0.84476   0.89464    0.016
 3929.00    0.80154   0.89331    0.016
 3930.00    0.38418   0.89310    0.016
 3931.00   -0.08054   0.89543    0.000
 3932.00   -0.57540   0.90073    0.000
 3933.00    0.16836   0.90779    0.016
 3934.00    1.60144   0.91407    0.017
 3935.00    1.57923   0.91716    0.016
 3936.00    0.85254   0.91597    0.016
 3937.00    0.79044   0.91134    0.016
 3938.00    1.00621   0.90629    0.017
 3939.00    1.09074   0.90453    0.017
 3940.00    1.12834   0.90751    0.016
 3941.00    0.83807   0.91331    0.016
 3942.00    0.44871   0.91881    0.016
 3943.00    0.66041   0.92241    0.016
 3944.00    1.02307   0.92430    0.016
 3945.00    0.79579   0.92499    0.016
 3946.00    0.44821   0.92441    0.016
 3947.00    0.84644   0.92224    0.016
 3948.00    1.36410   0.91865    0.016
 3949.00    0.74286   0.91491    0.016
 3950.00   -0.01436   0.91267    0.000
 3951.00    0.75240   0.91234    0.016
 3952.00    1.64327   0.91307    0.016
 3953.00    1.26192   0.91411    0.016
 3954.00    0.82210   0.91514    0.016
 3955.00    0.35685   0.91546    0.016
 3956.00   -0.08600   0.91403    0.000
 3957.00    0.65785   0.91044    0.016
 3958.00    1.36579   0.90555    0.016
 3959.00    1.39349   0.90130    0.016
 3960.00    1.36669   0.89916    0.000
 3961.00    0.72584   0.89875    0.000
 3962.00    0.22206   0.89804    0.000
 3963.00    0.79570   0.89472    0.000
 3964.00    1.17500   0.88717    0.000
 3965.00    0.40121   0.87540    0.000
 3966.00   -0.20295   0.86125    0.000
 3967.00   -0.01059   0.84635    0.000
 3968.00    0.27659   0.83003    0.000
 3969.00    0.92716   0.81063    0.000
 3970.00    1.39767   0.78667    0.000
 3971.00    1.29269   0.75517    0.000
 3972.00    1.37515   0.71312    0.000
 3973.00    1.96524   0.66476    0.000
 3974.00    2.14585   0.62576    0.000
 3975.00    1.37567   0.61468    0.000
 3976.00    0.92576   0.63779    0.000
 3977.00    1.11914   0.68390    0.000
 3978.00    1.03656   0.73503    0.000
 3979.00    0.47131   0.77913    0.000
 3980.00    0.19286   0.81254    0.000
 3981.00    0.35350   0.83627    0.016
 3982.00    0.55754   0.85275    0.016
 3983.00    0.81997   0.86433    0.016
 3984.00    0.95863   0.87263    0.016
 3985.00    0.95072   0.87838    0.016
 3986.00    0.95267   0.88197    0.016
 3987.00    0.96494   0.88438    0.016
 3988.00    1.03939   0.88719    0.016
 3989.00    1.17111   0.89123    0.016
 3990.00    1.39173   0.89582    0.016
 3991.00    1.68455   0.89977    0.015
 3992.00    1.80010   0.90253    0.015
 3993.00    1.78900   0.90419    0.016
 3994.00    1.90900   0.90505    0.016
 3995.00    2.11119   0.90543    0.015
 3996.00    2.06940   0.90534    0.015
 3997.00    1.89390   0.90429    0.015
 3998.00    1.35035   0.90193    0.015
 3999.00    0.63148   0.89915    0.015
 4000.00    0.52939   0.89767    0.015
 4001.00    0.68082   0.89806    0.015
 4002.00    0.66801   0.89913    0.014
 4003.00    0.59753   0.89986    0.014
 4004.00    0.43914   0.90044    0.014
 4005.00    0.25471   0.90088    0.014
 4006.00    0.79382   0.90027    0.015
 4007.00    1.51067   0.89809    0.015
 4008.00    1.68088   0.89516    0.015
 4009.00    1.74241   0.89276    0.014
 4010.00    1.44427   0.89085    0.014
 4011.00    1.09025   0.88772    0.014
 4012.00    0.87199   0.88194    0.015
 4013.00    0.66934   0.87502    0.015
 4014.00    0.62968   0.87133    0.015
 4015.00    0.60262   0.87410    0.015
 4016.00    0.98205   0.88184    0.015
 4017.00    1.37860   0.89012    0.015
 4018.00    1.24775   0.89583    0.015
 4019.00    1.12560   0.89863    0.015
 4020.00    1.59559   0.89953    0.015
 4021.00    2.01228   0.89941    0.015
 4022.00    1.48929   0.89877    0.015
 4023.00    1.00000   0.89765    0.015
 4024.00    0.87341   0.89551    0.015
 4025.00    0.70538   0.89124    0.015
 4026.00    0.22272   0.88310    0.015
 4027.00   -0.12266   0.86858    0.000
 4028.00    0.32378   0.84541    0.015
 4029.00    0.69773   0.81534    0.015
 4030.00    0.73942   0.78834    0.015
 4031.00    0.79597   0.77888    0.015
 4032.00    0.90822   0.79345    0.015
 4033.00    1.05137   0.82311    0.015
 4034.00    1.29139   0.85205    0.015
 4035.00    1.40047   0.87104    0.015
 4036.00    1.16116   0.88032    0.015
 4037.00    0.88438   0.88376    0.014
 4038.00    0.52201   0.88472    0.014
 4039.00    0.45374   0.88542    0.014
 4040.00    0.96687   0.88718    0.014
 4041.00    1.28911   0.89010    0.015
 4042.00    1.28252   0.89292    0.015
 4043.00    1.30660   0.89410    0.015
 4044.00    1.37698   0.89317    0.014
 4045.00    1.43556   0.89087    0.014
 4046.00    1.47852   0.88834    0.015
 4047.00    1.43302   0.88646    0.015
 4048.00    1.28426   0.88557    0.015
 4049.00    1.11506   0.88564    0.014
 4050.00    0.92482   0.88659    0.014
 4051.00    0.64036   0.88803    0.014
 4052.00    0.27033   0.88940    0.014
 4053.00    0.14791   0.89046    0.014
 4054.00    0.22366   0.89133    0.014
 4055.00    0.73477   0.89184    0.014
 4056.00    1.55245   0.89140    0.014
 4057.00    1.73182   0.88961    0.014
 4058.00    1.51689   0.88683    0.014
 4059.00    1.21514   0.88411    0.014
 4060.00    0.86654   0.88256    0.014
 4061.00    0.92762   0.88252    0.014
 4062.00    1.18072   0.88316    0.014
 4063.00    1.43469   0.88296    0.014
 4064.00    1.68902   0.88118    0.014
 4065.00    1.72692   0.87876    0.014
 4066.00    1.69018   0.87739    0.014
 4067.00    1.64388   0.87778    0.014
 4068.00    1.59481   0.87921    0.014
 4069.00    1.42500   0.88011    0.014
 4070.00    1.22620   0.87835    0.014
 4071.00    0.76218   0.87144    0.014
 4072.00    0.24677   0.85866    0.014
 4073.00    0.76718   0.84329    0.014
 4074.00    1.44367   0.83182    0.014
 4075.00    1.38022   0.82934    0.014
 4076.00    1.23493   0.83541    0.014
 4077.00    0.72543   0.84461    0.014
 4078.00    0.18927   0.85109    0.014
 4079.00    0.51679   0.85270    0.014
 4080.00    0.87738   0.85162    0.014
 4081.00    0.83999   0.85202    0.014
 4082.00    0.81046   0.85576    0.013
 4083.00    1.16024   0.86067    0.014
 4084.00    1.46512   0.86401    0.014
 4085.00    1.02999   0.86537    0.014
 4086.00    0.67837   0.86534    0.014
 4087.00    1.18608   0.86416    0.014
 4088.00    1.65828   0.86197    0.014
 4089.00    1.86978   0.85900    0.014
 4090.00    1.90705   0.85524    0.014
 4091.00    0.96697   0.84956    0.014
 4092.00    0.29970   0.84086    0.000
 4093.00    0.85325   0.83137    0.000
 4094.00    1.24368   0.82652    0.000
 4095.00    1.03502   0.82867    0.000
 4096.00    0.82039   0.83303    0.000
 4097.00    0.58738   0.83293    0.000
 4098.00    0.44677   0.82605    0.000
 4099.00    0.54763   0.81266    0.000
 4100.00    0.67463   0.79250    0.000
 4101.00    0.86032   0.76594    0.000
 4102.00    1.10080   0.73489    0.000
 4103.00    1.44792   0.70027    0.000
 4104.00    1.48785   0.66081    0.000
 4105.00    1.00657   0.61891    0.000
 4106.00    0.71483   0.58702    0.000
 4107.00    0.70486   0.58153    0.000
 4108.00    0.83169   0.60786    0.000
 4109.00    1.13729   0.65489    0.000
 4110.00    1.18218   0.70525    0.000
 4111.00    0.92700   0.74741    0.000
 4112.00    0.68664   0.77803    0.000
 4113.00    0.46133   0.79859    0.013
 4114.00    0.46197   0.81204    0.013
 4115.00    0.66489   0.82115    0.013
 4116.00    0.75891   0.82803    0.013
 4117.00    0.76700   0.83348    0.013
 4118.00    0.99579   0.83655    0.013
 4119.00    1.37773   0.83609    0.013
 4120.00    1.24428   0.83313    0.012
 4121.00    0.79721   0.83105    0.012
 4122.00    0.64630   0.83131    0.019
 4123.00    0.65272   0.83065    0.077
 4124.00    0.65421   0.82624   -1.000
 4125.00    0.65343   0.82127   -1.000
 4126.00    0.71159   0.82209   -1.000
 4127.00    0.79314   0.83112   -1.000
 4128.00    0.79996   0.84410   -1.000
 4129.00    0.78147   0.85477   -1.000
 4130.00    0.76542   0.86007    0.032
 4131.00    0.75007   0.86032    0.014
 4132.00    0.93909   0.85751    0.013
 4133.00    1.17610   0.85403    0.013
 4134.00    0.92550   0.85144    0.013
 4135.00    0.58286   0.84975    0.013
 4136.00    1.00862   0.84896    0.013
 4137.00    1.54658   0.84979    0.013
 4138.00    1.40004   0.85254    0.013
 4139.00    1.18075   0.85632    0.013
 4140.00    0.57193   0.85951    0.013
 4141.00   -0.06384   0.86089    0.000
 4142.00    0.21493   0.86046    0.013
 4143.00    0.52525   0.85893    0.013
 4144.00    0.69616   0.85642    0.013
 4145.00    0.86330   0.85186    0.013
 4146.00    0.91489   0.84371    0.013
 4147.00    0.96347   0.83217    0.014
 4148.00    0.96572   0.82159    0.013
 4149.00    0.94506   0.81857    0.013
 4150.00    0.69871   0.82525    0.013
 4151.00    0.52964   0.83667    0.013
 4152.00    0.90919   0.84652    0.013
 4153.00    1.20477   0.85189    0.013
 4154.00    1.04196   0.85310    0.013
 4155.00    0.98969   0.85202    0.013
 4156.00    1.42054   0.85029    0.013
 4157.00    1.69110   0.84847    0.013
 4158.00    1.38510   0.84749    0.013
 4159.00    1.06562   0.84828    0.013
 4160.00    0.70540   0.85009    0.012
 4161.00    0.46865   0.85189    0.012
 4162.00    0.54895   0.85401    0.012
 4163.00    0.60266   0.85643    0.012
 4164.00    0.59762   0.85804    0.012
 4165.00    0.39130   0.85781    0.013
 4166.00   -0.20060   0.85571    0.000
 4167.00   -0.34387   0.85263    0.000
 4168.00    0.26267   0.85019    0.012
 4169.00    0.71072   0.84940    0.013
 4170.00    0.92664   0.84975    0.012
 4171.00    1.07839   0.84982    0.012
 4172.00    1.14749   0.84850    0.012
 4173.00    1.07953   0.84616    0.012
 4174.00    0.85602   0.84461    0.012
 4175.00    0.70624   0.84487    0.012
 4176.00    0.63026   0.84591    0.012
 4177.00    0.77253   0.84661    0.012
 4178.00    1.10746   0.84691    0.012
 4179.00    1.13286   0.84705    0.012
 4180.00    0.91752   0.84721    0.012
 4181.00    0.67395   0.84757    0.012
 4182.00    0.41107   0.84829    0.012
 4183.00    0.55245   0.84930    0.012
 4184.00    0.93615   0.85036    0.012
 4185.00    1.28639   0.85129    0.012
 4186.00    1.61914   0.85173    0.012
 4187.00    1.57427   0.85123    0.012
 4188.00    1.35812   0.84937    0.012
 4189.00    0.94416   0.84607    0.012
 4190.00    0.45302   0.84207    0.012
 4191.00    0.32175   0.83886    0.012
 4192.00    0.31002   0.83744    0.012
 4193.00    0.33766   0.83736    0.012
 4194.00    0.37628   0.83775    0.012
 4195.00    0.40751   0.83903    0.012
 4196.00    0.43705   0.84157    0.012
 4197.00    0.81886   0.84411    0.012
 4198.00    1.26541   0.84500    0.012
 4199.00    1.21706   0.84338    0.012
 4200.00    1.09873   0.83918    0.012
 4201.00    1.11641   0.83249    0.012
 4202.00    1.14795   0.82300    0.012
 4203.00    0.55708   0.81125    0.012
 4204.00   -0.07435   0.80078    0.000
 4205.00    0.07166   0.79702    0.012
 4206.00    0.24133   0.80228    0.012
 4207.00    0.27320   0.81327    0.012
 4208.00    0.30791   0.82470    0.012
 4209.00    0.42634   0.83331    0.012
 4210.00    0.55940   0.83873    0.012
 4211.00    0.90536   0.84198    0.012
 4212.00    1.21839   0.84395    0.012
 4213.00    1.22004   0.84490    0.012
 4214.00    1.19098   0.84467    0.012
 4215.00    0.95083   0.84308    0.012
 4216.00    0.76247   0.84053    0.012
 4217.00    0.84932   0.83836    0.012
 4218.00    0.89878   0.83781    0.012
 4219.00    0.78858   0.83863    0.012
 4220.00    0.75039   0.83969    0.012
 4221.00    0.96593   0.84048    0.012
 4222.00    0.98273   0.84108    0.012
 4223.00    0.41094   0.84152    0.012
 4224.00    0.05394   0.84151    0.012
 4225.00    0.23898   0.84069    0.012
 4226.00    0.53552   0.83905    0.012
 4227.00    1.07432   0.83717    0.012
 4228.00    1.28645   0.83562    0.012
 4229.00    0.88253   0.83433    0.011
 4230.00    0.68712   0.83295    0.011
 4231.00    0.83497   0.83152    0.011
 4232.00    0.80087   0.83068    0.011
 4233.00    0.50410   0.83106    0.011
 4234.00    0.37056   0.83240    0.011
 4235.00    0.44426   0.83383    0.011
 4236.00    0.52375   0.83466    0.011
 4237.00    0.60973   0.83478    0.011
 4238.00    0.71268   0.83446    0.011
 4239.00    0.83239   0.83393    0.011
 4240.00    0.85004   0.83301    0.011
 4241.00    0.77888   0.83181    0.011
 4242.00    0.73589   0.83109    0.011
 4243.00    0.71451   0.83124    0.011
 4244.00    0.63623   0.83163    0.011
 4245.00    0.51960   0.83139    0.011
 4246.00    0.74773   0.83081    0.011
 4247.00    1.17942   0.83111    0.012
 4248.00    1.13538   0.83267    0.012
 4249.00    0.84641   0.83435    0.012
 4250.00    0.52023   0.83487    0.012
 4251.00    0.17745   0.83419    0.012
 4252.00    0.41203   0.83329    0.012
 4253.00    0.86798   0.83277    0.011
 4254.00    0.71992   0.83235    0.011
 4255.00    0.37503   0.83142    0.011
 4256.00    0.40457   0.82950    0.011
 4257.00    0.53632   0.82642    0.011
 4258.00    0.63934   0.82328    0.011
 4259.00    0.73593   0.82203    0.011
 4260.00    0.63391   0.82322    0.011
 4261.00    0.49637   0.82555    0.011
 4262.00    0.40666   0.82745    0.011
 4263.00    0.32351   0.82837    0.011
 4264.00    0.48285   0.82864    0.011
 4265.00    0.66587   0.82882    0.011
 4266.00    0.55574   0.82921    0.011
 4267.00    0.42768   0.82969    0.011
 4268.00    0.54457   0.82941    0.011
 4269.00    0.66783   0.82666    0.011
 4270.00    0.74432   0.81976    0.011
 4271.00    0.81555   0.81015    0.011
 4272.00    0.74798   0.80344    0.011
 4273.00    0.67210   0.80396    0.011
 4274.00    0.48200   0.81021    0.011
 4275.00    0.33837   0.81729    0.011
 4276.00    0.61688   0.82149    0.011
 4277.00    0.85847   0.82213    0.011
 4278.00    0.85408   0.82022    0.011
 4279.00    0.82613   0.81664    0.011
 4280.00    0.67620   0.81252    0.011
 4281.00    0.57514   0.80994    0.011
 4282.00    0.67812   0.81073   -2.000
 4283.00    0.77097   0.81465   -2.000
 4284.00    0.82882   0.81924   -2.000
 4285.00    0.89423   0.82175   -2.000
 4286.00    0.98163   0.82106   -2.000
 4287.00    1.01700   0.81810   -2.000
 4288.00    0.92331   0.81490   -2.000
 4289.00    0.88908   0.81318   -2.000
 4290.00    0.98196   0.81360   -2.000
 4291.00    1.01116   0.81537   -2.000
 4292.00    0.92210   0.81669   -2.000
 4293.00    0.90952   0.81650   -2.000
 4294.00    1.02101   0.81530   -2.000
 4295.00    0.95156   0.81454   -2.000
 4296.00    0.62471   0.81518   -2.000
 4297.00    0.60711   0.81665   -2.000
 4298.00    0.97653   0.81746    0.012
 4299.00    1.08250   0.81725    0.011
 4300.00    0.89785   0.81700    0.011
 4301.00    0.90064   0.81756    0.011
 4302.00    1.08581   0.81869    0.011
 4303.00    1.11062   0.81940    0.012
 4304.00    0.99785   0.81910    0.012
 4305.00    0.83647   0.81787    0.012
 4306.00    0.63836   0.81572    0.011
 4307.00    0.78563   0.81261    0.011
 4308.00    1.16227   0.80951    0.011
 4309.00    1.20333   0.80787    0.011
 4310.00    1.04924   0.80806    0.011
 4311.00    0.86243   0.80901    0.011
 4312.00    0.65904   0.80954    0.011
 4313.00    0.71213   0.80956    0.011
 4314.00    0.87775   0.80995    0.011
 4315.00    0.76764   0.81106    0.011
 4316.00    0.55366   0.81198    0.011
 4317.00    0.51743   0.81151    0.011
 4318.00    0.53804   0.80958    0.011
 4319.00    0.35020   0.80723    0.011
 4320.00    0.10665   0.80530    0.011
 4321.00    0.18151   0.80392    0.011
 4322.00    0.32605   0.80285    0.011
 4323.00    0.65058   0.80201    0.011
 4324.00    1.00642   0.80195    0.011
 4325.00    0.58025   0.80319    0.011
 4326.00    0.05064   0.80529    0.011
 4327.00    0.43493   0.80694    0.011
 4328.00    0.90462   0.80650    0.011
 4329.00    0.84740   0.80320    0.011
 4330.00    0.76003   0.79828    0.000
 4331.00    0.85882   0.79390    0.000
 4332.00    0.95881   0.79132    0.000
 4333.00    0.69951   0.79023    0.000
 4334.00    0.44643   0.78906    0.000
 4335.00    0.34290   0.78615    0.000
 4336.00    0.26480   0.78078    0.000
 4337.00    0.51774   0.77312    0.000
 4338.00    0.72670   0.76343    0.000
 4339.00    0.55130   0.75090    0.000
 4340.00    0.42271   0.73303    0.000
 4341.00    0.59650   0.70668    0.000
 4342.00    0.72969   0.67028    0.000
 4343.00    0.65811   0.62605    0.000
 4344.00    0.67044   0.58243    0.000
 4345.00    1.02527   0.55366    0.000
 4346.00    1.27399   0.55176    0.000
 4347.00    1.16371   0.57732    0.000
 4348.00    1.00965   0.61892    0.000
 4349.00    0.73069   0.66140    0.000
 4350.00    0.51135   0.69536    0.000
 4351.00    0.43738   0.71972    0.011
 4352.00    0.43514   0.73704    0.011
 4353.00    0.58374   0.74950    0.011
 4354.00    0.74378   0.75833    0.011
 4355.00    0.92471   0.76459    0.011
 4356.00    1.02823   0.76977    0.011
 4357.00    1.00806   0.77524    0.011
 4358.00    1.04312   0.78151    0.013
 4359.00    1.15561   0.78820    0.038
 4360.00    1.15538   0.79428   -1.000
 4361.00    1.01609   0.79888   -1.000
 4362.00    0.99850   0.80175   -1.000
 4363.00    1.11327   0.80311   -1.000
 4364.00    0.97426   0.80351   -1.000
 4365.00    0.59182   0.80358   -1.000
 4366.00    0.54182   0.80398    0.038
 4367.00    0.77301   0.80496    0.013
 4368.00    0.85825   0.80601    0.011
 4369.00    0.83475   0.80626    0.010
 4370.00    0.70097   0.80499    0.010
 4371.00    0.49502   0.80265    0.010
 4372.00    0.47412   0.80064    0.010
 4373.00    0.55922   0.79998    0.011
 4374.00    0.56611   0.80056    0.011
 4375.00    0.53400   0.80116    0.011
 4376.00    0.54383   0.80082    0.011
 4377.00    0.57176   0.79978    0.011
 4378.00    0.59516   0.79893    0.011
 4379.00    0.61689   0.79892    0.010
 4380.00    0.82612   0.79977    0.010
 4381.00    1.09416   0.80091    0.011
 4382.00    0.84944   0.80161    0.011
 4383.00    0.47059   0.80154    0.010
 4384.00    0.43067   0.80112    0.010
 4385.00    0.46314   0.80085    0.010
 4386.00    0.56743   0.80049    0.010
 4387.00    0.68387   0.79914    0.010
 4388.00    0.75981   0.79626    0.010
 4389.00    0.83057   0.79208    0.010
 4390.00    0.69921   0.78640    0.010
 4391.00    0.54982   0.77853    0.010
 4392.00    0.66854   0.77004    0.010
 4393.00    0.80155   0.76528    0.010
 4394.00    0.84679   0.76797    0.010
 4395.00    0.88849   0.77759    0.010
 4396.00    0.78224   0.78928    0.010
 4397.00    0.69308   0.79805    0.010
 4398.00    0.97986   0.80218    0.010
 4399.00    1.22972   0.80255    0.011
 4400.00    1.02350   0.80146    0.011
 4401.00    0.79772   0.80124    0.011
 4402.00    0.40737   0.80265    0.011
 4403.00    0.06145   0.80466    0.011
 4404.00   -0.00598   0.80580    0.000
 4405.00   -0.01607   0.80573    0.000
 4406.00    0.25596   0.80508    0.010
 4407.00    0.55193   0.80409    0.011
 4408.00    0.94348   0.80244    0.011
 4409.00    1.12266   0.80014    0.011
 4410.00    0.59755   0.79808    0.010
 4411.00    0.28177   0.79728    0.010
 4412.00    0.55251   0.79789    0.010
 4413.00    0.77049   0.79923    0.010
 4414.00    0.86206   0.80034    0.010
 4415.00    0.94750   0.80064    0.010
 4416.00    1.02025   0.80010    0.010
 4417.00    1.02395   0.79854    0.011
 4418.00    0.90334   0.79560    0.011
 4419.00    0.74616   0.79127    0.010
 4420.00    0.53140   0.78673    0.010
 4421.00    0.39123   0.78434    0.010
 4422.00    0.35412   0.78551    0.010
 4423.00    0.48408   0.78933    0.010
 4424.00    0.81725   0.79395    0.010
 4425.00    0.91713   0.79777    0.010
 4426.00    0.76684   0.80013    0.010
 4427.00    0.63104   0.80131    0.010
 4428.00    0.50893   0.80169    0.010
 4429.00    0.48347   0.80147    0.010
 4430.00    0.53863   0.80071    0.010
 4431.00    0.65803   0.79947    0.010
 4432.00    0.82461   0.79816    0.010
 4433.00    0.76020   0.79720    0.010
 4434.00    0.54688   0.79650    0.010
 4435.00    0.67692   0.79568    0.011
 4436.00    1.00064   0.79454    0.011
 4437.00    1.02996   0.79339    0.011
 4438.00    0.91476   0.79243    0.011
 4439.00    0.98784   0.79140    0.011
 4440.00    1.14082   0.79011    0.011
 4441.00    0.96908   0.78886    0.011
 4442.00    0.67932   0.78841    0.011
 4443.00    0.65315   0.78926    0.011
 4444.00    0.70802   0.79083    0.011
 4445.00    0.94778   0.79157    0.011
 4446.00    1.23486   0.79067    0.011
 4447.00    1.06223   0.78937    0.011
 4448.00    0.79379   0.78944    0.010
 4449.00    0.60419   0.79111    0.011
 4450.00    0.42755   0.79289    0.011
 4451.00    0.25351   0.79339    0.010
 4452.00    0.07979   0.79269    0.010
 4453.00    0.08088   0.79217    0.010
 4454.00    0.09684   0.79278    0.010
 4455.00    0.31469   0.79388    0.010
 4456.00    0.54251   0.79432    0.010
 4457.00    0.47907   0.79387    0.010
 4458.00    0.41576   0.79307    0.010
 4459.00    0.65172   0.79261    0.010
 4460.00    0.87455   0.79258    0.010
 4461.00    0.83137   0.79270    0.000
 4462.00    0.79437   0.79296    0.000
 4463.00    0.83007   0.79313    0.000
 4464.00    0.83459   0.79286    0.000
 4465.00    0.58626   0.79209    0.000
 4466.00    0.40803   0.79117    0.000
 4467.00    0.65648   0.79048    0.000
 4468.00    0.83036   0.79002    0.000
 4469.00    0.64656   0.78935    0.000
 4470.00    0.53716   0.78769    0.000
 4471.00    0.71831   0.78444    0.000
 4472.00    0.88862   0.77913    0.000
 4473.00    1.02368   0.77020    0.000
 4474.00    1.10839   0.75551    0.000
 4475.00    1.05452   0.73621    0.000
 4476.00    0.99068   0.71916    0.000
 4477.00    0.90335   0.71393    0.000
 4478.00    0.86409   0.72574    0.000
 4479.00    0.92275   0.74815    0.000
 4480.00    0.84970   0.76895    0.000
 4481.00    0.54319   0.78222    0.000
 4482.00    0.40872   0.78822    0.010
 4483.00    0.54108   0.78825    0.010
 4484.00    0.61214   0.78367    0.010
 4485.00    0.59972   0.77698    0.010
 4486.00    0.68484   0.77212    0.010
 4487.00    0.88693   0.77268    0.010
 4488.00    0.83816   0.77881    0.010
 4489.00    0.52420   0.78671    0.010
 4490.00    0.41100   0.79244    0.010
 4491.00    0.48501   0.79482    0.010
 4492.00    0.67072   0.79432    0.010
 4493.00    0.94825   0.79217    0.010
 4494.00    0.97636   0.79004    0.010
 4495.00    0.82398   0.78924    0.010
 4496.00    0.74449   0.78996    0.010
 4497.00    0.71130   0.79125    0.010
 4498.00    0.79638   0.79191    0.010
 4499.00    0.94715   0.79155    0.010
 4500.00    0.80800   0.79056    0.010
 4501.00    0.52879   0.78978    0.010
 4502.00    0.43141   0.78977    0.010
 4503.00    0.40990   0.79038    0.010
 4504.00    0.45371   0.79108    0.010
 4505.00    0.52084   0.79139    0.010
 4506.00    0.67188   0.79152    0.010
 4507.00    0.84822   0.79216    0.010
 4508.00    0.90755   0.79353    0.010
 4509.00    0.93756   0.79491    0.010
 4510.00    0.95812   0.79526    0.010
 4511.00    0.97677   0.79428    0.010
 4512.00    0.73219   0.79262    0.010
 4513.00    0.44563   0.79085    0.010
 4514.00    0.59536   0.78894    0.010
 4515.00    0.79694   0.78653    0.010
 4516.00    0.74251   0.78352    0.010
 4517.00    0.66736   0.78049    0.010
 4518.00    0.63585   0.77801    0.010
 4519.00    0.60632   0.77638    0.010
 4520.00    0.68427   0.77584    0.010
 4521.00    0.76080   0.77686    0.010
 4522.00    0.69724   0.77929    0.010
 4523.00    0.63477   0.78216    0.010
 4524.00    0.59275   0.78489    0.010
 4525.00    0.55779   0.78710    0.010
 4526.00    0.60199   0.78803    0.010
 4527.00    0.62206   0.78719    0.010
 4528.00    0.45338   0.78502    0.010
 4529.00    0.29137   0.78273    0.010
 4530.00    0.16883   0.78120    0.010
 4531.00    0.14104   0.78003    0.010
 4532.00    0.55679   0.77821    0.010
 4533.00    0.85159   0.77552    0.010
 4534.00    0.68412   0.77297    0.010
 4535.00    0.53524   0.77218    0.010
 4536.00    0.44562   0.77353    0.010
 4537.00    0.42958   0.77559    0.010
 4538.00    0.61235   0.77652    0.010
 4539.00    0.70664   0.77582    0.010
 4540.00    0.59593   0.77465    0.010
 4541.00    0.49638   0.77413    0.010
 4542.00    0.41918   0.77351    0.010
 4543.00    0.35295   0.77024    0.010
 4544.00    0.30586   0.76220    0.010
 4545.00    0.44724   0.75030    0.010
 4546.00    0.87662   0.73901    0.010
 4547.00    0.97730   0.73405    0.010
 4548.00    0.63672   0.73819    0.010
 4549.00    0.40273   0.74862    0.010
 4550.00    0.29473   0.76000    0.000
 4551.00    0.42933   0.76891    0.000
 4552.00    0.81681   0.77444    0.000
 4553.00    0.98599   0.77709    0.000
 4554.00    0.95446   0.77765    0.000
 4555.00    0.79903   0.77668    0.000
 4556.00    0.54321   0.77449    0.000
 4557.00    0.51753   0.77144    0.000
 4558.00    0.65600   0.76901    0.000
 4559.00    0.58989   0.76908    0.000
 4560.00    0.39574   0.77179    0.000
 4561.00    0.25363   0.77583    0.000
 4562.00    0.13998   0.77979    0.000
 4563.00    0.44114   0.78280    0.000
 4564.00    0.93951   0.78461    0.000
 4565.00    1.05173   0.78544    0.000
 4566.00    1.00557   0.78546    0.000
 4567.00    0.89183   0.78482    0.000
 4568.00    0.75442   0.78371    0.000
 4569.00    0.61108   0.78244    0.000
 4570.00    0.46599   0.78121    0.000
 4571.00    0.45190   0.77982    0.000
 4572.00    0.46989   0.77801    0.000
 4573.00    0.30382   0.77617    0.000
 4574.00    0.10127   0.77528    0.000
 4575.00    0.23453   0.77580    0.000
 4576.00    0.41978   0.77719    0.000
 4577.00    0.56834   0.77855    0.000
 4578.00    0.71270   0.77933    0.000
 4579.00    0.76848   0.77941    0.000
 4580.00    0.81745   0.77927    0.000
 4581.00    0.89869   0.77965    0.000
 4582.00    0.98128   0.78038    0.000
 4583.00    0.94331   0.78068    0.000
 4584.00    0.90234   0.78020    0.000
 4585.00    0.77731   0.77945    0.000
 4586.00    0.66232   0.77913    0.000
 4587.00    0.72302   0.77931    0.000
 4588.00    0.78573   0.77937    0.000
 4589.00    0.86995   0.77890    0.000
 4590.00    0.93731   0.77800    0.000
 4591.00    0.87718   0.77707    0.000
 4592.00    0.80491   0.77634    0.000
 4593.00    0.66288   0.77563    0.000
 4594.00    0.58337   0.77441    0.000
 4595.00    0.78955   0.77231    0.000
 4596.00    0.94980   0.77005    0.000
 4597.00    0.93823   0.76898    0.000
 4598.00    0.92887   0.76926    0.000
 4599.00    0.92644   0.76972    0.000
 4600.00    0.91738   0.76943    0.000
 4601.00    0.89072   0.76886    0.000
 4602.00    0.78157   0.76922    0.000
 4603.00    0.48441   0.77073    0.000
 4604.00    0.29002   0.77207    0.000
 4605.00    0.29838   0.77199    0.000
 4606.00    0.43816   0.77048    0.000
 4607.00    0.80394   0.76903    0.000
 4608.00    1.04298   0.76901    0.000
 4609.00    1.09120   0.77016    0.000
 4610.00    1.04681   0.77129    0.000
 4611.00    0.87988   0.77157    0.000
 4612.00    0.84243   0.77115    0.000
 4613.00    0.95589   0.77060    0.000
 4614.00    0.92762   0.77014    0.000
 4615.00    0.75369   0.76986    0.000
 4616.00    0.72073   0.77021    0.000
 4617.00    0.81555   0.77129    0.000
 4618.00    0.64618   0.77263    0.000
 4619.00    0.26574   0.77407    0.000
 4620.00    0.16185   0.77549    0.000
 4621.00    0.25233   0.77627    0.000
 4622.00    0.45582   0.77569    0.000
 4623.00    0.72898   0.77347    0.000
 4624.00    0.67687   0.77064    0.000
 4625.00    0.44958   0.76904    0.000
 4626.00    0.37442   0.76955    0.000
 4627.00    0.37041   0.77156    0.000
 4628.00    0.28084   0.77393    0.000
 4629.00    0.15678   0.77550    0.000
 4630.00    0.36824   0.77577    0.000
 4631.00    0.69511   0.77486    0.000
 4632.00    0.79755   0.77308    0.000
 4633.00    0.83498   0.77043    0.000
 4634.00    0.74696   0.76679    0.000
 4635.00    0.62888   0.76265    0.000
 4636.00    0.57470   0.75951    0.000
 4637.00    0.53285   0.75881    0.000
 4638.00    0.59193   0.76030    0.000
 4639.00    0.66616   0.76263    0.000
 4640.00    0.52426   0.76453    0.000
 4641.00    0.35858   0.76518    0.000
 4642.00    0.61531   0.76401    0.000
 4643.00    0.90276   0.76097    0.000
 4644.00    0.79673   0.75696    0.000
 4645.00    0.67583   0.75337    0.000
 4646.00    0.55454   0.75116    0.000
 4647.00    0.43991   0.75097    0.000
 4648.00    0.57225   0.75260    0.000
 4649.00    0.71482   0.75417    0.000
 4650.00    1.02460   0.75292    0.000
 4651.00    1.27751   0.74708    0.000
 4652.00    0.94839   0.73803    0.000
 4653.00    0.64559   0.72942    0.000
 4654.00    0.53519   0.72371    0.000
 4655.00    0.46860   0.72169    0.000
 4656.00    0.64693   0.72401    0.000
 4657.00    0.77151   0.73028    0.000
 4658.00    0.65624   0.73823    0.000
 4659.00    0.57804   0.74518    0.000
 4660.00    0.63562   0.75060    0.000
 4661.00    0.70988   0.75529    0.000
 4662.00    0.83534   0.75979    0.000
 4663.00    0.95466   0.76377    0.000
 4664.00    1.05800   0.76633    0.000
 4665.00    1.04658   0.76682    0.000
 4666.00    0.77796   0.76526    0.000
 4667.00    0.67166   0.76260    0.000
 4668.00    0.88063   0.76000    0.000
 4669.00    0.94749   0.75781    0.000
 4670.00    0.77370   0.75584    0.000
 4671.00    0.62569   0.75409    0.000
 4672.00    0.51594   0.75298    0.000
 4673.00    0.46981   0.75309    0.000
 4674.00    0.50667   0.75470    0.000
 4675.00    0.60708   0.75732    0.000
 4676.00    0.78050   0.75951    0.000
 4677.00    0.78768   0.75972    0.000
 4678.00    0.62639   0.75762    0.000
 4679.00    0.56435   0.75470    0.000
 4680.00    0.59099   0.75260    0.000
 4681.00    0.63528   0.75218    0.000
 4682.00    0.69347   0.75321    0.000
 4683.00    0.65184   0.75487    0.000
 4684.00    0.54106   0.75608    0.000
 4685.00    0.54840   0.75604    0.000
 4686.00    0.62747   0.75395    0.000
 4687.00    0.54202   0.74880    0.000
 4688.00    0.36935   0.73938    0.000
 4689.00    0.46696   0.72521    0.000
 4690.00    0.68895   0.70939    0.000
 4691.00    0.68235   0.69959    0.000
 4692.00    0.58519   0.70174    0.000
 4693.00    0.54261   0.71432    0.000
 4694.00    0.51847   0.73044    0.000
 4695.00    0.65129   0.74354    0.000
 4696.00    0.82866   0.75125    0.000
 4697.00    0.55095   0.75525    0.000
 4698.00    0.16669   0.75752    0.000
 4699.00    0.42322   0.75910    0.000
 4700.00    0.80030   0.76008    0.000
 4701.00    0.79857   0.76002    0.000
 4702.00    0.74175   0.75861    0.000
 4703.00    0.61445   0.75580    0.000
 4704.00    0.47969   0.75278    0.000
 4705.00    0.54061   0.75103    0.000
 4706.00    0.61495   0.75102    0.000
 4707.00    0.91276   0.75182    0.000
 4708.00    1.21816   0.75236    0.000
 4709.00    0.90477   0.75205    0.000
 4710.00    0.59431   0.75143    0.000
 4711.00    0.41016   0.75128    0.000
 4712.00    0.24898   0.75190    0.000
 4713.00    0.44025   0.75271    0.000
 4714.00    0.61248   0.75293    0.000
 4715.00    0.59799   0.75169    0.000
 4716.00    0.58804   0.74832    0.000
 4717.00    0.61032   0.74230    0.000
 4718.00    0.62251   0.73595    0.000
 4719.00    0.57986   0.73300    0.000
 4720.00    0.54955   0.73540    0.000
 4721.00    0.57298   0.74134    0.000
 4722.00    0.59386   0.74808    0.000
 4723.00    0.60557   0.75335    0.000
 4724.00    0.64644   0.75715    0.000
 4725.00    0.77509   0.75958    0.000
 4726.00    0.86780   0.76071    0.000
 4727.00    0.86841   0.76084    0.000
 4728.00    0.94070   0.76059    0.000
 4729.00    1.17099   0.76041    0.000
 4730.00    1.27523   0.76020    0.000
 4731.00    1.13850   0.75941    0.000
 4732.00    1.00790   0.75768    0.000
 4733.00    0.88753   0.75546    0.000
 4734.00    0.76940   0.75362    0.000
 4735.00    0.65452   0.75278    0.000
 4736.00    0.63826   0.75298    0.000
 4737.00    0.74880   0.75378    0.000
 4738.00    0.70009   0.75477    0.000
 4739.00    0.47101   0.75564    0.000
 4740.00    0.40136   0.75623    0.000
 4741.00    0.49100   0.75647    0.000
 4742.00    0.49403   0.75643    0.000
 4743.00    0.42073   0.75625    0.000
 4744.00    0.44405   0.75588    0.000
 4745.00    0.54238   0.75527    0.000
 4746.00    0.56062   0.75446    0.000
 4747.00    0.52419   0.75385    0.000
 4748.00    0.56241   0.75387    0.000
 4749.00    0.64528   0.75449    0.000
 4750.00    0.70697   0.75537    0.000
 4751.00    0.75758   0.75618    0.000
 4752.00    0.79721   0.75675    0.000
 4753.00    0.83185   0.75707    0.000
 4754.00    0.81004   0.75707    0.000
 4755.00    0.76624   0.75669    0.000
 4756.00    0.73552   0.75606    0.000
 4757.00    0.70913   0.75538    0.000
 4758.00    0.83493   0.75494    0.000
 4759.00    1.00303   0.75483    0.000
 4760.00    0.89273   0.75492    0.000
 4761.00    0.71876   0.75484    0.009
 4762.00    0.67250   0.75431    0.009
 4763.00    0.64963   0.75328    0.009
 4764.00    0.55078   0.75195    0.009
 4765.00    0.44124   0.75043    0.009
 4766.00    0.59650   0.74874    0.009
 4767.00    0.77863   0.74684    0.009
 4768.00    0.71727   0.74487    0.009
 4769.00    0.64016   0.74310    0.009
 4770.00    0.57156   0.74177    0.009
 4771.00    0.50365   0.74100    0.009
 4772.00    0.65416   0.74088    0.009
 4773.00    0.79953   0.74130    0.009
 4774.00    0.79609   0.74196    0.009
 4775.00    0.78917   0.74245    0.009
 4776.00    0.73185   0.74256    0.009
 4777.00    0.67353   0.74242    0.009
 4778.00    0.60589   0.74239    0.009
 4779.00    0.54356   0.74272    0.009
 4780.00    0.51762   0.74336    0.009
 4781.00    0.49787   0.74392    0.009
 4782.00    0.51091   0.74403    0.008
 4783.00    0.55566   0.74345    0.008
 4784.00    0.73546   0.74233    0.008
 4785.00    0.86260   0.74103    0.008
 4786.00    0.80473   0.73994    0.008
 4787.00    0.78472   0.73921    0.008
 4788.00    0.87656   0.73873    0.008
 4789.00    1.01134   0.73839    0.009
 4790.00    1.25422   0.73806    0.009
 4791.00    1.30160   0.73777    0.009
 4792.00    0.92507   0.73757    0.009
 4793.00    0.73359   0.73761    0.009
 4794.00    0.89039   0.73799    0.009
 4795.00    0.95690   0.73866    0.009
 4796.00    0.87503   0.73949    0.009
 4797.00    0.89233   0.74048    0.009
 4798.00    1.05252   0.74166    0.009
 4799.00    1.06104   0.74299    0.009
 4800.00    0.87732   0.74417    0.009
 4801.00    0.82560   0.74478    0.009
 4802.00    0.92131   0.74457    0.009
 4803.00    0.93999   0.74368    0.009
 4804.00    0.88281   0.74252    0.009
 4805.00    0.80728   0.74156    0.009
 4806.00    0.71581   0.74098    0.009
 4807.00    0.68193   0.74055    0.009
 4808.00    0.69213   0.73999    0.009
 4809.00    0.67580   0.73912    0.009
 4810.00    0.64163   0.73805    0.009
 4811.00    0.65215   0.73695    0.009
 4812.00    0.68901   0.73598    0.009
 4813.00    0.70639   0.73526    0.009
 4814.00    0.71377   0.73482    0.009
 4815.00    0.87875   0.73455    0.009
 4816.00    1.11390   0.73423    0.009
 4817.00    1.04264   0.73362    0.009
 4818.00    0.85416   0.73281    0.009
 4819.00    0.76609   0.73218    0.009
 4820.00    0.71066   0.73220    0.009
 4821.00    0.73592   0.73292    0.009
 4822.00    0.78313   0.73392    0.009
 4823.00    0.80422   0.73453    0.008
 4824.00    0.81948   0.73443    0.008
 4825.00    0.68832   0.73397    0.009
 4826.00    0.53107   0.73376    0.009
 4827.00    0.66920   0.73391    0.009
 4828.00    0.84756   0.73405    0.009
 4829.00    0.79382   0.73395    0.009
 4830.00    0.71754   0.73379    0.009
 4831.00    0.79890   0.73354    0.008
 4832.00    0.88982   0.73283    0.008
 4833.00    0.91052   0.73146    0.008
 4834.00    0.92896   0.72997    0.008
 4835.00    0.87814   0.72913    0.009
 4836.00    0.83431   0.72917    0.009
 4837.00    0.97303   0.72971    0.008
 4838.00    1.08599   0.73038    0.008
 4839.00    0.84742   0.73109    0.008
 4840.00    0.64076   0.73174    0.008
 4841.00    0.72266   0.73208    0.008
 4842.00    0.80756   0.73194    0.008
 4843.00    0.91248   0.73138    0.008
 4844.00    0.96492   0.73050    0.008
 4845.00    0.74655   0.72943    0.008
 4846.00    0.57255   0.72820    0.008
 4847.00    0.58323   0.72679    0.008
 4848.00    0.57428   0.72523    0.000
 4849.00    0.49778   0.72376    0.000
 4850.00    0.46968   0.72256    0.000
 4851.00    0.58192   0.72139    0.000
 4852.00    0.64612   0.71964    0.000
 4853.00    0.59137   0.71692    0.000
 4854.00    0.60066   0.71340    0.000
 4855.00    0.74660   0.70944    0.000
 4856.00    0.82614   0.70513    0.000
 4857.00    0.78266   0.70012    0.000
 4858.00    0.76249   0.69379    0.000
 4859.00    0.78007   0.68536    0.000
 4860.00    0.82902   0.67397    0.000
 4861.00    0.92253   0.65862    0.000
 4862.00    0.91185   0.63807    0.000
 4863.00    0.77099   0.61104    0.000
 4864.00    0.63732   0.57778    0.000
 4865.00    0.51157   0.54238    0.000
 4866.00    0.54290   0.51356    0.000
 4867.00    0.72681   0.50147    0.000
 4868.00    0.86607   0.51128    0.000
 4869.00    0.96711   0.53910    0.000
 4870.00    0.98339   0.57452    0.000
 4871.00    0.93574   0.60771    0.000
 4872.00    0.88152   0.63407    0.000
 4873.00    0.82294   0.65378    0.000
 4874.00    0.87313   0.66861    0.000
 4875.00    0.98646   0.67979    0.008
 4876.00    0.93206   0.68788    0.008
 4877.00    0.79283   0.69379    0.008
 4878.00    0.76317   0.69860    0.008
 4879.00    0.78148   0.70301    0.008
 4880.00    0.79233   0.70711    0.008
 4881.00    0.80037   0.71077    0.008
 4882.00    0.84506   0.71402    0.008
 4883.00    0.90144   0.71677    0.008
 4884.00    0.87515   0.71882    0.008
 4885.00    0.82681   0.71995    0.008
 4886.00    0.86684   0.72030    0.009
 4887.00    0.92616   0.72027    0.009
 4888.00    0.77199   0.72033    0.009
 4889.00    0.58081   0.72053    0.009
 4890.00    0.57942   0.72074    0.009
 4891.00    0.60303   0.72097    0.008
 4892.00    0.48867   0.72136    0.009
 4893.00    0.36149   0.72181    0.009
 4894.00    0.59922   0.72188    0.009
 4895.00    0.85764   0.72134    0.009
 4896.00    0.80638   0.72071    0.009
 4897.00    0.75020   0.72096    0.009
 4898.00    0.92836   0.72272    0.009
 4899.00    1.09108   0.72557    0.009
 4900.00    0.88737   0.72858    0.009
 4901.00    0.69989   0.73096    0.009
 4902.00    0.72212   0.73220    0.009
 4903.00    0.75626   0.73216    0.009
 4904.00    0.89382   0.73102    0.009
 4905.00    0.99718   0.72936    0.009
 4906.00    0.88053   0.72798    0.009
 4907.00    0.77961   0.72731    0.009
 4908.00    0.75782   0.72719    0.009
 4909.00    0.75782   0.72732    0.009
 4910.00    0.84657   0.72754    0.009
 4911.00    0.91830   0.72778    0.009
 4912.00    0.93258   0.72791    0.009
 4913.00    0.95026   0.72790    0.009
 4914.00    0.97764   0.72787    0.009
 4915.00    0.90278   0.72797    0.009
 4916.00    0.57922   0.72826    0.009
 4917.00    0.45643   0.72876    0.009
 4918.00    0.75508   0.72931    0.009
 4919.00    0.89588   0.72981    0.009
 4920.00    0.74868   0.73004    0.009
 4921.00    0.64827   0.72964    0.009
 4922.00    0.62248   0.72795    0.009
 4923.00    0.63089   0.72424    0.009
 4924.00    0.68717   0.71796    0.009
 4925.00    0.74576   0.70916    0.009
 4926.00    0.80721   0.69954    0.009
 4927.00    0.86468   0.69184    0.009
 4928.00    0.91783   0.68931    0.009
 4929.00    0.97385   0.69259    0.009
 4930.00    1.03263   0.70016    0.009
 4931.00    0.98131   0.70927    0.009
 4932.00    0.83703   0.71824    0.008
 4933.00    0.78205   0.72561    0.008
 4934.00    0.79346   0.73077    0.009
 4935.00    0.75145   0.73356    0.008
 4936.00    0.67456   0.73426    0.008
 4937.00    0.71484   0.73337    0.008
 4938.00    0.82210   0.73156    0.008
 4939.00    0.73756   0.72967    0.008
 4940.00    0.55755   0.72844    0.000
 4941.00    0.59727   0.72789    0.000
 4942.00    0.73161   0.72727    0.000
 4943.00    0.83490   0.72601    0.000
 4944.00    0.92673   0.72424    0.000
 4945.00    0.88616   0.72268    0.000
 4946.00    0.80417   0.72166    0.000
 4947.00    0.76309   0.72149    0.000
 4948.00    0.73268   0.72209    0.000
 4949.00    0.69186   0.72383    0.000
 4950.00    0.64884   0.72627    0.000
 4951.00    0.73297   0.72885    0.000
 4952.00    0.83853   0.73083    0.000
 4953.00    0.81683   0.73217    0.000
 4954.00    0.77894   0.73298    0.000
 4955.00    0.82017   0.73355    0.000
 4956.00    0.86841   0.73376    0.000
 4957.00    0.74279   0.73308    0.000
 4958.00    0.60798   0.73089    0.000
 4959.00    0.62216   0.72688    0.000
 4960.00    0.64053   0.72141    0.000
 4961.00    0.76363   0.71548    0.000
 4962.00    0.88153   0.71045    0.000
 4963.00    0.88635   0.70731    0.000
 4964.00    0.89883   0.70644    0.000
 4965.00    1.00524   0.70730    0.000
 4966.00    1.09197   0.70881    0.000
 4967.00    1.01390   0.70996    0.000
 4968.00    0.92230   0.71033    0.000
 4969.00    0.74620   0.70994    0.000
 4970.00    0.62323   0.70915    0.000
 4971.00    0.76080   0.70835    0.000
 4972.00    0.86401   0.70793    0.000
 4973.00    0.83045   0.70813    0.000
 4974.00    0.78792   0.70888    0.000
 4975.00    0.71571   0.71009    0.000
 4976.00    0.69748   0.71138    0.000
 4977.00    0.83012   0.71258    0.000
 4978.00    0.89992   0.71359    0.000
 4979.00    0.81941   0.71436    0.000
 4980.00    0.72409   0.71481    0.000
 4981.00    0.59815   0.71484    0.000
 4982.00    0.56224   0.71433    0.000
 4983.00    0.68807   0.71327    0.000
 4984.00    0.72260   0.71176    0.000
 4985.00    0.61365   0.70990    0.000
 4986.00    0.57125   0.70777    0.000
 4987.00    0.62065   0.70560    0.000
 4988.00    0.69171   0.70399    0.000
 4989.00    0.78904   0.70362    0.000
 4990.00    0.81673   0.70460    0.000
 4991.00    0.76986   0.70633    0.000
 4992.00    0.72812   0.70801    0.000
 4993.00    0.69123   0.70920    0.000
 4994.00    0.66657   0.70966    0.000
 4995.00    0.65210   0.70944    0.000
 4996.00    0.59767   0.70888    0.000
 4997.00    0.51395   0.70826    0.000
 4998.00    0.53134   0.70798    0.000
 4999.00    0.61380   0.70791    0.000
 5000.00    0.65423   0.70808    0.000
 5001.00    0.67100   0.70838    0.000
 5002.00    0.71475   0.70850    0.000
 5003.00    0.77171   0.70769    0.000
 5004.00    0.83361   0.70533    0.000
 5005.00    0.89760   0.70163    0.000
 5006.00    0.84244   0.69742    0.000
 5007.00    0.74408   0.69432    0.000
 5008.00    0.63313   0.69287    0.000
 5009.00    0.51831   0.69298    0.000
 5010.00    0.58312   0.69327    0.000
 5011.00    0.69379   0.69344    0.000
 5012.00    0.63231   0.69359    0.000
 5013.00    0.53505   0.69420    0.000
 5014.00    0.41142   0.69521    0.000
 5015.00    0.28347   0.69612    0.000
 5016.00    0.32741   0.69627    0.000
 5017.00    0.39244   0.69507    0.000
 5018.00    0.38039   0.69184    0.000
 5019.00    0.36182   0.68609    0.000
 5020.00    0.42159   0.67927    0.000
 5021.00    0.48518   0.67387    0.000
 5022.00    0.65207   0.67331    0.000
 5023.00    0.81782   0.67782    0.000
 5024.00    0.81576   0.68500    0.000
 5025.00    0.81252   0.69145    0.000
 5026.00    0.78543   0.69571    0.000
 5027.00    0.76617   0.69768    0.000
 5028.00    0.83819   0.69834    0.000
 5029.00    0.90934   0.69853    0.008
 5030.00    0.97349   0.69866    0.008
 5031.00    1.01043   0.69872    0.008
 5032.00    0.88234   0.69880    0.008
 5033.00    0.76352   0.69918    0.008
 5034.00    0.68906   0.70000    0.008
 5035.00    0.64461   0.70119    0.008
 5036.00    0.71708   0.70229    0.008
 5037.00    0.79828   0.70312    0.008
 5038.00    0.90778   0.70354    0.008
 5039.00    0.95254   0.70350    0.008
 5040.00    0.81960   0.70282    0.008
 5041.00    0.70396   0.70154    0.008
 5042.00    0.62904   0.69991    0.008
 5043.00    0.58719   0.69817    0.008
 5044.00    0.61255   0.69592    0.008
 5045.00    0.73488   0.69323    0.008
 5046.00    1.02879   0.69081    0.008
 5047.00    1.06325   0.69013    0.008
 5048.00    0.69607   0.69172    0.008
 5049.00    0.48983   0.69482    0.008
 5050.00    0.50239   0.69754    0.008
 5051.00    0.62405   0.69865    0.008
 5052.00    0.87630   0.69790    0.008
 5053.00    0.96364   0.69609    0.008
 5054.00    0.87695   0.69459    0.008
 5055.00    0.81780   0.69432    0.008
 5056.00    0.78430   0.69536    0.008
 5057.00    0.72721   0.69686    0.008
 5058.00    0.65076   0.69822    0.008
 5059.00    0.64571   0.69866    0.008
 5060.00    0.69223   0.69818    0.008
 5061.00    0.80228   0.69716    0.008
 5062.00    0.95260   0.69685    0.008
 5063.00    0.89521   0.69795    0.008
 5064.00    0.72267   0.70030    0.008
 5065.00    0.63375   0.70269    0.008
 5066.00    0.58514   0.70430    0.008
 5067.00    0.63728   0.70460    0.008
 5068.00    0.73136   0.70352    0.008
 5069.00    0.74458   0.70141    0.008
 5070.00    0.72902   0.69907    0.008
 5071.00    0.76579   0.69736    0.008
 5072.00    0.81830   0.69675    0.008
 5073.00    0.67281   0.69700    0.008
 5074.00    0.47786   0.69758    0.008
 5075.00    0.49566   0.69809    0.008
 5076.00    0.55658   0.69833    0.008
 5077.00    0.42895   0.69818    0.008
 5078.00    0.27136   0.69781    0.008
 5079.00    0.42334   0.69748    0.008
 5080.00    0.61194   0.69741    0.008
 5081.00    0.71154   0.69741    0.008
 5082.00    0.80399   0.69723    0.008
 5083.00    0.72188   0.69654    0.008
 5084.00    0.63192   0.69531    0.008
 5085.00    0.75888   0.69366    0.008
 5086.00    0.88655   0.69216    0.008
 5087.00    0.92156   0.69129    0.008
 5088.00    0.94908   0.69122    0.008
 5089.00    0.83732   0.69176    0.008
 5090.00    0.72983   0.69264    0.008
 5091.00    0.66997   0.69362    0.008
 5092.00    0.62332   0.69450    0.008
 5093.00    0.67961   0.69527    0.008
 5094.00    0.72645   0.69585    0.008
 5095.00    0.71772   0.69624    0.008
 5096.00    0.74182   0.69644    0.008
 5097.00    0.91912   0.69664    0.008
 5098.00    1.04326   0.69696    0.008
 5099.00    0.96479   0.69720    0.008
 5100.00    0.88065   0.69702    0.008
 5101.00    0.77844   0.69627    0.008
 5102.00    0.69279   0.69515    0.008
 5103.00    0.65176   0.69388    0.008
 5104.00    0.65555   0.69260    0.008
 5105.00    0.76297   0.69153    0.008
 5106.00    0.81868   0.69090    0.008
 5107.00    0.77096   0.69084    0.008
 5108.00    0.74409   0.69108    0.008
 5109.00    0.75356   0.69126    0.008
 5110.00    0.75509   0.69121    0.008
 5111.00    0.74452   0.69095    0.008
 5112.00    0.74975   0.69056    0.008
 5113.00    0.77616   0.69007    0.008
 5114.00    0.78364   0.68958    0.008
 5115.00    0.76876   0.68919    0.008
 5116.00    0.87285   0.68892    0.008
 5117.00    1.10071   0.68876    0.008
 5118.00    1.05977   0.68888    0.008
 5119.00    0.77213   0.68942    0.008
 5120.00    0.72396   0.69060    0.008
 5121.00    0.86951   0.69242    0.008
 5122.00    0.84514   0.69439    0.008
 5123.00    0.69980   0.69580    0.008
 5124.00    0.59501   0.69611    0.008
 5125.00    0.51557   0.69507    0.008
 5126.00    0.52493   0.69290    0.008
 5127.00    0.58277   0.69008    0.008
 5128.00    0.55135   0.68726    0.008
 5129.00    0.47759   0.68510    0.008
 5130.00    0.50584   0.68375    0.008
 5131.00    0.57585   0.68299    0.008
 5132.00    0.57143   0.68240    0.008
 5133.00    0.54101   0.68195    0.008
 5134.00    0.60167   0.68205    0.008
 5135.00    0.68920   0.68297    0.008
 5136.00    0.75008   0.68438    0.008
 5137.00    0.80445   0.68572    0.008
 5138.00    0.72698   0.68677    0.008
 5139.00    0.62346   0.68771    0.008
 5140.00    0.69295   0.68883    0.008
 5141.00    0.78911   0.69001    0.008
 5142.00    0.73260   0.69066    0.008
 5143.00    0.65870   0.69037    0.008
 5144.00    0.54441   0.68948    0.008
 5145.00    0.42704   0.68851    0.008
 5146.00    0.40960   0.68765    0.008
 5147.00    0.39627   0.68663    0.008
 5148.00    0.37187   0.68506    0.008
 5149.00    0.34821   0.68304    0.008
 5150.00    0.35916   0.68129    0.008
 5151.00    0.36809   0.68038    0.008
 5152.00    0.34202   0.68043    0.008
 5153.00    0.33021   0.68113    0.008
 5154.00    0.47016   0.68179    0.008
 5155.00    0.60544   0.68171    0.008
 5156.00    0.70559   0.68083    0.008
 5157.00    0.76321   0.67951    0.008
 5158.00    0.57726   0.67860    0.008
 5159.00    0.44301   0.67859    0.008
 5160.00    0.54428   0.67969    0.008
 5161.00    0.58771   0.68179    0.008
 5162.00    0.41532   0.68460    0.008
 5163.00    0.29071   0.68763    0.008
 5164.00    0.31516   0.69014    0.008
 5165.00    0.33124   0.69178    0.008
 5166.00    0.32517   0.69239    0.008
 5167.00    0.35993   0.69235    0.008
 5168.00    0.48755   0.69157    0.008
 5169.00    0.61753   0.68960    0.008
 5170.00    0.75214   0.68593    0.008
 5171.00    0.77625   0.68037    0.008
 5172.00    0.61074   0.67344    0.008
 5173.00    0.53372   0.66654    0.008
 5174.00    0.58971   0.66120    0.008
 5175.00    0.58490   0.65810    0.008
 5176.00    0.49977   0.65683    0.008
 5177.00    0.52014   0.65647    0.008
 5178.00    0.66326   0.65642    0.008
 5179.00    0.70545   0.65676    0.008
 5180.00    0.64410   0.65781    0.008
 5181.00    0.62426   0.65953    0.008
 5182.00    0.64197   0.66138    0.008
 5183.00    0.61741   0.66289    0.008
 5184.00    0.55916   0.66371    0.008
 5185.00    0.51391   0.66376    0.008
 5186.00    0.47778   0.66303    0.008
 5187.00    0.50702   0.66177    0.008
 5188.00    0.57647   0.66040    0.008
 5189.00    0.60200   0.65962    0.008
 5190.00    0.60392   0.66014    0.000
 5191.00    0.66945   0.66222    0.000
 5192.00    0.76466   0.66529    0.000
 5193.00    0.74027   0.66824    0.000
 5194.00    0.66777   0.67012    0.000
 5195.00    0.65415   0.67049    0.000
 5196.00    0.66075   0.66941    0.000
 5197.00    0.76458   0.66747    0.000
 5198.00    0.89650   0.66547    0.000
 5199.00    0.76562   0.66441    0.000
 5200.00    0.57198   0.66483    0.000
 5201.00    0.53436   0.66660    0.000
 5202.00    0.52679   0.66894    0.000
 5203.00    0.70091   0.67101    0.000
 5204.00    0.90219   0.67203    0.000
 5205.00    0.71859   0.67173    0.000
 5206.00    0.49284   0.67042    0.000
 5207.00    0.45799   0.66839    0.000
 5208.00    0.43693   0.66605    0.000
 5209.00    0.49621   0.66328    0.000
 5210.00    0.55849   0.66014    0.000
 5211.00    0.55824   0.65689    0.008
 5212.00    0.55880   0.65441    0.008
 5213.00    0.59883   0.65320    0.008
 5214.00    0.63626   0.65335    0.008
 5215.00    0.63131   0.65459    0.008
 5216.00    0.63230   0.65674    0.008
 5217.00    0.69375   0.65968    0.008
 5218.00    0.74984   0.66313    0.008
 5219.00    0.76691   0.66661    0.008
 5220.00    0.78219   0.66961    0.008
 5221.00    0.78753   0.67173    0.008
 5222.00    0.77358   0.67299    0.008
 5223.00    0.67385   0.67385    0.008
 5224.00    0.60050   0.67483    0.008
 5225.00    0.62354   0.67589    0.008
 5226.00    0.68562   0.67673    0.008
 5227.00    0.86720   0.67686    0.008
 5228.00    0.94518   0.67591    0.008
 5229.00    0.75359   0.67366    0.008
 5230.00    0.63800   0.67044    0.008
 5231.00    0.69238   0.66718    0.008
 5232.00    0.75434   0.66513    0.008
 5233.00    0.83096   0.66524    0.008
 5234.00    0.86242   0.66763    0.008
 5235.00    0.81751   0.67144    0.008
 5236.00    0.76478   0.67509    0.008
 5237.00    0.70046   0.67721    0.008
 5238.00    0.66951   0.67755    0.008
 5239.00    0.68200   0.67673    0.008
 5240.00    0.70593   0.67588    0.008
 5241.00    0.74296   0.67591    0.008
 5242.00    0.79345   0.67690    0.008
 5243.00    0.85755   0.67809    0.008
 5244.00    0.75343   0.67862    0.008
 5245.00    0.49922   0.67822    0.008
 5246.00    0.46447   0.67718    0.008
 5247.00    0.60226   0.67610    0.008
 5248.00    0.72068   0.67536    0.008
 5249.00    0.82570   0.67495    0.008
 5250.00    0.80008   0.67430    0.008
 5251.00    0.69527   0.67278    0.008
 5252.00    0.61343   0.67041    0.008
 5253.00    0.54375   0.66760    0.008
 5254.00    0.46962   0.66534    0.008
 5255.00    0.39346   0.66415    0.008
 5256.00    0.55760   0.66394    0.008
 5257.00    0.81673   0.66428    0.008
 5258.00    0.75930   0.66512    0.008
 5259.00    0.59522   0.66631    0.008
 5260.00    0.62082   0.66768    0.008
 5261.00    0.70010   0.66925    0.008
 5262.00    0.61047   0.67116    0.008
 5263.00    0.48141   0.67325    0.008
 5264.00    0.53562   0.67481    0.008
 5265.00    0.62420   0.67505    0.008
 5266.00    0.56463   0.67371    0.008
 5267.00    0.48360   0.67103    0.008
 5268.00    0.54886   0.66748    0.008
 5269.00    0.62952   0.66373    0.008
 5270.00    0.79090   0.66036    0.008
 5271.00    0.95778   0.65810    0.008
 5272.00    0.89601   0.65712    0.008
 5273.00    0.82657   0.65673    0.008
 5274.00    0.84628   0.65605    0.008
 5275.00    0.86289   0.65493    0.008
 5276.00    0.77681   0.65410    0.008
 5277.00    0.69327   0.65476    0.008
 5278.00    0.64851   0.65724    0.008
 5279.00    0.61696   0.66064    0.008
 5280.00    0.71429   0.66384    0.008
 5281.00    0.78869   0.66643    0.008
 5282.00    0.70164   0.66865    0.008
 5283.00    0.62168   0.67073    0.008
 5284.00    0.58019   0.67266    0.008
 5285.00    0.55081   0.67379    0.008
 5286.00    0.57403   0.67356    0.008
 5287.00    0.58895   0.67224    0.008
 5288.00    0.57412   0.67062    0.008
 5289.00    0.56759   0.66977    0.008
 5290.00    0.58595   0.67038    0.008
 5291.00    0.60231   0.67234    0.008
 5292.00    0.61356   0.67479    0.008
 5293.00    0.66528   0.67668    0.008
 5294.00    0.80604   0.67746    0.008
 5295.00    0.85492   0.67732    0.008
 5296.00    0.72849   0.67685    0.008
 5297.00    0.63133   0.67647    0.008
 5298.00    0.58293   0.67620    0.008
 5299.00    0.55986   0.67575    0.008
 5300.00    0.57378   0.67464    0.008
 5301.00    0.60566   0.67246    0.008
 5302.00    0.66060   0.66924    0.008
 5303.00    0.67778   0.66580    0.008
 5304.00    0.65225   0.66328    0.008
 5305.00    0.61184   0.66246    0.008
 5306.00    0.55658   0.66322    0.008
 5307.00    0.55532   0.66506    0.008
 5308.00    0.60155   0.66744    0.008
 5309.00    0.52621   0.67015    0.008
 5310.00    0.35665   0.67276    0.008
 5311.00    0.35732   0.67458    0.008
 5312.00    0.47398   0.67522    0.008
 5313.00    0.52003   0.67491    0.008
 5314.00    0.52392   0.67426    0.008
 5315.00    0.74220   0.67375    0.008
 5316.00    1.07218   0.67343    0.008
 5317.00    0.87412   0.67303    0.008
 5318.00    0.43753   0.67243    0.008
 5319.00    0.40463   0.67175    0.008
 5320.00    0.52857   0.67113    0.008
 5321.00    0.65523   0.67061    0.008
 5322.00    0.78280   0.67014    0.008
 5323.00    0.73176   0.66963    0.008
 5324.00    0.63119   0.66895    0.008
 5325.00    0.60023   0.66806    0.008
 5326.00    0.58514   0.66722    0.008
 5327.00    0.60274   0.66653    0.008
 5328.00    0.62630   0.66612    0.008
 5329.00    0.69347   0.66579    0.008
 5330.00    0.76675   0.66519    0.008
 5331.00    0.75212   0.66369    0.008
 5332.00    0.72861   0.66089    0.008
 5333.00    0.58709   0.65707    0.008
 5334.00    0.43799   0.65354    0.008
 5335.00    0.53123   0.65179    0.008
 5336.00    0.63167   0.65260    0.008
 5337.00    0.72578   0.65543    0.008
 5338.00    0.81172   0.65891    0.008
 5339.00    0.66445   0.66204    0.008
 5340.00    0.53552   0.66438    0.008
 5341.00    0.66973   0.66585    0.007
 5342.00    0.78876   0.66647    0.007
 5343.00    0.76573   0.66617    0.007
 5344.00    0.74379   0.66494    0.007
 5345.00    0.72925   0.66301    0.007
 5346.00    0.69938   0.66092    0.007
 5347.00    0.58863   0.65937    0.007
 5348.00    0.51693   0.65870    0.007
 5349.00    0.61101   0.65884    0.007
 5350.00    0.69383   0.65903    0.007
 5351.00    0.73711   0.65905    0.007
 5352.00    0.76271   0.65896    0.007
 5353.00    0.73617   0.65893    0.007
 5354.00    0.69037   0.65918    0.007
 5355.00    0.59614   0.66001    0.007
 5356.00    0.56879   0.66157    0.007
 5357.00    0.68617   0.66393    0.007
 5358.00    0.80614   0.66687    0.007
 5359.00    0.93098   0.66982    0.007
 5360.00    0.92421   0.67217    0.007
 5361.00    0.70159   0.67362    0.007
 5362.00    0.57221   0.67429    0.007
 5363.00    0.57693   0.67426    0.008
 5364.00    0.67462   0.67360    0.008
 5365.00    0.88993   0.67238    0.008
 5366.00    0.96484   0.67065    0.008
 5367.00    0.88322   0.66866    0.008
 5368.00    0.88525   0.66683   -2.000
 5369.00    0.96955   0.66545   -2.000
 5370.00    1.00504   0.66459   -2.000
 5371.00    0.99822   0.66413   -2.000
 5372.00    1.01274   0.66374   -2.000
 5373.00    1.04356   0.66305   -2.000
 5374.00    1.14448   0.66166   -2.000
 5375.00    1.29247   0.65942   -2.000
 5376.00    1.14967   0.65682   -2.000
 5377.00    0.83585   0.65496   -2.000
 5378.00    0.54822   0.65494   -2.000
 5379.00    0.27401   0.65693   -2.000
 5380.00    0.31562   0.66008   -2.000
 5381.00    0.49755   0.66308   -2.000
 5382.00    0.59182   0.66514   -2.000
 5383.00    0.65263   0.66639    0.008
 5384.00    0.75611   0.66720    0.008
 5385.00    0.87342   0.66766    0.008
 5386.00    0.74151   0.66761    0.008
 5387.00    0.54191   0.66691    0.008
 5388.00    0.55475   0.66575    0.007
 5389.00    0.61491   0.66461    0.007
 5390.00    0.68514   0.66388    0.007
 5391.00    0.75717   0.66355    0.007
 5392.00    0.74774   0.66338    0.007
 5393.00    0.72727   0.66303    0.007
 5394.00    0.77595   0.66212    0.007
 5395.00    0.83132   0.66063    0.007
 5396.00    0.86813   0.65895    0.007
 5397.00    0.90383   0.65757    0.007
 5398.00    0.85909   0.65670    0.007
 5399.00    0.81207   0.65613    0.007
 5400.00    0.73418   0.65535    0.007
 5401.00    0.65735   0.65394    0.007
 5402.00    0.60784   0.65216    0.007
 5403.00    0.57294   0.65107    0.007
 5404.00    0.73617   0.65127    0.007
 5405.00    0.87097   0.65254    0.007
 5406.00    0.74999   0.65422    0.007
 5407.00    0.63236   0.65534    0.007
 5408.00    0.53687   0.65517    0.007
 5409.00    0.45265   0.65353    0.007
 5410.00    0.42647   0.65061    0.007
 5411.00    0.43852   0.64684    0.007
 5412.00    0.60923   0.64267    0.007
 5413.00    0.72961   0.63804    0.007
 5414.00    0.67709   0.63228    0.007
 5415.00    0.64248   0.62484    0.007
 5416.00    0.65970   0.61685    0.007
 5417.00    0.68325   0.61123    0.007
 5418.00    0.72243   0.61086    0.007
 5419.00    0.72798   0.61666    0.007
 5420.00    0.66188   0.62675    0.007
 5421.00    0.67657   0.63795    0.007
 5422.00    0.84066   0.64742    0.007
 5423.00    0.90278   0.65397    0.007
 5424.00    0.80014   0.65781    0.007
 5425.00    0.72833   0.65956    0.007
 5426.00    0.70021   0.66005    0.007
 5427.00    0.68061   0.66006    0.007
 5428.00    0.67162   0.65992    0.007
 5429.00    0.68828   0.65972    0.007
 5430.00    0.73314   0.65952    0.007
 5431.00    0.76050   0.65930    0.007
 5432.00    0.77089   0.65900    0.007
 5433.00    0.73713   0.65820    0.007
 5434.00    0.66561   0.65631    0.007
 5435.00    0.69969   0.65355    0.007
 5436.00    0.81329   0.65067    0.007
 5437.00    0.75771   0.64823    0.007
 5438.00    0.59019   0.64672    0.007
 5439.00    0.56576   0.64597    0.007
 5440.00    0.62422   0.64557    0.007
 5441.00    0.58258   0.64577    0.007
 5442.00    0.49040   0.64693    0.007
 5443.00    0.52750   0.64916    0.007
 5444.00    0.62111   0.65217    0.007
 5445.00    0.61957   0.65554    0.007
 5446.00    0.58236   0.65874    0.007
 5447.00    0.62690   0.66130    0.007
 5448.00    0.69745   0.66280    0.007
 5449.00    0.70993   0.66285    0.007
 5450.00    0.70698   0.66096    0.007
 5451.00    0.76690   0.65696    0.007
 5452.00    0.84051   0.65137    0.007
 5453.00    0.77396   0.64539    0.007
 5454.00    0.68321   0.64033    0.007
 5455.00    0.55109   0.63687    0.007
 5456.00    0.41356   0.63484    0.007
 5457.00    0.44738   0.63340    0.007
 5458.00    0.49703   0.63183    0.007
 5459.00    0.55685   0.63001    0.007
 5460.00    0.61724   0.62825    0.007
 5461.00    0.58658   0.62710    0.007
 5462.00    0.55454   0.62708    0.007
 5463.00    0.59143   0.62819    0.007
 5464.00    0.63001   0.63002    0.007
 5465.00    0.70818   0.63176    0.007
 5466.00    0.77447   0.63295    0.007
 5467.00    0.68804   0.63354    0.007
 5468.00    0.60872   0.63378    0.007
 5469.00    0.59084   0.63400    0.007
 5470.00    0.58074   0.63434    0.007
 5471.00    0.62056   0.63469    0.007
 5472.00    0.64957   0.63511    0.007
 5473.00    0.62443   0.63569    0.007
 5474.00    0.59285   0.63622    0.007
 5475.00    0.53512   0.63645    0.007
 5476.00    0.52440   0.63622    0.007
 5477.00    0.67196   0.63549    0.007
 5478.00    0.75177   0.63437   -2.000
 5479.00    0.63912   0.63317   -2.000
 5480.00    0.54627   0.63220   -2.000
 5481.00    0.50150   0.63150   -2.000
 5482.00    0.48428   0.63115   -2.000
 5483.00    0.52476   0.63137   -2.000
 5484.00    0.61543   0.63210   -2.000
 5485.00    0.79750   0.63303   -2.000
 5486.00    1.14073   0.63381   -2.000
 5487.00    1.74047   0.63421   -2.000
 5488.00    2.17208   0.63450   -2.000
 5489.00    2.36884   0.63508   -2.000
 5490.00    2.15480   0.63613   -2.000
 5491.00    1.43572   0.63729   -2.000
 5492.00    0.79048   0.63798   -2.000
 5493.00    0.22526   0.63799   -2.000
 5494.00    0.05314   0.63759   -2.000
 5495.00    0.25680   0.63717   -2.000
 5496.00    0.44542   0.63698   -2.000
 5497.00    0.62136   0.63715   -2.000
 5498.00    0.65818   0.63744   -2.000
 5499.00    0.59175   0.63754   -2.000
 5500.00    0.56464   0.63729   -2.000
 5501.00    0.56316   0.63656   -2.000
 5502.00    0.63621   0.63539    0.007
 5503.00    0.75177   0.63411    0.007
 5504.00    0.76939   0.63313    0.007
 5505.00    0.73836   0.63248    0.007
 5506.00    0.71386   0.63197    0.007
 5507.00    0.69217   0.63143    0.007
 5508.00    0.63402   0.63084    0.007
 5509.00    0.56244   0.63023    0.007
 5510.00    0.50927   0.62962    0.007
 5511.00    0.46184   0.62891    0.007
 5512.00    0.54799   0.62804    0.007
 5513.00    0.66890   0.62738    0.007
 5514.00    0.72957   0.62729    0.007
 5515.00    0.77747   0.62762    0.007
 5516.00    0.66188   0.62800    0.007
 5517.00    0.51885   0.62785    0.007
 5518.00    0.46395   0.62701    0.007
 5519.00    0.42021   0.62588    0.007
 5520.00    0.54837   0.62505    0.007
 5521.00    0.69169   0.62511    0.007
 5522.00    0.71742   0.62636    0.007
 5523.00    0.73701   0.62864    0.007
 5524.00    0.67781   0.63148    0.007
 5525.00    0.61949   0.63418    0.007
 5526.00    0.73861   0.63613    0.007
 5527.00    0.84840   0.63718    0.007
 5528.00    0.75739   0.63744    0.007
 5529.00    0.67599   0.63713    0.007
 5530.00    0.71172   0.63642    0.007
 5531.00    0.74306   0.63534    0.007
 5532.00    0.73786   0.63398    0.007
 5533.00    0.73670   0.63258    0.007
 5534.00    0.76073   0.63157    0.007
 5535.00    0.79182   0.63137    0.007
 5536.00    0.85742   0.63192    0.007
 5537.00    0.88861   0.63273    0.007
 5538.00    0.78322   0.63329    0.007
 5539.00    0.70142   0.63328    0.007
 5540.00    0.69749   0.63276    0.007
 5541.00    0.69593   0.63213    0.007
 5542.00    0.70096   0.63185    0.007
 5543.00    0.70903   0.63207    0.007
 5544.00    0.72435   0.63270    0.007
 5545.00    0.75363   0.63370    0.007
 5546.00    0.81168   0.63483    0.007
 5547.00    0.83114   0.63571    0.007
 5548.00    0.78140   0.63607    0.007
 5549.00    0.77237   0.63583    0.007
 5550.00    0.82718   0.63518    0.007
 5551.00    0.84796   0.63445    0.006
 5552.00    0.82188   0.63400    0.007
 5553.00    0.77184   0.63408    0.007
 5554.00    0.69273   0.63463    0.007
 5555.00    0.59674   0.63531    0.007
 5556.00    0.48272   0.63575    0.007
 5557.00    0.45531   0.63570    0.007
 5558.00    0.50952   0.63507    0.007
 5559.00    0.60183   0.63398    0.007
 5560.00    0.72579   0.63270    0.007
 5561.00    0.76223   0.63143    0.007
 5562.00    0.73465   0.63031    0.007
 5563.00    0.65269   0.62945    0.007
 5564.00    0.53578   0.62896    0.007
 5565.00    0.54026   0.62876    0.007
 5566.00    0.61295   0.62864    0.007
 5567.00    0.65239   0.62844    0.007
 5568.00    0.67556   0.62805    0.007
 5569.00    0.64903   0.62748    0.007
 5570.00    0.60150   0.62677    0.007
 5571.00    0.59421   0.62601    0.007
 5572.00    0.60148   0.62536    0.007
 5573.00    0.59036   0.62504    0.007
 5574.00    0.57360   0.62507    0.007
 5575.00    0.50354   0.62537    0.007
 5576.00    0.41990   0.62579    0.007
 5577.00    0.47669   0.62618    0.007
 5578.00    0.56257   0.62631    0.007
 5579.00    0.62134   0.62624    0.007
 5580.00    0.67568   0.62628    0.007
 5581.00    0.73845   0.62645    0.007
 5582.00    0.80224   0.62665    0.007
 5583.00    0.76736   0.62688    0.007
 5584.00    0.72418   0.62692    0.006
 5585.00    0.64192   0.62675    0.007
 5586.00    0.55777   0.62655    0.007
 5587.00    0.58607   0.62619    0.007
 5588.00    0.61685   0.62559    0.007
 5589.00    0.69548   0.62488    0.007
 5590.00    0.76875   0.62395    0.007
 5591.00    0.73546   0.62269    0.007
 5592.00    0.70305   0.62111    0.007
 5593.00    0.68093   0.61913    0.007
 5594.00    0.66943   0.61681    0.007
 5595.00    0.74326   0.61431    0.007
 5596.00    0.80055   0.61160    0.007
 5597.00    0.75791   0.60854    0.007
 5598.00    0.71304   0.60620    0.007
 5599.00    0.65750   0.60592    0.007
 5600.00    0.61916   0.60812    0.007
 5601.00    0.64763   0.61159    0.007
 5602.00    0.65869   0.61490    0.007
 5603.00    0.61342   0.61654    0.007
 5604.00    0.56903   0.61576    0.007
 5605.00    0.52707   0.61380    0.007
 5606.00    0.56001   0.61195    0.007
 5607.00    0.76867   0.61086    0.007
 5608.00    0.88184   0.61068    0.007
 5609.00    0.80128   0.61112    0.007
 5610.00    0.69497   0.61181    0.007
 5611.00    0.54315   0.61264    0.007
 5612.00    0.46069   0.61375    0.007
 5613.00    0.48538   0.61508    0.007
 5614.00    0.54882   0.61639    0.007
 5615.00    0.66484   0.61741    0.007
 5616.00    0.71555   0.61806    0.007
 5617.00    0.68822   0.61842    0.007
 5618.00    0.69363   0.61850    0.007
 5619.00    0.73350   0.61806    0.007
 5620.00    0.70560   0.61681    0.007
 5621.00    0.61472   0.61479    0.007
 5622.00    0.54895   0.61269    0.007
 5623.00    0.50377   0.61117    0.006
 5624.00    0.52595   0.61041    0.006
 5625.00    0.59671   0.61029    0.006
 5626.00    0.56254   0.61054    0.006
 5627.00    0.46197   0.61094    0.006
 5628.00    0.43570   0.61121    0.006
 5629.00    0.45055   0.61106    0.006
 5630.00    0.53146   0.61045    0.006
 5631.00    0.64416   0.60972    0.006
 5632.00    0.69246   0.60931    0.006
 5633.00    0.71400   0.60926    0.006
 5634.00    0.68702   0.60935    0.006
 5635.00    0.64279   0.60938    0.006
 5636.00    0.64043   0.60933    0.006
 5637.00    0.65064   0.60945    0.006
 5638.00    0.64785   0.60988    0.006
 5639.00    0.64182   0.61052    0.006
 5640.00    0.68278   0.61098    0.006
 5641.00    0.73324   0.61087    0.006
 5642.00    0.71133   0.61002    0.006
 5643.00    0.67797   0.60863    0.006
 5644.00    0.63445   0.60698    0.006
 5645.00    0.58973   0.60525    0.007
 5646.00    0.62170   0.60384    0.006
 5647.00    0.65980   0.60312    0.006
 5648.00    0.67513   0.60321    0.006
 5649.00    0.68944   0.60379    0.006
 5650.00    0.72124   0.60446    0.007
 5651.00    0.75127   0.60498    0.007
 5652.00    0.68532   0.60526    0.007
 5653.00    0.61957   0.60554    0.006
 5654.00    0.55734   0.60614    0.007
 5655.00    0.49497   0.60726    0.007
 5656.00    0.43100   0.60891    0.007
 5657.00    0.37047   0.61082    0.006
 5658.00    0.33659   0.61265    0.006
 5659.00    0.31649   0.61402    0.006
 5660.00    0.37719   0.61463    0.006
 5661.00    0.43997   0.61435    0.006
 5662.00    0.51244   0.61329    0.006
 5663.00    0.57961   0.61153    0.006
 5664.00    0.62664   0.60927    0.006
 5665.00    0.66072   0.60715    0.006
 5666.00    0.65375   0.60571    0.006
 5667.00    0.64833   0.60473    0.006
 5668.00    0.64707   0.60396    0.006
 5669.00    0.61220   0.60345    0.007
 5670.00    0.49980   0.60323    0.006
 5671.00    0.44606   0.60313    0.006
 5672.00    0.50943   0.60304    0.006
 5673.00    0.58672   0.60293    0.006
 5674.00    0.68822   0.60276    0.006
 5675.00    0.72550   0.60277    0.006
 5676.00    0.66501   0.60309    0.006
 5677.00    0.62473   0.60373    0.006
 5678.00    0.61148   0.60471    0.006
 5679.00    0.58924   0.60590    0.006
 5680.00    0.55642   0.60695    0.006
 5681.00    0.50916   0.60755    0.006
 5682.00    0.44691   0.60775    0.006
 5683.00    0.46629   0.60770    0.006
 5684.00    0.56044   0.60735    0.006
 5685.00    0.60396   0.60677    0.006
 5686.00    0.60658   0.60632    0.006
 5687.00    0.60950   0.60634    0.006
 5688.00    0.61263   0.60680    0.006
 5689.00    0.60537   0.60750    0.006
 5690.00    0.59164   0.60826    0.006
 5691.00    0.58967   0.60867    0.006
 5692.00    0.59412   0.60841    0.006
 5693.00    0.61291   0.60769    0.007
 5694.00    0.63848   0.60708    0.007
 5695.00    0.60993   0.60705    0.007
 5696.00    0.55926   0.60781    0.007
 5697.00    0.57621   0.60916    0.007
 5698.00    0.61673   0.61058    0.007
 5699.00    0.69991   0.61147    0.007
 5700.00    0.79564   0.61142    0.007
 5701.00    0.78812   0.61036    0.007
 5702.00    0.75546   0.60871    0.007
 5703.00    0.69120   0.60711    0.007
 5704.00    0.62072   0.60593    0.006
 5705.00    0.60103   0.60523    0.006
 5706.00    0.58915   0.60481    0.006
 5707.00    0.63471   0.60446    0.006
 5708.00    0.68678   0.60413    0.006
 5709.00    0.68631   0.60399    0.006
 5710.00    0.68186   0.60417    0.006
 5711.00    0.64371   0.60446    0.006
 5712.00    0.60420   0.60440    0.006
 5713.00    0.57083   0.60374    0.006
 5714.00    0.53955   0.60265    0.006
 5715.00    0.59260   0.60153    0.006
 5716.00    0.64281   0.60086    0.006
 5717.00    0.64426   0.60091    0.006
 5718.00    0.64560   0.60159    0.006
 5719.00    0.64569   0.60285    0.006
 5720.00    0.64570   0.60449    0.006
 5721.00    0.64512   0.60602    0.006
 5722.00    0.63991   0.60703    0.006
 5723.00    0.60820   0.60740    0.006
 5724.00    0.56961   0.60720    0.006
 5725.00    0.49974   0.60681    0.006
 5726.00    0.44979   0.60665    0.006
 5727.00    0.47401   0.60681    0.006
 5728.00    0.48897   0.60711    0.006
 5729.00    0.47510   0.60732    0.006
 5730.00    0.47713   0.60719    0.006
 5731.00    0.52116   0.60656    0.006
 5732.00    0.56496   0.60545    0.006
 5733.00    0.60825   0.60411    0.006
 5734.00    0.63828   0.60307    0.006
 5735.00    0.64224   0.60278    0.007
 5736.00    0.71544   0.60316    0.007
 5737.00    0.90726   0.60380    0.007
 5738.00    0.99348   0.60456    0.006
 5739.00    0.92127   0.60548    0.006
 5740.00    0.83447   0.60638    0.000
 5741.00    0.72841   0.60695    0.000
 5742.00    0.64802   0.60700    0.000
 5743.00    0.59744   0.60645    0.000
 5744.00    0.59878   0.60545    0.000
 5745.00    0.65329   0.60431    0.000
 5746.00    0.70935   0.60350    0.000
 5747.00    0.76681   0.60343    0.000
 5748.00    0.85028   0.60412    0.000
 5749.00    0.95446   0.60519    0.000
 5750.00    0.93020   0.60628    0.000
 5751.00    0.81599   0.60734    0.000
 5752.00    0.75834   0.60811    0.000
 5753.00    0.73543   0.60830    0.000
 5754.00    0.65169   0.60799    0.000
 5755.00    0.53531   0.60759    0.000
 5756.00    0.45665   0.60753    0.000
 5757.00    0.39556   0.60776    0.000
 5758.00    0.44073   0.60787    0.000
 5759.00    0.52856   0.60762    0.000
 5760.00    0.55625   0.60724    0.000
 5761.00    0.56336   0.60716    0.000
 5762.00    0.63573   0.60762    0.000
 5763.00    0.72692   0.60836    0.000
 5764.00    0.74579   0.60868    0.000
 5765.00    0.74744   0.60795    0.000
 5766.00    0.69146   0.60599    0.000
 5767.00    0.62442   0.60323    0.000
 5768.00    0.59748   0.60058    0.000
 5769.00    0.57651   0.59882    0.000
 5770.00    0.55960   0.59838    0.000
 5771.00    0.54313   0.59909    0.000
 5772.00    0.59606   0.60027    0.000
 5773.00    0.65395   0.60133    0.000
 5774.00    0.58538   0.60205    0.000
 5775.00    0.51214   0.60240    0.000
 5776.00    0.53564   0.60248    0.000
 5777.00    0.56256   0.60243    0.000
 5778.00    0.69764   0.60229    0.000
 5779.00    0.81643   0.60209    0.000
 5780.00    0.67345   0.60187    0.000
 5781.00    0.54216   0.60168    0.000
 5782.00    0.52915   0.60153    0.000
 5783.00    0.53388   0.60135    0.000
 5784.00    0.66711   0.60099    0.000
 5785.00    0.77892   0.60026    0.000
 5786.00    0.77172   0.59898    0.000
 5787.00    0.76004   0.59716    0.000
 5788.00    0.72846   0.59515    0.000
 5789.00    0.68787   0.59351    0.000
 5790.00    0.61447   0.59255    0.000
 5791.00    0.54858   0.59224   -2.000
 5792.00    0.50563   0.59254   -2.000
 5793.00    0.52280   0.59346   -2.000
 5794.00    0.69606   0.59477   -2.000
 5795.00    0.85470   0.59604   -2.000
 5796.00    0.98068   0.59705   -2.000
 5797.00    1.01519   0.59787   -2.000
 5798.00    0.87275   0.59885   -2.000
 5799.00    0.79175   0.60042   -2.000
 5800.00    0.81438   0.60241   -2.000
 5801.00    0.85452   0.60412   -2.000
 5802.00    0.92052   0.60497   -2.000
 5803.00    0.86929   0.60460   -2.000
 5804.00    0.66573   0.60307   -2.000
 5805.00    0.51584   0.60104   -2.000
 5806.00    0.42739   0.59923   -2.000
 5807.00    0.40204   0.59783   -2.000
 5808.00    0.44041   0.59752   -2.000
 5809.00    0.47838   0.59878   -2.000
 5810.00    0.51598   0.60116   -2.000
 5811.00    0.51992   0.60337    0.000
 5812.00    0.49745   0.60498    0.000
 5813.00    0.46059   0.60590    0.000
 5814.00    0.41380   0.60578    0.000
 5815.00    0.35138   0.60447    0.000
 5816.00    0.27950   0.60201    0.000
 5817.00    0.29408   0.59854    0.000
 5818.00    0.35433   0.59472    0.000
 5819.00    0.42251   0.59193    0.000
 5820.00    0.49432   0.59076    0.000
 5821.00    0.57386   0.59103    0.000
 5822.00    0.65644   0.59162    0.000
 5823.00    0.66250   0.59239    0.000
 5824.00    0.64285   0.59326    0.000
 5825.00    0.67211   0.59413    0.000
 5826.00    0.71517   0.59487    0.000
 5827.00    0.70780   0.59545    0.000
 5828.00    0.68868   0.59589    0.000
 5829.00    0.58873   0.59621    0.000
 5830.00    0.47367   0.59659    0.000
 5831.00    0.51236   0.59727    0.000
 5832.00    0.57322   0.59831    0.000
 5833.00    0.72505   0.59934    0.000
 5834.00    0.88640   0.59994    0.000
 5835.00    0.82377   0.60007    0.000
 5836.00    0.74598   0.59999    0.000
 5837.00    0.72770   0.59985    0.000
 5838.00    0.71138   0.59957    0.000
 5839.00    0.72229   0.59912    0.000
 5840.00    0.73096   0.59849    0.000
 5841.00    0.66829   0.59777    0.000
 5842.00    0.61352   0.59714    0.000
 5843.00    0.67825   0.59676    0.000
 5844.00    0.73633   0.59640    0.000
 5845.00    0.72993   0.59596    0.000
 5846.00    0.71937   0.59573    0.000
 5847.00    0.67959   0.59606    0.000
 5848.00    0.66359   0.59681    0.000
 5849.00    0.77615   0.59756    0.000
 5850.00    0.86717   0.59780    0.000
 5851.00    0.86488   0.59723    0.000
 5852.00    0.85472   0.59578    0.000
 5853.00    0.81641   0.59364    0.000
 5854.00    0.76418   0.59107    0.000
 5855.00    0.67024   0.58846    0.000
 5856.00    0.62154   0.58605    0.000
 5857.00    0.68828   0.58386    0.000
 5858.00    0.75155   0.58186    0.000
 5859.00    0.80718   0.58017    0.000
 5860.00    0.82162   0.57896    0.000
 5861.00    0.75762   0.57833    0.000
 5862.00    0.70483   0.57815    0.000
 5863.00    0.67070   0.57809    0.000
 5864.00    0.66991   0.57799    0.000
 5865.00    0.71770   0.57803    0.000
 5866.00    0.74162   0.57831    0.000
 5867.00    0.73496   0.57863    0.000
 5868.00    0.71694   0.57865    0.000
 5869.00    0.68610   0.57821    0.000
 5870.00    0.69137   0.57743    0.000
 5871.00    0.73258   0.57666    0.000
 5872.00    0.79453   0.57610    0.000
 5873.00    0.87468   0.57575    0.000
 5874.00    0.83680   0.57565    0.000
 5875.00    0.70761   0.57584    0.000
 5876.00    0.36313   0.57593    0.000
 5877.00   -0.12777   0.57491    0.000
 5878.00   -0.37842   0.57130    0.000
 5879.00   -0.48587   0.56393    0.000
 5880.00   -0.37957   0.55310    0.000
 5881.00   -0.16214   0.54036    0.000
 5882.00    0.10762   0.52962    0.000
 5883.00    0.40097   0.52553    0.000
 5884.00    0.58651   0.52980    0.000
 5885.00    0.73025   0.53967    0.000
 5886.00    0.72395   0.54997    0.000
 5887.00    0.66817   0.55794    0.000
 5888.00    0.60391   0.56320    0.000
 5889.00    0.53730   0.56620    0.000
 5890.00    0.53176   0.56743    0.000
 5891.00    0.54011   0.56731    0.000
 5892.00    0.62486   0.56571    0.000
 5893.00    0.72351   0.56233    0.000
 5894.00    0.76302   0.55707    0.000
 5895.00    0.79428   0.55043    0.000
 5896.00    0.73384   0.54374    0.000
 5897.00    0.66420   0.53894    0.000
 5898.00    0.67522   0.53746    0.000
 5899.00    0.69137   0.53890    0.000
 5900.00    0.63536   0.54127    0.000
 5901.00    0.57735   0.54281    0.006
 5902.00    0.55765   0.54301    0.006
 5903.00    0.53853   0.54265    0.006
 5904.00    0.53588   0.54311    0.006
 5905.00    0.53775   0.54498    0.006
 5906.00    0.60380   0.54773    0.006
 5907.00    0.66162   0.55070    0.006
 5908.00    0.64264   0.55355    0.006
 5909.00    0.63240   0.55598    0.006
 5910.00    0.68151   0.55774    0.006
 5911.00    0.71595   0.55882    0.006
 5912.00    0.67317   0.55934    0.006
 5913.00    0.63908   0.55955    0.006
 5914.00    0.64185   0.55977    0.006
 5915.00    0.63948   0.56015    0.006
 5916.00    0.61918   0.56058    0.006
 5917.00    0.61166   0.56085    0.006
 5918.00    0.64175   0.56085    0.006
 5919.00    0.66273   0.56052    0.006
 5920.00    0.66085   0.55990    0.006
 5921.00    0.66467   0.55922    0.006
 5922.00    0.68078   0.55879    0.006
 5923.00    0.67670   0.55871    0.006
 5924.00    0.63478   0.55888    0.006
 5925.00    0.58900   0.55912    0.006
 5926.00    0.53690   0.55926    0.006
 5927.00    0.51012   0.55926    0.006
 5928.00    0.51971   0.55922    0.006
 5929.00    0.53234   0.55912    0.006
 5930.00    0.54881   0.55905    0.006
 5931.00    0.57251   0.55913    0.006
 5932.00    0.60426   0.55931    0.006
 5933.00    0.61874   0.55947    0.006
 5934.00    0.61625   0.55951    0.006
 5935.00    0.58541   0.55944    0.006
 5936.00    0.53002   0.55935    0.006
 5937.00    0.52966   0.55938    0.006
 5938.00    0.57127   0.55962    0.006
 5939.00    0.61653   0.56000    0.006
 5940.00    0.66424   0.56041    0.006
 5941.00    0.65895   0.56074    0.006
 5942.00    0.62255   0.56107    0.006
 5943.00    0.61505   0.56152    0.006
 5944.00    0.62234   0.56203    0.006
 5945.00    0.63691   0.56224    0.006
 5946.00    0.65472   0.56198    0.006
 5947.00    0.67114   0.56133    0.006
 5948.00    0.68702   0.56065    0.006
 5949.00    0.66599   0.56044    0.006
 5950.00    0.63302   0.56110    0.006
 5951.00    0.67389   0.56234    0.006
 5952.00    0.73476   0.56351    0.006
 5953.00    0.71680   0.56413    0.006
 5954.00    0.68134   0.56393    0.006
 5955.00    0.72221   0.56288    0.006
 5956.00    0.77658   0.56130    0.006
 5957.00    0.77476   0.55979    0.006
 5958.00    0.76535   0.55873    0.006
 5959.00    0.72757   0.55810    0.006
 5960.00    0.68705   0.55758    0.006
 5961.00    0.64327   0.55700    0.006
 5962.00    0.59930   0.55634    0.006
 5963.00    0.55519   0.55563    0.006
 5964.00    0.51145   0.55519    0.006
 5965.00    0.52469   0.55551    0.006
 5966.00    0.53885   0.55667    0.006
 5967.00    0.57657   0.55826    0.006
 5968.00    0.61191   0.55975    0.006
 5969.00    0.61530   0.56075    0.006
 5970.00    0.61846   0.56124    0.006
 5971.00    0.61950   0.56140    0.006
 5972.00    0.61846   0.56153    0.006
 5973.00    0.60379   0.56182    0.006
 5974.00    0.59641   0.56240    0.006
 5975.00    0.62640   0.56319    0.006
 5976.00    0.65493   0.56391    0.006
 5977.00    0.67747   0.56430    0.006
 5978.00    0.67834   0.56428    0.006
 5979.00    0.60499   0.56383    0.006
 5980.00    0.54811   0.56302    0.006
 5981.00    0.53876   0.56194    0.006
 5982.00    0.51593   0.56064    0.006
 5983.00    0.45986   0.55916    0.006
 5984.00    0.41435   0.55769    0.006
 5985.00    0.39129   0.55658    0.006
 5986.00    0.39712   0.55604    0.006
 5987.00    0.45628   0.55624    0.006
 5988.00    0.51911   0.55690    0.006
 5989.00    0.58786   0.55761    0.006
 5990.00    0.64468   0.55809    0.006
 5991.00    0.68462   0.55846    0.006
 5992.00    0.66667   0.55897    0.006
 5993.00    0.57667   0.55983    0.006
 5994.00    0.48866   0.56093    0.005
 5995.00    0.40284   0.56185    0.006
 5996.00    0.38920   0.56255    0.006
 5997.00    0.44543   0.56336    0.006
 5998.00    0.52471   0.56443    0.006
 5999.00    0.62368   0.56567    0.006
 6000.00    0.64773   0.56689    0.006
 6001.00    0.61548   0.56788    0.006
 6002.00    0.53038   0.56827    0.006
 6003.00    0.41039   0.56788    0.006
 6004.00    0.35583   0.56684    0.006
 6005.00    0.33910   0.56547    0.006
 6006.00    0.36285   0.56406    0.006
 6007.00    0.40698   0.56279    0.006
 6008.00    0.45631   0.56188    0.006
 6009.00    0.50791   0.56137    0.006
 6010.00    0.52827   0.56114    0.006
 6011.00    0.53694   0.56103    0.006
 6012.00    0.52515   0.56090    0.006
 6013.00    0.50686   0.56056    0.006
 6014.00    0.52564   0.56011    0.006
 6015.00    0.55425   0.55990    0.006
 6016.00    0.60433   0.56018    0.006
 6017.00    0.65905   0.56086    0.006
 6018.00    0.72244   0.56165    0.006
 6019.00    0.78732   0.56217    0.006
 6020.00    0.73738   0.56227    0.006
 6021.00    0.67245   0.56213    0.006
 6022.00    0.61283   0.56198    0.006
 6023.00    0.55369   0.56189    0.006
 6024.00    0.55714   0.56180    0.006
 6025.00    0.56409   0.56180    0.006
 6026.00    0.58706   0.56206    0.006
 6027.00    0.61005   0.56257    0.006
 6028.00    0.60014   0.56317    0.006
 6029.00    0.59138   0.56379    0.006
 6030.00    0.60959   0.56442    0.006
 6031.00    0.62824   0.56508    0.006
 6032.00    0.65243   0.56581    0.006
 6033.00    0.67814   0.56660    0.006
 6034.00    0.71690   0.56734    0.006
 6035.00    0.75380   0.56786    0.006
 6036.00    0.77882   0.56808    0.006
 6037.00    0.80012   0.56810    0.006
 6038.00    0.80287   0.56800    0.006
 6039.00    0.80402   0.56793    0.006
 6040.00    0.79868   0.56807    0.006
 6041.00    0.77113   0.56840    0.006
 6042.00    0.66896   0.56864    0.006
 6043.00    0.59576   0.56857    0.006
 6044.00    0.60463   0.56824    0.006
 6045.00    0.61356   0.56795    0.006
 6046.00    0.62264   0.56796    0.006
 6047.00    0.62240   0.56835    0.006
 6048.00    0.60267   0.56912    0.006
 6049.00    0.58618   0.57020    0.006
 6050.00    0.57557   0.57147    0.006
 6051.00    0.58167   0.57270    0.006
 6052.00    0.61430   0.57367    0.006
 6053.00    0.64758   0.57423    0.006
 6054.00    0.68175   0.57440    0.006
 6055.00    0.66101   0.57429    0.006
 6056.00    0.57288   0.57402    0.006
 6057.00    0.52631   0.57370    0.006
 6058.00    0.52471   0.57334    0.006
 6059.00    0.54639   0.57286    0.006
 6060.00    0.59029   0.57212    0.006
 6061.00    0.62906   0.57113    0.006
 6062.00    0.66352   0.57001    0.006
 6063.00    0.67289   0.56898    0.006
 6064.00    0.66366   0.56819    0.006
 6065.00    0.63057   0.56781    0.006
 6066.00    0.58197   0.56783    0.006
 6067.00    0.57200   0.56807    0.006
 6068.00    0.58405   0.56812    0.006
 6069.00    0.62415   0.56759    0.006
 6070.00    0.67817   0.56650    0.006
 6071.00    0.69875   0.56540    0.006
 6072.00    0.70498   0.56491    0.006
 6073.00    0.60938   0.56550    0.006
 6074.00    0.47635   0.56720    0.006
 6075.00    0.42934   0.56957    0.006
 6076.00    0.40910   0.57189    0.006
 6077.00    0.44790   0.57356    0.006
 6078.00    0.50201   0.57449    0.006
 6079.00    0.52583   0.57487    0.006
 6080.00    0.54324   0.57489    0.006
 6081.00    0.61073   0.57466    0.006
 6082.00    0.68661   0.57423    0.006
 6083.00    0.66864   0.57358    0.006
 6084.00    0.63884   0.57261    0.006
 6085.00    0.63059   0.57125    0.006
 6086.00    0.62423   0.56962    0.006
 6087.00    0.65752   0.56800    0.006
 6088.00    0.69285   0.56674    0.006
 6089.00    0.64576   0.56605    0.006
 6090.00    0.59744   0.56595    0.006
 6091.00    0.56949   0.56640    0.006
 6092.00    0.54187   0.56716    0.006
 6093.00    0.52144   0.56784    0.006
 6094.00    0.50150   0.56809    0.006
 6095.00    0.48732   0.56791    0.006
 6096.00    0.48185   0.56743    0.006
 6097.00    0.54865   0.56678    0.006
 6098.00    0.60951   0.56628    0.006
 6099.00    0.63353   0.56632    0.006
 6100.00    0.65280   0.56708    0.006
 6101.00    0.64890   0.56830    0.006
 6102.00    0.65049   0.56957    0.006
 6103.00    0.67382   0.57065    0.006
 6104.00    0.68184   0.57140    0.006
 6105.00    0.63944   0.57162    0.006
 6106.00    0.59010   0.57121    0.006
 6107.00    0.52142   0.57012    0.006
 6108.00    0.48948   0.56836    0.006
 6109.00    0.54507   0.56625    0.006
 6110.00    0.59545   0.56441    0.006
 6111.00    0.63511   0.56352    0.006
 6112.00    0.66256   0.56392    0.006
 6113.00    0.66816   0.56528    0.006
 6114.00    0.68080   0.56669    0.006
 6115.00    0.70448   0.56758    0.006
 6116.00    0.69786   0.56795    0.006
 6117.00    0.64960   0.56811    0.006
 6118.00    0.60624   0.56842    0.006
 6119.00    0.56881   0.56896    0.006
 6120.00    0.59365   0.56966    0.006
 6121.00    0.68488   0.57038    0.006
 6122.00    0.76953   0.57079    0.006
 6123.00    0.84798   0.57049    0.006
 6124.00    0.83872   0.56929    0.006
 6125.00    0.75672   0.56726    0.006
 6126.00    0.70505   0.56467    0.006
 6127.00    0.67553   0.56194    0.006
 6128.00    0.65101   0.55968    0.006
 6129.00    0.62971   0.55855    0.006
 6130.00    0.62479   0.55889    0.006
 6131.00    0.62905   0.56037    0.006
 6132.00    0.63910   0.56226    0.006
 6133.00    0.65196   0.56377    0.006
 6134.00    0.66273   0.56464    0.006
 6135.00    0.67263   0.56531    0.006
 6136.00    0.68944   0.56628    0.006
 6137.00    0.70875   0.56752    0.006
 6138.00    0.69426   0.56856    0.006
 6139.00    0.66945   0.56866    0.006
 6140.00    0.62176   0.56721    0.006
 6141.00    0.56827   0.56424    0.006
 6142.00    0.54761   0.56051    0.006
 6143.00    0.53373   0.55722    0.006
 6144.00    0.56813   0.55545    0.006
 6145.00    0.61038   0.55570    0.006
 6146.00    0.60852   0.55764    0.006
 6147.00    0.60129   0.56048    0.006
 6148.00    0.58475   0.56335    0.006
 6149.00    0.56744   0.56566    0.005
 6150.00    0.57030   0.56742    0.006
 6151.00    0.57412   0.56889    0.006
 6152.00    0.58024   0.56995    0.006
 6153.00    0.58735   0.56994    0.006
 6154.00    0.64966   0.56826    0.006
 6155.00    0.71142   0.56509    0.006
 6156.00    0.76250   0.56133    0.006
 6157.00    0.80015   0.55801    0.006
 6158.00    0.68287   0.55587    0.006
 6159.00    0.56978   0.55511    0.006
 6160.00    0.49014   0.55522    0.006
 6161.00    0.41679   0.55527    0.006
 6162.00    0.38120   0.55435    0.006
 6163.00    0.35527   0.55210    0.006
 6164.00    0.37524   0.54857    0.006
 6165.00    0.41300   0.54398    0.006
 6166.00    0.51964   0.53856    0.006
 6167.00    0.59697   0.53273    0.006
 6168.00    0.57967   0.52728    0.006
 6169.00    0.54574   0.52301    0.006
 6170.00    0.46632   0.52042    0.006
 6171.00    0.42294   0.51956    0.006
 6172.00    0.46392   0.52009    0.005
 6173.00    0.50261   0.52124    0.005
 6174.00    0.53666   0.52221    0.006
 6175.00    0.54906   0.52269    0.006
 6176.00    0.52329   0.52288    0.005
 6177.00    0.47146   0.52313    0.005
 6178.00    0.37942   0.52360    0.006
 6179.00    0.31848   0.52429    0.006
 6180.00    0.29964   0.52507    0.006
 6181.00    0.29974   0.52569    0.006
 6182.00    0.32240   0.52613    0.006
 6183.00    0.36407   0.52666    0.006
 6184.00    0.42571   0.52755    0.006
 6185.00    0.45811   0.52877    0.006
 6186.00    0.46340   0.53005    0.006
 6187.00    0.49325   0.53112    0.006
 6188.00    0.54319   0.53171    0.006
 6189.00    0.54574   0.53168    0.006
 6190.00    0.51420   0.53093    0.006
 6191.00    0.46670   0.52940    0.006
 6192.00    0.40913   0.52715    0.006
 6193.00    0.43719   0.52442    0.006
 6194.00    0.51255   0.52155    0.006
 6195.00    0.73685   0.51878    0.006
 6196.00    1.03268   0.51633   -2.000
 6197.00    1.44262   0.51444   -2.000
 6198.00    1.89985   0.51329   -2.000
 6199.00    2.01758   0.51296   -2.000
 6200.00    2.01498   0.51350   -2.000
 6201.00    1.47988   0.51482   -2.000
 6202.00    0.78542   0.51655   -2.000
 6203.00    0.37396   0.51819   -2.000
 6204.00    0.03279   0.51930   -2.000
 6205.00   -0.01911   0.51982   -2.000
 6206.00   -0.01277   0.51998   -2.000
 6207.00    0.16381   0.52012   -2.000
 6208.00    0.36725   0.52054    0.006
 6209.00    0.44882   0.52130    0.006
 6210.00    0.51610   0.52231    0.006
 6211.00    0.51572   0.52334    0.006
 6212.00    0.50997   0.52420    0.006
 6213.00    0.51590   0.52478    0.006
 6214.00    0.52233   0.52506    0.006
 6215.00    0.53436   0.52498    0.006
 6216.00    0.54626   0.52438    0.006
 6217.00    0.54873   0.52315    0.006
 6218.00    0.54897   0.52121    0.006
 6219.00    0.50860   0.51866    0.006
 6220.00    0.47673   0.51573    0.006
 6221.00    0.53831   0.51283    0.006
 6222.00    0.59668   0.51041    0.006
 6223.00    0.63030   0.50879    0.006
 6224.00    0.65182   0.50807    0.006
 6225.00    0.60258   0.50812    0.006
 6226.00    0.54974   0.50848    0.006
 6227.00    0.48015   0.50869    0.006
 6228.00    0.43846   0.50835    0.005
 6229.00    0.50251   0.50745    0.006
 6230.00    0.56392   0.50625    0.006
 6231.00    0.61702   0.50511    0.006
 6232.00    0.65229   0.50429    0.006
 6233.00    0.63972   0.50384    0.006
 6234.00    0.62542   0.50360    0.006
 6235.00    0.60714   0.50323    0.006
 6236.00    0.56454   0.50257    0.006
 6237.00    0.47346   0.50178    0.006
 6238.00    0.40742   0.50123    0.006
 6239.00    0.38485   0.50133    0.006
 6240.00    0.39034   0.50223    0.006
 6241.00    0.43846   0.50375    0.006
 6242.00    0.47028   0.50536    0.006
 6243.00    0.48033   0.50645    0.006
 6244.00    0.48045   0.50664    0.006
 6245.00    0.46890   0.50595    0.006
 6246.00    0.47998   0.50476    0.006
 6247.00    0.51452   0.50349    0.006
 6248.00    0.55844   0.50249    0.006
 6249.00    0.61095   0.50200    0.006
 6250.00    0.64564   0.50213    0.006
 6251.00    0.66599   0.50284    0.006
 6252.00    0.66095   0.50405    0.006
 6253.00    0.63791   0.50565    0.006
 6254.00    0.64575   0.50743    0.005
 6255.00    0.67280   0.50909    0.006
 6256.00    0.68173   0.51026    0.006
 6257.00    0.68079   0.51079    0.006
 6258.00    0.70218   0.51077    0.006
 6259.00    0.73410   0.51039    0.006
 6260.00    0.81113   0.50986    0.006
 6261.00    0.90654   0.50921    0.007
 6262.00    0.86475   0.50831    0.007
 6263.00    0.77520   0.50711    0.007
 6264.00    0.65916   0.50581    0.007
 6265.00    0.53535   0.50486    0.007
 6266.00    0.44919   0.50470    0.007
 6267.00    0.37218   0.50563    0.006
 6268.00    0.37904   0.50757    0.006
 6269.00    0.40235   0.51003    0.006
 6270.00    0.48228   0.51230    0.006
 6271.00    0.57087   0.51387    0.006
 6272.00    0.61703   0.51460    0.006
 6273.00    0.65841   0.51459    0.006
 6274.00    0.68470   0.51411    0.006
 6275.00    0.70986   0.51359    0.006
 6276.00    0.73962   0.51339    0.006
 6277.00    0.76958   0.51360    0.006
 6278.00    0.73421   0.51411    0.006
 6279.00    0.69942   0.51462    0.006
 6280.00    0.70733   0.51494    0.000
 6281.00    0.71569   0.51498    0.000
 6282.00    0.73161   0.51483    0.000
 6283.00    0.74605   0.51470    0.000
 6284.00    0.74494   0.51472    0.000
 6285.00    0.73984   0.51484    0.000
 6286.00    0.70510   0.51496    0.000
 6287.00    0.66043   0.51510    0.000
 6288.00    0.55931   0.51534    0.000
 6289.00    0.47868   0.51583    0.000
 6290.00    0.49083   0.51661    0.000
 6291.00    0.52775   0.51769    0.000
 6292.00    0.65664   0.51902    0.000
 6293.00    0.75437   0.52050    0.000
 6294.00    0.75537   0.52199    0.000
 6295.00    0.73343   0.52331    0.000
 6296.00    0.65098   0.52424    0.000
 6297.00    0.58553   0.52455    0.000
 6298.00    0.55855   0.52416    0.000
 6299.00    0.53203   0.52316    0.000
 6300.00    0.50639   0.52178    0.000
 6301.00    0.50406   0.52020    0.000
 6302.00    0.54156   0.51871    0.000
 6303.00    0.55860   0.51763    0.000
 6304.00    0.54501   0.51724    0.000
 6305.00    0.54823   0.51758    0.000
 6306.00    0.57358   0.51845    0.000
 6307.00    0.61379   0.51953    0.000
 6308.00    0.67121   0.52051    0.000
 6309.00    0.67664   0.52117    0.000
 6310.00    0.62893   0.52146    0.000
 6311.00    0.58384   0.52159    0.000
 6312.00    0.54112   0.52192    0.000
 6313.00    0.51400   0.52268    0.000
 6314.00    0.49928   0.52383    0.000
 6315.00    0.45754   0.52507    0.000
 6316.00    0.39691   0.52599    0.000
 6317.00    0.36287   0.52639    0.000
 6318.00    0.34512   0.52633    0.000
 6319.00    0.41391   0.52607    0.000
 6320.00    0.52903   0.52590    0.000
 6321.00    0.59262   0.52603    0.006
 6322.00    0.63225   0.52642    0.006
 6323.00    0.61960   0.52688    0.006
 6324.00    0.58600   0.52728    0.006
 6325.00    0.56181   0.52763    0.006
 6326.00    0.54083   0.52798    0.006
 6327.00    0.52236   0.52835    0.006
 6328.00    0.50460   0.52877    0.006
 6329.00    0.48434   0.52920    0.006
 6330.00    0.46349   0.52962    0.006
 6331.00    0.48292   0.53003    0.005
 6332.00    0.51006   0.53047    0.005
 6333.00    0.56956   0.53102    0.005
 6334.00    0.63387   0.53170    0.005
 6335.00    0.63978   0.53243    0.005
 6336.00    0.63935   0.53316    0.005
 6337.00    0.61672   0.53393    0.005
 6338.00    0.59251   0.53469    0.005
 6339.00    0.56897   0.53525    0.005
 6340.00    0.54545   0.53530    0.005
 6341.00    0.56539   0.53472    0.005
 6342.00    0.58511   0.53375    0.006
 6343.00    0.59095   0.53292    0.006
 6344.00    0.59297   0.53269    0.006
 6345.00    0.53404   0.53324    0.006
 6346.00    0.47845   0.53438    0.006
 6347.00    0.45663   0.53556    0.006
 6348.00    0.43486   0.53611    0.006
 6349.00    0.41354   0.53557    0.006
 6350.00    0.40502   0.53389    0.005
 6351.00    0.46737   0.53150    0.005
 6352.00    0.52729   0.52918    0.005
 6353.00    0.57649   0.52771    0.006
 6354.00    0.60810   0.52756    0.006
 6355.00    0.57579   0.52870    0.005
 6356.00    0.53808   0.53057    0.005
 6357.00    0.48389   0.53238    0.005
 6358.00    0.45660   0.53346    0.005
 6359.00    0.49900   0.53347    0.005
 6360.00    0.52328   0.53249    0.005
 6361.00    0.50720   0.53086    0.006
 6362.00    0.49106   0.52894    0.006
 6363.00    0.47480   0.52692    0.006
 6364.00    0.47995   0.52486    0.006
 6365.00    0.52114   0.52286    0.006
 6366.00    0.54821   0.52109    0.006
 6367.00    0.55447   0.51975    0.006
 6368.00    0.53732   0.51897    0.006
 6369.00    0.48983   0.51885    0.006
 6370.00    0.47751   0.51945    0.006
 6371.00    0.50540   0.52074    0.006
 6372.00    0.52483   0.52265    0.006
 6373.00    0.53574   0.52504    0.006
 6374.00    0.54869   0.52763    0.006
 6375.00    0.56344   0.53002    0.006
 6376.00    0.58007   0.53185    0.006
 6377.00    0.59818   0.53316    0.006
 6378.00    0.59119   0.53422    0.006
 6379.00    0.56690   0.53532    0.006
 6380.00    0.51983   0.53653    0.006
 6381.00    0.45900   0.53765    0.005
 6382.00    0.43552   0.53841    0.005
 6383.00    0.43173   0.53847    0.005
 6384.00    0.44826   0.53765    0.005
 6385.00    0.47408   0.53612    0.005
 6386.00    0.50044   0.53441    0.005
 6387.00    0.52702   0.53300    0.005
 6388.00    0.54891   0.53218    0.005
 6389.00    0.56921   0.53193    0.005
 6390.00    0.61941   0.53194    0.005
 6391.00    0.67801   0.53198    0.005
 6392.00    0.68416   0.53197    0.006
 6393.00    0.67813   0.53192    0.006
 6394.00    0.64444   0.53189    0.006
 6395.00    0.60560   0.53196    0.006
 6396.00    0.55019   0.53208    0.006
 6397.00    0.49240   0.53209    0.006
 6398.00    0.47087   0.53180    0.006
 6399.00    0.45312   0.53121    0.006
 6400.00    0.49972   0.53071    0.006
 6401.00    0.55064   0.53079    0.006
 6402.00    0.55441   0.53165    0.006
 6403.00    0.55664   0.53307    0.006
 6404.00    0.54875   0.53447    0.006
 6405.00    0.54021   0.53518    0.006
 6406.00    0.51146   0.53502    0.005
 6407.00    0.48681   0.53453    0.005
 6408.00    0.52366   0.53444    0.005
 6409.00    0.56081   0.53511    0.005
 6410.00    0.60080   0.53644    0.005
 6411.00    0.62880   0.53794    0.005
 6412.00    0.57307   0.53906    0.005
 6413.00    0.51846   0.53958    0.005
 6414.00    0.46986   0.53961    0.005
 6415.00    0.43360   0.53949    0.005
 6416.00    0.45071   0.53934    0.005
 6417.00    0.46647   0.53898    0.005
 6418.00    0.47743   0.53830    0.005
 6419.00    0.48703   0.53741    0.005
 6420.00    0.49253   0.53664    0.006
 6421.00    0.50817   0.53631    0.006
 6422.00    0.54958   0.53647    0.006
 6423.00    0.57503   0.53681    0.006
 6424.00    0.56549   0.53683    0.006
 6425.00    0.53072   0.53617    0.006
 6426.00    0.44798   0.53484    0.006
 6427.00    0.39941   0.53328    0.006
 6428.00    0.40751   0.53224    0.006
 6429.00    0.41774   0.53222    0.006
 6430.00    0.43108   0.53315    0.006
 6431.00    0.43154   0.53465    0.006
 6432.00    0.41553   0.53628    0.005
 6433.00    0.42622   0.53757    0.005
 6434.00    0.46698   0.53816    0.005
 6435.00    0.51542   0.53785    0.005
 6436.00    0.57148   0.53665    0.005
 6437.00    0.60462   0.53502    0.005
 6438.00    0.61768   0.53374    0.005
 6439.00    0.62407   0.53334    0.005
 6440.00    0.62532   0.53391    0.005
 6441.00    0.63153   0.53516    0.006
 6442.00    0.64110   0.53663    0.006
 6443.00    0.62802   0.53782    0.006
 6444.00    0.60148   0.53838    0.006
 6445.00    0.60819   0.53848    0.006
 6446.00    0.63217   0.53872    0.006
 6447.00    0.65332   0.53960    0.006
 6448.00    0.67321   0.54125    0.006
 6449.00    0.68471   0.54339    0.006
 6450.00    0.69298   0.54547    0.006
 6451.00    0.65184   0.54689    0.006
 6452.00    0.59445   0.54723    0.006
 6453.00    0.55549   0.54620    0.006
 6454.00    0.52161   0.54370    0.006
 6455.00    0.54935   0.53998    0.005
 6456.00    0.59106   0.53583    0.006
 6457.00    0.62537   0.53245    0.005
 6458.00    0.65834   0.53079    0.005
 6459.00    0.64914   0.53114    0.005
 6460.00    0.63408   0.53305    0.005
 6461.00    0.58100   0.53561    0.005
 6462.00    0.52413   0.53811    0.005
 6463.00    0.51229   0.54034    0.005
 6464.00    0.50329   0.54234    0.005
 6465.00    0.55221   0.54405    0.005
 6466.00    0.60263   0.54518    0.005
 6467.00    0.60056   0.54523    0.005
 6468.00    0.59649   0.54397    0.005
 6469.00    0.53657   0.54188    0.005
 6470.00    0.48239   0.54002    0.005
 6471.00    0.50922   0.53926    0.006
 6472.00    0.54169   0.53983    0.006
 6473.00    0.62640   0.54144    0.006
 6474.00    0.69023   0.54345    0.006
 6475.00    0.61283   0.54516    0.006
 6476.00    0.53871   0.54611    0.006
 6477.00    0.48177   0.54613    0.006
 6478.00    0.43560   0.54529    0.006
 6479.00    0.43486   0.54372    0.006
 6480.00    0.43796   0.54160    0.006
 6481.00    0.45441   0.53935    0.006
 6482.00    0.47563   0.53757    0.005
 6483.00    0.51086   0.53666    0.005
 6484.00    0.53532   0.53647    0.005
 6485.00    0.53288   0.53641    0.005
 6486.00    0.51925   0.53582    0.005
 6487.00    0.48155   0.53424    0.005
 6488.00    0.46433   0.53169    0.005
 6489.00    0.48546   0.52881    0.005
 6490.00    0.50558   0.52644    0.005
 6491.00    0.52407   0.52518    0.005
 6492.00    0.53909   0.52517    0.005
 6493.00    0.54914   0.52609    0.005
 6494.00    0.54970   0.52736    0.005
 6495.00    0.53829   0.52836    0.005
 6496.00    0.52436   0.52868    0.006
 6497.00    0.50764   0.52815    0.006
 6498.00    0.51457   0.52679    0.006
 6499.00    0.54467   0.52453    0.006
 6500.00    0.55759   0.52129    0.006
 6501.00    0.55566   0.51731    0.006
 6502.00    0.50135   0.51328    0.006
 6503.00    0.40717   0.51005    0.006
 6504.00    0.39769   0.50829    0.005
 6505.00    0.44487   0.50828    0.005
 6506.00    0.47987   0.50984    0.005
 6507.00    0.50775   0.51257    0.005
 6508.00    0.50157   0.51591    0.005
 6509.00    0.47801   0.51931    0.005
 6510.00    0.49832   0.52233    0.005
 6511.00    0.53806   0.52469    0.005
 6512.00    0.56308   0.52629    0.005
 6513.00    0.58250   0.52712    0.005
 6514.00    0.60308   0.52723    0.005
 6515.00    0.62402   0.52695    0.005
 6516.00    0.62709   0.52676    0.005
 6517.00    0.62533   0.52701    0.005
 6518.00    0.57848   0.52763    0.005
 6519.00    0.52165   0.52830    0.006
 6520.00    0.45741   0.52870    0.006
 6521.00    0.39187   0.52863    0.005
 6522.00    0.39833   0.52808    0.006
 6523.00    0.41448   0.52727    0.006
 6524.00    0.47828   0.52652    0.006
 6525.00    0.54663   0.52609    0.006
 6526.00    0.61562   0.52621    0.006
 6527.00    0.68465   0.52690    0.005
 6528.00    0.67623   0.52789    0.000
 6529.00    0.66564   0.52886    0.000
 6530.00    0.62338   0.52952    0.000
 6531.00    0.58066   0.52977    0.000
 6532.00    0.52607   0.52968    0.000
 6533.00    0.47419   0.52943    0.000
 6534.00    0.45857   0.52931    0.000
 6535.00    0.44865   0.52957    0.000
 6536.00    0.48946   0.53021    0.000
 6537.00    0.52635   0.53096    0.000
 6538.00    0.53759   0.53160    0.000
 6539.00    0.54615   0.53212    0.000
 6540.00    0.54099   0.53274    0.000
 6541.00    0.53984   0.53365    0.000
 6542.00    0.55525   0.53479    0.000
 6543.00    0.57446   0.53593    0.000
 6544.00    0.60666   0.53680    0.000
 6545.00    0.62948   0.53739    0.000
 6546.00    0.62530   0.53775    0.000
 6547.00    0.62381   0.53775    0.000
 6548.00    0.62894   0.53700    0.000
 6549.00    0.61015   0.53522    0.000
 6550.00    0.54060   0.53241    0.000
 6551.00    0.51395   0.52897    0.000
 6552.00    0.56636   0.52545    0.000
 6553.00    0.64167   0.52236    0.000
 6554.00    0.75384   0.51998    0.000
 6555.00    0.84680   0.51825    0.000
 6556.00    0.91263   0.51666    0.000
 6557.00    0.98050   0.51475    0.000
 6558.00    1.05091   0.51232    0.000
 6559.00    1.11109   0.50937    0.000
 6560.00    1.16004   0.50587    0.000
 6561.00    1.15558   0.50165    0.000
 6562.00    1.09951   0.49656    0.000
 6563.00    1.00717   0.49043    0.000
 6564.00    0.88392   0.48294    0.000
 6565.00    0.75656   0.47352    0.000
 6566.00    0.62611   0.46161    0.000
 6567.00    0.55507   0.44703    0.000
 6568.00    0.52320   0.43057    0.000
 6569.00    0.52431   0.41480    0.000
 6570.00    0.54445   0.40399    0.000
 6571.00    0.56158   0.40217    0.000
 6572.00    0.57720   0.41022    0.000
 6573.00    0.58293   0.42552    0.000
 6574.00    0.58436   0.44397    0.000
 6575.00    0.61185   0.46166    0.000
 6576.00    0.64907   0.47614    0.000
 6577.00    0.67851   0.48665    0.000
 6578.00    0.70549   0.49362    0.000
 6579.00    0.73634   0.49781    0.000
 6580.00    0.76822   0.50020    0.000
 6581.00    0.80837   0.50175    0.000
 6582.00    0.85030   0.50314    0.000
 6583.00    0.77989   0.50457    0.000
 6584.00    0.69020   0.50598    0.000
 6585.00    0.61869   0.50721    0.000
 6586.00    0.54953   0.50823    0.000
 6587.00    0.55624   0.50915    0.000
 6588.00    0.56988   0.51013    0.000
 6589.00    0.63483   0.51139    0.000
 6590.00    0.70262   0.51321    0.000
 6591.00    0.65021   0.51557    0.000
 6592.00    0.59525   0.51824    0.000
 6593.00    0.54327   0.52093    0.000
 6594.00    0.49345   0.52335    0.000
 6595.00    0.49303   0.52529    0.000
 6596.00    0.49539   0.52638    0.000
 6597.00    0.53288   0.52631    0.000
 6598.00    0.56242   0.52497    0.000
 6599.00    0.52389   0.52262    0.000
 6600.00    0.49083   0.51992    0.000
 6601.00    0.49266   0.51780    0.000
 6602.00    0.49706   0.51687    0.000
 6603.00    0.51430   0.51710    0.000
 6604.00    0.52996   0.51793    0.000
 6605.00    0.53922   0.51883    0.000
 6606.00    0.55421   0.51966    0.000
 6607.00    0.58837   0.52062    0.000
 6608.00    0.62205   0.52181    0.000
 6609.00    0.65432   0.52297    0.005
 6610.00    0.67296   0.52366    0.005
 6611.00    0.65866   0.52357    0.005
 6612.00    0.62069   0.52261    0.006
 6613.00    0.53334   0.52102    0.006
 6614.00    0.46565   0.51923    0.006
 6615.00    0.43364   0.51765    0.006
 6616.00    0.43258   0.51662    0.006
 6617.00    0.48058   0.51642    0.006
 6618.00    0.53665   0.51716    0.006
 6619.00    0.60395   0.51852    0.006
 6620.00    0.63919   0.51996    0.006
 6621.00    0.63518   0.52114    0.005
 6622.00    0.63809   0.52203    0.005
 6623.00    0.64850   0.52269    0.005
 6624.00    0.64240   0.52303    0.005
 6625.00    0.62057   0.52301    0.005
 6626.00    0.59817   0.52268    0.005
 6627.00    0.57527   0.52210    0.005
 6628.00    0.51263   0.52125    0.005
 6629.00    0.42058   0.51999    0.005
 6630.00    0.35195   0.51824    0.005
 6631.00    0.29854   0.51615    0.005
 6632.00    0.28148   0.51411    0.005
 6633.00    0.28509   0.51261    0.005
 6634.00    0.31004   0.51194    0.005
 6635.00    0.34554   0.51201    0.005
 6636.00    0.40852   0.51247    0.006
 6637.00    0.48326   0.51299    0.005
 6638.00    0.50329   0.51339    0.006
 6639.00    0.50325   0.51359    0.006
 6640.00    0.46723   0.51354    0.006
 6641.00    0.42005   0.51329    0.006
 6642.00    0.39090   0.51298    0.006
 6643.00    0.36642   0.51280    0.005
 6644.00    0.40396   0.51284    0.005
 6645.00    0.45459   0.51305    0.005
 6646.00    0.49954   0.51333    0.005
 6647.00    0.54355   0.51356    0.005
 6648.00    0.47133   0.51368    0.005
 6649.00    0.38452   0.51369    0.005
 6650.00    0.35545   0.51355    0.005
 6651.00    0.33140   0.51327    0.005
 6652.00    0.34360   0.51305    0.005
 6653.00    0.35765   0.51296    0.005
 6654.00    0.41089   0.51276    0.005
 6655.00    0.46402   0.51206    0.005
 6656.00    0.46004   0.51065    0.005
 6657.00    0.45752   0.50853    0.005
 6658.00    0.48571   0.50588    0.006
 6659.00    0.51680   0.50313    0.006
 6660.00    0.58270   0.50091    0.006
 6661.00    0.64099   0.49961    0.006
 6662.00    0.63645   0.49917    0.006
 6663.00    0.63079   0.49924    0.006
 6664.00    0.61819   0.49949    0.006
 6665.00    0.60172   0.49975    0.006
 6666.00    0.56647   0.49992    0.006
 6667.00    0.53235   0.49998    0.005
 6668.00    0.50266   0.49988    0.005
 6669.00    0.48447   0.49966    0.005
 6670.00    0.50410   0.49936    0.005
 6671.00    0.51757   0.49912    0.005
 6672.00    0.51398   0.49914    0.005
 6673.00    0.52410   0.49950    0.005
 6674.00    0.56679   0.50016    0.005
 6675.00    0.58277   0.50114    0.005
 6676.00    0.54393   0.50247    0.005
 6677.00    0.49973   0.50404    0.005
 6678.00    0.44599   0.50552    0.005
 6679.00    0.41885   0.50650    0.005
 6680.00    0.43331   0.50662    0.005
 6681.00    0.47261   0.50557    0.006
 6682.00    0.54596   0.50314    0.006
 6683.00    0.60453   0.49933    0.006
 6684.00    0.64523   0.49444    0.006
 6685.00    0.64111   0.48919    0.006
 6686.00    0.58927   0.48468    0.006
 6687.00    0.55315   0.48179    0.006
 6688.00    0.53180   0.48063    0.006
 6689.00    0.50571   0.48066    0.006
 6690.00    0.47572   0.48133    0.005
 6691.00    0.48114   0.48247    0.005
 6692.00    0.51238   0.48394    0.005
 6693.00    0.53203   0.48548    0.005
 6694.00    0.54427   0.48690    0.005
 6695.00    0.51458   0.48813    0.005
 6696.00    0.46143   0.48919    0.000
 6697.00    0.43198   0.49014    0.000
 6698.00    0.41407   0.49095    0.000
 6699.00    0.41293   0.49154    0.000
 6700.00    0.41885   0.49186    0.000
 6701.00    0.45471   0.49194    0.000
 6702.00    0.50134   0.49186    0.000
 6703.00    0.53996   0.49178    0.000
 6704.00    0.57614   0.49188    0.000
 6705.00    0.59078   0.49231    0.000
 6706.00    0.59998   0.49313    0.000
 6707.00    0.56798   0.49422    0.000
 6708.00    0.52751   0.49534    0.000
 6709.00    0.52865   0.49625    0.000
 6710.00    0.53654   0.49680    0.000
 6711.00    0.61925   0.49697    0.000
 6712.00    0.71102   0.49691    0.000
 6713.00    0.76071   0.49677    0.000
 6714.00    0.80691   0.49669    0.000
 6715.00    0.74010   0.49665    0.000
 6716.00    0.66794   0.49656    0.000
 6717.00    0.67033   0.49627    0.000
 6718.00    0.67269   0.49562    0.000
 6719.00    0.61385   0.49442    0.000
 6720.00    0.55580   0.49253    0.000
 6721.00    0.51333   0.48990    0.000
 6722.00    0.47668   0.48663    0.000
 6723.00    0.50694   0.48307    0.000
 6724.00    0.53554   0.47982    0.000
 6725.00    0.55094   0.47735    0.000
 6726.00    0.55655   0.47590    0.000
 6727.00    0.50347   0.47542    0.000
 6728.00    0.46216   0.47569    0.000
 6729.00    0.47666   0.47635    0.000
 6730.00    0.48728   0.47715    0.000
 6731.00    0.48296   0.47794    0.000
 6732.00    0.48033   0.47869    0.000
 6733.00    0.48319   0.47938    0.000
 6734.00    0.47772   0.47999    0.000
 6735.00    0.44951   0.48057    0.000
 6736.00    0.43855   0.48115    0.000
 6737.00    0.46791   0.48173    0.000
 6738.00    0.49150   0.48228    0.000
 6739.00    0.50346   0.48282    0.000
 6740.00    0.53261   0.48336    0.000
 6741.00    0.59199   0.48389    0.000
 6742.00    0.63323   0.48436    0.000
 6743.00    0.64653   0.48471    0.000
 6744.00    0.62048   0.48487    0.000
 6745.00    0.54122   0.48485    0.000
 6746.00    0.48577   0.48465    0.000
 6747.00    0.45868   0.48429    0.000
 6748.00    0.45596   0.48385    0.000
 6749.00    0.47881   0.48337    0.000
 6750.00    0.51289   0.48288    0.000
 6751.00    0.55738   0.48236    0.000
 6752.00    0.55267   0.48180    0.000
 6753.00    0.50779   0.48125    0.006
 6754.00    0.46993   0.48061    0.006
 6755.00    0.43713   0.47979    0.007
 6756.00    0.43347   0.47885    0.007
 6757.00    0.44818   0.47798    0.007
 6758.00    0.47014   0.47737    0.007
 6759.00    0.49610   0.47709    0.007
 6760.00    0.49825   0.47715    0.007
 6761.00    0.48898   0.47760    0.006
 6762.00    0.50648   0.47854    0.006
 6763.00    0.53505   0.48001    0.006
 6764.00    0.59368   0.48183    0.006
 6765.00    0.66293   0.48362    0.006
 6766.00    0.63208   0.48511    0.006
 6767.00    0.57135   0.48615    0.006
 6768.00    0.52541   0.48679    0.006
 6769.00    0.48314   0.48713    0.006
 6770.00    0.44901   0.48732    0.006
 6771.00    0.41652   0.48743    0.006
 6772.00    0.37460   0.48749    0.006
 6773.00    0.33120   0.48753    0.006
 6774.00    0.41499   0.48756    0.006
 6775.00    0.51362   0.48766    0.006
 6776.00    0.48176   0.48792    0.006
 6777.00    0.43962   0.48844    0.006
 6778.00    0.44849   0.48920    0.006
 6779.00    0.45959   0.49012    0.006
 6780.00    0.45797   0.49120    0.006
 6781.00    0.45761   0.49241    0.006
 6782.00    0.52242   0.49364    0.006
 6783.00    0.58520   0.49468    0.006
 6784.00    0.61146   0.49531    0.006
 6785.00    0.62802   0.49533    0.006
 6786.00    0.53850   0.49456    0.006
 6787.00    0.45044   0.49286    0.006
 6788.00    0.37371   0.49020    0.006
 6789.00    0.31218   0.48675    0.006
 6790.00    0.33937   0.48293    0.006
 6791.00    0.35857   0.47933    0.006
 6792.00    0.34084   0.47656    0.006
 6793.00    0.33570   0.47505    0.006
 6794.00    0.37817   0.47480    0.006
 6795.00    0.41830   0.47546    0.006
 6796.00    0.45107   0.47652    0.006
 6797.00    0.50801   0.47753    0.006
 6798.00    0.62969   0.47828    0.006
 6799.00    0.70790   0.47880    0.006
 6800.00    0.68619   0.47924    0.006
 6801.00    0.68426   0.47978    0.006
 6802.00    0.72167   0.48049    0.006
 6803.00    0.71956   0.48139    0.006
 6804.00    0.64900   0.48243    0.006
 6805.00    0.59017   0.48355    0.006
 6806.00    0.54911   0.48466    0.006
 6807.00    0.54442   0.48571    0.006
 6808.00    0.58819   0.48667    0.006
 6809.00    0.60310   0.48752    0.006
 6810.00    0.58414   0.48821    0.006
 6811.00    0.55273   0.48867    0.006
 6812.00    0.50844   0.48891    0.006
 6813.00    0.46450   0.48899    0.006
 6814.00    0.42090   0.48904    0.006
 6815.00    0.40846   0.48917    0.006
 6816.00    0.42111   0.48941    0.006
 6817.00    0.40741   0.48969    0.006
 6818.00    0.37507   0.48990    0.006
 6819.00    0.38335   0.48990    0.006
 6820.00    0.41688   0.48957    0.006
 6821.00    0.45485   0.48893    0.006
 6822.00    0.49523   0.48812    0.006
 6823.00    0.56803   0.48738    0.006
 6824.00    0.65612   0.48696    0.006
 6825.00    0.67581   0.48697    0.006
 6826.00    0.66769   0.48737    0.006
 6827.00    0.62441   0.48799    0.006
 6828.00    0.56892   0.48868    0.006
 6829.00    0.52061   0.48935    0.006
 6830.00    0.47440   0.49003    0.006
 6831.00    0.46075   0.49069    0.006
 6832.00    0.45498   0.49126    0.006
 6833.00    0.49654   0.49161    0.006
 6834.00    0.54736   0.49165    0.006
 6835.00    0.55820   0.49142    0.006
 6836.00    0.56296   0.49105    0.006
 6837.00    0.60368   0.49073    0.006
 6838.00    0.64844   0.49060    0.006
 6839.00    0.64852   0.49077    0.006
 6840.00    0.64526   0.49130    0.006
 6841.00    0.61710   0.49217    0.006
 6842.00    0.58795   0.49327    0.006
 6843.00    0.54051   0.49441    0.006
 6844.00    0.49703   0.49533    0.006
 6845.00    0.61583   0.49579    0.006
 6846.00    0.72112   0.49566    0.006
 6847.00    0.59825   0.49505    0.006
 6848.00    0.48502   0.49429    0.006
 6849.00    0.47273   0.49376    0.006
 6850.00    0.45668   0.49372    0.006
 6851.00    0.41263   0.49422    0.006
 6852.00    0.38567   0.49502    0.006
 6853.00    0.45565   0.49576    0.006
 6854.00    0.51546   0.49609    0.006
 6855.00    0.52937   0.49580    0.006
 6856.00    0.52854   0.49489    0.006
 6857.00    0.47312   0.49353    0.006
 6858.00    0.43481   0.49196    0.006
 6859.00    0.44953   0.49045    0.006
 6860.00    0.47481   0.48915    0.006
 6861.00    0.52787   0.48819    0.006
 6862.00    0.57470   0.48757    0.006
 6863.00    0.60746   0.48726    0.006
 6864.00    0.61658   0.48719    0.006
 6865.00    0.57943   0.48726    0.006
 6866.00    0.57362   0.48735    0.006
 6867.00    0.62132   0.48739    0.006
 6868.00    0.61050   0.48745    0.006
 6869.00    0.51224   0.48771    0.006
 6870.00    0.45768   0.48834    0.006
 6871.00    0.46055   0.48935    0.006
 6872.00    0.46724   0.49047    0.006
 6873.00    0.47835   0.49130    0.006
 6874.00    0.47151   0.49154    0.006
 6875.00    0.44636   0.49118    0.006
 6876.00    0.46549   0.49047    0.006
 6877.00    0.52446   0.48979    0.006
 6878.00    0.53189   0.48942    0.006
 6879.00    0.49846   0.48947    0.006
 6880.00    0.48269   0.48995    0.006
 6881.00    0.47925   0.49082    0.006
 6882.00    0.53706   0.49204    0.006
 6883.00    0.63235   0.49350    0.006
 6884.00    0.64022   0.49506    0.006
 6885.00    0.60138   0.49651    0.006
 6886.00    0.60387   0.49758    0.006
 6887.00    0.62553   0.49804    0.006
 6888.00    0.62696   0.49780    0.006
 6889.00    0.62031   0.49691    0.006
 6890.00    0.58342   0.49565    0.006
 6891.00    0.53622   0.49441    0.006
 6892.00    0.52714   0.49352    0.006
 6893.00    0.52898   0.49315    0.006
 6894.00    0.53679   0.49325    0.006
 6895.00    0.54601   0.49363    0.006
 6896.00    0.50367   0.49408    0.006
 6897.00    0.45151   0.49455    0.006
 6898.00    0.50772   0.49505    0.006
 6899.00    0.57996   0.49570    0.006
 6900.00    0.57649   0.49658    0.006
 6901.00    0.56486   0.49767    0.006
 6902.00    0.56589   0.49888    0.006
 6903.00    0.56783   0.50004    0.006
 6904.00    0.59467   0.50102    0.006
 6905.00    0.62241   0.50172    0.006
 6906.00    0.50326   0.50214    0.006
 6907.00    0.38721   0.50236    0.006
 6908.00    0.39562   0.50254    0.006
 6909.00    0.40603   0.50286    0.006
 6910.00    0.44826   0.50345    0.006
 6911.00    0.48768   0.50429    0.006
 6912.00    0.49883   0.50531    0.006
 6913.00    0.51146   0.50644    0.006
 6914.00    0.53477   0.50759    0.006
 6915.00    0.54325   0.50866    0.006
 6916.00    0.46996   0.50950    0.006
 6917.00    0.41041   0.50998    0.006
 6918.00    0.41147   0.51004    0.006
 6919.00    0.43002   0.50972    0.006
 6920.00    0.51195   0.50920    0.006
 6921.00    0.55886   0.50871    0.006
 6922.00    0.49932   0.50841    0.006
 6923.00    0.45342   0.50831    0.006
 6924.00    0.44280   0.50827    0.006
 6925.00    0.43636   0.50813    0.006
 6926.00    0.43923   0.50777    0.006
 6927.00    0.46992   0.50723    0.006
 6928.00    0.55420   0.50661    0.006
 6929.00    0.57327   0.50600    0.006
 6930.00    0.48271   0.50539    0.006
 6931.00    0.43921   0.50475    0.006
 6932.00    0.46499   0.50416    0.006
 6933.00    0.48009   0.50385    0.006
 6934.00    0.48136   0.50401    0.006
 6935.00    0.47525   0.50471    0.006
 6936.00    0.46075   0.50576    0.006
 6937.00    0.42761   0.50683    0.006
 6938.00    0.37574   0.50761    0.006
 6939.00    0.39677   0.50798    0.006
 6940.00    0.48250   0.50805    0.006
 6941.00    0.55806   0.50803    0.006
 6942.00    0.62568   0.50815    0.006
 6943.00    0.63622   0.50853    0.006
 6944.00    0.60752   0.50913    0.006
 6945.00    0.54229   0.50988    0.006
 6946.00    0.45506   0.51071    0.006
 6947.00    0.41651   0.51157    0.006
 6948.00    0.40358   0.51237    0.006
 6949.00    0.40645   0.51297    0.006
 6950.00    0.41654   0.51328    0.006
 6951.00    0.52039   0.51331    0.006
 6952.00    0.66107   0.51328    0.006
 6953.00    0.69071   0.51347    0.006
 6954.00    0.68321   0.51408    0.006
 6955.00    0.59235   0.51505    0.006
 6956.00    0.47806   0.51608    0.006
 6957.00    0.39213   0.51675    0.006
 6958.00    0.31275   0.51675    0.006
 6959.00    0.33536   0.51607    0.006
 6960.00    0.37691   0.51498    0.006
 6961.00    0.40490   0.51394    0.006
 6962.00    0.43095   0.51338    0.006
 6963.00    0.41100   0.51351    0.006
 6964.00    0.38628   0.51431    0.006
 6965.00    0.39577   0.51554    0.006
 6966.00    0.40755   0.51694    0.006
 6967.00    0.44682   0.51830    0.006
 6968.00    0.48695   0.51957    0.006
 6969.00    0.48903   0.52072    0.006
 6970.00    0.48981   0.52174    0.006
 6971.00    0.45066   0.52261    0.006
 6972.00    0.41582   0.52332    0.006
 6973.00    0.44519   0.52391    0.006
 6974.00    0.46785   0.52442    0.006
 6975.00    0.42617   0.52488    0.006
 6976.00    0.40218   0.52526    0.006
 6977.00    0.50133   0.52547    0.006
 6978.00    0.57772   0.52545    0.006
 6979.00    0.53190   0.52524    0.006
 6980.00    0.51308   0.52489    0.006
 6981.00    0.61057   0.52439    0.006
 6982.00    0.67562   0.52361    0.006
 6983.00    0.62545   0.52241    0.006
 6984.00    0.56884   0.52074    0.006
 6985.00    0.49303   0.51883    0.006
 6986.00    0.41512   0.51720    0.006
 6987.00    0.33185   0.51645    0.006
 6988.00    0.31021   0.51699    0.006
 6989.00    0.42331   0.51878    0.006
 6990.00    0.47197   0.52140    0.006
 6991.00    0.39840   0.52417    0.006
 6992.00    0.35377   0.52647    0.006
 6993.00    0.35704   0.52787    0.006
 6994.00    0.37849   0.52818    0.006
 6995.00    0.42631   0.52741    0.006
 6996.00    0.50046   0.52585    0.006
 6997.00    0.60821   0.52397    0.006
 6998.00    0.63308   0.52235    0.006
 6999.00    0.56472   0.52140    0.006
 7000.00    0.49837   0.52122    0.006
 7001.00    0.43401   0.52159    0.006
 7002.00    0.41409   0.52215    0.006
 7003.00    0.43306   0.52262    0.006
 7004.00    0.46450   0.52289    0.006
 7005.00    0.50553   0.52297    0.006
 7006.00    0.49874   0.52293    0.006
 7007.00    0.45953   0.52290    0.006
 7008.00    0.43137   0.52299    0.006
 7009.00    0.40976   0.52324    0.006
 7010.00    0.36231   0.52361    0.006
 7011.00    0.30148   0.52394    0.006
 7012.00    0.31632   0.52414    0.006
 7013.00    0.36512   0.52422    0.006
 7014.00    0.43047   0.52434    0.006
 7015.00    0.50221   0.52465    0.006
 7016.00    0.44978   0.52519    0.006
 7017.00    0.35661   0.52588    0.006
 7018.00    0.28533   0.52657    0.006
 7019.00    0.22007   0.52709    0.006
 7020.00    0.26188   0.52727    0.006
 7021.00    0.32790   0.52697    0.006
 7022.00    0.43179   0.52621    0.006
 7023.00    0.54252   0.52529    0.006
 7024.00    0.56376   0.52472    0.006
 7025.00    0.57260   0.52499    0.006
 7026.00    0.62014   0.52625    0.006
 7027.00    0.67154   0.52815    0.006
 7028.00    0.66124   0.52999    0.006
 7029.00    0.64709   0.53113    0.006
 7030.00    0.49620   0.53128    0.006
 7031.00    0.34231   0.53058    0.007
 7032.00    0.41614   0.52948    0.007
 7033.00    0.48682   0.52847    0.007
 7034.00    0.47101   0.52789    0.007
 7035.00    0.45801   0.52787    0.007
 7036.00    0.48442   0.52840    0.007
 7037.00    0.50361   0.52936    0.007
 7038.00    0.45618   0.53052    0.006
 7039.00    0.42676   0.53166    0.006
 7040.00    0.51869   0.53257    0.006
 7041.00    0.58237   0.53311    0.006
 7042.00    0.49838   0.53325    0.006
 7043.00    0.42216   0.53301    0.006
 7044.00    0.37866   0.53248    0.006
 7045.00    0.34888   0.53188    0.006
 7046.00    0.36679   0.53164    0.006
 7047.00    0.37165   0.53225    0.006
 7048.00    0.33831   0.53394    0.006
 7049.00    0.34817   0.53652    0.006
 7050.00    0.46587   0.53942   -2.000
 7051.00    0.50966   0.54201   -2.000
 7052.00    0.39448   0.54391   -2.000
 7053.00    0.36769   0.54512   -2.000
 7054.00    0.50594   0.54588   -2.000
 7055.00    0.57163   0.54630   -2.000
 7056.00    0.51896   0.54617   -2.000
 7057.00    0.49114   0.54496   -2.000
 7058.00    0.49889   0.54197   -2.000
 7059.00    0.53644   0.53663   -2.000
 7060.00    0.61150   0.52884   -2.000
 7061.00    0.59803   0.51917   -2.000
 7062.00    0.48638   0.50882   -2.000
 7063.00    0.46974   0.49929   -2.000
 7064.00    0.54603   0.49181   -2.000
 7065.00    0.61218   0.48683   -2.000
 7066.00    0.66961   0.48390   -2.000
 7067.00    0.62096   0.48216   -2.000
 7068.00    0.49174   0.48086   -2.000
 7069.00    0.34563   0.47969   -2.000
 7070.00    0.18826   0.47871   -2.000
 7071.00    0.23774   0.47808   -2.000
 7072.00    0.40820   0.47781   -2.000
 7073.00    0.49396   0.47785   -2.000
 7074.00    0.53654   0.47813   -2.000
 7075.00    0.50583   0.47871   -2.000
 7076.00    0.44275   0.47975   -2.000
 7077.00    0.54112   0.48140   -2.000
 7078.00    0.70071   0.48365   -2.000
 7079.00    0.75974   0.48629   -2.000
 7080.00    0.78638   0.48895   -2.000
 7081.00    0.63894   0.49128   -2.000
 7082.00    0.44461   0.49310   -2.000
 7083.00    0.42953   0.49440   -2.000
 7084.00    0.45402   0.49537   -2.000
 7085.00    0.59397   0.49621   -2.000
 7086.00    0.75422   0.49704   -2.000
 7087.00    0.69052   0.49782   -2.000
 7088.00    0.59683   0.49831   -2.000
 7089.00    0.58688   0.49816   -2.000
 7090.00    0.58489   0.49701   -2.000
 7091.00    0.61785   0.49463   -2.000
 7092.00    0.65286   0.49097   -2.000
 7093.00    0.66085   0.48612   -2.000
 7094.00    0.66686   0.48034   -2.000
 7095.00    0.49271   0.47408   -2.000
 7096.00    0.32511   0.46801   -2.000
 7097.00    0.32049   0.46294   -2.000
 7098.00    0.31518   0.45945   -2.000
 7099.00    0.30072   0.45764   -2.000
 7100.00    0.29815   0.45710   -2.000
 7101.00    0.40084   0.45717   -2.000
 7102.00    0.47766   0.45734   -2.000
 7103.00    0.38538   0.45745   -2.000
 7104.00    0.31327   0.45760   -2.000
 7105.00    0.34394   0.45797   -2.000
 7106.00    0.36654   0.45860   -2.000
 7107.00    0.35595   0.45937   -2.000
 7108.00    0.36913   0.46009   -2.000
 7109.00    0.46337   0.46064   -2.000
 7110.00    0.52886   0.46111   -2.000
 7111.00    0.51176   0.46172   -2.000
 7112.00    0.48761   0.46272   -2.000
 7113.00    0.44615   0.46420   -2.000
 7114.00    0.42558   0.46601   -2.000
 7115.00    0.44923   0.46780   -2.000
 7116.00    0.46955   0.46923   -2.000
 7117.00    0.48377   0.47007   -2.000
 7118.00    0.50431   0.47037   -2.000
 7119.00    0.53500   0.47039   -2.000
 7120.00    0.60182   0.47050   -2.000
 7121.00    0.71955   0.47098   -2.000
 7122.00    0.84512   0.47196   -2.000
 7123.00    0.98040   0.47336   -2.000
 7124.00    1.05829   0.47501   -2.000
 7125.00    1.07344   0.47669   -2.000
 7126.00    0.86924   0.47822   -2.000
 7127.00    0.45350   0.47940   -2.000
 7128.00    0.26107   0.48003   -2.000
 7129.00    0.25852   0.47978   -2.000
 7130.00    0.39417   0.47826   -2.000
 7131.00    0.63331   0.47509   -2.000
 7132.00    0.75707   0.47016   -2.000
 7133.00    0.80492   0.46384   -2.000
 7134.00    0.77858   0.45700   -2.000
 7135.00    0.70950   0.45071   -2.000
 7136.00    0.74550   0.44583   -2.000
 7137.00    0.83423   0.44263   -2.000
 7138.00    0.85350   0.44090   -2.000
 7139.00    0.84262   0.44017   -2.000
 7140.00    0.64769   0.44007   -2.000
 7141.00    0.38420   0.44040   -2.000
 7142.00    0.36706   0.44105   -2.000
 7143.00    0.42774   0.44190   -2.000
 7144.00    0.47913   0.44280   -2.000
 7145.00    0.52807   0.44367   -2.000
 7146.00    0.56630   0.44452   -2.000
 7147.00    0.60222   0.44544   -2.000
 7148.00    0.56221   0.44655   -2.000
 7149.00    0.50922   0.44788   -2.000
 7150.00    0.47468   0.44936   -2.000
 7151.00    0.44253   0.45083   -2.000
 7152.00    0.44304   0.45212   -2.000
 7153.00    0.44652   0.45310   -2.000
 7154.00    0.42502   0.45375   -2.000
 7155.00    0.40216   0.45414   -2.000
 7156.00    0.37485   0.45442   -2.000
 7157.00    0.34928   0.45482   -2.000
 7158.00    0.49041   0.45555   -2.000
 7159.00    0.62479   0.45674   -2.000
 7160.00    0.60582   0.45839   -2.000
 7161.00    0.57230   0.46034   -2.000
 7162.00    0.35554   0.46230   -2.000
 7163.00    0.19953   0.46394   -2.000
 7164.00    0.56183   0.46495   -2.000
 7165.00    0.86812   0.46514   -2.000
 7166.00    0.81942   0.46456   -2.000
 7167.00    0.75804   0.46346   -2.000
 7168.00    0.63375   0.46227   -2.000
 7169.00    0.49495   0.46138   -2.000
 7170.00    0.29774   0.46098   -2.000
 7171.00    0.17058   0.46101   -2.000
 7172.00    0.27745   0.46130   -2.000
 7173.00    0.38081   0.46172   -2.000
 7174.00    0.47429   0.46224   -2.000
 7175.00    0.52924   0.46287   -2.000
 7176.00    0.49127   0.46363   -2.000
 7177.00    0.48827   0.46450   -2.000
 7178.00    0.55810   0.46546   -2.000
 7179.00    0.59790   0.46646   -2.000
 7180.00    0.58333   0.46744   -2.000
 7181.00    0.47482   0.46831   -2.000
 7182.00    0.21759   0.46902   -2.000
 7183.00    0.11444   0.46957   -2.000
 7184.00    0.22534   0.47001   -2.000
 7185.00    0.34851   0.47039   -2.000
 7186.00    0.48666   0.47075   -2.000
 7187.00    0.53193   0.47112   -2.000
 7188.00    0.47709   0.47159   -2.000
 7189.00    0.47220   0.47228   -2.000
 7190.00    0.51481   0.47326   -2.000
 7191.00    0.53408   0.47441   -2.000
 7192.00    0.53378   0.47542   -2.000
 7193.00    0.52860   0.47589   -2.000
 7194.00    0.51982   0.47559   -2.000
 7195.00    0.47888   0.47464   -2.000
 7196.00    0.41708   0.47351   -2.000
 7197.00    0.61916   0.47278   -2.000
 7198.00    0.97092   0.47285   -2.000
 7199.00    0.80704   0.47369   -2.000
 7200.00    0.38851   0.47494   -2.000
 7201.00    0.42546   0.47608   -2.000
 7202.00    0.65691   0.47670   -2.000
 7203.00    0.42146   0.47657   -2.000
 7204.00    0.01516   0.47567   -2.000
 7205.00    0.13866   0.47426   -2.000
 7206.00    0.42629   0.47270   -2.000
 7207.00    0.47465   0.47140   -2.000
 7208.00    0.46127   0.47062   -2.000
 7209.00    0.48867   0.47042   -2.000
 7210.00    0.52466   0.47064   -2.000
 7211.00    0.58688   0.47107   -2.000
 7212.00    0.65346   0.47143   -2.000
 7213.00    0.56096   0.47148   -2.000
 7214.00    0.44858   0.47112   -2.000
 7215.00    0.35848   0.47047   -2.000
 7216.00    0.27031   0.46988   -2.000
 7217.00    0.22200   0.46977   -2.000
 7218.00    0.17572   0.47036   -2.000
