###################################################################
## OUTPUT of StarlightChains_v04.for    [Cid@UFSC - 01/Apr/2007] ##
###################################################################

## Some input info
KUG0210-078._50_45.txt                   [arq_obs]
Base.CB07.vall.4m                        [arq_base]
Masks.EmLines.NEW.gm                     [arq_masks]
StCv04.C11.config                        [arq_config]
   66                                    [N_base]
    0                                    [N_YAV_components = # of components with extra extinction!]
    0                                    [i_FitPowerLaw (1/0 = Yes/No)]
-9.99                                    [alpha_PowerLaw]
CCM                                      [red_law_option]
 1.458241                                [q_norm = A(l_norm)/A(V)]

## (Re)Sampling Parameters
 3741.00                                 [l_ini (A)]
 7218.00                                 [l_fin (A)]
    1.00                                 [dl    (A)]     (OBS: dl_cushion =    50.00 A)

## Normalization info
 4020.00                                 [l_norm (A) - for base]
 4010.00                                 [llow_norm (A) - window for f_obs]
 4060.00                                 [lupp_norm (A) - window for f_obs]
6.917998E-18                             [fobs_norm (in input units)]

## S/N
 3691.00                                 [llow_SN (A) - window for S/N]
 7268.00                                 [lupp_SN (A) - window for S/N]
   2.524                                 [S/N in S/N window]
   4.176                                 [S/N in norm. window]
   0.005                                 [S/N_err in S/N window]
   0.008                                 [S/N_err in norm. window]
  1.0000                                 [fscale_chi2]

## etc...
    -2007963                             [idum_orig]
  2336                                   [NOl_eff]
  2313                                   [Nl_eff]
    23    NSIGMA                         [Ntot_cliped & clip_method]
  1776460                                [Nglobal_steps]
   7                                     [N_chains]
  40                                     [NEX0s_base = N_base in EX0s-fits]
 0   0   1       23   2.0   1.412E+03    [Clip-Bug, RC-Crash & Burn-In warning-flags, n_censored_weights, wei_nsig_threshold & wei_limit]
    28     27.701     27.177      0.523  [idt_all, wdt_TotTime, wdt_UsrTime & wdt_SysTime (sec)]

## Synthesis Results - Best model ##

 1.25499E-05                             [chi2/Nl_eff]
    47.47825                             [adev (%)]

    89.88265                             [sum-of-x (%)]
 1.24230E-17                             [Flux_tot (units of input spectrum!)]
 9.47436E-14                             [Mini_tot (???)]
 4.90730E-14                             [Mcor_tot (???)]

 369.55                                  [v0_min  (km/s)]
   0.00                                  [vd_min  (km/s)]
 0.5153                                  [AV_min  (mag)]
 0.0000                                  [YAV_min (mag)]

# j     x_j(%)      Mini_j(%)     Mcor_j(%)     age_j(yr)     Z_j      (L/M)_j    YAV?  Mstars   component_j        a/Fe...       SSP_chi2r SSP_adev(%)   SSP_AV   SSP_x(%)
  1     55.8803     7.4515E-01    1.4386E+00    1.000000E+06  0.00400  1.094E-02    0   1.0000   age020_m42            0.0000     1.2794E-05    50.9677   1.6439    86.7905
  2      0.0000     0.0000E+00    0.0000E+00    3.160000E+06  0.00400  4.007E-02    0   0.9999   age045_m42            0.0000     1.3286E-05    51.4354   0.8596    93.3270
  3      0.0000     0.0000E+00    0.0000E+00    5.010000E+06  0.00400  2.539E-02    0   0.9488   age055_m42            0.0000     1.3052E-05    51.0542   1.2145    90.6177
  4      0.5591     3.1131E-03    5.5415E-03    6.610000E+06  0.00400  2.620E-02    0   0.9220   age061_m42            0.0000     1.3365E-05    51.1182   0.7997    93.1800
  5      0.0000     0.0000E+00    0.0000E+00    1.000000E+07  0.00400  1.322E-02    0   0.8862   age070_m42            0.0000     1.3097E-05    49.3387   0.6270    93.2511
  6      0.0000     7.8550E-07    1.2998E-06    1.445000E+07  0.00400  7.883E-03    0   0.8571   age078_m42            0.0000     1.2957E-05    49.4611   0.9561    90.9906
  7      0.0000     0.0000E+00    0.0000E+00    2.512000E+07  0.00400  5.251E-03    0   0.8174   age090_m42            0.0000     1.3099E-05    49.0442   0.5132    93.4632
  8      0.0000     0.0000E+00    0.0000E+00    4.000000E+07  0.00400  3.649E-03    0   0.7851   age104_m42            0.0000     1.3240E-05    49.2921   0.2667    94.5361
  9      0.9821     4.6247E-02    6.8118E-02    5.500000E+07  0.00400  3.098E-03    0   0.7629   age110_m42            0.0000     1.3516E-05    50.0355   0.3641    95.4680
 10      0.0000     0.0000E+00    0.0000E+00    1.015200E+08  0.00400  2.228E-03    0   0.7207   age116_m42            0.0000     1.3809E-05    50.4433   0.3501    96.1374
 11      1.3602     1.8155E-01    2.3302E-01    2.861200E+08  0.00400  1.093E-03    0   0.6648   age125_m42            0.0000     1.4111E-05    49.8508  -0.1885    98.1767
 12      0.2404     5.3159E-02    6.5326E-02    5.088000E+08  0.00400  6.597E-04    0   0.6365   age130_m42            0.0000     1.4604E-05    50.7899  -0.2643   100.0784
 13      1.4671     1.0039E+00    1.1237E+00    1.434000E+09  0.00400  2.132E-04    0   0.5798   age139_m42            0.0000     1.4964E-05    48.2809  -1.0000    99.6412
 14      0.0000     0.0000E+00    0.0000E+00    4.250000E+09  0.00400  5.895E-05    0   0.5377   age158_m42            0.0000     1.5891E-05    47.3853  -1.0000    90.2960
 15      0.0000     5.5258E-05    5.5604E-05    7.500000E+09  0.00400  3.510E-05    0   0.5212   age171_m42            0.0000     1.6765E-05    48.8599  -1.0000    86.7754
 16      0.5214     3.7935E+00    3.6868E+00    1.300000E+10  0.00400  2.005E-05    0   0.5034   age193_m42            0.0000     1.7675E-05    50.9393  -1.0000    83.4964
 17      0.5860     5.6053E+00    5.3753E+00    1.800000E+10  0.00400  1.525E-05    0   0.4967   age213_m42            0.0000     1.7630E-05    51.3164  -1.0000    82.7814
 18     12.3587     1.4563E-01    2.8116E-01    1.000000E+06  0.00800  1.238E-02    0   1.0000   age020_m52            0.0000     1.2806E-05    50.9359   1.6416    86.9460
 19      0.0000     0.0000E+00    0.0000E+00    3.160000E+06  0.00800  3.074E-02    0   0.9966   age045_m52            0.0000     1.2849E-05    50.9899   1.5603    87.7449
 20      0.0001     3.0246E-07    5.5142E-07    5.010000E+06  0.00800  2.668E-02    0   0.9443   age055_m52            0.0000     1.2983E-05    50.8860   1.3104    89.6007
 21      0.0058     3.9292E-05    6.9616E-05    6.610000E+06  0.00800  2.136E-02    0   0.9177   age061_m52            0.0000     1.3061E-05    49.6906   0.1180    94.5627
 22      0.0000     0.0000E+00    0.0000E+00    1.000000E+07  0.00800  1.215E-02    0   0.8827   age070_m52            0.0000     1.2955E-05    48.8199   0.8418    92.4780
 23      0.0000     0.0000E+00    0.0000E+00    1.445000E+07  0.00800  8.717E-03    0   0.8552   age078_m52            0.0000     1.2999E-05    49.3665   0.9217    92.2080
 24      0.0000     0.0000E+00    0.0000E+00    2.512000E+07  0.00800  5.592E-03    0   0.8162   age090_m52            0.0000     1.3153E-05    48.9951   0.5759    94.5115
 25      0.0000     0.0000E+00    0.0000E+00    4.000000E+07  0.00800  3.896E-03    0   0.7841   age104_m52            0.0000     1.3377E-05    49.4198   0.4584    95.6691
 26      0.0000     2.7434E-06    3.8273E-06    1.015200E+08  0.00800  2.148E-03    0   0.7226   age116_m52            0.0000     1.3741E-05    50.0613   0.3525    96.2105
 27      0.0169     2.4769E-03    3.1958E-03    2.861200E+08  0.00800  9.925E-04    0   0.6683   age125_m52            0.0000     1.4604E-05    50.6537  -0.1934   100.8192
 28      0.0000     0.0000E+00    0.0000E+00    9.047900E+08  0.00800  3.141E-04    0   0.6138   age135_m52            0.0000     1.5691E-05    51.1337  -1.0000   105.5014
 29      0.0000     0.0000E+00    0.0000E+00    1.434000E+09  0.00800  1.719E-04    0   0.5853   age139_m52            0.0000     1.5917E-05    46.7924  -1.0000    95.9971
 30      0.0000     0.0000E+00    0.0000E+00    2.500000E+09  0.00800  7.872E-05    0   0.5600   age150_m52            0.0000     1.6997E-05    48.5077  -1.0000    89.5086
 31      4.0505     1.3627E+01    1.4276E+01    4.250000E+09  0.00800  4.336E-05    0   0.5426   age158_m52            0.0000     1.7139E-05    48.7300  -1.0000    88.3594
 32      0.0040     1.8250E-02    1.8741E-02    6.250000E+09  0.00800  3.159E-05    0   0.5319   age166_m52            0.0000     1.8379E-05    51.0251  -1.0000    84.7252
 33      6.2618     6.7118E+01    6.5737E+01    1.300000E+10  0.00800  1.361E-05    0   0.5073   age193_m52            0.0000     2.1307E-05    57.7307  -1.0000    74.9052
 34      0.0000     0.0000E+00    0.0000E+00    1.800000E+10  0.00800  9.886E-06    0   0.4990   age213_m52            0.0000     2.2530E-05    58.7668  -1.0000    72.0654
 35      0.0000     0.0000E+00    0.0000E+00    1.000000E+06  0.02000  1.544E-02    0   1.0000   age020_m62            0.0000     1.2805E-05    50.8602   1.6430    87.0824
 36      0.0000     0.0000E+00    0.0000E+00    3.160000E+06  0.02000  3.762E-02    0   0.9858   age045_m62            0.0000     1.2843E-05    50.8262   1.5809    87.8880
 37      0.0000     0.0000E+00    0.0000E+00    5.010000E+06  0.02000  3.296E-02    0   0.9342   age055_m62            0.0000     1.3202E-05    51.1099   1.1611    91.9189
 38      0.0000     0.0000E+00    0.0000E+00    8.710000E+06  0.02000  1.154E-02    0   0.8861   age067_m62            0.0000     1.2491E-05    46.1902   0.4867    91.7781
 39      0.0000     0.0000E+00    0.0000E+00    1.445000E+07  0.02000  7.663E-03    0   0.8472   age078_m62            0.0000     1.2825E-05    47.9767   0.5440    93.5941
 40      0.0000     0.0000E+00    0.0000E+00    2.512000E+07  0.02000  4.532E-03    0   0.8099   age090_m62            0.0000     1.2873E-05    47.8802   0.5448    93.0580
 41      0.0000     0.0000E+00    0.0000E+00    5.500000E+07  0.02000  2.733E-03    0   0.7595   age110_m62            0.0000     1.3311E-05    49.2899   0.4541    94.7634
 42      0.0002     2.5188E-05    3.3968E-05    1.609000E+08  0.02000  1.369E-03    0   0.6985   age120_m62            0.0000     1.4120E-05    50.0203   0.2187    98.4642
 43      0.0000     0.0000E+00    0.0000E+00    2.861200E+08  0.02000  9.013E-04    0   0.6714   age125_m62            0.0000     1.4808E-05    50.4376  -0.0782   102.0057
 44      0.0000     0.0000E+00    0.0000E+00    5.088000E+08  0.02000  5.028E-04    0   0.6449   age130_m62            0.0000     1.5581E-05    52.2581  -0.5735   106.7159
 45      0.0000     0.0000E+00    0.0000E+00    9.047900E+08  0.02000  2.428E-04    0   0.6179   age135_m62            0.0000     1.5761E-05    50.7726  -1.0000   104.4374
 46      0.0000     0.0000E+00    0.0000E+00    1.434000E+09  0.02000  1.263E-04    0   0.5908   age139_m62            0.0000     1.6325E-05    47.2205  -1.0000    97.0793
 47      0.0000     0.0000E+00    0.0000E+00    2.500000E+09  0.02000  5.985E-05    0   0.5673   age150_m62            0.0000     1.7723E-05    48.5774  -1.0000    90.0539
 48      0.0140     6.2274E-02    6.5742E-02    4.250000E+09  0.02000  3.271E-05    0   0.5468   age158_m62            0.0000     1.9639E-05    51.9901  -1.0000    83.5911
 49      0.6405     6.8700E+00    6.8534E+00    1.000000E+10  0.02000  1.360E-05    0   0.5167   age181_m62            0.0000     2.2457E-05    56.2311  -1.0000    75.7848
 50      0.0244     4.9983E-01    4.8376E-01    1.800000E+10  0.02000  7.124E-06    0   0.5013   age213_m62            0.0000     2.4499E-05    58.3175  -1.0000    70.3743
 51      4.6698     2.6282E-02    5.0732E-02    1.000000E+06  0.05000  2.592E-02    0   0.9998   age020_m72            0.0000     1.2819E-05    50.7820   1.6461    86.9107
 52      0.0000     0.0000E+00    0.0000E+00    3.160000E+06  0.05000  4.845E-02    0   0.9577   age045_m72            0.0000     1.2992E-05    51.1463   1.4375    89.2996
 53      0.0000     0.0000E+00    0.0000E+00    5.010000E+06  0.05000  3.072E-02    0   0.9147   age055_m72            0.0000     1.2862E-05    49.0568   1.0752    90.9972
 54      0.0000     0.0000E+00    0.0000E+00    6.610000E+06  0.05000  1.455E-02    0   0.8877   age061_m72            0.0000     1.2457E-05    46.7066   0.5956    91.2170
 55      0.0000     0.0000E+00    0.0000E+00    1.000000E+07  0.05000  9.074E-03    0   0.8524   age070_m72            0.0000     1.2870E-05    49.4272   1.2497    90.7402
 56      0.0037     1.2644E-04    1.9290E-04    2.512000E+07  0.05000  4.250E-03    0   0.7902   age090_m72            0.0000     1.3109E-05    49.2464   0.9409    92.4310
 57      0.0000     0.0000E+00    0.0000E+00    4.000000E+07  0.05000  3.087E-03    0   0.7618   age104_m72            0.0000     1.3239E-05    48.8958   0.7266    93.6668
 58      0.0000     0.0000E+00    0.0000E+00    1.015200E+08  0.05000  1.700E-03    0   0.7096   age116_m72            0.0000     1.3927E-05    49.4816   0.3991    97.3538
 59      0.0111     2.1888E-03    2.8030E-03    2.861200E+08  0.05000  7.384E-04    0   0.6633   age125_m72            0.0000     1.5312E-05    51.2649  -0.2687   104.3411
 60      0.0000     0.0000E+00    0.0000E+00    5.088000E+08  0.05000  3.819E-04    0   0.6372   age130_m72            0.0000     1.5739E-05    53.2211  -0.8673   107.8559
 61      0.2248     1.9565E-01    2.3080E-01    9.047900E+08  0.05000  1.676E-04    0   0.6110   age135_m72            0.0000     1.6696E-05    47.9645  -1.0000    99.2477
 62      0.0000     0.0000E+00    0.0000E+00    1.434000E+09  0.05000  8.837E-05    0   0.5874   age139_m72            0.0000     1.8067E-05    48.4284  -1.0000    91.2374
 63      0.0000     0.0000E+00    0.0000E+00    2.500000E+09  0.05000  4.233E-05    0   0.5598   age150_m72            0.0000     1.9914E-05    51.9129  -1.0000    84.2634
 64      0.0000     0.0000E+00    0.0000E+00    6.250000E+09  0.05000  1.435E-05    0   0.5249   age166_m72            0.0000     2.3095E-05    57.5691  -1.0000    73.4680
 65      0.0000     0.0000E+00    0.0000E+00    1.300000E+10  0.05000  6.513E-06    0   0.5036   age193_m72            0.0000     2.5837E-05    59.9085  -1.0000    67.5189
 66      0.0000     0.0000E+00    0.0000E+00    1.800000E+10  0.05000  4.527E-06    0   0.4945   age213_m72            0.0000     2.7538E-05    60.8771  -1.0000    63.4970


## Synthesis Results - Average & Chains ##

# j      x_j: min, <> & last-chain-values for 1 ...  7 chains
  1     55.8803      0.7830      0.0000      3.8526      3.9630      1.1135      2.5822      1.2373      0.0000
  2      0.0000      1.0027      0.0000      0.3094      0.5287      0.2686      5.1278      0.0000      3.3415
  3      0.0000      1.0820      6.1313      2.7670      0.9554      0.3072      0.4807      2.6638      1.4129
  4      0.5591      0.8912      0.5067      2.7348      0.9675      1.5260      0.5530      0.8630      2.1339
  5      0.0000      1.1831      2.5685      7.4658      3.5383      3.8863      0.7299      0.0000      0.4077
  6      0.0000      1.0782      2.2253      0.7616      1.1543      2.0080      0.7921      0.5229      0.4294
  7      0.0000      1.1110      0.0000      0.2375      1.1973      4.1630      0.1057      0.0000      1.8227
  8      0.0000      1.0830      1.6572      0.5989      1.6500      3.4339      1.1458      1.1097      0.0000
  9      0.9821      0.8699      0.0000      1.0226      0.2680      1.7076      0.0000      0.3228      1.3664
 10      0.0000      0.8236      0.2229      1.3002      2.0699      0.8260      1.2217      0.7113      2.2014
 11      1.3602      1.2369      0.0000      2.3517      0.2118      0.6957      0.0000      2.6571      0.0000
 12      0.2404      1.1513      1.1026      1.9331      1.8156      1.7487      1.1305      0.0000      3.1358
 13      1.4671      0.7328      0.0588      0.6670      0.8192      0.0000      0.0000      1.3485      0.0000
 14      0.0000      0.7958      0.0000      1.6642      0.0000      0.0592      0.0000      0.0252      5.1967
 15      0.0000      1.0023      0.0000      0.8578      0.7944      0.6683      0.4779      1.0495      0.6994
 16      0.5214      1.0746      1.1934      0.3303      0.4629      0.3987      2.7120      0.0000      3.1421
 17      0.5860      1.0132      0.0000      1.1090      2.2147      0.4884      0.0000      0.3218      0.4129
 18     12.3587      1.2175      4.2987      3.4832      1.1740      0.3895      2.8581      0.7820      2.6190
 19      0.0000      0.6925      0.0000      0.0000      0.3063      0.0000      0.9219      1.6962      3.8441
 20      0.0001      0.7796      0.1972      1.9660      0.0000      1.3949      1.4266      0.0461      0.0000
 21      0.0058      1.2819      0.1976      0.5055      1.0837      0.9973      2.6836      0.7865      0.1940
 22      0.0000      1.1038      1.1280      0.0000      2.4767      0.0680      0.0000      1.0762      2.6267
 23      0.0000      0.9389      2.0006      0.0000      0.5301      0.0000      0.0000      0.7666      2.6935
 24      0.0000      0.9644      1.2735      0.8268      0.4963      2.8426      0.0000      0.0000      0.0881
 25      0.0000      0.8414      0.0000      1.9920      0.2225      0.7012      0.0000      0.3638      1.4495
 26      0.0000      0.8158      0.0484      0.7252      2.6627      0.4856      0.0000      4.2220      1.6141
 27      0.0169      1.0161      0.5126      0.4729      0.9778      0.0000      1.6976      1.9572      3.7866
 28      0.0000      0.8147      3.0900      0.2233      1.6586      0.5041      0.5267      0.7089      0.0000
 29      0.0000      0.9302      2.2296      0.0000      2.9758      0.0301      0.8599      0.0000      1.3978
 30      0.0000      0.7002      2.5548      1.2373      0.0000      0.0000      1.6373      0.1269      0.0455
 31      4.0505      1.1384      0.0000      8.4321      0.6215      0.0658      3.2527      2.1956      1.6304
 32      0.0040      0.8939      1.0650      0.4049      1.0475      2.7433      0.7026      3.4636      0.0000
 33      6.2618      1.1327      1.0053      3.3712      0.3143      0.2561      2.7687      0.8181      1.1996
 34      0.0000      1.2343      3.0459      1.8774     10.0772      1.5484      2.7022      0.0000      0.0829
 35      0.0000      0.9252      2.1993      0.9117      0.8092      0.0043      0.0000      2.4861      0.0000
 36      0.0000      0.9907      4.0478      0.0884      0.9044      0.0000      0.6246      2.6036      1.2718
 37      0.0000      0.7589      2.2292      0.0000      0.2258      1.3322      0.1092      2.7393      1.4225
 38      0.0000      1.0195      0.0000      1.6764      0.0520      0.0605      2.0282      0.9103      0.0000
 39      0.0000      0.9833      0.4862      0.0000      3.7542      0.6863      0.5145      0.1456      1.9444
 40      0.0000      0.8264      0.9883      0.0000      0.6019      1.9302      4.0292      0.5332      0.0000
 41      0.0000      0.7954      0.0000      0.1286      0.0044      1.2293      4.2778      3.1228      0.0000
 42      0.0002      0.8075      0.2356      1.6568      0.8482      0.0000      0.0000      0.0000      0.0000
 43      0.0000      0.8096      0.0000      0.0000      0.0000      1.9652      0.0000      2.8264      0.0000
 44      0.0000      0.8497      0.0000      0.1130      0.0495      0.0000      0.5947      0.3338      0.0000
 45      0.0000      0.8354      0.0000      1.8857      0.8143      0.9301      1.9626      1.5046      1.8622
 46      0.0000      0.9407      0.0000      1.2545      0.0000      1.2317      0.0000      1.3470      0.7301
 47      0.0000      1.0501      2.3364      0.0000      0.0000      0.0759      1.1590      1.2879      0.0000
 48      0.0140      1.1045      1.5564      1.0134      0.0000      0.0000      5.9137      0.2443      0.8303
 49      0.6405      1.0585      0.6566      0.8940      1.1601      0.0305      1.4892      4.6719      1.9284
 50      0.0244      0.7328      0.0000      0.5471      0.0000      0.7842      0.1900      4.9947      0.0048
 51      4.6698      0.9699      0.0000      3.4449      1.9256      1.4113      2.4630      0.1254      0.0000
 52      0.0000      0.7849      0.8488      0.0000      0.4548      0.0000      3.5671      3.6867      0.0000
 53      0.0000      0.8717      2.0043      0.0000      0.4015      0.8085      0.0000      0.0000      0.0000
 54      0.0000      0.9678      4.1934      0.0000      0.2976      5.1885      0.0000      0.7312      1.8550
 55      0.0000      0.8261      2.1080      0.0000      2.2029      2.3957      0.0000      0.0000      0.0000
 56      0.0037      1.1018      2.7477      3.6226      2.9191      2.7281      0.0000      3.0918      5.1232
 57      0.0000      0.6666      0.3995      0.5396      0.8126      0.0000      0.0000      0.2018      0.0000
 58      0.0000      1.2760      3.4344      0.0000      0.2063      0.5860      0.3179      5.1130      0.0000
 59      0.0111      1.1314      0.0000      0.9272      1.8659      0.1418      0.2546      0.1597      0.0000
 60      0.0000      0.8844      0.7552      0.0000      1.6185      2.5172      0.0000      0.0000      1.6936
 61      0.2248      4.2832      0.3001      1.6797      0.0000      0.9287      1.7164      0.0000      0.0000
 62      0.0000      1.3706      0.8340      0.0148      0.0000      2.4342      1.6738      0.2171      1.9455
 63      0.0000      0.8144      1.2395      0.0891      0.6293      0.0000      0.7104      0.7418      2.2938
 64      0.0000      1.0337      0.0000      0.0000      0.0000      3.2195      0.9147      0.0000      0.0000
 65      0.0000      3.8087      1.9350      0.0000      1.0388      5.1389      0.0000      2.8103      1.7140
 66      0.0000      5.1707      2.4079      0.0000      2.3054      1.0028      2.0568      0.0000      2.3083

# j      m_j: min, <> & last-chain-values for 1 ...  7 chains
  1  1.4386E+00  5.5135E-03  0.0000E+00  6.6029E-02  3.4297E-02  1.1369E-02  2.7449E-02  1.1968E-02  0.0000E+00
  2  0.0000E+00  1.9275E-03  0.0000E+00  1.4475E-03  1.2490E-03  7.4858E-04  1.4881E-02  0.0000E+00  1.0956E-02
  3  0.0000E+00  3.1147E-03  2.9088E-02  1.9387E-02  3.3803E-03  1.2823E-03  2.0892E-03  1.0534E-02  6.9373E-03
  4  5.5415E-03  2.4160E-03  2.2637E-03  1.8045E-02  3.2234E-03  5.9985E-03  2.2630E-03  3.2138E-03  9.8664E-03
  5  0.0000E+00  6.1093E-03  2.1858E-02  9.3837E-02  2.2456E-02  2.9100E-02  5.6902E-03  0.0000E+00  3.5909E-03
  6  1.2998E-06  9.0305E-03  3.0717E-02  1.5527E-02  1.1882E-02  2.4387E-02  1.0015E-02  6.0160E-03  6.1337E-03
  7  0.0000E+00  1.3323E-02  0.0000E+00  6.9321E-03  1.7646E-02  7.2386E-02  1.9137E-03  0.0000E+00  3.7279E-02
  8  0.0000E+00  1.7949E-02  4.5265E-02  2.4158E-02  3.3611E-02  8.2528E-02  2.8668E-02  2.5266E-02  0.0000E+00
  9  6.8118E-02  1.6501E-02  0.0000E+00  4.7217E-02  6.2475E-03  4.6972E-02  0.0000E+00  8.4125E-03  4.4210E-02
 10  0.0000E+00  2.0522E-02  9.1520E-03  7.8861E-02  6.3391E-02  2.9844E-02  4.5957E-02  2.4349E-02  9.3560E-02
 11  2.3302E-01  5.7955E-02  0.0000E+00  2.6820E-01  1.2198E-02  4.7264E-02  0.0000E+00  1.7102E-01  0.0000E+00
 12  6.5326E-02  8.5570E-02  1.3506E-01  3.4970E-01  1.6585E-01  1.8847E-01  1.2685E-01  0.0000E+00  3.9752E-01
 13  1.1237E+00  1.5352E-01  2.0295E-02  3.4012E-01  2.1092E-01  0.0000E+00  0.0000E+00  3.8807E-01  0.0000E+00
 14  0.0000E+00  5.5915E-01  0.0000E+00  2.8462E+00  0.0000E+00  6.0338E-02  0.0000E+00  2.4356E-02  6.2278E+00
 15  5.5604E-05  1.1465E+00  0.0000E+00  2.3884E+00  1.1168E+00  1.1084E+00  8.2521E-01  1.6491E+00  1.3645E+00
 16  3.6868E+00  2.0784E+00  3.8039E+00  1.5549E+00  1.1004E+00  1.1181E+00  7.9186E+00  0.0000E+00  1.0365E+01
 17  5.3753E+00  2.5421E+00  0.0000E+00  6.7725E+00  6.8296E+00  1.7768E+00  0.0000E+00  1.1091E+00  1.7668E+00
 18  2.8116E-01  7.5757E-03  4.4082E-02  5.2754E-02  8.9781E-03  3.5145E-03  2.6848E-02  6.6845E-03  2.7795E-02
 19  0.0000E+00  1.7295E-03  0.0000E+00  0.0000E+00  9.4005E-04  0.0000E+00  3.4760E-03  5.8192E-03  1.6374E-02
 20  5.5142E-07  2.1255E-03  8.8601E-04  1.3047E-02  0.0000E+00  5.5149E-03  5.8719E-03  1.7251E-04  0.0000E+00
 21  6.9616E-05  4.2426E-03  1.0778E-03  4.0724E-03  4.4081E-03  4.7861E-03  1.3408E-02  3.5760E-03  1.0953E-03
 22  0.0000E+00  6.1772E-03  1.0404E-02  0.0000E+00  1.7036E-02  5.5199E-04  0.0000E+00  8.2736E-03  2.5073E-02
 23  0.0000E+00  7.0960E-03  2.4918E-02  0.0000E+00  4.9234E-03  0.0000E+00  0.0000E+00  7.9586E-03  3.4719E-02
 24  0.0000E+00  1.0844E-02  2.3599E-02  2.2627E-02  6.8584E-03  4.6345E-02  0.0000E+00  0.0000E+00  1.6899E-03
 25  0.0000E+00  1.3045E-02  0.0000E+00  7.5170E-02  4.2394E-03  1.5763E-02  0.0000E+00  7.7471E-03  3.8330E-02
 26  3.8273E-06  2.1141E-02  2.0677E-03  4.5745E-02  8.4806E-02  1.8247E-02  0.0000E+00  1.5030E-01  7.1342E-02
 27  3.1958E-03  5.2703E-02  4.3820E-02  5.9706E-02  6.2339E-02  0.0000E+00  1.3293E-01  1.3946E-01  3.3500E-01
 28  0.0000E+00  1.2264E-01  7.6659E-01  8.1821E-02  3.0687E-01  1.1003E-01  1.1970E-01  1.4659E-01  0.0000E+00
 29  0.0000E+00  2.4397E-01  9.6378E-01  0.0000E+00  9.5929E-01  1.1465E-02  3.4048E-01  0.0000E+00  6.2533E-01
 30  0.0000E+00  3.8370E-01  2.3073E+00  1.6503E+00  0.0000E+00  0.0000E+00  1.3545E+00  9.5559E-02  4.2498E-02
 31  1.4276E+01  1.0974E+00  0.0000E+00  1.9785E+01  7.3639E-01  9.1992E-02  4.7335E+00  2.9075E+00  2.6806E+00
 32  1.8741E-02  1.1595E+00  2.2765E+00  1.2784E+00  1.6698E+00  5.1596E+00  1.3757E+00  6.1715E+00  0.0000E+00
 33  6.5737E+01  3.2522E+00  4.7572E+00  2.3561E+01  1.1092E+00  1.0662E+00  1.2001E+01  3.2268E+00  5.8746E+00
 34  0.0000E+00  4.7993E+00  1.9518E+01  1.7768E+01  4.8158E+01  8.7304E+00  1.5862E+01  0.0000E+00  5.4975E-01
 35  0.0000E+00  4.6161E-03  1.8084E-02  1.1071E-02  4.9619E-03  3.1374E-05  0.0000E+00  1.7039E-02  0.0000E+00
 36  0.0000E+00  1.9999E-03  1.3466E-02  4.3435E-04  2.2437E-03  0.0000E+00  1.9033E-03  7.2197E-03  4.3786E-03
 37  0.0000E+00  1.6570E-03  8.0212E-03  0.0000E+00  6.0589E-04  4.2178E-03  3.5992E-04  8.2162E-03  5.2975E-03
 38  0.0000E+00  6.0305E-03  0.0000E+00  2.4135E-02  3.7800E-04  5.1896E-04  1.8111E-02  7.3968E-03  0.0000E+00
 39  0.0000E+00  8.3748E-03  6.8248E-03  0.0000E+00  3.9296E-02  8.4757E-03  6.6149E-03  1.7034E-03  2.8244E-02
 40  0.0000E+00  1.1376E-02  2.2422E-02  0.0000E+00  1.0184E-02  3.8529E-02  8.3736E-02  1.0083E-02  0.0000E+00
 41  0.0000E+00  1.7027E-02  0.0000E+00  6.7034E-03  1.1527E-04  3.8158E-02  1.3825E-01  9.1837E-02  0.0000E+00
 42  3.3968E-05  3.1740E-02  1.5259E-02  1.5851E-01  4.0976E-02  0.0000E+00  0.0000E+00  0.0000E+00  0.0000E+00
 43  0.0000E+00  4.6460E-02  0.0000E+00  0.0000E+00  0.0000E+00  1.6352E-01  0.0000E+00  2.2281E-01  0.0000E+00
 44  0.0000E+00  8.3954E-02  0.0000E+00  2.7174E-02  6.0067E-03  0.0000E+00  8.8702E-02  4.5306E-02  0.0000E+00
 45  0.0000E+00  1.6378E-01  0.0000E+00  8.9979E-01  1.9621E-01  2.6439E-01  5.8084E-01  4.0521E-01  6.2266E-01
 46  0.0000E+00  3.3896E-01  0.0000E+00  1.1003E+00  0.0000E+00  6.4357E-01  0.0000E+00  6.6679E-01  4.4871E-01
 47  0.0000E+00  7.6674E-01  2.8115E+00  0.0000E+00  0.0000E+00  8.0371E-02  1.2776E+00  1.2918E+00  0.0000E+00
 48  6.5742E-02  1.4223E+00  3.3031E+00  3.1762E+00  0.0000E+00  0.0000E+00  1.1496E+01  4.3211E-01  1.8237E+00
 49  6.8534E+00  3.0978E+00  3.1669E+00  6.3688E+00  4.1731E+00  1.2923E-01  6.5798E+00  1.8783E+01  9.6264E+00
 50  4.8376E-01  3.9723E+00  0.0000E+00  7.2184E+00  0.0000E+00  6.1636E+00  1.5550E+00  3.7193E+01  4.4494E-02
 51  5.0732E-02  2.8819E-03  0.0000E+00  2.4915E-02  7.0323E-03  6.0808E-03  1.1048E-02  5.1182E-04  0.0000E+00
 52  0.0000E+00  1.1951E-03  2.1300E-03  0.0000E+00  8.5120E-04  0.0000E+00  8.1998E-03  7.7117E-03  0.0000E+00
 53  0.0000E+00  1.9994E-03  7.5766E-03  0.0000E+00  1.1319E-03  2.6889E-03  0.0000E+00  0.0000E+00  0.0000E+00
 54  0.0000E+00  4.5485E-03  3.2480E-02  0.0000E+00  1.7190E-03  3.5359E-02  0.0000E+00  4.7206E-03  1.4870E-02
 55  0.0000E+00  5.9782E-03  2.5140E-02  0.0000E+00  1.9593E-02  2.5138E-02  0.0000E+00  0.0000E+00  0.0000E+00
 56  1.9290E-04  1.5781E-02  6.4858E-02  1.2629E-01  5.1387E-02  5.6658E-02  0.0000E+00  6.0834E-02  1.2515E-01
 57  0.0000E+00  1.2673E-02  1.2517E-02  2.4966E-02  1.8986E-02  0.0000E+00  0.0000E+00  5.2707E-03  0.0000E+00
 58  0.0000E+00  4.1030E-02  1.8200E-01  0.0000E+00  8.1546E-03  2.7321E-02  1.5430E-02  2.2585E-01  0.0000E+00
 59  2.8030E-03  7.8290E-02  0.0000E+00  1.5616E-01  1.5869E-01  1.4232E-02  2.6598E-02  1.5182E-02  0.0000E+00
 60  0.0000E+00  1.1367E-01  1.5996E-01  0.0000E+00  2.5567E-01  4.6915E-01  0.0000E+00  0.0000E+00  3.7127E-01
 61  2.3080E-01  1.2029E+00  1.3890E-01  1.1481E+00  0.0000E+00  3.7820E-01  7.2768E-01  0.0000E+00  0.0000E+00
 62  0.0000E+00  7.0179E-01  7.0377E-01  1.8436E-02  0.0000E+00  1.8074E+00  1.2939E+00  1.5269E-01  1.6991E+00
 63  0.0000E+00  8.2964E-01  2.0810E+00  2.2084E-01  7.8792E-01  0.0000E+00  1.0926E+00  1.0382E+00  3.9856E+00
 64  0.0000E+00  2.9126E+00  0.0000E+00  0.0000E+00  0.0000E+00  1.3155E+01  3.8907E+00  0.0000E+00  0.0000E+00
 65  0.0000E+00  2.2686E+01  1.8995E+01  0.0000E+00  7.6050E+00  4.4384E+01  0.0000E+00  2.2995E+01  1.7413E+01
 66  0.0000E+00  4.3509E+01  3.3391E+01  0.0000E+00  2.3843E+01  1.2236E+01  2.6127E+01  0.0000E+00  3.3129E+01

# AV, chi2 & Mass for <> & i_chain = 1 ...  7 solutions
AV       0.5153     -0.8690     -0.5354     -0.2792     -0.6623     -0.6098     -0.5790     -0.5705     -0.4666
chi2 1.2550E-05  1.7129E-05  1.5671E-05  1.5522E-05  1.6168E-05  1.6528E-05  1.5967E-05  1.5490E-05  1.5930E-05
Mass 4.9073E-14  2.7952E-14  2.6549E-14  2.5358E-14  3.0020E-14  2.7306E-14  2.7332E-14  3.0385E-14  2.8137E-14
 369.55                                  [v0_min (km/s) before EX0s...]
   0.00                                  [vd_min (km/s) before EX0s...]


## Synthetic spectrum (Best Model) ##l_obs f_obs f_syn wei
 3478    [Nl_obs]
 3741.00   -0.49409   0.83776    0.000
 3742.00   -0.34647   0.86425    0.000
 3743.00   -0.55394   0.89370    0.000
 3744.00   -0.39016   0.91819    0.000
 3745.00   -0.01008   0.93235    0.000
 3746.00    1.03550   0.93492    0.027
 3747.00    2.41901   0.92789    0.028
 3748.00    2.18918   0.91626    0.028
 3749.00    1.24992   0.90245    0.027
 3750.00    0.12876   0.88510    0.027
 3751.00   -1.06108   0.86612    0.000
 3752.00   -1.11924   0.84190    0.000
 3753.00   -0.81473   0.80856    0.000
 3754.00    0.16594   0.78231    0.025
 3755.00    1.32779   0.78565    0.026
 3756.00    1.51475   0.81587    0.026
 3757.00    1.48773   0.85112    0.026
 3758.00    0.21016   0.87811    0.025
 3759.00   -1.28572   0.89887    0.000
 3760.00   -1.37415   0.91547    0.000
 3761.00   -1.27561   0.92072    0.000
 3762.00   -0.74048   0.91401    0.000
 3763.00   -0.16432   0.90787    0.000
 3764.00    0.94169   0.90853    0.025
 3765.00    2.07827   0.91783    0.025
 3766.00    0.86849   0.93021    0.024
 3767.00   -0.39255   0.93320    0.000
 3768.00   -1.11828   0.92612    0.000
 3769.00   -1.79577   0.91720    0.000
 3770.00   -1.30130   0.90402    0.000
 3771.00   -0.84042   0.88017    0.000
 3772.00   -0.81958   0.85135    0.000
 3773.00   -0.78991   0.82159    0.000
 3774.00   -0.68262   0.78807    0.000
 3775.00   -0.60942   0.76456    0.000
 3776.00   -0.75725   0.77440    0.000
 3777.00   -0.95962   0.81128    0.000
 3778.00   -1.43801   0.84826    0.000
 3779.00   -1.55841   0.87604    0.000
 3780.00   -0.21350   0.89934    0.000
 3781.00    0.89241   0.91894    0.023
 3782.00    1.18775   0.93335    0.023
 3783.00    1.23437   0.94487    0.023
 3784.00    0.56961   0.95642    0.023
 3785.00    0.29537   0.96608    0.022
 3786.00    0.97525   0.96979    0.022
 3787.00    1.17113   0.97126    0.022
 3788.00    0.34688   0.97355    0.022
 3789.00   -0.56144   0.97244    0.000
 3790.00   -1.62379   0.96282    0.000
 3791.00   -2.04620   0.95050    0.000
 3792.00   -1.44422   0.94212    0.000
 3793.00   -0.58982   0.93513    0.000
 3794.00    0.61912   0.92640    0.022
 3795.00    0.86293   0.91649    0.022
 3796.00   -0.08616   0.90586    0.000
 3797.00   -0.38582   0.89085    0.000
 3798.00    0.02207   0.86629    0.022
 3799.00    0.14606   0.83324    0.022
 3800.00   -0.00278   0.79445    0.000
 3801.00   -0.15124   0.74928    0.000
 3802.00   -0.29940   0.70878    0.000
 3803.00   -0.55345   0.70194    0.000
 3804.00   -0.88653   0.73889    0.000
 3805.00   -0.78144   0.79324    0.000
 3806.00   -0.38910   0.83923    0.000
 3807.00   -0.33109   0.87376    0.000
 3808.00   -0.46492   0.90096    0.000
 3809.00   -0.28176   0.91766    0.000
 3810.00    0.05982   0.92431    0.021
 3811.00    0.20072   0.92700    0.021
 3812.00    0.25484   0.93347    0.021
 3813.00   -0.24381   0.94555    0.000
 3814.00   -0.94746   0.95642    0.000
 3815.00   -1.12526   0.96211    0.000
 3816.00   -1.13775   0.96148    0.000
 3817.00   -0.36426   0.95460    0.000
 3818.00    0.61541   0.94515    0.021
 3819.00    0.65425   0.93832    0.021
 3820.00    0.49150   0.93369    0.021
 3821.00    0.24602   0.93230    0.020
 3822.00   -0.01349   0.92767    0.000
 3823.00    0.55393   0.90311    0.020
 3824.00    1.22748   0.86832    0.020
 3825.00    1.02121   0.86375    0.021
 3826.00    0.73597   0.89423    0.021
 3827.00    0.07261   0.92121    0.021
 3828.00   -0.61108   0.92516    0.000
 3829.00   -1.14910   0.91373    0.000
 3830.00   -1.66932   0.90164    0.000
 3831.00   -0.93479   0.89423    0.000
 3832.00   -0.19052   0.88625    0.000
 3833.00    0.77013   0.87506    0.022
 3834.00    1.62064   0.86096    0.022
 3835.00    1.10157   0.84222    0.022
 3836.00    0.65280   0.81177    0.022
 3837.00    0.79815   0.76831    0.022
 3838.00    0.84506   0.71762    0.022
 3839.00    0.27266   0.66898    0.022
 3840.00   -0.02767   0.64518    0.000
 3841.00    1.01444   0.66582    0.022
 3842.00    1.73191   0.71263    0.022
 3843.00    1.14979   0.75781    0.021
 3844.00    0.71969   0.79504    0.021
 3845.00    0.79501   0.82606    0.021
 3846.00    1.11065   0.85440    0.021
 3847.00    2.10112   0.88094    0.000
 3848.00    2.54055   0.90011    0.000
 3849.00    1.65644   0.91133    0.000
 3850.00    0.93868   0.91770    0.000
 3851.00    0.56589   0.92363    0.000
 3852.00    0.43751   0.93096    0.000
 3853.00    0.74994   0.93358    0.000
 3854.00    0.70204   0.93032    0.000
 3855.00    0.08587   0.92964    0.000
 3856.00   -0.08654   0.93562    0.000
 3857.00    0.35538   0.94096    0.000
 3858.00    0.81379   0.94031    0.000
 3859.00    1.29231   0.93618    0.000
 3860.00    1.01349   0.92976    0.000
 3861.00   -0.07884   0.92470    0.000
 3862.00   -0.49873   0.92324    0.000
 3863.00   -0.28146   0.91978    0.000
 3864.00   -0.04704   0.91385    0.000
 3865.00    0.20172   0.91534    0.000
 3866.00    0.42019   0.92627    0.000
 3867.00    0.61637   0.93730    0.000
 3868.00    0.04212   0.94143    0.000
 3869.00   -1.02977   0.93928    0.000
 3870.00   -1.01395   0.93404    0.000
 3871.00   -0.38343   0.92672    0.000
 3872.00   -0.02000   0.91924    0.000
 3873.00    0.21206   0.92070    0.000
 3874.00    0.37580   0.92447    0.000
 3875.00    0.51048   0.91743    0.000
 3876.00    0.80178   0.90282    0.000
 3877.00    1.15012   0.89575    0.000
 3878.00    1.27522   0.90383    0.000
 3879.00    1.33149   0.91570    0.000
 3880.00    1.26502   0.91949    0.000
 3881.00    1.16705   0.91257    0.019
 3882.00    1.39010   0.89941    0.019
 3883.00    1.68026   0.88694    0.019
 3884.00    1.28319   0.88352    0.019
 3885.00    0.77279   0.88119    0.019
 3886.00    0.64968   0.86801    0.019
 3887.00    0.57453   0.85038    0.019
 3888.00    1.06073   0.83651    0.019
 3889.00    1.59496   0.81898    0.019
 3890.00    1.13109   0.78271    0.019
 3891.00    0.61747   0.73239    0.018
 3892.00    0.01777   0.67792    0.018
 3893.00   -0.56388   0.62570    0.000
 3894.00    0.11140   0.60870    0.018
 3895.00    0.76672   0.65015    0.018
 3896.00    1.01358   0.71719    0.018
 3897.00    1.20768   0.77214    0.018
 3898.00    0.77788   0.80804    0.018
 3899.00    0.41123   0.83133    0.017
 3900.00    0.55912   0.84821    0.017
 3901.00    0.71523   0.86536    0.017
 3902.00    0.92160   0.88045    0.017
 3903.00    1.03434   0.88726    0.017
 3904.00    0.69655   0.88977    0.016
 3905.00    0.31264   0.89731    0.016
 3906.00   -0.25183   0.90661    0.000
 3907.00   -0.48211   0.90944    0.000
 3908.00    0.37690   0.90860    0.017
 3909.00    0.77418   0.90929    0.017
 3910.00   -0.10185   0.90622    0.000
 3911.00   -0.35804   0.90544    0.000
 3912.00    0.84948   0.91386    0.018
 3913.00    1.49305   0.92404    0.019
 3914.00    0.98566   0.92908    0.019
 3915.00    0.57247   0.92970    0.019
 3916.00    0.32658   0.93117    0.019
 3917.00    0.39898   0.93203    0.019
 3918.00    0.96594   0.92966    0.019
 3919.00    1.32829   0.92725    0.019
 3920.00    1.41147   0.92602    0.019
 3921.00    1.54472   0.92305    0.019
 3922.00    1.73812   0.91910    0.019
 3923.00    1.82533   0.91325    0.019
 3924.00    1.80009   0.90260    0.019
 3925.00    1.22452   0.89154    0.018
 3926.00    0.13485   0.88495    0.018
 3927.00   -0.26330   0.88289    0.000
 3928.00   -0.09195   0.88122    0.000
 3929.00    0.30309   0.88108    0.018
 3930.00    0.86027   0.87694    0.018
 3931.00    0.75977   0.86793    0.018
 3932.00    0.24072   0.86432    0.018
 3933.00    0.62035   0.86546    0.018
 3934.00    1.50011   0.86300    0.018
 3935.00    1.79331   0.85755    0.018
 3936.00    1.80256   0.84922    0.019
 3937.00    1.32347   0.83854    0.018
 3938.00    0.64020   0.82823    0.018
 3939.00    0.84367   0.82540    0.018
 3940.00    1.36434   0.83330    0.018
 3941.00    1.48192   0.84711    0.018
 3942.00    1.47767   0.86051    0.018
 3943.00    1.47409   0.87171    0.018
 3944.00    1.47066   0.88115    0.019
 3945.00    1.31188   0.88730    0.019
 3946.00    1.12142   0.88922    0.018
 3947.00    1.05853   0.88862    0.019
 3948.00    1.01606   0.88521    0.019
 3949.00    0.15844   0.88318    0.019
 3950.00   -0.79650   0.89032    0.000
 3951.00    0.44011   0.90055    0.019
 3952.00    1.85520   0.90060    0.019
 3953.00    0.36717   0.89592    0.019
 3954.00   -1.25428   0.89770    0.000
 3955.00   -0.75684   0.90328    0.000
 3956.00   -0.24191   0.90351    0.000
 3957.00   -0.22304   0.89621    0.000
 3958.00   -0.18699   0.89300    0.000
 3959.00    0.17444   0.89606    0.019
 3960.00    0.52930   0.89387    0.000
 3961.00    0.81018   0.88395    0.000
 3962.00    1.03211   0.87646    0.000
 3963.00    0.79062   0.87600    0.000
 3964.00    0.48479   0.87209    0.000
 3965.00   -0.20284   0.85619    0.000
 3966.00   -0.67880   0.82858    0.000
 3967.00   -0.16088   0.80715    0.000
 3968.00    0.22065   0.79206    0.000
 3969.00    0.07950   0.76770    0.000
 3970.00    0.11108   0.73719    0.000
 3971.00    0.69475   0.70432    0.000
 3972.00    1.33268   0.65901    0.000
 3973.00    2.11755   0.60168    0.000
 3974.00    2.40898   0.54678    0.000
 3975.00    1.55462   0.52841    0.000
 3976.00    0.75780   0.56848    0.000
 3977.00    0.07657   0.63654    0.000
 3978.00   -0.33874   0.69540    0.000
 3979.00   -0.28889   0.74057    0.000
 3980.00   -0.25673   0.77663    0.000
 3981.00   -0.25166   0.80254    0.000
 3982.00   -0.20733   0.82238    0.000
 3983.00   -0.11021   0.84053    0.000
 3984.00    0.23443   0.85656    0.018
 3985.00    0.87221   0.86863    0.018
 3986.00    1.15983   0.87212    0.018
 3987.00    1.08184   0.87110    0.018
 3988.00    0.72888   0.87314    0.018
 3989.00    0.12267   0.87927    0.018
 3990.00    0.11263   0.88628    0.018
 3991.00    0.58662   0.88932    0.018
 3992.00    0.84906   0.89239    0.018
 3993.00    0.96034   0.89826    0.018
 3994.00    1.06437   0.89891    0.018
 3995.00    1.16386   0.89678    0.018
 3996.00    0.98260   0.89973    0.018
 3997.00    0.64748   0.90477    0.018
 3998.00    0.18845   0.90620    0.018
 3999.00   -0.32961   0.90230    0.000
 4000.00   -0.37763   0.89765    0.000
 4001.00   -0.23245   0.89437    0.000
 4002.00   -0.19472   0.89045    0.000
 4003.00   -0.19472   0.89049    0.000
 4004.00    0.14966   0.89893    0.017
 4005.00    0.59607   0.90671    0.018
 4006.00    0.49613   0.90689    0.018
 4007.00    0.26197   0.90765    0.018
 4008.00    0.43287   0.90714    0.018
 4009.00    0.68432   0.89781    0.018
 4010.00    1.06665   0.88195    0.018
 4011.00    1.46932   0.87716    0.018
 4012.00    1.15472   0.88358    0.018
 4013.00    0.75765   0.88680    0.017
 4014.00    1.01221   0.88474    0.017
 4015.00    1.31715   0.88725    0.018
 4016.00    0.88773   0.89403    0.017
 4017.00    0.42739   0.89866    0.017
 4018.00    0.72232   0.90005    0.017
 4019.00    1.02523   0.90131    0.017
 4020.00    1.37544   0.90369    0.017
 4021.00    1.68755   0.90380    0.018
 4022.00    1.32798   0.89811    0.017
 4023.00    0.99636   0.89644    0.017
 4024.00    0.96553   0.89974    0.017
 4025.00    0.94471   0.89848    0.017
 4026.00    0.99988   0.89067    0.017
 4027.00    1.04142   0.88074    0.017
 4028.00    1.00443   0.86524    0.017
 4029.00    0.98497   0.83495    0.017
 4030.00    1.04583   0.79556    0.017
 4031.00    1.13717   0.77849    0.017
 4032.00    1.34283   0.80780    0.017
 4033.00    1.51609   0.85307    0.016
 4034.00    1.58778   0.87490    0.017
 4035.00    1.50501   0.87235    0.017
 4036.00    1.01133   0.86620    0.016
 4037.00    0.60696   0.86720    0.016
 4038.00    0.40657   0.86919    0.016
 4039.00    0.50770   0.87379    0.016
 4040.00    1.20493   0.88136    0.016
 4041.00    1.48169   0.89311    0.017
 4042.00    1.03410   0.90406    0.017
 4043.00    0.82657   0.90826    0.017
 4044.00    0.98118   0.90522    0.017
 4045.00    1.03722   0.89745    0.017
 4046.00    0.96259   0.89358    0.017
 4047.00    1.09511   0.89660    0.017
 4048.00    1.46947   0.89456    0.018
 4049.00    1.27764   0.87823    0.018
 4050.00    0.50289   0.85663    0.017
 4051.00    0.42030   0.85274    0.017
 4052.00    0.96625   0.87112    0.017
 4053.00    1.00000   0.88791    0.017
 4054.00    0.62380   0.89294    0.017
 4055.00    0.64995   0.89596    0.017
 4056.00    0.95943   0.89672    0.018
 4057.00    0.96154   0.89241    0.018
 4058.00    0.77377   0.88698    0.018
 4059.00    0.23598   0.88111    0.018
 4060.00   -0.49069   0.87751    0.000
 4061.00   -0.12854   0.87802    0.000
 4062.00    0.74391   0.87732    0.017
 4063.00    1.25006   0.87426    0.017
 4064.00    1.60822   0.87628    0.017
 4065.00    1.80489   0.88305    0.017
 4066.00    1.94587   0.88544    0.017
 4067.00    1.57190   0.87335    0.016
 4068.00    1.04839   0.85511    0.016
 4069.00    0.80713   0.85069    0.016
 4070.00    0.63367   0.86342    0.017
 4071.00    0.04038   0.86961    0.016
 4072.00   -0.63427   0.86333    0.000
 4073.00   -0.35442   0.86065    0.000
 4074.00    0.06926   0.86390    0.016
 4075.00    0.61360   0.86047    0.016
 4076.00    1.17128   0.85011    0.016
 4077.00    1.32995   0.84850    0.016
 4078.00    1.45940   0.86254    0.016
 4079.00    1.41620   0.87252    0.016
 4080.00    1.36639   0.86318    0.015
 4081.00    1.07285   0.84700    0.015
 4082.00    0.79435   0.83754    0.016
 4083.00    1.13373   0.83998    0.016
 4084.00    1.43743   0.85095    0.016
 4085.00    1.15309   0.86440    0.016
 4086.00    0.84822   0.87337    0.016
 4087.00    0.33222   0.87158    0.016
 4088.00   -0.11433   0.86256    0.000
 4089.00   -0.05129   0.85306    0.000
 4090.00    0.00555   0.84988    0.015
 4091.00    0.02753   0.85231    0.016
 4092.00    0.18537   0.85743    0.000
 4093.00    0.95121   0.85623    0.000
 4094.00    1.53237   0.84964    0.000
 4095.00    1.43529   0.84731    0.000
 4096.00    1.36966   0.84405    0.000
 4097.00    1.40079   0.83451    0.000
 4098.00    1.37532   0.82699    0.000
 4099.00    1.20192   0.81949    0.000
 4100.00    1.04517   0.79989    0.000
 4101.00    0.92577   0.77222    0.000
 4102.00    1.15676   0.74557    0.000
 4103.00    2.06956   0.71894    0.000
 4104.00    2.13044   0.68169    0.000
 4105.00    0.74581   0.62222    0.000
 4106.00   -0.10758   0.55557    0.000
 4107.00   -0.17128   0.53646    0.000
 4108.00    0.10245   0.58481    0.000
 4109.00    0.81708   0.65375    0.000
 4110.00    1.30304   0.70866    0.000
 4111.00    1.52578   0.74770    0.000
 4112.00    1.35036   0.77289    0.000
 4113.00    0.77077   0.78820    0.016
 4114.00    0.22962   0.79755    0.016
 4115.00   -0.27710   0.80363    0.000
 4116.00   -0.18631   0.81041    0.000
 4117.00    0.37590   0.81904    0.016
 4118.00    0.69746   0.82905    0.016
 4119.00    0.85202   0.83666    0.016
 4120.00    0.85909   0.83784    0.016
 4121.00    0.77640   0.83822    0.015
 4122.00    0.90223   0.84093    0.023
 4123.00    1.13882   0.83745    0.095
 4124.00    0.92843   0.82878   -1.000
 4125.00    0.51193   0.82233   -1.000
 4126.00    0.10947   0.82213   -1.000
 4127.00   -0.28743   0.83072    0.000
 4128.00    0.03875   0.84066   -1.000
 4129.00    0.60966   0.84741   -1.000
 4130.00    0.87286   0.85312    0.039
 4131.00    1.04851   0.85184    0.017
 4132.00    0.74576   0.84577    0.015
 4133.00    0.33069   0.84052    0.015
 4134.00    0.25823   0.84023    0.015
 4135.00    0.25043   0.84013    0.015
 4136.00    0.60446   0.83528    0.015
 4137.00    1.01133   0.82757    0.015
 4138.00    0.86999   0.82538    0.015
 4139.00    0.67039   0.82935    0.015
 4140.00    0.14734   0.83871    0.015
 4141.00   -0.39809   0.84851    0.000
 4142.00   -0.42799   0.85067    0.000
 4143.00   -0.44010   0.85153    0.000
 4144.00    0.26537   0.85384    0.015
 4145.00    0.94800   0.85305    0.015
 4146.00    0.82866   0.84573    0.015
 4147.00    0.69668   0.82364    0.015
 4148.00    0.36919   0.79192    0.015
 4149.00    0.11862   0.78206    0.015
 4150.00    0.62645   0.80488    0.015
 4151.00    1.03099   0.82993    0.015
 4152.00    0.70231   0.84053    0.015
 4153.00    0.46316   0.84235    0.015
 4154.00    0.71283   0.83846    0.015
 4155.00    0.95653   0.83475    0.015
 4156.00    1.17422   0.83569    0.015
 4157.00    1.29564   0.83572    0.015
 4158.00    1.07081   0.83273    0.015
 4159.00    0.86547   0.82955    0.015
 4160.00    0.71895   0.82922    0.015
 4161.00    0.61177   0.82933    0.015
 4162.00    0.60564   0.83077    0.015
 4163.00    0.65491   0.83628    0.015
 4164.00    0.82659   0.84202    0.015
 4165.00    0.86046   0.84353    0.015
 4166.00    0.63035   0.84237    0.015
 4167.00    0.60157   0.84398    0.015
 4168.00    0.90929   0.84598    0.015
 4169.00    1.15908   0.84379    0.015
 4170.00    1.32400   0.84086    0.015
 4171.00    1.29058   0.83805    0.015
 4172.00    1.00168   0.83186    0.015
 4173.00    0.70748   0.82725    0.015
 4174.00    0.40728   0.82972    0.015
 4175.00    0.08983   0.83349    0.015
 4176.00   -0.24487   0.82887    0.000
 4177.00    0.08607   0.81578    0.015
 4178.00    1.00457   0.80778    0.015
 4179.00    1.23217   0.81103    0.015
 4180.00    0.92242   0.81822    0.015
 4181.00    0.75963   0.82213    0.015
 4182.00    0.69734   0.82036    0.014
 4183.00    0.91129   0.81795    0.015
 4184.00    1.29081   0.82181    0.015
 4185.00    1.16055   0.82750    0.015
 4186.00    0.76365   0.82625    0.015
 4187.00    0.66109   0.82126    0.015
 4188.00    0.69205   0.82101    0.015
 4189.00    0.51684   0.82490    0.015
 4190.00    0.26119   0.82870    0.015
 4191.00    0.47138   0.82492    0.015
 4192.00    0.83629   0.81389    0.015
 4193.00    0.81962   0.81113    0.014
 4194.00    0.69660   0.81796    0.014
 4195.00    0.43542   0.82167    0.014
 4196.00    0.14254   0.81964    0.015
 4197.00    0.39036   0.82100    0.014
 4198.00    0.73754   0.82778    0.014
 4199.00    0.88057   0.82764    0.014
 4200.00    0.99473   0.81597    0.014
 4201.00    0.88389   0.80192    0.014
 4202.00    0.75012   0.78887    0.013
 4203.00    0.23105   0.77086    0.013
 4204.00   -0.31313   0.75353    0.000
 4205.00   -0.33483   0.75031    0.000
 4206.00   -0.33997   0.75910    0.000
 4207.00   -0.02229   0.77190    0.000
 4208.00    0.28763   0.78696    0.014
 4209.00    0.36922   0.79925    0.014
 4210.00    0.47024   0.80608    0.014
 4211.00    0.85412   0.81237    0.014
 4212.00    1.16425   0.81905    0.014
 4213.00    0.77688   0.82375    0.014
 4214.00    0.42006   0.82314    0.014
 4215.00    0.27320   0.81933    0.014
 4216.00    0.18644   0.81878    0.014
 4217.00    0.41907   0.82090    0.013
 4218.00    0.63146   0.82117    0.013
 4219.00    0.75739   0.81637    0.013
 4220.00    0.92171   0.80506    0.013
 4221.00    1.22131   0.79910    0.013
 4222.00    1.27780   0.80795    0.013
 4223.00    0.61434   0.81972    0.013
 4224.00    0.20462   0.82519    0.013
 4225.00    0.43520   0.82782    0.013
 4226.00    0.65925   0.82899    0.013
 4227.00    0.86910   0.82380    0.013
 4228.00    0.95095   0.81327    0.014
 4229.00    0.79138   0.80113    0.013
 4230.00    0.72145   0.78514    0.013
 4231.00    0.79911   0.76518    0.013
 4232.00    0.86385   0.75689    0.013
 4233.00    0.90994   0.77366    0.013
 4234.00    0.96596   0.79857    0.013
 4235.00    1.03457   0.81269    0.013
 4236.00    0.93532   0.81814    0.013
 4237.00    0.64827   0.81511    0.013
 4238.00    0.36677   0.80616    0.013
 4239.00    0.09075   0.80278    0.012
 4240.00    0.09565   0.80190    0.013
 4241.00    0.34503   0.79641    0.013
 4242.00    0.59624   0.79486    0.013
 4243.00    0.84886   0.79834    0.013
 4244.00    0.91950   0.80011    0.013
 4245.00    0.86751   0.80224    0.014
 4246.00    0.75878   0.80764    0.014
 4247.00    0.61655   0.80996    0.014
 4248.00    0.51327   0.80961    0.014
 4249.00    0.43004   0.81474    0.014
 4250.00   -0.00120   0.81924    0.000
 4251.00   -0.58771   0.81416    0.000
 4252.00   -0.31427   0.80353    0.000
 4253.00    0.28889   0.79636    0.014
 4254.00    0.29995   0.79268    0.014
 4255.00    0.11803   0.78773    0.013
 4256.00    0.09822   0.78823    0.013
 4257.00    0.12266   0.79668    0.013
 4258.00    0.37612   0.79926    0.014
 4259.00    0.68091   0.79161    0.014
 4260.00    0.73044   0.78692    0.014
 4261.00    0.73433   0.79406    0.014
 4262.00    0.65486   0.80490    0.014
 4263.00    0.56399   0.80418    0.014
 4264.00    0.63823   0.79245    0.014
 4265.00    0.72859   0.78005    0.014
 4266.00    0.25152   0.77689    0.014
 4267.00   -0.26025   0.78726    0.000
 4268.00    0.18958   0.80174    0.013
 4269.00    0.66414   0.80929    0.013
 4270.00    0.90412   0.81144    0.013
 4271.00    1.13338   0.80936    0.013
 4272.00    1.07920   0.80050    0.013
 4273.00    0.99602   0.79318    0.013
 4274.00    0.51406   0.79123    0.013
 4275.00    0.07760   0.78448    0.013
 4276.00    0.05449   0.76919    0.013
 4277.00    0.05798   0.75988    0.013
 4278.00    0.23861   0.76422    0.013
 4279.00    0.39261   0.76809    0.013
 4280.00    0.40873   0.76871    0.013
 4281.00    0.44160   0.77693    0.013
 4282.00    0.54439   0.79053   -2.000
 4283.00    0.61633   0.79980   -2.000
 4284.00    0.58178   0.79859   -2.000
 4285.00    0.68164   0.78883   -2.000
 4286.00    1.17218   0.78263   -2.000
 4287.00    1.44087   0.78330   -2.000
 4288.00    1.15930   0.78609   -2.000
 4289.00    0.90973   0.78741   -2.000
 4290.00    0.72857   0.78263   -2.000
 4291.00    0.56773   0.77672   -2.000
 4292.00    0.44459   0.77657   -2.000
 4293.00    0.45361   0.77540   -2.000
 4294.00    0.67697   0.76511   -2.000
 4295.00    0.83524   0.75419   -2.000
 4296.00    0.90091   0.75601   -2.000
 4297.00    0.88196   0.76885   -2.000
 4298.00    0.75709   0.77963    0.013
 4299.00    0.77032   0.77858    0.013
 4300.00    0.93588   0.77362    0.013
 4301.00    0.89330   0.77173    0.013
 4302.00    0.64821   0.76788    0.013
 4303.00    0.33605   0.75871    0.013
 4304.00   -0.03367   0.74420    0.000
 4305.00   -0.01142   0.73323    0.000
 4306.00    0.30703   0.73404    0.013
 4307.00    0.69394   0.73771    0.013
 4308.00    1.12632   0.73817    0.013
 4309.00    1.13090   0.74043    0.013
 4310.00    0.88671   0.74287    0.013
 4311.00    0.87653   0.74162    0.013
 4312.00    0.98495   0.73509    0.013
 4313.00    0.73744   0.72560    0.012
 4314.00    0.33375   0.72243    0.012
 4315.00    0.28860   0.72828    0.012
 4316.00    0.37853   0.73696    0.012
 4317.00    0.38176   0.74412    0.012
 4318.00    0.35728   0.74952    0.012
 4319.00    0.46595   0.75397    0.012
 4320.00    0.61020   0.76342    0.012
 4321.00    0.69143   0.78140    0.013
 4322.00    0.75887   0.79614    0.013
 4323.00    0.61931   0.79890    0.013
 4324.00    0.44373   0.79495    0.013
 4325.00    0.42933   0.78930    0.013
 4326.00    0.43624   0.78299    0.013
 4327.00    0.93753   0.77727    0.013
 4328.00    1.48501   0.76591    0.013
 4329.00    1.17572   0.74648    0.013
 4330.00    0.81743   0.72678    0.000
 4331.00    0.73250   0.71926    0.000
 4332.00    0.65283   0.73194    0.000
 4333.00    0.44684   0.75331    0.000
 4334.00    0.26268   0.76442    0.000
 4335.00    0.60254   0.76035    0.000
 4336.00    0.89981   0.75126    0.000
 4337.00    0.64267   0.74562    0.000
 4338.00    0.40946   0.73994    0.000
 4339.00    0.38537   0.73146    0.000
 4340.00    0.43067   0.72097    0.000
 4341.00    0.92423   0.70031    0.000
 4342.00    1.26597   0.65968    0.000
 4343.00    0.84172   0.60678    0.000
 4344.00    0.51618   0.55098    0.000
 4345.00    0.59356   0.49998    0.000
 4346.00    0.73650   0.48798    0.000
 4347.00    1.10130   0.53293    0.000
 4348.00    1.24085   0.59604    0.000
 4349.00    0.73766   0.64192    0.000
 4350.00    0.44720   0.67470    0.000
 4351.00    0.67538   0.69963    0.013
 4352.00    0.74562   0.71460    0.013
 4353.00    0.48365   0.72719    0.013
 4354.00    0.36069   0.74167    0.013
 4355.00    0.49187   0.74668    0.013
 4356.00    0.48284   0.73438    0.013
 4357.00    0.24981   0.72097    0.013
 4358.00    0.24760   0.72583    0.016
 4359.00    0.56904   0.74158    0.046
 4360.00    0.81607   0.75242   -1.000
 4361.00    0.97131   0.75947   -1.000
 4362.00    1.10401   0.76660   -1.000
 4363.00    1.21222   0.76725   -1.000
 4364.00    1.13763   0.76070   -1.000
 4365.00    0.88769   0.75917   -1.000
 4366.00    0.81262   0.76738    0.046
 4367.00    0.88548   0.77542    0.016
 4368.00    0.68265   0.77711    0.013
 4369.00    0.27447   0.77885    0.013
 4370.00    0.14442   0.78386    0.013
 4371.00    0.19636   0.78304    0.013
 4372.00    0.43035   0.77268    0.013
 4373.00    0.76861   0.76371    0.013
 4374.00    0.71649   0.76365    0.013
 4375.00    0.46963   0.76644    0.013
 4376.00    0.28462   0.76755    0.012
 4377.00    0.12629   0.76818    0.013
 4378.00    0.28149   0.76493    0.013
 4379.00    0.55270   0.75470    0.013
 4380.00    0.89123   0.74493    0.013
 4381.00    1.25088   0.74661    0.013
 4382.00    0.98492   0.75936    0.013
 4383.00    0.55531   0.77105    0.013
 4384.00    0.77334   0.77317    0.012
 4385.00    1.12970   0.76965    0.012
 4386.00    0.82857   0.76594    0.012
 4387.00    0.41625   0.75472    0.012
 4388.00    0.47771   0.72974    0.012
 4389.00    0.59970   0.70743    0.012
 4390.00    0.84236   0.70782    0.012
 4391.00    1.09579   0.72324    0.012
 4392.00    0.87810   0.72847    0.012
 4393.00    0.63533   0.72147    0.012
 4394.00    0.76848   0.72182    0.012
 4395.00    0.90750   0.73207    0.012
 4396.00    0.92552   0.74248    0.012
 4397.00    0.94816   0.75230    0.012
 4398.00    1.07243   0.75926    0.012
 4399.00    1.18799   0.75727    0.012
 4400.00    1.19597   0.75106    0.012
 4401.00    1.18588   0.75364    0.012
 4402.00    1.02380   0.76558    0.012
 4403.00    0.84429   0.77288    0.012
 4404.00    0.55557   0.76806    0.012
 4405.00    0.32903   0.75636    0.012
 4406.00    0.40834   0.75005    0.012
 4407.00    0.53078   0.75649    0.012
 4408.00    0.82539   0.76131    0.012
 4409.00    1.00435   0.74834    0.012
 4410.00    0.79976   0.73216    0.012
 4411.00    0.63997   0.73394    0.012
 4412.00    0.60572   0.74391    0.012
 4413.00    0.66889   0.74552    0.012
 4414.00    0.96556   0.74615    0.012
 4415.00    1.12581   0.75556    0.012
 4416.00    1.00369   0.76677    0.012
 4417.00    0.83256   0.77348    0.012
 4418.00    0.57322   0.77496    0.012
 4419.00    0.36331   0.76476    0.011
 4420.00    0.23119   0.74578    0.012
 4421.00    0.26679   0.73650    0.012
 4422.00    0.53415   0.74207    0.012
 4423.00    0.72216   0.75268    0.012
 4424.00    0.81365   0.76390    0.012
 4425.00    0.76346   0.77165    0.012
 4426.00    0.56134   0.76991    0.012
 4427.00    0.43188   0.76044    0.012
 4428.00    0.37115   0.75357    0.011
 4429.00    0.33270   0.75521    0.011
 4430.00    0.31283   0.75886    0.012
 4431.00    0.45031   0.75816    0.012
 4432.00    0.70331   0.75584    0.012
 4433.00    0.67193   0.75701    0.012
 4434.00    0.45720   0.75932    0.012
 4435.00    0.47744   0.75572    0.012
 4436.00    0.63021   0.75192    0.012
 4437.00    0.76054   0.75544    0.012
 4438.00    0.87985   0.75725    0.012
 4439.00    0.75589   0.74909    0.012
 4440.00    0.52872   0.73723    0.012
 4441.00    0.38523   0.73346    0.012
 4442.00    0.27215   0.74128    0.012
 4443.00    0.28784   0.75436    0.012
 4444.00    0.34313   0.76539    0.012
 4445.00    0.55546   0.76746    0.012
 4446.00    0.80800   0.75822    0.012
 4447.00    0.90637   0.74500    0.012
 4448.00    0.97260   0.73704    0.012
 4449.00    0.57216   0.73915    0.012
 4450.00    0.09505   0.75076    0.012
 4451.00    0.09602   0.76205    0.012
 4452.00    0.15594   0.76362    0.011
 4453.00    0.44606   0.76132    0.012
 4454.00    0.75577   0.76147    0.012
 4455.00    0.63044   0.75919    0.012
 4456.00    0.48365   0.75564    0.011
 4457.00    0.60660   0.75617    0.012
 4458.00    0.73130   0.75552    0.012
 4459.00    0.69554   0.74678    0.012
 4460.00    0.66069   0.73410    0.012
 4461.00    0.64398   0.72904    0.000
 4462.00    0.62024   0.73360    0.000
 4463.00    0.51378   0.73740    0.000
 4464.00    0.43924   0.73602    0.000
 4465.00    0.62352   0.73388    0.000
 4466.00    0.82888   0.73102    0.000
 4467.00    1.16251   0.72776    0.000
 4468.00    1.33494   0.73230    0.000
 4469.00    0.73403   0.74269    0.000
 4470.00    0.29201   0.74711    0.000
 4471.00    0.47050   0.74516    0.000
 4472.00    0.64654   0.74232    0.000
 4473.00    0.81460   0.73732    0.000
 4474.00    0.92641   0.72633    0.000
 4475.00    0.88348   0.70853    0.000
 4476.00    0.83098   0.68704    0.000
 4477.00    0.75592   0.67959    0.000
 4478.00    0.77121   0.70229    0.000
 4479.00    0.97051   0.73548    0.000
 4480.00    0.95587   0.75207    0.000
 4481.00    0.56196   0.75569    0.000
 4482.00    0.33442   0.76049    0.011
 4483.00    0.36489   0.76563    0.011
 4484.00    0.44942   0.76199    0.012
 4485.00    0.60758   0.74724    0.012
 4486.00    0.65229   0.73026    0.012
 4487.00    0.56096   0.72359    0.012
 4488.00    0.49631   0.73210    0.012
 4489.00    0.45987   0.74764    0.012
 4490.00    0.48456   0.75917    0.012
 4491.00    0.56626   0.76439    0.012
 4492.00    0.75991   0.76410    0.012
 4493.00    1.04561   0.75700    0.012
 4494.00    1.11393   0.74529    0.012
 4495.00    1.02495   0.73732    0.012
 4496.00    0.86120   0.73952    0.012
 4497.00    0.64994   0.74834    0.012
 4498.00    0.72733   0.75328    0.012
 4499.00    0.96506   0.74796    0.012
 4500.00    0.93196   0.73835    0.012
 4501.00    0.76803   0.73442    0.012
 4502.00    0.66851   0.73812    0.012
 4503.00    0.59587   0.74648    0.011
 4504.00    0.44589   0.75438    0.012
 4505.00    0.26832   0.75615    0.012
 4506.00    0.38982   0.75071    0.012
 4507.00    0.60148   0.74656    0.011
 4508.00    0.53160   0.75353    0.011
 4509.00    0.39121   0.76548    0.011
 4510.00    0.67021   0.77036    0.011
 4511.00    1.03445   0.76753    0.011
 4512.00    0.78738   0.76204    0.011
 4513.00    0.44279   0.75767    0.012
 4514.00    0.63009   0.75680    0.012
 4515.00    0.88059   0.75906    0.012
 4516.00    0.79615   0.76060    0.012
 4517.00    0.68461   0.75766    0.011
 4518.00    0.68015   0.75173    0.012
 4519.00    0.68056   0.74638    0.012
 4520.00    0.55578   0.74332    0.011
 4521.00    0.43610   0.74424    0.011
 4522.00    0.65475   0.74575    0.011
 4523.00    0.85588   0.74319    0.011
 4524.00    0.72822   0.74192    0.011
 4525.00    0.59691   0.74668    0.012
 4526.00    0.42464   0.75226    0.012
 4527.00    0.28330   0.75110    0.011
 4528.00    0.38399   0.74272    0.011
 4529.00    0.44115   0.73710    0.011
 4530.00    0.24094   0.73621    0.011
 4531.00    0.16596   0.73194    0.011
 4532.00    0.67726   0.72395    0.011
 4533.00    1.01371   0.71627    0.011
 4534.00    0.68196   0.71160    0.011
 4535.00    0.41933   0.71245    0.011
 4536.00    0.37706   0.71756    0.011
 4537.00    0.41543   0.72368    0.011
 4538.00    0.67167   0.72586    0.011
 4539.00    0.79053   0.71888    0.011
 4540.00    0.59106   0.70926    0.011
 4541.00    0.46307   0.70870    0.011
 4542.00    0.47839   0.72080    0.011
 4543.00    0.47557   0.73348    0.011
 4544.00    0.44107   0.73073    0.011
 4545.00    0.55726   0.71169    0.011
 4546.00    0.90372   0.68696    0.011
 4547.00    0.95005   0.67480    0.011
 4548.00    0.59348   0.68587    0.011
 4549.00    0.39965   0.70436    0.011
 4550.00    0.39819   0.71317    0.000
 4551.00    0.54037   0.71785    0.000
 4552.00    0.83228   0.72458    0.000
 4553.00    0.92872   0.72738    0.000
 4554.00    0.84544   0.72235    0.000
 4555.00    0.73273   0.71704    0.000
 4556.00    0.59618   0.72117    0.000
 4557.00    0.52498   0.72714    0.000
 4558.00    0.50038   0.72463    0.000
 4559.00    0.42369   0.71918    0.000
 4560.00    0.31440   0.71632    0.000
 4561.00    0.23760   0.71862    0.000
 4562.00    0.17858   0.72782    0.000
 4563.00    0.46919   0.73815    0.000
 4564.00    0.92600   0.74257    0.000
 4565.00    1.00960   0.74257    0.000
 4566.00    0.94013   0.74236    0.000
 4567.00    0.83492   0.74269    0.000
 4568.00    0.71719   0.73918    0.000
 4569.00    0.69100   0.72983    0.000
 4570.00    0.69187   0.72196    0.000
 4571.00    0.77123   0.72220    0.000
 4572.00    0.86981   0.72981    0.000
 4573.00    0.60841   0.73810    0.000
 4574.00    0.27566   0.74095    0.000
 4575.00    0.27614   0.73904    0.000
 4576.00    0.32821   0.73194    0.000
 4577.00    0.55988   0.72317    0.000
 4578.00    0.81210   0.72575    0.000
 4579.00    0.90124   0.73645    0.000
 4580.00    0.97786   0.73957    0.000
 4581.00    1.06915   0.73713    0.000
 4582.00    1.16105   0.73695    0.000
 4583.00    1.01837   0.73629    0.000
 4584.00    0.87522   0.73086    0.000
 4585.00    0.79988   0.72182    0.000
 4586.00    0.73319   0.71526    0.000
 4587.00    0.81774   0.71593    0.000
 4588.00    0.89225   0.72007    0.000
 4589.00    0.85933   0.72087    0.000
 4590.00    0.82194   0.71938    0.000
 4591.00    0.75072   0.71870    0.000
 4592.00    0.67288   0.72031    0.000
 4593.00    0.55702   0.72631    0.000
 4594.00    0.52014   0.73281    0.000
 4595.00    0.84419   0.73410    0.000
 4596.00    1.08158   0.72869    0.000
 4597.00    0.99478   0.72101    0.000
 4598.00    0.94282   0.71740    0.000
 4599.00    0.99980   0.71839    0.000
 4600.00    1.06443   0.71874    0.000
 4601.00    1.14937   0.71733    0.000
 4602.00    1.02882   0.71774    0.000
 4603.00    0.44006   0.72015    0.000
 4604.00    0.07956   0.72299    0.000
 4605.00    0.16941   0.72282    0.000
 4606.00    0.34204   0.71807    0.000
 4607.00    0.65699   0.71617    0.000
 4608.00    0.87428   0.71879    0.000
 4609.00    0.94454   0.72046    0.000
 4610.00    0.92023   0.72033    0.000
 4611.00    0.77081   0.71941    0.000
 4612.00    0.72452   0.72124    0.000
 4613.00    0.79844   0.72748    0.000
 4614.00    0.79780   0.73543    0.000
 4615.00    0.72054   0.73874    0.000
 4616.00    0.70984   0.73460    0.000
 4617.00    0.75948   0.72894    0.000
 4618.00    0.62917   0.72582    0.000
 4619.00    0.35509   0.72470    0.000
 4620.00    0.42394   0.72713    0.000
 4621.00    0.73383   0.72943    0.000
 4622.00    0.84159   0.72848    0.000
 4623.00    0.82472   0.72839    0.000
 4624.00    0.71099   0.72569    0.000
 4625.00    0.54509   0.72125    0.000
 4626.00    0.56969   0.72395    0.000
 4627.00    0.68341   0.72978    0.000
 4628.00    0.48714   0.73047    0.000
 4629.00    0.16592   0.72967    0.000
 4630.00    0.40710   0.72901    0.000
 4631.00    0.84175   0.72613    0.000
 4632.00    0.83663   0.72475    0.000
 4633.00    0.70413   0.72565    0.000
 4634.00    0.61755   0.72334    0.000
 4635.00    0.54197   0.71897    0.000
 4636.00    0.75353   0.72013    0.000
 4637.00    1.02055   0.72408    0.000
 4638.00    0.91588   0.72214    0.000
 4639.00    0.75542   0.71705    0.000
 4640.00    0.58307   0.71591    0.000
 4641.00    0.40941   0.71692    0.000
 4642.00    0.65360   0.71563    0.000
 4643.00    0.92817   0.71114    0.000
 4644.00    0.75340   0.70715    0.000
 4645.00    0.56164   0.70614    0.000
 4646.00    0.51540   0.70848    0.000
 4647.00    0.47164   0.71432    0.000
 4648.00    0.49211   0.71803    0.000
 4649.00    0.53430   0.71681    0.000
 4650.00    0.93131   0.71305    0.000
 4651.00    1.26323   0.70453    0.000
 4652.00    0.92897   0.69151    0.000
 4653.00    0.61734   0.68533    0.000
 4654.00    0.47107   0.68963    0.000
 4655.00    0.37012   0.69685    0.000
 4656.00    0.52260   0.70231    0.000
 4657.00    0.65153   0.70662    0.000
 4658.00    0.67539   0.71124    0.000
 4659.00    0.68843   0.71205    0.000
 4660.00    0.66181   0.70538    0.000
 4661.00    0.62563   0.69953    0.000
 4662.00    0.56008   0.70037    0.000
 4663.00    0.57938   0.70751    0.000
 4664.00    0.81993   0.71920    0.000
 4665.00    0.87024   0.72783    0.000
 4666.00    0.49422   0.72782    0.000
 4667.00    0.32570   0.72030    0.000
 4668.00    0.56018   0.71111    0.000
 4669.00    0.70871   0.70551    0.000
 4670.00    0.71168   0.70439    0.000
 4671.00    0.73211   0.70120    0.000
 4672.00    0.77844   0.68917    0.000
 4673.00    0.73829   0.67624    0.000
 4674.00    0.58534   0.67614    0.000
 4675.00    0.53332   0.68742    0.000
 4676.00    0.59727   0.69979    0.000
 4677.00    0.58595   0.70750    0.000
 4678.00    0.49836   0.70743    0.000
 4679.00    0.45452   0.70304    0.000
 4680.00    0.44978   0.70170    0.000
 4681.00    0.51058   0.70559    0.000
 4682.00    0.62297   0.71103    0.000
 4683.00    0.52365   0.71074    0.000
 4684.00    0.27768   0.70383    0.000
 4685.00    0.26502   0.69623    0.000
 4686.00    0.39405   0.69091    0.000
 4687.00    0.51887   0.68686    0.000
 4688.00    0.64145   0.68472    0.000
 4689.00    0.76840   0.68032    0.000
 4690.00    0.89735   0.65948    0.000
 4691.00    0.81989   0.63044    0.000
 4692.00    0.66065   0.62836    0.000
 4693.00    0.52695   0.65535    0.000
 4694.00    0.40186   0.68059    0.000
 4695.00    0.60018   0.69175    0.000
 4696.00    0.89028   0.69441    0.000
 4697.00    0.69384   0.69402    0.000
 4698.00    0.38350   0.69733    0.000
 4699.00    0.41074   0.70200    0.000
 4700.00    0.50148   0.70570    0.000
 4701.00    0.53852   0.71000    0.000
 4702.00    0.56776   0.71158    0.000
 4703.00    0.53178   0.70533    0.000
 4704.00    0.48891   0.69387    0.000
 4705.00    0.42468   0.68874    0.000
 4706.00    0.35899   0.69163    0.000
 4707.00    0.70620   0.69186    0.000
 4708.00    1.06746   0.68666    0.000
 4709.00    0.71823   0.68391    0.000
 4710.00    0.37232   0.68924    0.000
 4711.00    0.17037   0.69527    0.000
 4712.00   -0.00829   0.69383    0.000
 4713.00    0.17039   0.68752    0.000
 4714.00    0.32399   0.68314    0.000
 4715.00    0.23161   0.68324    0.000
 4716.00    0.16764   0.68932    0.000
 4717.00    0.30460   0.69562    0.000
 4718.00    0.43354   0.68784    0.000
 4719.00    0.51885   0.67521    0.000
 4720.00    0.59283   0.67421    0.000
 4721.00    0.61735   0.68522    0.000
 4722.00    0.63378   0.69669    0.000
 4723.00    0.62117   0.70356    0.000
 4724.00    0.61733   0.70554    0.000
 4725.00    0.63985   0.70770    0.000
 4726.00    0.69208   0.70925    0.000
 4727.00    0.82041   0.70716    0.000
 4728.00    0.91082   0.70316    0.000
 4729.00    0.91762   0.70290    0.000
 4730.00    0.88142   0.70740    0.000
 4731.00    0.76304   0.70966    0.000
 4732.00    0.74170   0.70320    0.000
 4733.00    0.88223   0.68925    0.000
 4734.00    0.91453   0.67956    0.000
 4735.00    0.78857   0.67970    0.000
 4736.00    0.70942   0.68241    0.000
 4737.00    0.69044   0.68458    0.000
 4738.00    0.59926   0.68869    0.000
 4739.00    0.42627   0.69235    0.000
 4740.00    0.36163   0.69464    0.000
 4741.00    0.40526   0.69572    0.000
 4742.00    0.41016   0.69032    0.000
 4743.00    0.38093   0.68726    0.000
 4744.00    0.42288   0.69402    0.000
 4745.00    0.52009   0.69823    0.000
 4746.00    0.54903   0.69405    0.000
 4747.00    0.53136   0.69039    0.000
 4748.00    0.60986   0.69283    0.000
 4749.00    0.74588   0.69739    0.000
 4750.00    0.73087   0.69746    0.000
 4751.00    0.63703   0.69526    0.000
 4752.00    0.58686   0.69761    0.000
 4753.00    0.55647   0.70076    0.000
 4754.00    0.58860   0.69983    0.000
 4755.00    0.64508   0.69887    0.000
 4756.00    0.63777   0.69963    0.000
 4757.00    0.60932   0.69842    0.000
 4758.00    0.64173   0.69409    0.000
 4759.00    0.69106   0.69025    0.000
 4760.00    0.68355   0.68751    0.000
 4761.00    0.66304   0.68657    0.010
 4762.00    0.67350   0.68611    0.010
 4763.00    0.68962   0.68641    0.010
 4764.00    0.56725   0.68813    0.010
 4765.00    0.42538   0.69107    0.010
 4766.00    0.62094   0.69248    0.010
 4767.00    0.85074   0.68672    0.010
 4768.00    0.65822   0.67674    0.010
 4769.00    0.43841   0.67211    0.010
 4770.00    0.41350   0.67157    0.010
 4771.00    0.39482   0.66957    0.010
 4772.00    0.54273   0.66892    0.010
 4773.00    0.68490   0.67350    0.010
 4774.00    0.66096   0.68014    0.010
 4775.00    0.63739   0.68663    0.010
 4776.00    0.61936   0.68917    0.010
 4777.00    0.58873   0.68379    0.010
 4778.00    0.43961   0.67889    0.010
 4779.00    0.31147   0.68222    0.009
 4780.00    0.32699   0.69007    0.009
 4781.00    0.35501   0.69291    0.009
 4782.00    0.44926   0.69076    0.009
 4783.00    0.56426   0.69103    0.009
 4784.00    0.76765   0.69097    0.009
 4785.00    0.89859   0.68704    0.009
 4786.00    0.77487   0.68453    0.009
 4787.00    0.71200   0.68478    0.009
 4788.00    0.82891   0.68187    0.009
 4789.00    0.94188   0.67636    0.009
 4790.00    1.04491   0.67713    0.009
 4791.00    1.02679   0.67942    0.009
 4792.00    0.74594   0.67406    0.009
 4793.00    0.61923   0.67210    0.009
 4794.00    0.78260   0.67489    0.009
 4795.00    0.85882   0.67364    0.009
 4796.00    0.79181   0.67409    0.009
 4797.00    0.80848   0.67773    0.009
 4798.00    0.94571   0.68052    0.009
 4799.00    0.99229   0.68588    0.009
 4800.00    0.92399   0.69306    0.009
 4801.00    0.88258   0.69581    0.009
 4802.00    0.87122   0.69278    0.009
 4803.00    0.84600   0.68683    0.009
 4804.00    0.80714   0.67929    0.010
 4805.00    0.72686   0.67327    0.010
 4806.00    0.61060   0.67347    0.010
 4807.00    0.56354   0.68008    0.009
 4808.00    0.56945   0.68732    0.009
 4809.00    0.55189   0.68859    0.009
 4810.00    0.51856   0.68292    0.009
 4811.00    0.57148   0.67592    0.009
 4812.00    0.67522   0.67443    0.009
 4813.00    0.75859   0.67369    0.009
 4814.00    0.83150   0.67181    0.009
 4815.00    0.86524   0.67375    0.009
 4816.00    0.88155   0.67685    0.009
 4817.00    0.80525   0.67743    0.009
 4818.00    0.69352   0.67684    0.009
 4819.00    0.68082   0.67714    0.009
 4820.00    0.70031   0.67810    0.009
 4821.00    0.70763   0.67959    0.009
 4822.00    0.71165   0.68157    0.009
 4823.00    0.77482   0.68374    0.009
 4824.00    0.85120   0.68473    0.009
 4825.00    0.71573   0.68495    0.009
 4826.00    0.54250   0.68357    0.009
 4827.00    0.56438   0.68183    0.009
 4828.00    0.61285   0.67665    0.009
 4829.00    0.63158   0.66473    0.009
 4830.00    0.64743   0.65973    0.009
 4831.00    0.78623   0.66790    0.009
 4832.00    0.93249   0.67568    0.009
 4833.00    1.02002   0.67537    0.009
 4834.00    1.10436   0.67019    0.009
 4835.00    0.89660   0.66732    0.009
 4836.00    0.69846   0.66876    0.009
 4837.00    0.75144   0.66598    0.009
 4838.00    0.79693   0.66040    0.009
 4839.00    0.74004   0.66323    0.009
 4840.00    0.68268   0.66976    0.009
 4841.00    0.62111   0.67062    0.009
 4842.00    0.58982   0.66812    0.009
 4843.00    0.75940   0.66825    0.009
 4844.00    0.86508   0.66584    0.009
 4845.00    0.64108   0.65812    0.009
 4846.00    0.46289   0.65302    0.009
 4847.00    0.47545   0.65522    0.009
 4848.00    0.49426   0.65690    0.000
 4849.00    0.53459   0.65317    0.000
 4850.00    0.57415   0.65378    0.000
 4851.00    0.61150   0.65997    0.000
 4852.00    0.63235   0.66175    0.000
 4853.00    0.61232   0.65532    0.000
 4854.00    0.62446   0.64428    0.000
 4855.00    0.70520   0.63948    0.000
 4856.00    0.77647   0.64328    0.000
 4857.00    0.83018   0.64280    0.000
 4858.00    0.80250   0.63695    0.000
 4859.00    0.64307   0.63071    0.000
 4860.00    0.60202   0.61656    0.000
 4861.00    0.72908   0.59483    0.000
 4862.00    0.78199   0.58154    0.000
 4863.00    0.74225   0.57469    0.000
 4864.00    0.69127   0.55316    0.000
 4865.00    0.62790   0.51181    0.000
 4866.00    0.64482   0.45616    0.000
 4867.00    0.73973   0.41356    0.000
 4868.00    0.79906   0.42673    0.000
 4869.00    0.82793   0.48389    0.000
 4870.00    0.76375   0.53178    0.000
 4871.00    0.62939   0.56239    0.000
 4872.00    0.58551   0.58488    0.000
 4873.00    0.60161   0.59950    0.000
 4874.00    0.63206   0.60930    0.000
 4875.00    0.67082   0.61845    0.009
 4876.00    0.53398   0.61715    0.009
 4877.00    0.30832   0.60568    0.009
 4878.00    0.40742   0.60536    0.009
 4879.00    0.64873   0.62038    0.009
 4880.00    0.77139   0.63203    0.009
 4881.00    0.84946   0.63451    0.009
 4882.00    0.72907   0.63722    0.009
 4883.00    0.54538   0.64184    0.009
 4884.00    0.63350   0.64510    0.009
 4885.00    0.79407   0.65379    0.009
 4886.00    0.75211   0.65798    0.009
 4887.00    0.66595   0.64931    0.009
 4888.00    0.40568   0.64404    0.009
 4889.00    0.11522   0.64842    0.009
 4890.00    0.16417   0.64900    0.009
 4891.00    0.25781   0.64189    0.009
 4892.00    0.26485   0.63735    0.009
 4893.00    0.26386   0.64004    0.009
 4894.00    0.49971   0.64386    0.009
 4895.00    0.74898   0.64256    0.009
 4896.00    0.62221   0.63375    0.009
 4897.00    0.49044   0.62416    0.009
 4898.00    0.74861   0.63331    0.009
 4899.00    0.99265   0.65329    0.009
 4900.00    0.90138   0.66634    0.009
 4901.00    0.81515   0.67318    0.009
 4902.00    0.79422   0.67497    0.010
 4903.00    0.78042   0.67409    0.010
 4904.00    0.82871   0.67190    0.009
 4905.00    0.84444   0.66379    0.009
 4906.00    0.65067   0.65588    0.009
 4907.00    0.49748   0.65790    0.009
 4908.00    0.54832   0.65945    0.009
 4909.00    0.57828   0.65373    0.009
 4910.00    0.52324   0.65223    0.009
 4911.00    0.52253   0.66053    0.009
 4912.00    0.70521   0.66870    0.009
 4913.00    0.84450   0.66779    0.009
 4914.00    0.86028   0.66024    0.009
 4915.00    0.80247   0.65054    0.009
 4916.00    0.56564   0.64166    0.009
 4917.00    0.46769   0.64140    0.009
 4918.00    0.66128   0.64886    0.009
 4919.00    0.73297   0.65463    0.009
 4920.00    0.58227   0.65789    0.009
 4921.00    0.48616   0.66339    0.009
 4922.00    0.47712   0.66557    0.009
 4923.00    0.48933   0.65754    0.009
 4924.00    0.53127   0.63916    0.009
 4925.00    0.53255   0.61771    0.009
 4926.00    0.48377   0.60211    0.009
 4927.00    0.50258   0.59554    0.009
 4928.00    0.59479   0.60510    0.009
 4929.00    0.72561   0.61975    0.009
 4930.00    0.89339   0.62870    0.009
 4931.00    0.86346   0.63471    0.009
 4932.00    0.66659   0.64716    0.009
 4933.00    0.59609   0.65615    0.009
 4934.00    0.61955   0.65962    0.009
 4935.00    0.66222   0.66401    0.009
 4936.00    0.71743   0.66565    0.009
 4937.00    0.67121   0.66492    0.009
 4938.00    0.56700   0.65972    0.009
 4939.00    0.55191   0.64507    0.009
 4940.00    0.58119   0.63593    0.000
 4941.00    0.57093   0.64387    0.000
 4942.00    0.54365   0.65111    0.000
 4943.00    0.57246   0.64427    0.000
 4944.00    0.62198   0.63058    0.000
 4945.00    0.72794   0.62484    0.000
 4946.00    0.85157   0.63542    0.000
 4947.00    0.84716   0.65076    0.000
 4948.00    0.80935   0.65625    0.000
 4949.00    0.70037   0.65853    0.000
 4950.00    0.57624   0.66137    0.000
 4951.00    0.77722   0.65798    0.000
 4952.00    1.03298   0.65290    0.000
 4953.00    0.88270   0.65545    0.000
 4954.00    0.68077   0.66063    0.000
 4955.00    0.70271   0.66239    0.000
 4956.00    0.74451   0.66266    0.000
 4957.00    0.69095   0.66388    0.000
 4958.00    0.63236   0.66160    0.000
 4959.00    0.53042   0.65664    0.000
 4960.00    0.42997   0.65405    0.000
 4961.00    0.51046   0.65182    0.000
 4962.00    0.58831   0.64023    0.000
 4963.00    0.60869   0.61658    0.000
 4964.00    0.63727   0.60900    0.000
 4965.00    0.76659   0.62894    0.000
 4966.00    0.87290   0.64841    0.000
 4967.00    0.78658   0.65261    0.000
 4968.00    0.70674   0.65039    0.000
 4969.00    0.66740   0.65080    0.000
 4970.00    0.63548   0.64916    0.000
 4971.00    0.63997   0.64070    0.000
 4972.00    0.66177   0.63415    0.000
 4973.00    0.75250   0.63406    0.000
 4974.00    0.80283   0.63492    0.000
 4975.00    0.71951   0.63603    0.000
 4976.00    0.68747   0.63746    0.000
 4977.00    0.79875   0.64036    0.000
 4978.00    0.82993   0.64497    0.000
 4979.00    0.66952   0.64814    0.000
 4980.00    0.54545   0.65086    0.000
 4981.00    0.49640   0.65121    0.000
 4982.00    0.48101   0.64861    0.000
 4983.00    0.52607   0.64493    0.000
 4984.00    0.51275   0.63835    0.000
 4985.00    0.40771   0.63366    0.000
 4986.00    0.39143   0.63246    0.000
 4987.00    0.49758   0.62627    0.000
 4988.00    0.56541   0.61281    0.000
 4989.00    0.58671   0.60464    0.000
 4990.00    0.56016   0.60814    0.000
 4991.00    0.48239   0.61592    0.000
 4992.00    0.45120   0.62431    0.000
 4993.00    0.46397   0.63478    0.000
 4994.00    0.47005   0.63996    0.000
 4995.00    0.47056   0.63734    0.000
 4996.00    0.42507   0.63196    0.000
 4997.00    0.34586   0.62858    0.000
 4998.00    0.33626   0.63200    0.000
 4999.00    0.37144   0.63386    0.000
 5000.00    0.41438   0.63158    0.000
 5001.00    0.46169   0.63441    0.000
 5002.00    0.56829   0.63814    0.000
 5003.00    0.70394   0.63788    0.000
 5004.00    0.75057   0.63488    0.000
 5005.00    0.75949   0.62679    0.000
 5006.00    0.62500   0.61831    0.000
 5007.00    0.43850   0.61595    0.000
 5008.00    0.33658   0.61772    0.000
 5009.00    0.26060   0.62121    0.000
 5010.00    0.30875   0.62145    0.000
 5011.00    0.38859   0.61374    0.000
 5012.00    0.38784   0.60440    0.000
 5013.00    0.37034   0.60679    0.000
 5014.00    0.29165   0.62009    0.000
 5015.00    0.20295   0.62936    0.000
 5016.00    0.21853   0.62902    0.000
 5017.00    0.24691   0.62296    0.000
 5018.00    0.28660   0.61238    0.000
 5019.00    0.32725   0.60206    0.000
 5020.00    0.36266   0.59365    0.000
 5021.00    0.39781   0.58812    0.000
 5022.00    0.54874   0.59277    0.000
 5023.00    0.69856   0.60064    0.000
 5024.00    0.67190   0.60438    0.000
 5025.00    0.64547   0.60852    0.000
 5026.00    0.62344   0.61574    0.000
 5027.00    0.60933   0.61744    0.000
 5028.00    0.68758   0.61277    0.000
 5029.00    0.76375   0.61288    0.009
 5030.00    0.82320   0.61967    0.009
 5031.00    0.83882   0.62369    0.009
 5032.00    0.58864   0.62284    0.009
 5033.00    0.38997   0.61669    0.009
 5034.00    0.43769   0.61389    0.009
 5035.00    0.46465   0.62025    0.009
 5036.00    0.41081   0.62593    0.009
 5037.00    0.42626   0.62784    0.009
 5038.00    0.66648   0.63221    0.009
 5039.00    0.79758   0.63767    0.009
 5040.00    0.62916   0.63656    0.009
 5041.00    0.48424   0.62440    0.009
 5042.00    0.39455   0.61188    0.009
 5043.00    0.34942   0.61220    0.009
 5044.00    0.39487   0.61506    0.009
 5045.00    0.55360   0.60814    0.009
 5046.00    0.91275   0.59306    0.009
 5047.00    1.00217   0.58007    0.009
 5048.00    0.67404   0.58611    0.009
 5049.00    0.53467   0.60674    0.009
 5050.00    0.65190   0.62193    0.009
 5051.00    0.69439   0.63096    0.009
 5052.00    0.64741   0.63588    0.009
 5053.00    0.64412   0.63037    0.009
 5054.00    0.68692   0.61696    0.009
 5055.00    0.69414   0.60699    0.009
 5056.00    0.66821   0.60641    0.009
 5057.00    0.62526   0.60793    0.009
 5058.00    0.56834   0.61017    0.009
 5059.00    0.56128   0.61671    0.009
 5060.00    0.59023   0.62445    0.009
 5061.00    0.63468   0.62787    0.009
 5062.00    0.68895   0.62768    0.009
 5063.00    0.67740   0.62774    0.009
 5064.00    0.62935   0.62960    0.009
 5065.00    0.53867   0.63001    0.008
 5066.00    0.42742   0.63021    0.008
 5067.00    0.45273   0.63301    0.008
 5068.00    0.53488   0.63493    0.008
 5069.00    0.52398   0.63041    0.008
 5070.00    0.47996   0.61701    0.008
 5071.00    0.49698   0.60505    0.008
 5072.00    0.53235   0.60675    0.008
 5073.00    0.45236   0.61221    0.008
 5074.00    0.34355   0.61133    0.008
 5075.00    0.46530   0.61127    0.008
 5076.00    0.63378   0.61682    0.008
 5077.00    0.60136   0.61792    0.008
 5078.00    0.53701   0.61137    0.008
 5079.00    0.48293   0.60984    0.008
 5080.00    0.43007   0.61442    0.008
 5081.00    0.53415   0.61474    0.008
 5082.00    0.65084   0.61270    0.008
 5083.00    0.59637   0.61470    0.008
 5084.00    0.53420   0.61313    0.008
 5085.00    0.53672   0.59878    0.008
 5086.00    0.54264   0.58560    0.008
 5087.00    0.67981   0.58781    0.008
 5088.00    0.80790   0.59639    0.008
 5089.00    0.76730   0.59966    0.008
 5090.00    0.72715   0.60216    0.008
 5091.00    0.69193   0.60870    0.008
 5092.00    0.65705   0.61379    0.008
 5093.00    0.62472   0.61367    0.008
 5094.00    0.58844   0.61277    0.008
 5095.00    0.52890   0.61442    0.008
 5096.00    0.52072   0.61576    0.008
 5097.00    0.75224   0.61583    0.008
 5098.00    0.91113   0.61815    0.008
 5099.00    0.79318   0.62258    0.008
 5100.00    0.69875   0.62405    0.008
 5101.00    0.67910   0.62003    0.008
 5102.00    0.66664   0.61344    0.008
 5103.00    0.67358   0.60634    0.008
 5104.00    0.65836   0.59731    0.008
 5105.00    0.59188   0.58937    0.008
 5106.00    0.56112   0.59211    0.008
 5107.00    0.60181   0.60346    0.008
 5108.00    0.59015   0.61154    0.008
 5109.00    0.48729   0.61175    0.008
 5110.00    0.48018   0.60819    0.008
 5111.00    0.61913   0.60562    0.009
 5112.00    0.68770   0.60318    0.009
 5113.00    0.66194   0.59792    0.009
 5114.00    0.62310   0.59471    0.009
 5115.00    0.56882   0.59563    0.009
 5116.00    0.53829   0.59492    0.009
 5117.00    0.53250   0.59696    0.009
 5118.00    0.49703   0.60369    0.009
 5119.00    0.43433   0.60774    0.009
 5120.00    0.54929   0.60934    0.009
 5121.00    0.80798   0.61071    0.009
 5122.00    0.87991   0.61242    0.009
 5123.00    0.81890   0.61608    0.009
 5124.00    0.65240   0.61874    0.009
 5125.00    0.41999   0.61725    0.009
 5126.00    0.35055   0.61272    0.009
 5127.00    0.37008   0.60718    0.009
 5128.00    0.39276   0.60115    0.009
 5129.00    0.41694   0.59256    0.009
 5130.00    0.50305   0.58521    0.009
 5131.00    0.61451   0.58526    0.009
 5132.00    0.57038   0.58907    0.009
 5133.00    0.47186   0.59037    0.009
 5134.00    0.62754   0.58930    0.009
 5135.00    0.85816   0.58784    0.009
 5136.00    0.79466   0.58833    0.009
 5137.00    0.65932   0.59278    0.009
 5138.00    0.62408   0.59753    0.009
 5139.00    0.60861   0.59909    0.009
 5140.00    0.68708   0.60059    0.009
 5141.00    0.78003   0.60543    0.008
 5142.00    0.65247   0.60619    0.009
 5143.00    0.49980   0.59949    0.009
 5144.00    0.45320   0.59189    0.008
 5145.00    0.41469   0.58556    0.008
 5146.00    0.25750   0.58675    0.008
 5147.00    0.09543   0.59292    0.008
 5148.00    0.16532   0.58918    0.008
 5149.00    0.23716   0.58291    0.008
 5150.00    0.31050   0.58722    0.008
 5151.00    0.38166   0.59194    0.008
 5152.00    0.41502   0.58919    0.008
 5153.00    0.45354   0.58535    0.008
 5154.00    0.54700   0.58567    0.008
 5155.00    0.64340   0.59014    0.008
 5156.00    0.76201   0.59188    0.008
 5157.00    0.83125   0.58724    0.008
 5158.00    0.61769   0.58238    0.008
 5159.00    0.45347   0.58077    0.008
 5160.00    0.51406   0.58120    0.008
 5161.00    0.54139   0.58524    0.008
 5162.00    0.44465   0.59294    0.008
 5163.00    0.37728   0.60102    0.009
 5164.00    0.40156   0.60590    0.009
 5165.00    0.39655   0.60582    0.009
 5166.00    0.31393   0.60531    0.009
 5167.00    0.28662   0.60501    0.008
 5168.00    0.38503   0.60044    0.008
 5169.00    0.46126   0.59569    0.008
 5170.00    0.49379   0.59270    0.008
 5171.00    0.49014   0.58261    0.008
 5172.00    0.42438   0.56131    0.008
 5173.00    0.44480   0.53684    0.008
 5174.00    0.59475   0.52491    0.008
 5175.00    0.62254   0.53431    0.008
 5176.00    0.48898   0.55296    0.008
 5177.00    0.41497   0.55535    0.008
 5178.00    0.41024   0.53490    0.008
 5179.00    0.43260   0.52049    0.008
 5180.00    0.48277   0.53619    0.008
 5181.00    0.50348   0.56545    0.008
 5182.00    0.49752   0.58249    0.008
 5183.00    0.43721   0.58724    0.008
 5184.00    0.33354   0.58945    0.008
 5185.00    0.31961   0.58980    0.008
 5186.00    0.36865   0.58665    0.008
 5187.00    0.47110   0.57963    0.008
 5188.00    0.60640   0.56287    0.008
 5189.00    0.60453   0.53461    0.008
 5190.00    0.52893   0.51740    0.000
 5191.00    0.47702   0.53241    0.000
 5192.00    0.43616   0.56299    0.000
 5193.00    0.41328   0.58240    0.000
 5194.00    0.39765   0.58584    0.000
 5195.00    0.48152   0.58612    0.000
 5196.00    0.59954   0.59038    0.000
 5197.00    0.55156   0.58579    0.000
 5198.00    0.45561   0.57018    0.000
 5199.00    0.45061   0.56357    0.000
 5200.00    0.46733   0.57054    0.000
 5201.00    0.49010   0.57550    0.000
 5202.00    0.51403   0.57660    0.000
 5203.00    0.60380   0.58069    0.000
 5204.00    0.70342   0.58580    0.000
 5205.00    0.51758   0.59009    0.000
 5206.00    0.30047   0.59329    0.000
 5207.00    0.32937   0.59337    0.000
 5208.00    0.37604   0.59045    0.000
 5209.00    0.41567   0.58661    0.000
 5210.00    0.45504   0.57862    0.000
 5211.00    0.50860   0.56550    0.008
 5212.00    0.56089   0.55747    0.008
 5213.00    0.56434   0.55822    0.008
 5214.00    0.56435   0.55732    0.008
 5215.00    0.50855   0.55528    0.008
 5216.00    0.45262   0.56084    0.008
 5217.00    0.39526   0.57205    0.008
 5218.00    0.36521   0.58434    0.008
 5219.00    0.53384   0.59440    0.008
 5220.00    0.65964   0.59730    0.008
 5221.00    0.54683   0.59061    0.008
 5222.00    0.45851   0.58104    0.008
 5223.00    0.47919   0.57851    0.008
 5224.00    0.50058   0.58446    0.008
 5225.00    0.52458   0.59251    0.008
 5226.00    0.56861   0.59751    0.008
 5227.00    0.67396   0.60013    0.008
 5228.00    0.73417   0.60063    0.008
 5229.00    0.67689   0.59637    0.008
 5230.00    0.61639   0.58685    0.008
 5231.00    0.54868   0.57368    0.008
 5232.00    0.52768   0.55854    0.008
 5233.00    0.59723   0.54861    0.008
 5234.00    0.65502   0.55611    0.008
 5235.00    0.69291   0.57548    0.008
 5236.00    0.71169   0.58886    0.008
 5237.00    0.70216   0.59364    0.008
 5238.00    0.70763   0.59096    0.008
 5239.00    0.73261   0.58086    0.008
 5240.00    0.71049   0.57384    0.008
 5241.00    0.63436   0.57598    0.008
 5242.00    0.57305   0.58412    0.008
 5243.00    0.52674   0.59327    0.008
 5244.00    0.49066   0.59819    0.008
 5245.00    0.46372   0.59781    0.008
 5246.00    0.54347   0.59612    0.008
 5247.00    0.70711   0.59647    0.008
 5248.00    0.77586   0.59666    0.008
 5249.00    0.77902   0.59533    0.008
 5250.00    0.70636   0.59689    0.008
 5251.00    0.58774   0.60057    0.008
 5252.00    0.52701   0.59602    0.008
 5253.00    0.49692   0.58289    0.008
 5254.00    0.39079   0.57601    0.008
 5255.00    0.24974   0.57804    0.008
 5256.00    0.34240   0.57650    0.008
 5257.00    0.52745   0.57265    0.009
 5258.00    0.61948   0.57590    0.009
 5259.00    0.68018   0.58216    0.009
 5260.00    0.70705   0.58265    0.009
 5261.00    0.72434   0.57793    0.009
 5262.00    0.61591   0.57881    0.009
 5263.00    0.47814   0.58932    0.009
 5264.00    0.45331   0.59962    0.009
 5265.00    0.44967   0.60265    0.009
 5266.00    0.41279   0.59896    0.009
 5267.00    0.37110   0.58983    0.009
 5268.00    0.51937   0.57643    0.009
 5269.00    0.68762   0.56260    0.009
 5270.00    0.70069   0.55212    0.009
 5271.00    0.70318   0.54490    0.009
 5272.00    0.75509   0.54205    0.009
 5273.00    0.80865   0.54926    0.009
 5274.00    0.64955   0.55831    0.009
 5275.00    0.49678   0.54883    0.009
 5276.00    0.55417   0.53110    0.009
 5277.00    0.60475   0.53582    0.009
 5278.00    0.55147   0.55836    0.009
 5279.00    0.49995   0.57190    0.009
 5280.00    0.46566   0.57266    0.008
 5281.00    0.44088   0.56932    0.008
 5282.00    0.48301   0.56819    0.008
 5283.00    0.53292   0.57715    0.008
 5284.00    0.62506   0.59146    0.008
 5285.00    0.68971   0.59755    0.008
 5286.00    0.63491   0.59309    0.008
 5287.00    0.59572   0.58456    0.008
 5288.00    0.61238   0.57695    0.008
 5289.00    0.61588   0.57086    0.008
 5290.00    0.57985   0.56803    0.008
 5291.00    0.54677   0.57519    0.008
 5292.00    0.52124   0.59044    0.008
 5293.00    0.53919   0.60050    0.008
 5294.00    0.65279   0.60035    0.008
 5295.00    0.69451   0.59718    0.008
 5296.00    0.59906   0.59759    0.008
 5297.00    0.55276   0.60002    0.008
 5298.00    0.58830   0.59944    0.008
 5299.00    0.59208   0.59560    0.008
 5300.00    0.54949   0.59307    0.008
 5301.00    0.54597   0.59196    0.008
 5302.00    0.59259   0.58541    0.008
 5303.00    0.60952   0.57125    0.008
 5304.00    0.59287   0.55897    0.008
 5305.00    0.54945   0.56054    0.008
 5306.00    0.47931   0.57197    0.008
 5307.00    0.43522   0.57776    0.008
 5308.00    0.41404   0.57663    0.008
 5309.00    0.36555   0.57933    0.008
 5310.00    0.29591   0.58830    0.008
 5311.00    0.33260   0.59632    0.008
 5312.00    0.44175   0.59723    0.008
 5313.00    0.47903   0.59232    0.008
 5314.00    0.47339   0.58873    0.008
 5315.00    0.64344   0.59130    0.008
 5316.00    0.90502   0.59594    0.008
 5317.00    0.73828   0.59700    0.008
 5318.00    0.37806   0.59497    0.008
 5319.00    0.28503   0.59220    0.008
 5320.00    0.29580   0.59027    0.008
 5321.00    0.45466   0.58892    0.008
 5322.00    0.66246   0.58482    0.008
 5323.00    0.69207   0.57991    0.008
 5324.00    0.67226   0.58047    0.008
 5325.00    0.59881   0.58420    0.008
 5326.00    0.51311   0.58515    0.008
 5327.00    0.42466   0.58431    0.008
 5328.00    0.33570   0.58332    0.008
 5329.00    0.58177   0.57949    0.008
 5330.00    0.87483   0.57193    0.008
 5331.00    0.81541   0.56768    0.008
 5332.00    0.72043   0.56962    0.008
 5333.00    0.57300   0.56335    0.008
 5334.00    0.42219   0.54190    0.008
 5335.00    0.50069   0.52836    0.008
 5336.00    0.58573   0.54207    0.008
 5337.00    0.55380   0.56577    0.008
 5338.00    0.51969   0.57694    0.008
 5339.00    0.42352   0.57619    0.008
 5340.00    0.34770   0.57691    0.008
 5341.00    0.56395   0.58264    0.008
 5342.00    0.74811   0.58506    0.008
 5343.00    0.63199   0.58218    0.008
 5344.00    0.52466   0.57992    0.008
 5345.00    0.47732   0.57735    0.008
 5346.00    0.42352   0.56810    0.008
 5347.00    0.33566   0.55864    0.008
 5348.00    0.29347   0.56197    0.008
 5349.00    0.44523   0.57350    0.008
 5350.00    0.57519   0.58010    0.008
 5351.00    0.62880   0.57914    0.008
 5352.00    0.64953   0.57481    0.008
 5353.00    0.57337   0.57347    0.008
 5354.00    0.52565   0.57352    0.008
 5355.00    0.54934   0.56933    0.008
 5356.00    0.60782   0.56737    0.008
 5357.00    0.74159   0.57411    0.008
 5358.00    0.81441   0.58264    0.008
 5359.00    0.77273   0.58515    0.008
 5360.00    0.70503   0.58556    0.008
 5361.00    0.59467   0.58974    0.008
 5362.00    0.49099   0.59406    0.008
 5363.00    0.39691   0.59484    0.008
 5364.00    0.41531   0.59464    0.008
 5365.00    0.57601   0.59465    0.008
 5366.00    0.65388   0.59354    0.008
 5367.00    0.63942   0.58910    0.008
 5368.00    0.60070   0.58199   -2.000
 5369.00    0.53812   0.57709   -2.000
 5370.00    0.53847   0.57554   -2.000
 5371.00    0.59338   0.57332   -2.000
 5372.00    0.67213   0.57114   -2.000
 5373.00    0.76909   0.57184   -2.000
 5374.00    0.87214   0.57263   -2.000
 5375.00    0.97929   0.56974   -2.000
 5376.00    0.85048   0.56002   -2.000
 5377.00    0.58289   0.54711   -2.000
 5378.00    0.42748   0.54387   -2.000
 5379.00    0.32960   0.55669   -2.000
 5380.00    0.37954   0.57430   -2.000
 5381.00    0.49516   0.58420   -2.000
 5382.00    0.49353   0.58632   -2.000
 5383.00    0.44716   0.58381    0.008
 5384.00    0.47879   0.58182    0.008
 5385.00    0.53573   0.58240    0.008
 5386.00    0.51756   0.58092    0.008
 5387.00    0.47901   0.57674    0.008
 5388.00    0.43406   0.57371    0.008
 5389.00    0.38768   0.57174    0.008
 5390.00    0.46347   0.57091    0.008
 5391.00    0.56095   0.57433    0.008
 5392.00    0.52170   0.57868    0.008
 5393.00    0.46391   0.57939    0.008
 5394.00    0.49424   0.57764    0.008
 5395.00    0.53309   0.57405    0.008
 5396.00    0.63468   0.56878    0.008
 5397.00    0.74004   0.56496    0.008
 5398.00    0.65759   0.56350    0.008
 5399.00    0.57103   0.56253    0.008
 5400.00    0.61431   0.56172    0.008
 5401.00    0.65376   0.56130    0.008
 5402.00    0.59434   0.55774    0.007
 5403.00    0.53943   0.54826    0.007
 5404.00    0.54584   0.54418    0.007
 5405.00    0.53668   0.55411    0.007
 5406.00    0.38738   0.56412    0.007
 5407.00    0.25121   0.56548    0.007
 5408.00    0.20183   0.56600    0.007
 5409.00    0.18758   0.56579    0.007
 5410.00    0.35398   0.55650    0.007
 5411.00    0.50328   0.54095    0.007
 5412.00    0.58159   0.53108    0.007
 5413.00    0.61488   0.53394    0.007
 5414.00    0.49357   0.54277    0.007
 5415.00    0.41626   0.54179    0.007
 5416.00    0.46625   0.52725    0.007
 5417.00    0.50716   0.51391    0.007
 5418.00    0.52560   0.51640    0.008
 5419.00    0.54694   0.53112    0.008
 5420.00    0.57447   0.54541    0.007
 5421.00    0.60896   0.55319    0.007
 5422.00    0.65632   0.55914    0.008
 5423.00    0.67116   0.56731    0.008
 5424.00    0.63348   0.57232    0.008
 5425.00    0.61319   0.57115    0.008
 5426.00    0.61754   0.56717    0.008
 5427.00    0.62232   0.56469    0.008
 5428.00    0.62764   0.56657    0.008
 5429.00    0.58251   0.56854    0.008
 5430.00    0.48192   0.56321    0.008
 5431.00    0.45141   0.55754    0.008
 5432.00    0.48883   0.56245    0.008
 5433.00    0.51690   0.57265    0.008
 5434.00    0.53697   0.57532    0.008
 5435.00    0.57126   0.56306    0.008
 5436.00    0.61624   0.54642    0.008
 5437.00    0.58724   0.54607    0.008
 5438.00    0.50929   0.55623    0.008
 5439.00    0.47534   0.55681    0.008
 5440.00    0.46688   0.54959    0.008
 5441.00    0.48012   0.54452    0.008
 5442.00    0.50431   0.54583    0.008
 5443.00    0.52359   0.55274    0.008
 5444.00    0.54072   0.56236    0.007
 5445.00    0.53092   0.57162    0.007
 5446.00    0.51103   0.57727    0.007
 5447.00    0.53728   0.57894    0.007
 5448.00    0.57822   0.57871    0.007
 5449.00    0.56787   0.57840    0.007
 5450.00    0.54389   0.57642    0.007
 5451.00    0.60749   0.56836    0.007
 5452.00    0.69014   0.55330    0.007
 5453.00    0.61201   0.53862    0.007
 5454.00    0.50611   0.53801    0.007
 5455.00    0.47466   0.55182    0.007
 5456.00    0.45297   0.56371    0.007
 5457.00    0.51219   0.56705    0.007
 5458.00    0.57888   0.56603    0.007
 5459.00    0.58085   0.56342    0.007
 5460.00    0.57919   0.55767    0.007
 5461.00    0.62301   0.54626    0.007
 5462.00    0.66704   0.53592    0.007
 5463.00    0.62733   0.54036    0.007
 5464.00    0.59245   0.55583    0.007
 5465.00    0.67102   0.56613    0.007
 5466.00    0.73380   0.56681    0.007
 5467.00    0.59382   0.56234    0.007
 5468.00    0.46728   0.55662    0.007
 5469.00    0.45710   0.54978    0.007
 5470.00    0.46526   0.54639    0.007
 5471.00    0.59103   0.55186    0.007
 5472.00    0.68950   0.55813    0.007
 5473.00    0.65112   0.55874    0.008
 5474.00    0.61603   0.55957    0.008
 5475.00    0.59432   0.56151    0.008
 5476.00    0.59474   0.55967    0.008
 5477.00    0.66966   0.55573    0.008
 5478.00    0.68471   0.55478   -2.000
 5479.00    0.52973   0.55367   -2.000
 5480.00    0.43536   0.54951   -2.000
 5481.00    0.48813   0.54740   -2.000
 5482.00    0.53746   0.54298   -2.000
 5483.00    0.57957   0.53211   -2.000
 5484.00    0.60289   0.53075   -2.000
 5485.00    0.59197   0.54428   -2.000
 5486.00    0.84086   0.55431   -2.000
 5487.00    1.50330   0.55017   -2.000
 5488.00    1.83496   0.54202   -2.000
 5489.00    1.70455   0.54265   -2.000
 5490.00    1.61508   0.55005   -2.000
 5491.00    1.57595   0.55806   -2.000
 5492.00    1.15669   0.56209   -2.000
 5493.00    0.32547   0.55795   -2.000
 5494.00    0.05083   0.55017   -2.000
 5495.00    0.30821   0.54880   -2.000
 5496.00    0.48560   0.55265   -2.000
 5497.00    0.59557   0.55436   -2.000
 5498.00    0.63703   0.55594   -2.000
 5499.00    0.62764   0.55665   -2.000
 5500.00    0.61492   0.55381   -2.000
 5501.00    0.60002   0.55334   -2.000
 5502.00    0.60205   0.55568    0.007
 5503.00    0.61374   0.55272    0.007
 5504.00    0.61592   0.54711    0.007
 5505.00    0.61337   0.55053    0.007
 5506.00    0.57603   0.55789    0.007
 5507.00    0.52373   0.55544    0.007
 5508.00    0.46601   0.54681    0.007
 5509.00    0.40629   0.54417    0.007
 5510.00    0.44675   0.54782    0.007
 5511.00    0.51846   0.55038    0.007
 5512.00    0.55516   0.54662    0.007
 5513.00    0.58273   0.53981    0.007
 5514.00    0.63577   0.54130    0.007
 5515.00    0.69422   0.54917    0.007
 5516.00    0.63928   0.55149    0.007
 5517.00    0.56531   0.54893    0.007
 5518.00    0.54491   0.54357    0.007
 5519.00    0.53129   0.53681    0.007
 5520.00    0.59210   0.53494    0.007
 5521.00    0.65947   0.53824    0.007
 5522.00    0.63536   0.54340    0.007
 5523.00    0.60647   0.54780    0.007
 5524.00    0.59243   0.55214    0.007
 5525.00    0.57911   0.55764    0.007
 5526.00    0.59967   0.56018    0.007
 5527.00    0.61806   0.55853    0.007
 5528.00    0.58989   0.55651    0.007
 5529.00    0.56627   0.55593    0.007
 5530.00    0.59811   0.55597    0.007
 5531.00    0.62987   0.55462    0.007
 5532.00    0.66099   0.55029    0.007
 5533.00    0.68472   0.54360    0.007
 5534.00    0.66247   0.53522    0.007
 5535.00    0.65306   0.53072    0.007
 5536.00    0.70637   0.53762    0.007
 5537.00    0.73723   0.54899    0.007
 5538.00    0.67897   0.55318    0.007
 5539.00    0.63788   0.55120    0.007
 5540.00    0.65343   0.54821    0.007
 5541.00    0.67586   0.54474    0.007
 5542.00    0.71749   0.54264    0.007
 5543.00    0.74608   0.54582    0.007
 5544.00    0.74358   0.54896    0.007
 5545.00    0.73057   0.54936    0.007
 5546.00    0.69589   0.55214    0.007
 5547.00    0.65331   0.55642    0.007
 5548.00    0.59660   0.55755    0.007
 5549.00    0.59802   0.55353    0.007
 5550.00    0.69060   0.54799    0.007
 5551.00    0.73499   0.54666    0.007
 5552.00    0.71304   0.54753    0.007
 5553.00    0.65544   0.54768    0.007
 5554.00    0.55466   0.55065    0.007
 5555.00    0.51284   0.55578    0.007
 5556.00    0.53403   0.55796    0.007
 5557.00    0.57559   0.55784    0.007
 5558.00    0.63635   0.55708    0.007
 5559.00    0.69126   0.55430    0.007
 5560.00    0.74129   0.54932    0.007
 5561.00    0.75276   0.54555    0.007
 5562.00    0.73602   0.54654    0.007
 5563.00    0.70471   0.54913    0.007
 5564.00    0.66403   0.54895    0.007
 5565.00    0.62992   0.54851    0.007
 5566.00    0.59950   0.54944    0.007
 5567.00    0.57719   0.54931    0.007
 5568.00    0.55885   0.54754    0.007
 5569.00    0.51156   0.54381    0.007
 5570.00    0.45203   0.54071    0.007
 5571.00    0.45364   0.54114    0.007
 5572.00    0.47736   0.54029    0.007
 5573.00    0.47540   0.53822    0.007
 5574.00    0.46558   0.53896    0.007
 5575.00    0.47570   0.53952    0.007
 5576.00    0.49089   0.53743    0.007
 5577.00    0.49721   0.53911    0.007
 5578.00    0.50169   0.54272    0.007
 5579.00    0.51875   0.53803    0.007
 5580.00    0.53787   0.53455    0.007
 5581.00    0.54262   0.54096    0.007
 5582.00    0.54562   0.54434    0.007
 5583.00    0.57898   0.54252    0.007
 5584.00    0.61489   0.54417    0.007
 5585.00    0.58109   0.54556    0.007
 5586.00    0.54393   0.54589    0.007
 5587.00    0.47627   0.54732    0.007
 5588.00    0.41176   0.54505    0.007
 5589.00    0.56113   0.54202    0.007
 5590.00    0.70474   0.54302    0.007
 5591.00    0.73385   0.54294    0.007
 5592.00    0.75578   0.53736    0.007
 5593.00    0.69434   0.52678    0.007
 5594.00    0.64424   0.51667    0.007
 5595.00    0.68527   0.51347    0.007
 5596.00    0.72456   0.51673    0.007
 5597.00    0.75333   0.52358    0.007
 5598.00    0.74675   0.52826    0.007
 5599.00    0.57161   0.52839    0.007
 5600.00    0.44904   0.52687    0.007
 5601.00    0.53068   0.52728    0.007
 5602.00    0.58755   0.53387    0.007
 5603.00    0.56429   0.54277    0.007
 5604.00    0.52924   0.54030    0.007
 5605.00    0.46194   0.52983    0.007
 5606.00    0.46511   0.52637    0.007
 5607.00    0.63362   0.52727    0.007
 5608.00    0.75187   0.52397    0.007
 5609.00    0.76816   0.51991    0.007
 5610.00    0.72792   0.52224    0.007
 5611.00    0.58786   0.53336    0.007
 5612.00    0.49859   0.54372    0.007
 5613.00    0.48780   0.54816    0.007
 5614.00    0.47708   0.54892    0.007
 5615.00    0.46648   0.54823    0.007
 5616.00    0.46593   0.54702    0.007
 5617.00    0.47741   0.54626    0.007
 5618.00    0.54553   0.54751    0.007
 5619.00    0.67332   0.54915    0.007
 5620.00    0.66963   0.54639    0.007
 5621.00    0.54378   0.53304    0.007
 5622.00    0.48259   0.51549    0.007
 5623.00    0.47436   0.51462    0.007
 5624.00    0.53547   0.52762    0.007
 5625.00    0.64659   0.53449    0.007
 5626.00    0.66326   0.53339    0.007
 5627.00    0.62016   0.53344    0.007
 5628.00    0.58158   0.53739    0.007
 5629.00    0.54550   0.54022    0.007
 5630.00    0.58747   0.53467    0.007
 5631.00    0.66698   0.52306    0.006
 5632.00    0.72288   0.51981    0.006
 5633.00    0.76897   0.52746    0.006
 5634.00    0.71471   0.53347    0.007
 5635.00    0.62480   0.53584    0.007
 5636.00    0.63736   0.53939    0.007
 5637.00    0.68068   0.54229    0.006
 5638.00    0.70287   0.54310    0.006
 5639.00    0.71981   0.54229    0.007
 5640.00    0.66128   0.53991    0.007
 5641.00    0.58751   0.53724    0.007
 5642.00    0.57103   0.53481    0.007
 5643.00    0.56363   0.53120    0.007
 5644.00    0.55194   0.52775    0.007
 5645.00    0.53975   0.52786    0.007
 5646.00    0.54594   0.53044    0.007
 5647.00    0.55359   0.52937    0.007
 5648.00    0.60625   0.52529    0.007
 5649.00    0.66092   0.52650    0.007
 5650.00    0.67400   0.53022    0.007
 5651.00    0.68565   0.53134    0.007
 5652.00    0.65042   0.53236    0.007
 5653.00    0.61168   0.53372    0.007
 5654.00    0.50823   0.53519    0.007
 5655.00    0.41388   0.53532    0.007
 5656.00    0.42034   0.53338    0.007
 5657.00    0.42552   0.53247    0.007
 5658.00    0.42079   0.53508    0.007
 5659.00    0.42199   0.53842    0.007
 5660.00    0.45802   0.53815    0.007
 5661.00    0.49546   0.53283    0.007
 5662.00    0.53949   0.52892    0.007
 5663.00    0.58522   0.52991    0.007
 5664.00    0.63741   0.52299    0.007
 5665.00    0.66687   0.50779    0.007
 5666.00    0.62424   0.50753    0.007
 5667.00    0.59538   0.52138    0.007
 5668.00    0.60356   0.52566    0.007
 5669.00    0.60709   0.51923    0.007
 5670.00    0.59988   0.51872    0.007
 5671.00    0.61371   0.52651    0.007
 5672.00    0.66954   0.53218    0.006
 5673.00    0.69124   0.53091    0.006
 5674.00    0.65358   0.52542    0.006
 5675.00    0.61344   0.52262    0.006
 5676.00    0.56949   0.52427    0.007
 5677.00    0.57613   0.52676    0.007
 5678.00    0.65042   0.52901    0.007
 5679.00    0.67558   0.53354    0.007
 5680.00    0.64288   0.53850    0.007
 5681.00    0.58178   0.53854    0.007
 5682.00    0.49120   0.53531    0.007
 5683.00    0.46715   0.53565    0.006
 5684.00    0.50406   0.53831    0.006
 5685.00    0.51408   0.53636    0.007
 5686.00    0.50239   0.53305    0.007
 5687.00    0.51783   0.53273    0.007
 5688.00    0.55254   0.53132    0.007
 5689.00    0.53541   0.52443    0.007
 5690.00    0.48595   0.52041    0.007
 5691.00    0.49534   0.52345    0.007
 5692.00    0.53681   0.52724    0.007
 5693.00    0.51844   0.52558    0.007
 5694.00    0.47176   0.52024    0.007
 5695.00    0.50490   0.51790    0.007
 5696.00    0.57065   0.52179    0.007
 5697.00    0.61227   0.52792    0.007
 5698.00    0.64547   0.53180    0.007
 5699.00    0.70273   0.53495    0.007
 5700.00    0.76706   0.53578    0.007
 5701.00    0.73277   0.53346    0.007
 5702.00    0.67445   0.53190    0.007
 5703.00    0.62333   0.53253    0.007
 5704.00    0.57362   0.53123    0.007
 5705.00    0.54810   0.52579    0.007
 5706.00    0.52630   0.52324    0.007
 5707.00    0.52516   0.52209    0.007
 5708.00    0.52636   0.51752    0.006
 5709.00    0.47515   0.51565    0.006
 5710.00    0.41997   0.51991    0.006
 5711.00    0.46681   0.52484    0.006
 5712.00    0.51778   0.52372    0.006
 5713.00    0.53941   0.51769    0.006
 5714.00    0.56020   0.51290    0.006
 5715.00    0.55595   0.50796    0.006
 5716.00    0.55355   0.50338    0.006
 5717.00    0.58284   0.50504    0.006
 5718.00    0.60273   0.50685    0.006
 5719.00    0.52319   0.50878    0.006
 5720.00    0.45401   0.51816    0.006
 5721.00    0.46239   0.52598    0.006
 5722.00    0.46823   0.52776    0.006
 5723.00    0.45959   0.52897    0.006
 5724.00    0.44842   0.52849    0.006
 5725.00    0.42574   0.52753    0.006
 5726.00    0.42310   0.52970    0.006
 5727.00    0.49497   0.53196    0.007
 5728.00    0.55605   0.53338    0.007
 5729.00    0.58350   0.53535    0.007
 5730.00    0.59968   0.53635    0.007
 5731.00    0.58607   0.53544    0.007
 5732.00    0.59935   0.53366    0.007
 5733.00    0.67366   0.52869    0.007
 5734.00    0.71367   0.52266    0.007
 5735.00    0.68627   0.52360    0.007
 5736.00    0.69413   0.52937    0.007
 5737.00    0.76241   0.53001    0.007
 5738.00    0.78912   0.52444    0.007
 5739.00    0.75347   0.52292    0.007
 5740.00    0.69743   0.52788    0.000
 5741.00    0.61452   0.53185    0.000
 5742.00    0.56250   0.53272    0.000
 5743.00    0.54634   0.53128    0.000
 5744.00    0.58734   0.52944    0.000
 5745.00    0.68689   0.52859    0.000
 5746.00    0.73629   0.52792    0.000
 5747.00    0.74041   0.52729    0.000
 5748.00    0.75496   0.52720    0.000
 5749.00    0.77780   0.52637    0.000
 5750.00    0.75757   0.52541    0.000
 5751.00    0.70718   0.52755    0.000
 5752.00    0.62479   0.53176    0.000
 5753.00    0.52274   0.53296    0.000
 5754.00    0.40688   0.52771    0.000
 5755.00    0.28361   0.52128    0.000
 5756.00    0.20748   0.52297    0.000
 5757.00    0.15330   0.52921    0.000
 5758.00    0.22493   0.53037    0.000
 5759.00    0.34705   0.52364    0.000
 5760.00    0.42536   0.51453    0.000
 5761.00    0.48867   0.51061    0.000
 5762.00    0.53672   0.51607    0.000
 5763.00    0.58037   0.52530    0.000
 5764.00    0.59844   0.53065    0.000
 5765.00    0.61043   0.53180    0.000
 5766.00    0.62318   0.52884    0.000
 5767.00    0.63607   0.52345    0.000
 5768.00    0.68809   0.51744    0.000
 5769.00    0.74594   0.51177    0.000
 5770.00    0.64064   0.51117    0.000
 5771.00    0.51755   0.51925    0.000
 5772.00    0.51309   0.52722    0.000
 5773.00    0.51713   0.52967    0.000
 5774.00    0.52372   0.52948    0.000
 5775.00    0.53041   0.52880    0.000
 5776.00    0.53469   0.52763    0.000
 5777.00    0.54074   0.52676    0.000
 5778.00    0.61109   0.52534    0.000
 5779.00    0.67226   0.52336    0.000
 5780.00    0.58602   0.52289    0.000
 5781.00    0.50456   0.52186    0.000
 5782.00    0.47156   0.52078    0.000
 5783.00    0.45243   0.52244    0.000
 5784.00    0.53382   0.52456    0.000
 5785.00    0.60172   0.52447    0.000
 5786.00    0.59466   0.52113    0.000
 5787.00    0.57729   0.51271    0.000
 5788.00    0.51413   0.50285    0.000
 5789.00    0.45847   0.50045    0.000
 5790.00    0.43011   0.50434    0.000
 5791.00    0.42964   0.50518   -2.000
 5792.00    0.51436   0.50236   -2.000
 5793.00    0.58735   0.50500   -2.000
 5794.00    0.62991   0.51267   -2.000
 5795.00    0.66558   0.51762   -2.000
 5796.00    0.68587   0.51986   -2.000
 5797.00    0.70282   0.51766   -2.000
 5798.00    0.71328   0.51339   -2.000
 5799.00    0.74073   0.51480   -2.000
 5800.00    0.79684   0.51901   -2.000
 5801.00    0.84017   0.52259   -2.000
 5802.00    0.86458   0.52531   -2.000
 5803.00    0.83276   0.52403   -2.000
 5804.00    0.72785   0.51764   -2.000
 5805.00    0.66402   0.51351   -2.000
 5806.00    0.64722   0.51812   -2.000
 5807.00    0.63630   0.52434   -2.000
 5808.00    0.63132   0.52693   -2.000
 5809.00    0.60850   0.52777   -2.000
 5810.00    0.56978   0.52618   -2.000
 5811.00    0.52729   0.52060    0.000
 5812.00    0.48184   0.51654    0.000
 5813.00    0.44483   0.51689    0.000
 5814.00    0.41364   0.51902    0.000
 5815.00    0.36368   0.52054    0.000
 5816.00    0.30236   0.52105    0.000
 5817.00    0.30545   0.52192    0.000
 5818.00    0.34255   0.52201    0.000
 5819.00    0.41373   0.52154    0.000
 5820.00    0.50052   0.52126    0.000
 5821.00    0.56736   0.52030    0.000
 5822.00    0.62633   0.51628    0.000
 5823.00    0.63782   0.51263    0.000
 5824.00    0.63336   0.51408    0.000
 5825.00    0.62318   0.51985    0.000
 5826.00    0.61139   0.52387    0.000
 5827.00    0.60403   0.52514    0.000
 5828.00    0.59770   0.52508    0.000
 5829.00    0.56597   0.52396    0.000
 5830.00    0.52949   0.52239    0.000
 5831.00    0.51113   0.52201    0.000
 5832.00    0.49538   0.52362    0.000
 5833.00    0.57936   0.52473    0.000
 5834.00    0.67378   0.52438    0.000
 5835.00    0.77220   0.52380    0.000
 5836.00    0.87089   0.52429    0.000
 5837.00    0.84442   0.52478    0.000
 5838.00    0.81380   0.52389    0.000
 5839.00    0.78029   0.52321    0.000
 5840.00    0.74590   0.52266    0.000
 5841.00    0.68399   0.52051    0.000
 5842.00    0.62670   0.51890    0.000
 5843.00    0.63906   0.52041    0.000
 5844.00    0.64536   0.52153    0.000
 5845.00    0.59277   0.51951    0.000
 5846.00    0.54690   0.51850    0.000
 5847.00    0.54811   0.52089    0.000
 5848.00    0.55726   0.52369    0.000
 5849.00    0.60930   0.52476    0.000
 5850.00    0.66150   0.52454    0.000
 5851.00    0.71438   0.52332    0.000
 5852.00    0.75737   0.52121    0.000
 5853.00    0.76502   0.51816    0.000
 5854.00    0.74960   0.51459    0.000
 5855.00    0.66505   0.51327    0.000
 5856.00    0.61106   0.51431    0.000
 5857.00    0.63503   0.51521    0.000
 5858.00    0.66746   0.51386    0.000
 5859.00    0.71846   0.50904    0.000
 5860.00    0.73608   0.50283    0.000
 5861.00    0.69013   0.50192    0.000
 5862.00    0.65244   0.50595    0.000
 5863.00    0.62849   0.50547    0.000
 5864.00    0.63111   0.49821    0.000
 5865.00    0.67244   0.49396    0.000
 5866.00    0.69190   0.49829    0.000
 5867.00    0.68334   0.50488    0.000
 5868.00    0.66880   0.50841    0.000
 5869.00    0.64753   0.50736    0.000
 5870.00    0.65560   0.50623    0.000
 5871.00    0.69289   0.50842    0.000
 5872.00    0.73140   0.50999    0.000
 5873.00    0.77100   0.50718    0.000
 5874.00    0.68867   0.50418    0.000
 5875.00    0.51202   0.50652    0.000
 5876.00    0.32435   0.51112    0.000
 5877.00    0.12919   0.51389    0.000
 5878.00    0.06118   0.51433    0.000
 5879.00    0.06898   0.51215    0.000
 5880.00    0.14289   0.50930    0.000
 5881.00    0.25119   0.49896    0.000
 5882.00    0.38827   0.48346    0.000
 5883.00    0.53831   0.47615    0.000
 5884.00    0.66229   0.48301    0.000
 5885.00    0.77616   0.49833    0.000
 5886.00    0.77306   0.50293    0.000
 5887.00    0.73139   0.50093    0.000
 5888.00    0.68625   0.50091    0.000
 5889.00    0.64014   0.50360    0.000
 5890.00    0.60483   0.50359    0.000
 5891.00    0.57199   0.50114    0.000
 5892.00    0.53387   0.50113    0.000
 5893.00    0.49480   0.50271    0.000
 5894.00    0.52089   0.50031    0.000
 5895.00    0.55609   0.48624    0.000
 5896.00    0.57527   0.45573    0.000
 5897.00    0.59284   0.42873    0.000
 5898.00    0.59468   0.43406    0.000
 5899.00    0.59551   0.45918    0.000
 5900.00    0.55446   0.47593    0.000
 5901.00    0.51238   0.47741    0.006
 5902.00    0.53390   0.46089    0.006
 5903.00    0.55477   0.44171    0.006
 5904.00    0.55754   0.44818    0.006
 5905.00    0.55923   0.47070    0.006
 5906.00    0.54544   0.48453    0.006
 5907.00    0.53034   0.49041    0.006
 5908.00    0.50299   0.49579    0.006
 5909.00    0.49116   0.49912    0.006
 5910.00    0.58469   0.50021    0.006
 5911.00    0.67013   0.50073    0.006
 5912.00    0.71300   0.49971    0.006
 5913.00    0.74352   0.49805    0.006
 5914.00    0.72172   0.49883    0.006
 5915.00    0.68983   0.50129    0.006
 5916.00    0.62269   0.50196    0.006
 5917.00    0.58746   0.50132    0.006
 5918.00    0.64603   0.50247    0.006
 5919.00    0.68187   0.50336    0.006
 5920.00    0.66069   0.49959    0.006
 5921.00    0.64370   0.49287    0.006
 5922.00    0.63577   0.48982    0.006
 5923.00    0.60112   0.49108    0.006
 5924.00    0.51641   0.49446    0.006
 5925.00    0.45132   0.49750    0.006
 5926.00    0.41835   0.49908    0.006
 5927.00    0.41917   0.50075    0.006
 5928.00    0.46851   0.50071    0.006
 5929.00    0.53298   0.49861    0.006
 5930.00    0.61655   0.49816    0.006
 5931.00    0.69257   0.49985    0.006
 5932.00    0.76019   0.50143    0.006
 5933.00    0.77704   0.50236    0.006
 5934.00    0.74407   0.50175    0.006
 5935.00    0.69132   0.49916    0.006
 5936.00    0.62146   0.49527    0.006
 5937.00    0.62646   0.49215    0.006
 5938.00    0.68854   0.49426    0.006
 5939.00    0.71378   0.49953    0.006
 5940.00    0.71434   0.50123    0.006
 5941.00    0.63688   0.49739    0.006
 5942.00    0.51362   0.49402    0.006
 5943.00    0.48657   0.49607    0.006
 5944.00    0.50877   0.49964    0.006
 5945.00    0.58311   0.50149    0.006
 5946.00    0.68058   0.50241    0.006
 5947.00    0.68450   0.50071    0.006
 5948.00    0.65280   0.49597    0.006
 5949.00    0.58698   0.49347    0.006
 5950.00    0.51012   0.49509    0.006
 5951.00    0.52384   0.49776    0.006
 5952.00    0.56208   0.50034    0.006
 5953.00    0.57631   0.50222    0.006
 5954.00    0.58522   0.50109    0.006
 5955.00    0.61643   0.49589    0.006
 5956.00    0.65159   0.49104    0.006
 5957.00    0.68628   0.49215    0.006
 5958.00    0.72090   0.49602    0.006
 5959.00    0.69171   0.49512    0.006
 5960.00    0.65638   0.49135    0.006
 5961.00    0.58957   0.49233    0.006
 5962.00    0.52087   0.49561    0.006
 5963.00    0.48012   0.49438    0.006
 5964.00    0.44034   0.49076    0.006
 5965.00    0.44116   0.49056    0.006
 5966.00    0.44334   0.49377    0.006
 5967.00    0.48044   0.49778    0.006
 5968.00    0.51532   0.50068    0.006
 5969.00    0.52051   0.50191    0.006
 5970.00    0.52921   0.50171    0.006
 5971.00    0.56933   0.50064    0.006
 5972.00    0.60074   0.49828    0.006
 5973.00    0.57472   0.49580    0.006
 5974.00    0.54546   0.49651    0.006
 5975.00    0.49954   0.49902    0.006
 5976.00    0.46620   0.50066    0.006
 5977.00    0.48493   0.50180    0.006
 5978.00    0.49124   0.50262    0.006
 5979.00    0.45502   0.50244    0.006
 5980.00    0.43863   0.50177    0.006
 5981.00    0.47947   0.50026    0.006
 5982.00    0.51141   0.49668    0.006
 5983.00    0.52143   0.49213    0.006
 5984.00    0.53095   0.48919    0.006
 5985.00    0.53938   0.48885    0.006
 5986.00    0.55285   0.49089    0.006
 5987.00    0.57563   0.49481    0.006
 5988.00    0.58484   0.49785    0.006
 5989.00    0.57216   0.49743    0.006
 5990.00    0.57744   0.49261    0.006
 5991.00    0.60816   0.48566    0.006
 5992.00    0.61085   0.48350    0.006
 5993.00    0.57866   0.48766    0.006
 5994.00    0.56044   0.49141    0.006
 5995.00    0.55756   0.49264    0.006
 5996.00    0.55328   0.49416    0.006
 5997.00    0.54765   0.49519    0.006
 5998.00    0.56311   0.49362    0.006
 5999.00    0.59655   0.49235    0.006
 6000.00    0.61986   0.49501    0.006
 6001.00    0.63555   0.49906    0.006
 6002.00    0.59456   0.50014    0.006
 6003.00    0.51614   0.49768    0.006
 6004.00    0.44406   0.49342    0.006
 6005.00    0.37566   0.49044    0.006
 6006.00    0.35102   0.49072    0.006
 6007.00    0.34843   0.49287    0.006
 6008.00    0.38920   0.49422    0.006
 6009.00    0.44888   0.49216    0.006
 6010.00    0.45964   0.48868    0.006
 6011.00    0.45209   0.48899    0.006
 6012.00    0.45886   0.49154    0.006
 6013.00    0.47016   0.49106    0.006
 6014.00    0.49417   0.48650    0.006
 6015.00    0.52155   0.48088    0.006
 6016.00    0.53844   0.48100    0.006
 6017.00    0.55306   0.48811    0.006
 6018.00    0.57321   0.49377    0.006
 6019.00    0.59431   0.49238    0.006
 6020.00    0.60718   0.48746    0.006
 6021.00    0.61898   0.48586    0.006
 6022.00    0.61752   0.48825    0.006
 6023.00    0.61483   0.48848    0.006
 6024.00    0.62239   0.48647    0.006
 6025.00    0.63052   0.48706    0.006
 6026.00    0.63594   0.48775    0.006
 6027.00    0.64138   0.48485    0.006
 6028.00    0.65467   0.48222    0.006
 6029.00    0.66683   0.48303    0.006
 6030.00    0.65257   0.48507    0.006
 6031.00    0.63285   0.48598    0.006
 6032.00    0.54327   0.48781    0.006
 6033.00    0.46638   0.49038    0.006
 6034.00    0.49879   0.49051    0.006
 6035.00    0.53239   0.49082    0.006
 6036.00    0.57355   0.49341    0.006
 6037.00    0.60911   0.49502    0.006
 6038.00    0.61672   0.49447    0.006
 6039.00    0.62180   0.49446    0.006
 6040.00    0.61664   0.49591    0.006
 6041.00    0.61015   0.49678    0.006
 6042.00    0.59920   0.49639    0.006
 6043.00    0.60389   0.49592    0.006
 6044.00    0.65289   0.49591    0.006
 6045.00    0.67878   0.49581    0.006
 6046.00    0.64868   0.49469    0.006
 6047.00    0.62231   0.49308    0.006
 6048.00    0.60376   0.49227    0.006
 6049.00    0.58726   0.49211    0.006
 6050.00    0.57451   0.49313    0.006
 6051.00    0.55392   0.49542    0.006
 6052.00    0.52090   0.49706    0.006
 6053.00    0.51489   0.49747    0.006
 6054.00    0.54656   0.49763    0.006
 6055.00    0.55184   0.49752    0.006
 6056.00    0.52472   0.49691    0.006
 6057.00    0.49539   0.49696    0.006
 6058.00    0.46365   0.49747    0.006
 6059.00    0.45796   0.49661    0.006
 6060.00    0.47713   0.49441    0.006
 6061.00    0.48675   0.49250    0.006
 6062.00    0.48836   0.49099    0.006
 6063.00    0.48350   0.48903    0.006
 6064.00    0.47387   0.48798    0.006
 6065.00    0.46670   0.48924    0.006
 6066.00    0.46114   0.49199    0.006
 6067.00    0.49148   0.49448    0.006
 6068.00    0.54227   0.49514    0.006
 6069.00    0.58381   0.49357    0.006
 6070.00    0.62077   0.49051    0.006
 6071.00    0.63238   0.48604    0.006
 6072.00    0.63311   0.47990    0.006
 6073.00    0.57913   0.47769    0.006
 6074.00    0.50504   0.48427    0.006
 6075.00    0.45060   0.49271    0.006
 6076.00    0.40228   0.49637    0.006
 6077.00    0.42984   0.49686    0.006
 6078.00    0.47710   0.49681    0.006
 6079.00    0.52287   0.49699    0.006
 6080.00    0.56832   0.49700    0.006
 6081.00    0.63065   0.49678    0.006
 6082.00    0.69580   0.49647    0.006
 6083.00    0.67839   0.49545    0.006
 6084.00    0.65058   0.49286    0.006
 6085.00    0.60318   0.48829    0.006
 6086.00    0.55407   0.48442    0.006
 6087.00    0.53426   0.48470    0.006
 6088.00    0.51596   0.48573    0.006
 6089.00    0.47977   0.48347    0.006
 6090.00    0.44423   0.48169    0.006
 6091.00    0.47939   0.48298    0.006
 6092.00    0.51557   0.48375    0.006
 6093.00    0.57352   0.48332    0.006
 6094.00    0.62747   0.48480    0.006
 6095.00    0.63280   0.48748    0.006
 6096.00    0.63959   0.48722    0.006
 6097.00    0.65836   0.48306    0.006
 6098.00    0.67738   0.48003    0.006
 6099.00    0.69795   0.48077    0.006
 6100.00    0.71669   0.48221    0.006
 6101.00    0.72648   0.48397    0.006
 6102.00    0.73197   0.48769    0.006
 6103.00    0.72041   0.49004    0.006
 6104.00    0.70145   0.48864    0.006
 6105.00    0.65812   0.48717    0.006
 6106.00    0.61990   0.48851    0.006
 6107.00    0.59585   0.49044    0.006
 6108.00    0.58617   0.48779    0.006
 6109.00    0.61070   0.47633    0.006
 6110.00    0.61497   0.46394    0.006
 6111.00    0.57758   0.46561    0.006
 6112.00    0.56508   0.47807    0.006
 6113.00    0.59715   0.48621    0.006
 6114.00    0.64116   0.48635    0.006
 6115.00    0.70387   0.48354    0.006
 6116.00    0.72997   0.48352    0.006
 6117.00    0.70574   0.48631    0.006
 6118.00    0.66871   0.48622    0.006
 6119.00    0.61621   0.48378    0.006
 6120.00    0.58837   0.48452    0.006
 6121.00    0.58681   0.48783    0.006
 6122.00    0.59682   0.48904    0.006
 6123.00    0.61772   0.48649    0.006
 6124.00    0.63421   0.48388    0.006
 6125.00    0.64705   0.48496    0.006
 6126.00    0.64821   0.48543    0.006
 6127.00    0.64083   0.48111    0.006
 6128.00    0.60900   0.47371    0.006
 6129.00    0.56150   0.46572    0.006
 6130.00    0.55127   0.46429    0.006
 6131.00    0.56193   0.47350    0.006
 6132.00    0.54723   0.48206    0.006
 6133.00    0.52015   0.48242    0.006
 6134.00    0.50984   0.47972    0.006
 6135.00    0.50660   0.47765    0.006
 6136.00    0.54431   0.47730    0.006
 6137.00    0.59680   0.48012    0.006
 6138.00    0.62524   0.48423    0.006
 6139.00    0.64634   0.48613    0.006
 6140.00    0.65374   0.48602    0.006
 6141.00    0.65766   0.48439    0.006
 6142.00    0.67310   0.47837    0.006
 6143.00    0.69091   0.46573    0.006
 6144.00    0.69633   0.45076    0.006
 6145.00    0.69973   0.44730    0.006
 6146.00    0.63217   0.46124    0.006
 6147.00    0.55597   0.47634    0.006
 6148.00    0.54013   0.47734    0.006
 6149.00    0.52932   0.47044    0.006
 6150.00    0.56539   0.47062    0.006
 6151.00    0.60371   0.47893    0.006
 6152.00    0.62919   0.48511    0.006
 6153.00    0.65444   0.48566    0.006
 6154.00    0.67681   0.48348    0.006
 6155.00    0.69792   0.47981    0.006
 6156.00    0.69426   0.47529    0.006
 6157.00    0.68126   0.47232    0.006
 6158.00    0.56057   0.47273    0.006
 6159.00    0.45742   0.47605    0.006
 6160.00    0.49466   0.47970    0.006
 6161.00    0.53004   0.47980    0.006
 6162.00    0.55420   0.47616    0.006
 6163.00    0.56467   0.47431    0.006
 6164.00    0.51011   0.47526    0.006
 6165.00    0.47012   0.47502    0.006
 6166.00    0.48659   0.47351    0.006
 6167.00    0.49653   0.46938    0.006
 6168.00    0.48536   0.45777    0.006
 6169.00    0.46851   0.44215    0.006
 6170.00    0.43613   0.43532    0.006
 6171.00    0.42749   0.44174    0.006
 6172.00    0.47445   0.45256    0.005
 6173.00    0.51227   0.45938    0.005
 6174.00    0.53155   0.46243    0.006
 6175.00    0.52702   0.46326    0.006
 6176.00    0.48054   0.45707    0.006
 6177.00    0.42453   0.44763    0.006
 6178.00    0.35383   0.44883    0.006
 6179.00    0.31394   0.45940    0.006
 6180.00    0.31580   0.46542    0.006
 6181.00    0.34942   0.46487    0.006
 6182.00    0.42092   0.46471    0.006
 6183.00    0.46331   0.46511    0.006
 6184.00    0.47508   0.46448    0.006
 6185.00    0.47162   0.46568    0.006
 6186.00    0.45402   0.46882    0.006
 6187.00    0.48281   0.46936    0.006
 6188.00    0.54953   0.46860    0.006
 6189.00    0.56981   0.47064    0.006
 6190.00    0.55667   0.47284    0.006
 6191.00    0.51500   0.47268    0.006
 6192.00    0.45531   0.47167    0.006
 6193.00    0.45144   0.46922    0.006
 6194.00    0.47841   0.46484    0.006
 6195.00    0.72925   0.46163    0.006
 6196.00    1.08759   0.46081   -2.000
 6197.00    1.55955   0.45930   -2.000
 6198.00    2.07862   0.45249   -2.000
 6199.00    2.14389   0.44552   -2.000
 6200.00    2.04832   0.44992   -2.000
 6201.00    1.50010   0.46099   -2.000
 6202.00    0.81642   0.46676   -2.000
 6203.00    0.43430   0.46816   -2.000
 6204.00    0.12710   0.46954   -2.000
 6205.00    0.05506   0.46969   -2.000
 6206.00    0.03039   0.46552   -2.000
 6207.00    0.17360   0.45906   -2.000
 6208.00    0.34329   0.45756    0.006
 6209.00    0.45805   0.46267    0.006
 6210.00    0.56637   0.46811    0.006
 6211.00    0.60729   0.46968    0.006
 6212.00    0.64286   0.46901    0.006
 6213.00    0.62203   0.46915    0.006
 6214.00    0.59870   0.47036    0.006
 6215.00    0.57622   0.47104    0.006
 6216.00    0.55433   0.47084    0.006
 6217.00    0.56004   0.46957    0.006
 6218.00    0.56570   0.46741    0.006
 6219.00    0.57050   0.46498    0.006
 6220.00    0.57750   0.46038    0.006
 6221.00    0.60884   0.45283    0.006
 6222.00    0.63160   0.44777    0.006
 6223.00    0.58810   0.44768    0.006
 6224.00    0.54782   0.45142    0.006
 6225.00    0.52637   0.45638    0.005
 6226.00    0.51095   0.45630    0.005
 6227.00    0.52353   0.45166    0.005
 6228.00    0.54378   0.45007    0.006
 6229.00    0.59310   0.45333    0.006
 6230.00    0.62812   0.45709    0.006
 6231.00    0.61785   0.45797    0.006
 6232.00    0.59709   0.45704    0.006
 6233.00    0.54817   0.45783    0.006
 6234.00    0.51667   0.45916    0.006
 6235.00    0.52530   0.45891    0.006
 6236.00    0.52750   0.45615    0.006
 6237.00    0.51690   0.44821    0.006
 6238.00    0.51772   0.43890    0.006
 6239.00    0.53835   0.43747    0.006
 6240.00    0.57555   0.44373    0.006
 6241.00    0.63794   0.45129    0.006
 6242.00    0.66229   0.45890    0.006
 6243.00    0.63584   0.46318    0.006
 6244.00    0.60688   0.46152    0.006
 6245.00    0.57498   0.45675    0.006
 6246.00    0.54874   0.45201    0.006
 6247.00    0.52835   0.44830    0.006
 6248.00    0.50250   0.44747    0.006
 6249.00    0.47166   0.44969    0.005
 6250.00    0.45219   0.44836    0.005
 6251.00    0.44190   0.44380    0.005
 6252.00    0.45835   0.44322    0.005
 6253.00    0.49377   0.44376    0.005
 6254.00    0.55865   0.44428    0.005
 6255.00    0.64186   0.44957    0.006
 6256.00    0.67008   0.45658    0.006
 6257.00    0.66839   0.45961    0.006
 6258.00    0.76768   0.45817    0.006
 6259.00    0.91467   0.45171    0.006
 6260.00    1.08937   0.44330    0.007
 6261.00    1.27535   0.44022    0.007
 6262.00    1.24047   0.44230    0.007
 6263.00    1.12872   0.44382    0.008
 6264.00    0.90835   0.44135    0.007
 6265.00    0.65611   0.43699    0.007
 6266.00    0.46241   0.43516    0.007
 6267.00    0.28291   0.43986    0.006
 6268.00    0.27568   0.44720    0.006
 6269.00    0.30225   0.45108    0.006
 6270.00    0.39412   0.45539    0.006
 6271.00    0.49597   0.45915    0.006
 6272.00    0.51708   0.45644    0.006
 6273.00    0.52908   0.45182    0.006
 6274.00    0.52839   0.45329    0.006
 6275.00    0.52675   0.45683    0.006
 6276.00    0.57414   0.45610    0.005
 6277.00    0.62350   0.45335    0.005
 6278.00    0.60599   0.45281    0.005
 6279.00    0.58876   0.45488    0.005
 6280.00    0.60247   0.45776    0.000
 6281.00    0.61542   0.45879    0.000
 6282.00    0.61541   0.45781    0.000
 6283.00    0.61451   0.45746    0.000
 6284.00    0.60420   0.45782    0.000
 6285.00    0.59250   0.45729    0.000
 6286.00    0.57044   0.45534    0.000
 6287.00    0.53922   0.45109    0.000
 6288.00    0.45592   0.44685    0.000
 6289.00    0.38712   0.44756    0.000
 6290.00    0.38397   0.45144    0.000
 6291.00    0.40345   0.45467    0.000
 6292.00    0.50690   0.45604    0.000
 6293.00    0.58068   0.45585    0.000
 6294.00    0.56235   0.45789    0.000
 6295.00    0.54407   0.46169    0.000
 6296.00    0.52589   0.46416    0.000
 6297.00    0.51558   0.46371    0.000
 6298.00    0.52310   0.46020    0.000
 6299.00    0.52123   0.45671    0.000
 6300.00    0.50098   0.45546    0.000
 6301.00    0.50000   0.45615    0.000
 6302.00    0.53196   0.45779    0.000
 6303.00    0.55671   0.45611    0.000
 6304.00    0.57064   0.45039    0.000
 6305.00    0.58181   0.44672    0.000
 6306.00    0.58936   0.44866    0.000
 6307.00    0.59472   0.45158    0.000
 6308.00    0.59756   0.44963    0.000
 6309.00    0.57502   0.44459    0.000
 6310.00    0.52654   0.44364    0.000
 6311.00    0.50734   0.44860    0.000
 6312.00    0.51453   0.45334    0.000
 6313.00    0.53292   0.45443    0.000
 6314.00    0.56020   0.45598    0.000
 6315.00    0.57252   0.45981    0.000
 6316.00    0.57438   0.46137    0.000
 6317.00    0.55703   0.45910    0.000
 6318.00    0.52790   0.45543    0.000
 6319.00    0.53540   0.45309    0.000
 6320.00    0.56252   0.45340    0.000
 6321.00    0.55459   0.45414    0.006
 6322.00    0.53037   0.45030    0.006
 6323.00    0.49430   0.44582    0.006
 6324.00    0.45348   0.44698    0.006
 6325.00    0.42673   0.44670    0.005
 6326.00    0.40478   0.44266    0.005
 6327.00    0.40287   0.44430    0.005
 6328.00    0.40672   0.45025    0.005
 6329.00    0.43408   0.45305    0.005
 6330.00    0.46702   0.45282    0.005
 6331.00    0.52409   0.45461    0.005
 6332.00    0.58577   0.45854    0.005
 6333.00    0.57947   0.46004    0.005
 6334.00    0.56309   0.45931    0.005
 6335.00    0.51336   0.45814    0.005
 6336.00    0.46001   0.45878    0.005
 6337.00    0.50207   0.45921    0.005
 6338.00    0.55092   0.45713    0.005
 6339.00    0.56074   0.45773    0.005
 6340.00    0.56914   0.46130    0.005
 6341.00    0.54398   0.46246    0.006
 6342.00    0.51928   0.45663    0.006
 6343.00    0.51526   0.44623    0.006
 6344.00    0.51023   0.44177    0.006
 6345.00    0.48904   0.44633    0.006
 6346.00    0.47184   0.45184    0.005
 6347.00    0.49486   0.45440    0.006
 6348.00    0.51262   0.45797    0.006
 6349.00    0.49244   0.46035    0.006
 6350.00    0.47673   0.45783    0.005
 6351.00    0.48578   0.45206    0.005
 6352.00    0.50356   0.44786    0.005
 6353.00    0.56000   0.44914    0.005
 6354.00    0.60505   0.45178    0.005
 6355.00    0.60871   0.45337    0.005
 6356.00    0.60654   0.45623    0.005
 6357.00    0.58658   0.45920    0.005
 6358.00    0.57707   0.45993    0.005
 6359.00    0.59462   0.45965    0.005
 6360.00    0.59307   0.45872    0.005
 6361.00    0.54898   0.45560    0.005
 6362.00    0.51414   0.45037    0.006
 6363.00    0.49716   0.44778    0.006
 6364.00    0.51056   0.45002    0.006
 6365.00    0.57511   0.44978    0.006
 6366.00    0.61618   0.44381    0.006
 6367.00    0.62261   0.44035    0.006
 6368.00    0.60905   0.44187    0.006
 6369.00    0.56958   0.44194    0.006
 6370.00    0.54163   0.43963    0.006
 6371.00    0.52685   0.44004    0.006
 6372.00    0.51942   0.44341    0.006
 6373.00    0.51937   0.44691    0.006
 6374.00    0.53296   0.44948    0.006
 6375.00    0.55868   0.45257    0.005
 6376.00    0.55990   0.45515    0.005
 6377.00    0.54194   0.45451    0.005
 6378.00    0.50592   0.45226    0.005
 6379.00    0.45746   0.45284    0.005
 6380.00    0.42790   0.45658    0.005
 6381.00    0.40976   0.45971    0.005
 6382.00    0.41165   0.45984    0.005
 6383.00    0.42410   0.45904    0.005
 6384.00    0.45239   0.45881    0.005
 6385.00    0.48792   0.45737    0.005
 6386.00    0.52493   0.45344    0.005
 6387.00    0.56254   0.45030    0.005
 6388.00    0.57718   0.44949    0.005
 6389.00    0.58412   0.45020    0.005
 6390.00    0.60118   0.45297    0.005
 6391.00    0.62110   0.45477    0.005
 6392.00    0.63018   0.45336    0.006
 6393.00    0.63673   0.45256    0.006
 6394.00    0.57701   0.45430    0.006
 6395.00    0.50495   0.45563    0.006
 6396.00    0.46557   0.45519    0.006
 6397.00    0.43089   0.45473    0.006
 6398.00    0.46046   0.45465    0.006
 6399.00    0.49672   0.45305    0.006
 6400.00    0.52347   0.44640    0.006
 6401.00    0.54958   0.43768    0.006
 6402.00    0.54222   0.43855    0.006
 6403.00    0.53378   0.44823    0.005
 6404.00    0.52776   0.45569    0.005
 6405.00    0.52121   0.45785    0.005
 6406.00    0.49816   0.45419    0.005
 6407.00    0.47671   0.44285    0.005
 6408.00    0.47943   0.43330    0.005
 6409.00    0.48293   0.44029    0.005
 6410.00    0.49403   0.45303    0.005
 6411.00    0.49962   0.45817    0.005
 6412.00    0.46675   0.45877    0.005
 6413.00    0.43541   0.45712    0.005
 6414.00    0.41230   0.45314    0.005
 6415.00    0.40344   0.44725    0.005
 6416.00    0.45611   0.44445    0.005
 6417.00    0.50056   0.44945    0.006
 6418.00    0.51571   0.45210    0.006
 6419.00    0.51740   0.44623    0.006
 6420.00    0.47885   0.44356    0.006
 6421.00    0.45347   0.44749    0.006
 6422.00    0.46163   0.44998    0.006
 6423.00    0.48470   0.45080    0.006
 6424.00    0.54044   0.45205    0.006
 6425.00    0.56703   0.45228    0.006
 6426.00    0.53823   0.45126    0.005
 6427.00    0.51732   0.44712    0.005
 6428.00    0.50950   0.44002    0.005
 6429.00    0.50774   0.43729    0.005
 6430.00    0.51477   0.44462    0.005
 6431.00    0.50957   0.45455    0.005
 6432.00    0.48872   0.45715    0.005
 6433.00    0.47133   0.45567    0.005
 6434.00    0.45782   0.45615    0.005
 6435.00    0.46119   0.45785    0.005
 6436.00    0.48133   0.45748    0.005
 6437.00    0.52663   0.45234    0.005
 6438.00    0.59398   0.44246    0.005
 6439.00    0.63604   0.43673    0.005
 6440.00    0.65857   0.44146    0.005
 6441.00    0.63354   0.44876    0.005
 6442.00    0.57622   0.45339    0.006
 6443.00    0.51873   0.45558    0.006
 6444.00    0.46114   0.45610    0.005
 6445.00    0.44473   0.45267    0.005
 6446.00    0.44969   0.44283    0.005
 6447.00    0.49581   0.43633    0.006
 6448.00    0.56044   0.44383    0.006
 6449.00    0.61560   0.45502    0.009
 6450.00    0.66710   0.45921    0.045
 6451.00    0.72538   0.45944   -1.000
 6452.00    0.78590   0.45908   -1.000
 6453.00    0.88164   0.45916   -1.000
 6454.00    0.98709   0.45964   -1.000
 6455.00    1.00593   0.45841   -1.000
 6456.00    1.00513   0.45089   -1.000
 6457.00    0.91873   0.43581   -1.000
 6458.00    0.81682   0.42639   -1.000
 6459.00    0.73226   0.43462   -1.000
 6460.00    0.65010   0.44728   -1.000
 6461.00    0.60141   0.45360   -1.000
 6462.00    0.55607   0.45258   -1.000
 6463.00    0.49710   0.44506    0.011
 6464.00    0.43726   0.44039    0.005
 6465.00    0.46231   0.44593    0.005
 6466.00    0.48978   0.45392    0.005
 6467.00    0.51037   0.45794    0.005
 6468.00    0.52894   0.45756    0.005
 6469.00    0.49112   0.44990    0.005
 6470.00    0.45567   0.43488    0.006
 6471.00    0.45366   0.42975    0.006
 6472.00    0.45432   0.44032    0.006
 6473.00    0.47984   0.44995    0.006
 6474.00    0.50261   0.45385    0.006
 6475.00    0.50690   0.45525    0.005
 6476.00    0.50835   0.45444    0.005
 6477.00    0.49498   0.45141    0.005
 6478.00    0.47870   0.44852    0.005
 6479.00    0.45017   0.44514    0.005
 6480.00    0.42936   0.44482    0.005
 6481.00    0.43550   0.44875    0.005
 6482.00    0.45584   0.44828    0.005
 6483.00    0.51785   0.44417    0.005
 6484.00    0.56933   0.44485    0.005
 6485.00    0.59445   0.44935    0.005
 6486.00    0.60543   0.45109    0.005
 6487.00    0.58592   0.45072    0.005
 6488.00    0.57708   0.44869    0.005
 6489.00    0.58821   0.44171    0.005
 6490.00    0.60322   0.43371    0.005
 6491.00    0.62456   0.43360    0.005
 6492.00    0.62693   0.43962    0.005
 6493.00    0.60212   0.44475    0.006
 6494.00    0.57822   0.44675    0.006
 6495.00    0.55548   0.44750    0.005
 6496.00    0.54945   0.44782    0.005
 6497.00    0.56198   0.44611    0.005
 6498.00    0.57381   0.44214    0.005
 6499.00    0.58494   0.43858    0.005
 6500.00    0.57177   0.43574    0.005
 6501.00    0.53761   0.42661    0.005
 6502.00    0.50459   0.41094    0.005
 6503.00    0.47244   0.40248    0.005
 6504.00    0.46858   0.40450    0.005
 6505.00    0.48363   0.41124    0.005
 6506.00    0.49938   0.41944    0.005
 6507.00    0.51555   0.42311    0.005
 6508.00    0.53139   0.42824    0.005
 6509.00    0.54707   0.43535    0.005
 6510.00    0.55954   0.43971    0.005
 6511.00    0.57059   0.44192    0.005
 6512.00    0.54128   0.44280    0.005
 6513.00    0.49664   0.44421    0.005
 6514.00    0.50629   0.44558    0.005
 6515.00    0.53347   0.44451    0.005
 6516.00    0.54347   0.44163    0.005
 6517.00    0.54882   0.44081    0.005
 6518.00    0.51688   0.44318    0.005
 6519.00    0.47668   0.44508    0.005
 6520.00    0.41959   0.44482    0.005
 6521.00    0.35952   0.44404    0.005
 6522.00    0.35207   0.44212    0.005
 6523.00    0.35170   0.43787    0.005
 6524.00    0.41911   0.43440    0.005
 6525.00    0.49300   0.43356    0.005
 6526.00    0.50736   0.43248    0.005
 6527.00    0.51820   0.43349    0.005
 6528.00    0.50664   0.43874    0.000
 6529.00    0.49456   0.44263    0.000
 6530.00    0.48857   0.44292    0.000
 6531.00    0.48307   0.44214    0.000
 6532.00    0.48984   0.44219    0.000
 6533.00    0.49646   0.44174    0.000
 6534.00    0.50107   0.43781    0.000
 6535.00    0.50797   0.43411    0.000
 6536.00    0.53522   0.43585    0.000
 6537.00    0.56938   0.43989    0.000
 6538.00    0.64892   0.44164    0.000
 6539.00    0.71038   0.43982    0.000
 6540.00    0.67947   0.43654    0.000
 6541.00    0.64324   0.43479    0.000
 6542.00    0.58504   0.43676    0.000
 6543.00    0.54081   0.44051    0.000
 6544.00    0.54435   0.44203    0.000
 6545.00    0.54062   0.44065    0.000
 6546.00    0.51594   0.43994    0.000
 6547.00    0.50754   0.44174    0.000
 6548.00    0.53916   0.44351    0.000
 6549.00    0.56138   0.44233    0.000
 6550.00    0.56367   0.43921    0.000
 6551.00    0.57654   0.43602    0.000
 6552.00    0.60890   0.43357    0.000
 6553.00    0.65491   0.42883    0.000
 6554.00    0.72289   0.42233    0.000
 6555.00    0.77115   0.42259    0.000
 6556.00    0.79159   0.42784    0.000
 6557.00    0.82481   0.43025    0.000
 6558.00    0.87393   0.42853    0.000
 6559.00    0.92981   0.42529    0.000
 6560.00    0.99311   0.42278    0.000
 6561.00    1.01567   0.41999    0.000
 6562.00    0.99887   0.41423    0.000
 6563.00    0.93494   0.40733    0.000
 6564.00    0.83086   0.40309    0.000
 6565.00    0.71522   0.40143    0.000
 6566.00    0.59089   0.39702    0.000
 6567.00    0.53573   0.38830    0.000
 6568.00    0.52616   0.37452    0.000
 6569.00    0.53205   0.34738    0.000
 6570.00    0.54686   0.30096    0.000
 6571.00    0.55350   0.27419    0.000
 6572.00    0.55604   0.30322    0.000
 6573.00    0.56826   0.35135    0.000
 6574.00    0.58468   0.38228    0.000
 6575.00    0.60589   0.39797    0.000
 6576.00    0.62889   0.40437    0.000
 6577.00    0.63899   0.40560    0.000
 6578.00    0.64500   0.40903    0.000
 6579.00    0.63872   0.41394    0.000
 6580.00    0.62918   0.41416    0.000
 6581.00    0.65791   0.41117    0.000
 6582.00    0.69492   0.40982    0.000
 6583.00    0.67223   0.41256    0.000
 6584.00    0.63930   0.42003    0.000
 6585.00    0.59656   0.42733    0.000
 6586.00    0.55254   0.43057    0.000
 6587.00    0.55412   0.43042    0.000
 6588.00    0.55988   0.42779    0.000
 6589.00    0.58014   0.42521    0.000
 6590.00    0.60120   0.42680    0.000
 6591.00    0.53967   0.43060    0.000
 6592.00    0.47699   0.43204    0.000
 6593.00    0.47375   0.43121    0.000
 6594.00    0.47165   0.42932    0.000
 6595.00    0.49575   0.43048    0.000
 6596.00    0.51958   0.43420    0.000
 6597.00    0.53994   0.43620    0.000
 6598.00    0.55746   0.43638    0.000
 6599.00    0.55057   0.43276    0.000
 6600.00    0.53868   0.42240    0.000
 6601.00    0.49501   0.41175    0.000
 6602.00    0.46419   0.41292    0.000
 6603.00    0.49743   0.42319    0.000
 6604.00    0.52800   0.43039    0.000
 6605.00    0.54778   0.43075    0.000
 6606.00    0.56020   0.42796    0.000
 6607.00    0.54801   0.42734    0.000
 6608.00    0.54670   0.43135    0.000
 6609.00    0.57616   0.43568    0.005
 6610.00    0.59893   0.43663    0.005
 6611.00    0.60550   0.43474    0.005
 6612.00    0.59393   0.43117    0.005
 6613.00    0.54449   0.42832    0.005
 6614.00    0.50140   0.42778    0.005
 6615.00    0.46981   0.42726    0.005
 6616.00    0.47203   0.42435    0.005
 6617.00    0.52787   0.42105    0.005
 6618.00    0.57566   0.42428    0.005
 6619.00    0.61223   0.43182    0.005
 6620.00    0.62580   0.43475    0.005
 6621.00    0.61121   0.43188    0.005
 6622.00    0.62411   0.42989    0.005
 6623.00    0.66671   0.43275    0.005
 6624.00    0.70043   0.43548    0.005
 6625.00    0.72571   0.43535    0.005
 6626.00    0.71612   0.43450    0.005
 6627.00    0.67725   0.43496    0.005
 6628.00    0.62778   0.43597    0.005
 6629.00    0.57047   0.43665    0.005
 6630.00    0.51659   0.43579    0.005
 6631.00    0.46493   0.43282    0.005
 6632.00    0.40429   0.42808    0.005
 6633.00    0.33853   0.42502    0.005
 6634.00    0.31983   0.42683    0.005
 6635.00    0.32442   0.42960    0.005
 6636.00    0.37030   0.43062    0.005
 6637.00    0.43385   0.43041    0.005
 6638.00    0.46769   0.42968    0.005
 6639.00    0.49064   0.42879    0.005
 6640.00    0.48404   0.42647    0.005
 6641.00    0.46826   0.42175    0.005
 6642.00    0.45346   0.41879    0.005
 6643.00    0.43892   0.42160    0.005
 6644.00    0.47542   0.42684    0.005
 6645.00    0.52269   0.43024    0.005
 6646.00    0.54369   0.43090    0.005
 6647.00    0.56031   0.42948    0.005
 6648.00    0.50128   0.42871    0.005
 6649.00    0.43275   0.43044    0.005
 6650.00    0.45018   0.42989    0.005
 6651.00    0.47510   0.42376    0.005
 6652.00    0.48577   0.41989    0.005
 6653.00    0.49570   0.42332    0.005
 6654.00    0.51500   0.42743    0.005
 6655.00    0.53384   0.42796    0.005
 6656.00    0.50759   0.42777    0.005
 6657.00    0.48224   0.42882    0.005
 6658.00    0.47575   0.42908    0.005
 6659.00    0.47342   0.42764    0.005
 6660.00    0.52121   0.42632    0.005
 6661.00    0.56257   0.42610    0.005
 6662.00    0.55093   0.42652    0.005
 6663.00    0.53443   0.42708    0.005
 6664.00    0.48796   0.42690    0.005
 6665.00    0.44775   0.42659    0.005
 6666.00    0.43786   0.42705    0.005
 6667.00    0.43446   0.42708    0.005
 6668.00    0.45670   0.42604    0.005
 6669.00    0.47774   0.42454    0.005
 6670.00    0.49483   0.42131    0.005
 6671.00    0.51646   0.41598    0.005
 6672.00    0.55070   0.41496    0.005
 6673.00    0.58422   0.41899    0.005
 6674.00    0.61602   0.42151    0.005
 6675.00    0.62079   0.42135    0.005
 6676.00    0.57009   0.42164    0.005
 6677.00    0.51994   0.42403    0.005
 6678.00    0.47080   0.42680    0.005
 6679.00    0.45246   0.42803    0.005
 6680.00    0.48225   0.42765    0.005
 6681.00    0.52393   0.42705    0.005
 6682.00    0.58195   0.42686    0.005
 6683.00    0.61837   0.42667    0.005
 6684.00    0.62870   0.42307    0.005
 6685.00    0.61910   0.41206    0.005
 6686.00    0.58827   0.40144    0.005
 6687.00    0.55466   0.40248    0.005
 6688.00    0.51843   0.41144    0.005
 6689.00    0.49993   0.41703    0.005
 6690.00    0.49610   0.41837    0.005
 6691.00    0.50116   0.41961    0.005
 6692.00    0.51269   0.42121    0.005
 6693.00    0.50942   0.42217    0.005
 6694.00    0.49668   0.42238    0.005
 6695.00    0.48467   0.42200    0.005
 6696.00    0.47306   0.42162    0.000
 6697.00    0.46842   0.42229    0.000
 6698.00    0.46717   0.42335    0.000
 6699.00    0.45605   0.42366    0.000
 6700.00    0.44079   0.42345    0.000
 6701.00    0.47966   0.42337    0.000
 6702.00    0.53801   0.42305    0.000
 6703.00    0.58134   0.42088    0.000
 6704.00    0.62008   0.41729    0.000
 6705.00    0.60330   0.41610    0.000
 6706.00    0.57246   0.41749    0.000
 6707.00    0.55716   0.41960    0.000
 6708.00    0.54506   0.42225    0.000
 6709.00    0.55213   0.42381    0.000
 6710.00    0.56231   0.42313    0.000
 6711.00    0.57367   0.42042    0.000
 6712.00    0.58517   0.41761    0.000
 6713.00    0.61290   0.41740    0.000
 6714.00    0.64198   0.41952    0.000
 6715.00    0.60959   0.42148    0.000
 6716.00    0.57428   0.42208    0.000
 6717.00    0.57837   0.42156    0.000
 6718.00    0.58260   0.42001    0.000
 6719.00    0.56339   0.41933    0.000
 6720.00    0.54647   0.41959    0.000
 6721.00    0.57422   0.41843    0.000
 6722.00    0.60257   0.41618    0.000
 6723.00    0.63774   0.41368    0.000
 6724.00    0.66496   0.41009    0.000
 6725.00    0.62884   0.40512    0.000
 6726.00    0.58956   0.40354    0.000
 6727.00    0.53141   0.40866    0.000
 6728.00    0.48536   0.41447    0.000
 6729.00    0.49667   0.41611    0.000
 6730.00    0.49871   0.41570    0.000
 6731.00    0.46493   0.41670    0.000
 6732.00    0.44022   0.41803    0.000
 6733.00    0.44474   0.41727    0.000
 6734.00    0.45021   0.41525    0.000
 6735.00    0.45823   0.41474    0.000
 6736.00    0.46951   0.41631    0.000
 6737.00    0.48838   0.41805    0.000
 6738.00    0.51108   0.41912    0.000
 6739.00    0.54153   0.41927    0.000
 6740.00    0.57904   0.41824    0.000
 6741.00    0.62898   0.41693    0.000
 6742.00    0.65371   0.41666    0.000
 6743.00    0.63963   0.41758    0.000
 6744.00    0.59482   0.41860    0.000
 6745.00    0.50846   0.41798    0.000
 6746.00    0.46593   0.41519    0.000
 6747.00    0.47557   0.41257    0.000
 6748.00    0.48415   0.41262    0.000
 6749.00    0.49163   0.41444    0.000
 6750.00    0.50792   0.41429    0.000
 6751.00    0.53235   0.41213    0.000
 6752.00    0.54509   0.41222    0.000
 6753.00    0.54828   0.41424    0.006
 6754.00    0.54864   0.41482    0.006
 6755.00    0.54697   0.41401    0.006
 6756.00    0.52084   0.41261    0.006
 6757.00    0.47928   0.41050    0.006
 6758.00    0.44328   0.40864    0.006
 6759.00    0.41034   0.40934    0.006
 6760.00    0.43625   0.41075    0.006
 6761.00    0.49036   0.41048    0.006
 6762.00    0.54792   0.41150    0.006
 6763.00    0.60693   0.41354    0.006
 6764.00    0.65376   0.41495    0.006
 6765.00    0.69628   0.41650    0.006
 6766.00    0.62558   0.41813    0.006
 6767.00    0.52108   0.41910    0.006
 6768.00    0.49325   0.41939    0.006
 6769.00    0.48442   0.41920    0.006
 6770.00    0.47612   0.41845    0.006
 6771.00    0.46793   0.41825    0.006
 6772.00    0.43911   0.41835    0.006
 6773.00    0.40704   0.41763    0.006
 6774.00    0.42841   0.41507    0.006
 6775.00    0.45600   0.41096    0.006
 6776.00    0.44745   0.40899    0.005
 6777.00    0.43606   0.41107    0.005
 6778.00    0.48174   0.41292    0.006
 6779.00    0.52991   0.41179    0.006
 6780.00    0.52712   0.41114    0.006
 6781.00    0.52417   0.41324    0.006
 6782.00    0.53909   0.41631    0.006
 6783.00    0.55265   0.41877    0.006
 6784.00    0.54164   0.42002    0.006
 6785.00    0.52668   0.41991    0.006
 6786.00    0.46849   0.41961    0.006
 6787.00    0.41675   0.42016    0.006
 6788.00    0.41466   0.42035    0.006
 6789.00    0.41815   0.41887    0.006
 6790.00    0.45413   0.41546    0.006
 6791.00    0.48087   0.41092    0.006
 6792.00    0.46490   0.40741    0.006
 6793.00    0.45556   0.40654    0.006
 6794.00    0.47126   0.40757    0.006
 6795.00    0.47520   0.40958    0.006
 6796.00    0.44203   0.41224    0.006
 6797.00    0.43607   0.41352    0.006
 6798.00    0.50297   0.41314    0.006
 6799.00    0.56247   0.41324    0.006
 6800.00    0.60498   0.41344    0.006
 6801.00    0.62954   0.41198    0.006
 6802.00    0.61841   0.41008    0.006
 6803.00    0.60161   0.40993    0.006
 6804.00    0.57497   0.41087    0.006
 6805.00    0.55521   0.41210    0.006
 6806.00    0.54587   0.41304    0.006
 6807.00    0.55655   0.41343    0.005
 6808.00    0.59393   0.41418    0.005
 6809.00    0.61297   0.41521    0.006
 6810.00    0.61048   0.41576    0.006
 6811.00    0.59634   0.41517    0.006
 6812.00    0.57013   0.41375    0.006
 6813.00    0.56454   0.41332    0.006
 6814.00    0.57779   0.41318    0.006
 6815.00    0.56828   0.41231    0.006
 6816.00    0.54047   0.41268    0.006
 6817.00    0.51115   0.41330    0.006
 6818.00    0.48077   0.41233    0.006
 6819.00    0.47743   0.41197    0.005
 6820.00    0.49088   0.41300    0.005
 6821.00    0.51982   0.41365    0.005
 6822.00    0.55715   0.41230    0.005
 6823.00    0.57895   0.40990    0.005
 6824.00    0.59342   0.40995    0.005
 6825.00    0.57950   0.41278    0.005
 6826.00    0.55405   0.41463    0.005
 6827.00    0.52432   0.41355    0.005
 6828.00    0.49311   0.41132    0.005
 6829.00    0.51649   0.41094    0.006
 6830.00    0.55584   0.41299    0.006
 6831.00    0.55582   0.41510    0.006
 6832.00    0.54627   0.41594    0.006
 6833.00    0.54910   0.41621    0.006
 6834.00    0.55434   0.41596    0.006
 6835.00    0.55835   0.41382    0.006
 6836.00    0.56216   0.41015    0.006
 6837.00    0.57177   0.40859    0.006
 6838.00    0.58203   0.41072    0.006
 6839.00    0.60621   0.41372    0.006
 6840.00    0.63142   0.41436    0.006
 6841.00    0.59929   0.41332    0.006
 6842.00    0.56488   0.41343    0.006
 6843.00    0.51667   0.41471    0.006
 6844.00    0.47232   0.41504    0.005
 6845.00    0.58584   0.41385    0.005
 6846.00    0.68972   0.41184    0.005
 6847.00    0.63108   0.40911    0.005
 6848.00    0.57902   0.40592    0.005
 6849.00    0.59584   0.40257    0.005
 6850.00    0.60556   0.40046    0.005
 6851.00    0.56242   0.40149    0.005
 6852.00    0.52708   0.40543    0.005
 6853.00    0.53596   0.40987    0.005
 6854.00    0.54475   0.41226    0.005
 6855.00    0.55312   0.41255    0.005
 6856.00    0.55159   0.41258    0.006
 6857.00    0.51341   0.41253    0.005
 6858.00    0.48271   0.41183    0.005
 6859.00    0.47519   0.41115    0.005
 6860.00    0.48207   0.41116    0.005
 6861.00    0.52685   0.41127    0.005
 6862.00    0.55761   0.40907    0.005
 6863.00    0.55666   0.40448    0.005
 6864.00    0.55455   0.40212    0.005
 6865.00    0.55016   0.40344    0.005
 6866.00    0.55521   0.40520    0.005
 6867.00    0.57638   0.40651    0.005
 6868.00    0.55923   0.40670    0.005
 6869.00    0.48482   0.40410    0.005
 6870.00    0.44077   0.40193    0.005
 6871.00    0.43660   0.40452    0.005
 6872.00    0.45234   0.40990    0.005
 6873.00    0.49114   0.41267    0.005
 6874.00    0.49781   0.41137    0.005
 6875.00    0.47169   0.40811    0.005
 6876.00    0.45001   0.40483    0.005
 6877.00    0.43231   0.40395    0.005
 6878.00    0.41216   0.40597    0.005
 6879.00    0.39007   0.40727    0.005
 6880.00    0.38691   0.40573    0.005
 6881.00    0.39695   0.40463    0.005
 6882.00    0.43625   0.40603    0.005
 6883.00    0.49345   0.40746    0.005
 6884.00    0.48729   0.40805    0.005
 6885.00    0.44727   0.40938    0.005
 6886.00    0.44521   0.41142    0.005
 6887.00    0.46077   0.41253    0.005
 6888.00    0.48302   0.41198    0.005
 6889.00    0.50795   0.40958    0.005
 6890.00    0.50010   0.40582    0.005
 6891.00    0.48108   0.40339    0.005
 6892.00    0.47647   0.40439    0.005
 6893.00    0.47600   0.40652    0.005
 6894.00    0.46397   0.40662    0.005
 6895.00    0.44921   0.40656    0.005
 6896.00    0.45433   0.40826    0.005
 6897.00    0.46324   0.40952    0.005
 6898.00    0.46642   0.40960    0.005
 6899.00    0.46875   0.41002    0.005
 6900.00    0.48644   0.41050    0.006
 6901.00    0.50578   0.41014    0.006
 6902.00    0.47548   0.40986    0.005
 6903.00    0.44168   0.40974    0.005
 6904.00    0.46233   0.40911    0.005
 6905.00    0.48494   0.40901    0.005
 6906.00    0.48877   0.41002    0.005
 6907.00    0.49253   0.41069    0.005
 6908.00    0.49605   0.40965    0.005
 6909.00    0.50010   0.40858    0.005
 6910.00    0.51265   0.41000    0.005
 6911.00    0.52336   0.41242    0.005
 6912.00    0.51577   0.41301    0.005
 6913.00    0.50609   0.41202    0.005
 6914.00    0.48141   0.41187    0.005
 6915.00    0.45108   0.41359    0.005
 6916.00    0.38958   0.41527    0.005
 6917.00    0.33873   0.41545    0.005
 6918.00    0.33487   0.41463    0.005
 6919.00    0.34209   0.41319    0.005
 6920.00    0.38953   0.41165    0.005
 6921.00    0.42817   0.40983    0.005
 6922.00    0.44008   0.40669    0.005
 6923.00    0.44618   0.40460    0.005
 6924.00    0.43728   0.40554    0.005
 6925.00    0.42933   0.40683    0.005
 6926.00    0.42345   0.40760    0.005
 6927.00    0.42744   0.40873    0.005
 6928.00    0.45043   0.41005    0.005
 6929.00    0.45418   0.41186    0.005
 6930.00    0.42556   0.41320    0.005
 6931.00    0.43082   0.41229    0.005
 6932.00    0.48597   0.40846    0.005
 6933.00    0.50689   0.40405    0.005
 6934.00    0.48348   0.40284    0.005
 6935.00    0.46617   0.40555    0.005
 6936.00    0.45582   0.40934    0.005
 6937.00    0.44780   0.41133    0.005
 6938.00    0.44212   0.41149    0.006
 6939.00    0.47143   0.41094    0.006
 6940.00    0.53179   0.40969    0.006
 6941.00    0.54182   0.40735    0.006
 6942.00    0.51249   0.40611    0.006
 6943.00    0.50203   0.40790    0.006
 6944.00    0.50456   0.40997    0.006
 6945.00    0.48399   0.41019    0.006
 6946.00    0.44949   0.40982    0.006
 6947.00    0.43979   0.41007    0.005
 6948.00    0.44312   0.41100    0.005
 6949.00    0.43738   0.41215    0.005
 6950.00    0.42748   0.41232    0.005
 6951.00    0.46741   0.41066    0.005
 6952.00    0.52689   0.40707    0.005
 6953.00    0.54709   0.40271    0.005
 6954.00    0.55414   0.40162    0.005
 6955.00    0.53960   0.40550    0.005
 6956.00    0.51900   0.40972    0.005
 6957.00    0.42892   0.41138    0.005
 6958.00    0.32278   0.41120    0.005
 6959.00    0.33841   0.40894    0.005
 6960.00    0.37664   0.40616    0.006
 6961.00    0.42214   0.40523    0.005
 6962.00    0.46867   0.40514    0.005
 6963.00    0.49721   0.40554    0.006
 6964.00    0.52390   0.40749    0.006
 6965.00    0.47616   0.40976    0.006
 6966.00    0.42347   0.41069    0.005
 6967.00    0.41141   0.41069    0.005
 6968.00    0.40066   0.41070    0.006
 6969.00    0.43190   0.41098    0.005
 6970.00    0.46038   0.41161    0.005
 6971.00    0.40439   0.41245    0.005
 6972.00    0.35303   0.41302    0.006
 6973.00    0.37069   0.41234    0.005
 6974.00    0.38711   0.41056    0.005
 6975.00    0.39156   0.41026    0.005
 6976.00    0.40175   0.41242    0.005
 6977.00    0.45177   0.41432    0.005
 6978.00    0.49127   0.41369    0.005
 6979.00    0.47435   0.41139    0.006
 6980.00    0.47992   0.41020    0.006
 6981.00    0.58234   0.41144    0.006
 6982.00    0.65882   0.41252    0.006
 6983.00    0.64317   0.41081    0.006
 6984.00    0.60965   0.40743    0.006
 6985.00    0.52280   0.40300    0.005
 6986.00    0.45612   0.39631    0.005
 6987.00    0.44069   0.39032    0.005
 6988.00    0.44021   0.39202    0.005
 6989.00    0.47241   0.40055    0.006
 6990.00    0.46758   0.40793    0.006
 6991.00    0.39253   0.41164    0.005
 6992.00    0.36000   0.41307    0.005
 6993.00    0.39787   0.41319    0.005
 6994.00    0.41259   0.41294    0.005
 6995.00    0.39370   0.41252    0.005
 6996.00    0.41761   0.41089    0.005
 6997.00    0.49613   0.40809    0.006
 6998.00    0.51671   0.40657    0.006
 6999.00    0.47209   0.40785    0.005
 7000.00    0.43611   0.41029    0.005
 7001.00    0.40867   0.41160    0.006
 7002.00    0.44955   0.41092    0.006
 7003.00    0.55021   0.40982    0.006
 7004.00    0.56734   0.41008    0.006
 7005.00    0.52010   0.41079    0.006
 7006.00    0.48007   0.41005    0.006
 7007.00    0.44494   0.40689    0.006
 7008.00    0.40832   0.40293    0.006
 7009.00    0.37084   0.40246    0.006
 7010.00    0.30844   0.40582    0.006
 7011.00    0.23315   0.40836    0.005
 7012.00    0.27267   0.40676    0.005
 7013.00    0.36373   0.40332    0.006
 7014.00    0.46688   0.40216    0.006
 7015.00    0.57470   0.40356    0.006
 7016.00    0.49267   0.40587    0.006
 7017.00    0.34833   0.40802    0.006
 7018.00    0.28297   0.40931    0.006
 7019.00    0.23935   0.40866    0.006
 7020.00    0.33471   0.40741    0.006
 7021.00    0.46149   0.40808    0.006
 7022.00    0.46281   0.40913    0.006
 7023.00    0.44147   0.40604    0.006
 7024.00    0.44096   0.39783    0.006
 7025.00    0.44333   0.39176    0.006
 7026.00    0.46940   0.39590    0.006
 7027.00    0.49782   0.40539    0.006
 7028.00    0.51038   0.41112    0.006
 7029.00    0.52194   0.41248    0.006
 7030.00    0.49461   0.41125    0.006
 7031.00    0.46646   0.40709    0.006
 7032.00    0.51567   0.40162    0.006
 7033.00    0.56029   0.39972    0.006
 7034.00    0.47863   0.40270    0.006
 7035.00    0.40499   0.40636    0.006
 7036.00    0.44393   0.40765    0.006
 7037.00    0.47601   0.40803    0.006
 7038.00    0.44477   0.40886    0.006
 7039.00    0.42602   0.40986    0.006
 7040.00    0.49144   0.41002    0.006
 7041.00    0.53508   0.40901    0.006
 7042.00    0.46487   0.40780    0.006
 7043.00    0.42386   0.40754    0.006
 7044.00    0.50582   0.40876    0.006
 7045.00    0.56639   0.40901    0.006
 7046.00    0.55260   0.40445    0.006
 7047.00    0.53028   0.39945    0.006
 7048.00    0.48301   0.40253    0.006
 7049.00    0.45280   0.41130    0.006
 7050.00    0.46519   0.41742   -2.000
 7051.00    0.47375   0.41915   -2.000
 7052.00    0.47405   0.41783   -2.000
 7053.00    0.49003   0.41471   -2.000
 7054.00    0.53532   0.41283   -2.000
 7055.00    0.58087   0.41429   -2.000
 7056.00    0.62684   0.41714   -2.000
 7057.00    0.64120   0.41873   -2.000
 7058.00    0.61035   0.41823   -2.000
 7059.00    0.58071   0.41621   -2.000
 7060.00    0.55259   0.41219   -2.000
 7061.00    0.54157   0.40552   -2.000
 7062.00    0.54950   0.39893   -2.000
 7063.00    0.53094   0.39542   -2.000
 7064.00    0.48647   0.39565   -2.000
 7065.00    0.48536   0.39910   -2.000
 7066.00    0.52166   0.40226   -2.000
 7067.00    0.52758   0.40151   -2.000
 7068.00    0.51042   0.39722   -2.000
 7069.00    0.44894   0.39376   -2.000
 7070.00    0.35787   0.39387   -2.000
 7071.00    0.39478   0.39583   -2.000
 7072.00    0.50652   0.39778   -2.000
 7073.00    0.59005   0.39935   -2.000
 7074.00    0.65919   0.39821   -2.000
 7075.00    0.62869   0.39459   -2.000
 7076.00    0.55418   0.39126   -2.000
 7077.00    0.54557   0.38955   -2.000
 7078.00    0.56195   0.39204   -2.000
 7079.00    0.56336   0.39744   -2.000
 7080.00    0.55996   0.40095   -2.000
 7081.00    0.51512   0.40193   -2.000
 7082.00    0.45912   0.40246   -2.000
 7083.00    0.44688   0.40258   -2.000
 7084.00    0.44432   0.40196   -2.000
 7085.00    0.54926   0.40141   -2.000
 7086.00    0.67310   0.40154   -2.000
 7087.00    0.64960   0.40225   -2.000
 7088.00    0.60637   0.40288   -2.000
 7089.00    0.56115   0.40370   -2.000
 7090.00    0.51573   0.40350   -2.000
 7091.00    0.57864   0.40015   -2.000
 7092.00    0.64791   0.39376   -2.000
 7093.00    0.61937   0.38733   -2.000
 7094.00    0.58831   0.38548   -2.000
 7095.00    0.54229   0.38722   -2.000
 7096.00    0.49962   0.38622   -2.000
 7097.00    0.54022   0.38310   -2.000
 7098.00    0.57999   0.38126   -2.000
 7099.00    0.60883   0.38072   -2.000
 7100.00    0.62302   0.38196   -2.000
 7101.00    0.50736   0.38346   -2.000
 7102.00    0.40534   0.38316   -2.000
 7103.00    0.39241   0.38282   -2.000
 7104.00    0.38761   0.38243   -2.000
 7105.00    0.42420   0.38242   -2.000
 7106.00    0.45259   0.38337   -2.000
 7107.00    0.44726   0.38601   -2.000
 7108.00    0.45396   0.39000   -2.000
 7109.00    0.50171   0.39108   -2.000
 7110.00    0.52502   0.38988   -2.000
 7111.00    0.47813   0.38785   -2.000
 7112.00    0.45151   0.38746   -2.000
 7113.00    0.47464   0.38961   -2.000
 7114.00    0.49527   0.39173   -2.000
 7115.00    0.51062   0.39122   -2.000
 7116.00    0.50961   0.38991   -2.000
 7117.00    0.47854   0.39023   -2.000
 7118.00    0.45645   0.39029   -2.000
 7119.00    0.44881   0.38737   -2.000
 7120.00    0.50699   0.38426   -2.000
 7121.00    0.65795   0.38499   -2.000
 7122.00    0.78354   0.38818   -2.000
 7123.00    0.87766   0.39034   -2.000
 7124.00    0.89826   0.39108   -2.000
 7125.00    0.83848   0.39228   -2.000
 7126.00    0.71070   0.39305   -2.000
 7127.00    0.51736   0.39291   -2.000
 7128.00    0.49363   0.39234   -2.000
 7129.00    0.61413   0.39137   -2.000
 7130.00    0.68074   0.38943   -2.000
 7131.00    0.70698   0.38775   -2.000
 7132.00    0.71105   0.38968   -2.000
 7133.00    0.70053   0.39097   -2.000
 7134.00    0.60818   0.38692   -2.000
 7135.00    0.46871   0.38231   -2.000
 7136.00    0.52762   0.38185   -2.000
 7137.00    0.68609   0.38340   -2.000
 7138.00    0.76509   0.38197   -2.000
 7139.00    0.80959   0.37752   -2.000
 7140.00    0.66045   0.37538   -2.000
 7141.00    0.43917   0.37829   -2.000
 7142.00    0.43449   0.38252   -2.000
 7143.00    0.49823   0.38578   -2.000
 7144.00    0.52424   0.38716   -2.000
 7145.00    0.54030   0.38756   -2.000
 7146.00    0.52667   0.38804   -2.000
 7147.00    0.50665   0.38660   -2.000
 7148.00    0.44326   0.38466   -2.000
 7149.00    0.37246   0.38568   -2.000
 7150.00    0.40389   0.38804   -2.000
 7151.00    0.44855   0.38857   -2.000
 7152.00    0.49371   0.38815   -2.000
 7153.00    0.53891   0.38804   -2.000
 7154.00    0.48995   0.38740   -2.000
 7155.00    0.43585   0.38613   -2.000
 7156.00    0.45263   0.38140   -2.000
 7157.00    0.47095   0.37634   -2.000
 7158.00    0.49434   0.37872   -2.000
 7159.00    0.52079   0.38423   -2.000
 7160.00    0.61695   0.38725   -2.000
 7161.00    0.70502   0.39002   -2.000
 7162.00    0.69126   0.39240   -2.000
 7163.00    0.67716   0.39150   -2.000
 7164.00    0.66016   0.38957   -2.000
 7165.00    0.62189   0.39131   -2.000
 7166.00    0.44882   0.39457   -2.000
 7167.00    0.34227   0.39343   -2.000
 7168.00    0.56598   0.38983   -2.000
 7169.00    0.73088   0.38829   -2.000
 7170.00    0.65905   0.38974   -2.000
 7171.00    0.58640   0.39093   -2.000
 7172.00    0.51107   0.38628   -2.000
 7173.00    0.44729   0.37807   -2.000
 7174.00    0.41611   0.37489   -2.000
 7175.00    0.42020   0.38032   -2.000
 7176.00    0.50938   0.38723   -2.000
 7177.00    0.56846   0.38998   -2.000
 7178.00    0.56487   0.38958   -2.000
 7179.00    0.57763   0.38918   -2.000
 7180.00    0.62001   0.39075   -2.000
 7181.00    0.58962   0.39283   -2.000
 7182.00    0.44405   0.39340   -2.000
 7183.00    0.35219   0.39206   -2.000
 7184.00    0.33494   0.38921   -2.000
 7185.00    0.39332   0.38671   -2.000
 7186.00    0.54418   0.38763   -2.000
 7187.00    0.57258   0.39009   -2.000
 7188.00    0.46897   0.38836   -2.000
 7189.00    0.42475   0.38235   -2.000
 7190.00    0.43699   0.37833   -2.000
 7191.00    0.48428   0.38151   -2.000
 7192.00    0.56096   0.38919   -2.000
 7193.00    0.56722   0.39307   -2.000
 7194.00    0.52152   0.39139   -2.000
 7195.00    0.49340   0.38572   -2.000
 7196.00    0.47669   0.37819   -2.000
 7197.00    0.51205   0.37543   -2.000
 7198.00    0.57695   0.37804   -2.000
 7199.00    0.61894   0.38251   -2.000
 7200.00    0.64961   0.38636   -2.000
 7201.00    0.72371   0.38619   -2.000
 7202.00    0.81635   0.38470   -2.000
 7203.00    0.60905   0.38607   -2.000
 7204.00    0.29201   0.38857   -2.000
 7205.00    0.27947   0.38738   -2.000
 7206.00    0.36126   0.38386   -2.000
 7207.00    0.40422   0.38446   -2.000
 7208.00    0.43717   0.38784   -2.000
 7209.00    0.43848   0.38880   -2.000
 7210.00    0.43314   0.38555   -2.000
 7211.00    0.54258   0.38255   -2.000
 7212.00    0.67108   0.38557   -2.000
 7213.00    0.60860   0.39097   -2.000
 7214.00    0.52227   0.39133   -2.000
 7215.00    0.48246   0.38427   -2.000
 7216.00    0.44668   0.37491   -2.000
 7217.00    0.38931   0.37376   -2.000
 7218.00    0.33083   0.37877   -2.000
