###################################################################
## OUTPUT of StarlightChains_v04.for    [Cid@UFSC - 01/Apr/2007] ##
###################################################################

## Some input info
KUG0210-078._36_40.txt                   [arq_obs]
Base.CB07.vall.4m                        [arq_base]
Masks.EmLines.NEW.gm                     [arq_masks]
StCv04.C11.config                        [arq_config]
   66                                    [N_base]
    0                                    [N_YAV_components = # of components with extra extinction!]
    0                                    [i_FitPowerLaw (1/0 = Yes/No)]
-9.99                                    [alpha_PowerLaw]
CCM                                      [red_law_option]
 1.458241                                [q_norm = A(l_norm)/A(V)]

## (Re)Sampling Parameters
 3741.00                                 [l_ini (A)]
 7218.00                                 [l_fin (A)]
    1.00                                 [dl    (A)]     (OBS: dl_cushion =    50.00 A)

## Normalization info
 4020.00                                 [l_norm (A) - for base]
 4010.00                                 [llow_norm (A) - window for f_obs]
 4060.00                                 [lupp_norm (A) - window for f_obs]
1.497513E-17                             [fobs_norm (in input units)]

## S/N
 3691.00                                 [llow_SN (A) - window for S/N]
 7268.00                                 [lupp_SN (A) - window for S/N]
   5.104                                 [S/N in S/N window]
   4.912                                 [S/N in norm. window]
   0.020                                 [S/N_err in S/N window]
   0.019                                 [S/N_err in norm. window]
  1.0000                                 [fscale_chi2]

## etc...
    -2007604                             [idum_orig]
  2430                                   [NOl_eff]
  2423                                   [Nl_eff]
     7    NSIGMA                         [Ntot_cliped & clip_method]
  3890950                                [Nglobal_steps]
   7                                     [N_chains]
  46                                     [NEX0s_base = N_base in EX0s-fits]
 0   0   1       10   2.0   1.948E+03    [Clip-Bug, RC-Crash & Burn-In warning-flags, n_censored_weights, wei_nsig_threshold & wei_limit]
    68     66.451     65.347      1.104  [idt_all, wdt_TotTime, wdt_UsrTime & wdt_SysTime (sec)]

## Synthesis Results - Best model ##

 4.48431E-04                             [chi2/Nl_eff]
    15.91012                             [adev (%)]

   100.00000                             [sum-of-x (%)]
 1.73373E-17                             [Flux_tot (units of input spectrum!)]
 4.27332E-13                             [Mini_tot (???)]
 2.23748E-13                             [Mcor_tot (???)]

 -76.87                                  [v0_min  (km/s)]
   4.06                                  [vd_min  (km/s)]
 0.1091                                  [AV_min  (mag)]
 0.0000                                  [YAV_min (mag)]

# j     x_j(%)      Mini_j(%)     Mcor_j(%)     age_j(yr)     Z_j      (L/M)_j    YAV?  Mstars   component_j        a/Fe...       SSP_chi2r SSP_adev(%)   SSP_AV   SSP_x(%)
  1      0.0000     0.0000E+00    0.0000E+00    1.000000E+06  0.00400  1.094E-02    0   1.0000   age020_m42            0.0000     1.3173E+00   200.3067  -1.0000   561.5605
  2      0.0000     0.0000E+00    0.0000E+00    3.160000E+06  0.00400  4.007E-02    0   0.9999   age045_m42            0.0000     1.0559E+00   144.1164  -1.0000   444.0032
  3      0.0000     0.0000E+00    0.0000E+00    5.010000E+06  0.00400  2.539E-02    0   0.9488   age055_m42            0.0000     1.0573E+00   166.7147  -1.0000   494.2807
  4      0.8682     1.3444E-03    2.3674E-03    6.610000E+06  0.00400  2.620E-02    0   0.9220   age061_m42            0.0000     1.1155E+00   139.1106  -1.0000   431.1400
  5      0.5036     1.5456E-03    2.6159E-03    1.000000E+07  0.00400  1.322E-02    0   0.8862   age070_m42            0.0000     4.9289E-01   124.9973  -1.0000   392.9349
  6      0.5751     2.9600E-03    4.8454E-03    1.445000E+07  0.00400  7.883E-03    0   0.8571   age078_m42            0.0000     7.6857E-01   145.6665  -1.0000   440.4604
  7      0.0000     0.0000E+00    0.0000E+00    2.512000E+07  0.00400  5.251E-03    0   0.8174   age090_m42            0.0000     5.4781E-01   118.0462  -1.0000   374.7648
  8      0.0000     0.0000E+00    0.0000E+00    4.000000E+07  0.00400  3.649E-03    0   0.7851   age104_m42            0.0000     4.6354E-01   105.1339  -1.0000   341.7441
  9      0.8176     1.0707E-02    1.5601E-02    5.500000E+07  0.00400  3.098E-03    0   0.7629   age110_m42            0.0000     5.5390E-01   111.3692  -1.0000   363.8146
 10      0.0000     0.0000E+00    0.0000E+00    1.015200E+08  0.00400  2.228E-03    0   0.7207   age116_m42            0.0000     6.7621E-01   111.1247  -1.0000   367.1136
 11      2.1041     7.8102E-02    9.9166E-02    2.861200E+08  0.00400  1.093E-03    0   0.6648   age125_m42            0.0000     3.1905E-01    84.6732  -1.0000   297.5680
 12      1.0321     6.3475E-02    7.7163E-02    5.088000E+08  0.00400  6.597E-04    0   0.6365   age130_m42            0.0000     3.4443E-01    82.6225  -1.0000   297.1310
 13      2.9415     5.5975E-01    6.1984E-01    1.434000E+09  0.00400  2.132E-04    0   0.5798   age139_m42            0.0000     1.7255E-01    47.2527  -1.0000   196.0867
 14      0.0000     0.0000E+00    0.0000E+00    4.250000E+09  0.00400  5.895E-05    0   0.5377   age158_m42            0.0000     1.3070E-01    35.3534  -1.0000   153.4275
 15      3.7943     4.3858E+00    4.3657E+00    7.500000E+09  0.00400  3.510E-05    0   0.5212   age171_m42            0.0000     3.3951E-02    30.8883  -1.0000   139.8470
 16      9.6346     1.9496E+01    1.8744E+01    1.300000E+10  0.00400  2.005E-05    0   0.5034   age193_m42            0.0000     1.2040E-02    27.3658  -1.0000   128.9652
 17      0.7127     1.8960E+00    1.7986E+00    1.800000E+10  0.00400  1.525E-05    0   0.4967   age213_m42            0.0000     3.3850E-02    26.9104  -1.0000   127.0734
 18      0.6218     2.0376E-03    3.8915E-03    1.000000E+06  0.00800  1.238E-02    0   1.0000   age020_m52            0.0000     1.3357E+00   199.8881  -1.0000   561.5277
 19      0.7712     1.0178E-03    1.9373E-03    3.160000E+06  0.00800  3.074E-02    0   0.9966   age045_m52            0.0000     1.3583E+00   192.7869  -1.0000   547.9712
 20      1.5319     2.3295E-03    4.2013E-03    5.010000E+06  0.00800  2.668E-02    0   0.9443   age055_m52            0.0000     1.1669E+00   172.8117  -1.0000   506.1341
 21      0.0000     0.0000E+00    0.0000E+00    6.610000E+06  0.00800  2.136E-02    0   0.9177   age061_m52            0.0000     2.2607E-01    98.1479  -1.0000   317.6786
 22      1.7116     5.7152E-03    9.6350E-03    1.000000E+07  0.00800  1.215E-02    0   0.8827   age070_m52            0.0000     7.4479E-01   136.8781  -1.0000   424.2381
 23      0.0000     0.0000E+00    0.0000E+00    1.445000E+07  0.00800  8.717E-03    0   0.8552   age078_m52            0.0000     8.6033E-01   142.8228  -1.0000   439.1378
 24      0.2642     1.9171E-03    2.9884E-03    2.512000E+07  0.00800  5.592E-03    0   0.8162   age090_m52            0.0000     7.3029E-01   121.0598  -1.0000   388.7080
 25      0.0000     0.0000E+00    0.0000E+00    4.000000E+07  0.00800  3.896E-03    0   0.7841   age104_m52            0.0000     6.5619E-01   115.2486  -1.0000   377.0095
 26      0.0000     0.0000E+00    0.0000E+00    1.015200E+08  0.00800  2.148E-03    0   0.7226   age116_m52            0.0000     6.6808E-01   110.0046  -1.0000   365.0220
 27      0.0000     0.0000E+00    0.0000E+00    2.861200E+08  0.00800  9.925E-04    0   0.6683   age125_m52            0.0000     3.4615E-01    84.4750  -1.0000   306.6526
 28      0.7785     1.0056E-01    1.1789E-01    9.047900E+08  0.00800  3.141E-04    0   0.6138   age135_m52            0.0000     1.1001E-01    53.7314  -1.0000   223.3647
 29      3.0247     7.1388E-01    7.9801E-01    1.434000E+09  0.00800  1.719E-04    0   0.5853   age139_m52            0.0000     4.6098E-02    37.4531  -1.0000   168.4874
 30      9.7215     5.0103E+00    5.3587E+00    2.500000E+09  0.00800  7.872E-05    0   0.5600   age150_m52            0.0000     7.0098E-04    17.7109   1.4826    49.1452
 31      3.9206     3.6684E+00    3.8016E+00    4.250000E+09  0.00800  4.336E-05    0   0.5426   age158_m52            0.0000     3.7986E-04    22.7025  -0.5839   118.4553
 32      4.0426     5.1920E+00    5.2743E+00    6.250000E+09  0.00800  3.159E-05    0   0.5319   age166_m52            0.0000     3.1608E-04    49.1649   3.7931    16.2484
 33      7.6290     2.2742E+01    2.2034E+01    1.300000E+10  0.00800  1.361E-05    0   0.5073   age193_m52            0.0000     6.6221E-03    56.9765   4.0000    11.9087
 34      0.7330     3.0081E+00    2.8668E+00    1.800000E+10  0.00800  9.886E-06    0   0.4990   age213_m52            0.0000     2.2835E-02    57.6233   4.0000    11.2565
 35      1.3181     3.4635E-03    6.6149E-03    1.000000E+06  0.02000  1.544E-02    0   1.0000   age020_m62            0.0000     1.3105E+00   199.4902  -1.0000   561.4529
 36      1.4682     1.5834E-03    2.9812E-03    3.160000E+06  0.02000  3.762E-02    0   0.9858   age045_m62            0.0000     1.3418E+00   193.7701  -1.0000   551.1643
 37      0.8331     1.0254E-03    1.8296E-03    5.010000E+06  0.02000  3.296E-02    0   0.9342   age055_m62            0.0000     1.2120E+00   161.8097  -1.0000   490.1104
 38      0.2367     8.3229E-04    1.4085E-03    8.710000E+06  0.02000  1.154E-02    0   0.8861   age067_m62            0.0000     5.9718E-01   110.3034  -1.0000   349.8585
 39      0.0000     0.0000E+00    0.0000E+00    1.445000E+07  0.02000  7.663E-03    0   0.8472   age078_m62            0.0000     4.5692E-01   117.6624  -1.0000   374.1404
 40      0.5426     4.8577E-03    7.5140E-03    2.512000E+07  0.02000  4.532E-03    0   0.8099   age090_m62            0.0000     5.0687E-01   117.2831  -1.0000   372.7164
 41      0.6692     9.9340E-03    1.4410E-02    5.500000E+07  0.02000  2.733E-03    0   0.7595   age110_m62            0.0000     5.2721E-01   114.0732  -1.0000   370.1951
 42      0.9355     2.7724E-02    3.6985E-02    1.609000E+08  0.02000  1.369E-03    0   0.6985   age120_m62            0.0000     5.0623E-01   102.2895  -1.0000   353.4537
 43      0.0000     0.0000E+00    0.0000E+00    2.861200E+08  0.02000  9.013E-04    0   0.6714   age125_m62            0.0000     3.9846E-01    88.2664  -1.0000   324.6486
 44      0.0000     0.0000E+00    0.0000E+00    5.088000E+08  0.02000  5.028E-04    0   0.6449   age130_m62            0.0000     2.3685E-01    71.0074  -1.0000   279.7799
 45      3.7400     6.2494E-01    7.3750E-01    9.047900E+08  0.02000  2.428E-04    0   0.6179   age135_m62            0.0000     2.4640E-02    51.4251  -1.0000   213.3614
 46      0.8561     2.7501E-01    3.1031E-01    1.434000E+09  0.02000  1.263E-04    0   0.5908   age139_m62            0.0000     2.4561E-02    38.8910  -1.0000   171.3462
 47      2.6299     1.7827E+00    1.9316E+00    2.500000E+09  0.02000  5.985E-05    0   0.5673   age150_m62            0.0000     4.5368E-03    48.9378   4.0000    16.4349
 48      5.7584     7.1423E+00    7.4588E+00    4.250000E+09  0.02000  3.271E-05    0   0.5468   age158_m62            0.0000     2.9638E-02    51.7381   4.0000    14.1412
 49      1.2949     3.8628E+00    3.8120E+00    1.000000E+10  0.02000  1.360E-05    0   0.5167   age181_m62            0.0000     9.8900E-02    55.1853   4.0000    12.0128
 50      0.0000     0.0000E+00    0.0000E+00    1.800000E+10  0.02000  7.124E-06    0   0.5013   age213_m62            0.0000     9.6292E-02    56.9357   4.0000    10.8023
 51      1.6057     2.5132E-03    4.7990E-03    1.000000E+06  0.05000  2.592E-02    0   0.9998   age020_m72            0.0000     1.3241E+00   199.1806  -1.0000   559.5082
 52      0.0000     0.0000E+00    0.0000E+00    3.160000E+06  0.05000  4.845E-02    0   0.9577   age045_m72            0.0000     1.3862E+00   182.5580  -1.0000   531.0260
 53      0.9211     1.2165E-03    2.1252E-03    5.010000E+06  0.05000  3.072E-02    0   0.9147   age055_m72            0.0000     8.2881E-01   153.2994  -1.0000   460.8541
 54      2.7845     7.7643E-03    1.3164E-02    6.610000E+06  0.05000  1.455E-02    0   0.8877   age061_m72            0.0000     3.1340E-01   118.0605  -1.0000   370.8749
 55      1.1197     5.0063E-03    8.1501E-03    1.000000E+07  0.05000  9.074E-03    0   0.8524   age070_m72            0.0000     1.0624E+00   168.4039  -1.0000   502.3308
 56      0.7194     6.8674E-03    1.0364E-02    2.512000E+07  0.05000  4.250E-03    0   0.7902   age090_m72            0.0000     8.7663E-01   144.8370  -1.0000   448.4413
 57      0.8849     1.1630E-02    1.6921E-02    4.000000E+07  0.05000  3.087E-03    0   0.7618   age104_m72            0.0000     7.9562E-01   129.9256  -1.0000   413.3975
 58      0.0000     0.0000E+00    0.0000E+00    1.015200E+08  0.05000  1.700E-03    0   0.7096   age116_m72            0.0000     6.6385E-01   110.4890  -1.0000   375.4120
 59      0.0000     0.0000E+00    0.0000E+00    2.861200E+08  0.05000  7.384E-04    0   0.6633   age125_m72            0.0000     2.9746E-01    81.2593  -1.0000   308.5862
 60      0.6500     6.9052E-02    8.4034E-02    5.088000E+08  0.05000  3.819E-04    0   0.6372   age130_m72            0.0000     4.9789E-02    61.7407  -1.0000   249.2724
 61      3.4846     8.4351E-01    9.8432E-01    9.047900E+08  0.05000  1.676E-04    0   0.6110   age135_m72            0.0000     1.6310E-03    43.0883   4.0000    20.4162
 62      2.8181     1.2938E+00    1.4515E+00    1.434000E+09  0.05000  8.837E-05    0   0.5874   age139_m72            0.0000     8.7362E-03    48.6792   4.0000    16.5478
 63      2.9572     2.8343E+00    3.0303E+00    2.500000E+09  0.05000  4.233E-05    0   0.5598   age150_m72            0.0000     9.8229E-02    51.1504   4.0000    14.1387
 64      3.2063     9.0649E+00    9.0875E+00    6.250000E+09  0.05000  1.435E-05    0   0.5249   age166_m72            0.0000     1.8629E-01    55.6599   4.0000    11.3397
 65      0.8314     5.1789E+00    4.9812E+00    1.300000E+10  0.05000  6.513E-06    0   0.5036   age193_m72            0.0000     3.0009E-01    58.1301   4.0000    10.0566
 66      0.0000     0.0000E+00    0.0000E+00    1.800000E+10  0.05000  4.527E-06    0   0.4945   age213_m72            0.0000     2.5167E-01    59.4185   4.0000     9.2965


## Synthesis Results - Average & Chains ##

# j      x_j: min, <> & last-chain-values for 1 ...  7 chains
  1      0.0000      0.3540      0.2957      0.3341      0.3773      0.3425      0.4216      0.2983      0.5246
  2      0.0000      0.4121      0.3646      0.1582      0.4017      0.3951      0.4886      0.3853      0.3105
  3      0.0000      0.2516      0.1976      0.1987      0.0092      0.2422      0.3812      0.2588      0.1936
  4      0.8682      0.8412      0.7821      0.9524      0.8494      0.7201      0.8433      0.7074      0.8781
  5      0.5036      0.4039      0.0000      0.5304      0.4910      0.4921      0.4881      0.3830      0.2176
  6      0.5751      0.3796      0.7336      0.3822      0.2503      0.4403      0.4500      0.3782      0.4648
  7      0.0000      0.0717      0.0000      0.0000      0.0000      0.0000      0.0000      0.3997      0.0000
  8      0.0000      0.1042      0.0000      0.0593      0.2332      0.1286      0.1444      0.3211      0.1534
  9      0.8176      0.6854      0.5342      0.6793      0.6131      0.7099      0.9779      0.6322      0.7679
 10      0.0000      0.0671      0.0000      0.0000      0.0000      0.0000      0.0000      0.0000      0.0000
 11      2.1041      2.2267      1.8566      2.2053      2.2267      2.0437      2.3024      1.9826      2.0469
 12      1.0321      0.8212      0.8276      0.9498      0.7272      0.7046      0.8671      0.9505      0.7168
 13      2.9415      4.8105      4.4869      3.2445      4.5931      4.9063      4.4362      5.2537      5.1617
 14      0.0000      0.6207      0.1090      0.0000      0.0709      0.0106      0.3117      0.0655      0.0000
 15      3.7943      5.0506      5.4479      4.7523      4.0384      4.2075      4.5783      4.7318      5.2024
 16      9.6346     10.4414     11.4847     10.1786     10.3149     10.3899     10.9896     10.6004      9.9675
 17      0.7127      1.4769      1.4865      1.1653      1.5593      1.6367      0.7616      0.6993      1.5897
 18      0.6218      0.4723      0.4898      0.5889      0.4719      0.5566      0.4098      0.5160      0.4646
 19      0.7712      0.6060      0.6053      0.8272      0.5843      0.7753      0.6440      0.6030      0.5706
 20      1.5319      1.3339      1.1561      1.4095      1.2231      1.2451      1.5437      1.5413      1.4153
 21      0.0000      0.0858      0.0000      0.0000      0.0000      0.3007      0.0000      0.0000      0.0000
 22      1.7116      1.6195      1.5985      1.7376      1.6159      1.6516      1.6252      1.7020      1.6197
 23      0.0000      0.0563      0.0702      0.0000      0.3363      0.0208      0.0788      0.0660      0.0000
 24      0.2642      0.0648      0.2430      0.4110      0.1881      0.0000      0.0000      0.2155      0.2642
 25      0.0000      0.1879      0.0000      0.2917      0.0000      0.3993      0.0000      0.3004      0.0426
 26      0.0000      0.0444      0.0000      0.0000      0.0000      0.0000      0.2036      0.0000      0.0227
 27      0.0000      0.1170      0.3258      0.0000      0.0000      0.7156      0.0416      0.1026      0.0841
 28      0.7785      0.8598      0.8336      1.2198      0.9948      0.5663      0.7220      0.7817      1.0602
 29      3.0247      7.3043      5.9431      5.6065      6.8567      6.3872      5.9731      7.1380      4.2968
 30      9.7215      8.0509      8.4593      8.5220      8.6317      8.6379      8.3372      8.1503      8.0290
 31      3.9206      3.9933      4.1458      3.4455      4.0007      3.6531      4.1278      3.7233      4.3818
 32      4.0426      3.1050      3.5096      3.9344      3.2171      3.3217      3.1503      2.6931      3.4216
 33      7.6290      7.1636      7.4679      7.5487      6.6324      6.9028      7.4866      7.4196      7.0909
 34      0.7330      0.7573      0.6869      0.8125      0.6168      0.8353      0.7113      0.9833      0.8212
 35      1.3181      1.0391      1.0307      1.0409      1.0225      1.0144      1.0039      0.9607      1.1152
 36      1.4682      1.3582      1.3772      1.3265      1.3227      1.2721      1.2823      1.4419      1.4737
 37      0.8331      0.7881      0.9810      0.8095      0.7707      0.7511      0.8038      0.8044      0.7217
 38      0.2367      0.0954      0.0000      0.3887      0.0789      0.0000      0.0000      0.0000      0.2776
 39      0.0000      0.0487      0.0000      0.0000      0.0002      0.0000      0.0000      0.0000      0.1243
 40      0.5426      0.4642      0.5677      0.4369      0.5883      0.4510      0.3308      0.5598      0.3930
 41      0.6692      0.5910      0.2405      0.5137      0.5749      0.8661      0.6366      0.8000      0.6201
 42      0.9355      0.5988      0.9588      0.6467      0.7843      0.6158      0.7425      0.6866      0.5262
 43      0.0000      0.0787      0.0000      0.0000      0.2121      0.2820      0.2366      0.0353      0.0102
 44      0.0000      0.1311      0.1628      0.1817      0.0000      0.2115      0.0000      0.1605      0.1963
 45      3.7400      2.8493      2.7089      2.5798      2.8357      3.0131      3.1881      2.8304      3.4200
 46      0.8561      1.1776      0.6036      1.8458      1.3676      1.0837      0.9024      0.5017      2.1096
 47      2.6299      1.5689      1.8493      1.4079      2.2002      1.8581      2.9832      1.8411      2.0221
 48      5.7584      5.1109      5.3885      5.4740      5.1271      5.1303      5.4317      4.9330      5.0698
 49      1.2949      0.8862      0.7220      0.9255      0.8898      0.9408      1.0049      1.6660      1.0694
 50      0.0000      0.3376      0.2947      0.3318      0.5477      0.4733      0.5324      0.3081      0.4515
 51      1.6057      1.4737      1.2633      1.5022      1.4909      1.2133      1.5733      1.3966      1.6016
 52      0.0000      0.0748      0.0479      0.0000      0.0899      0.0000      0.0000      0.0707      0.1225
 53      0.9211      0.9570      0.8475      0.9430      0.9081      1.0543      0.7930      0.9601      0.9832
 54      2.7845      2.7572      2.8651      3.2690      2.6676      2.4624      2.7994      2.8891      2.5686
 55      1.1197      1.1130      1.1068      0.7834      1.1648      0.8476      1.1202      1.2510      1.2410
 56      0.7194      0.7440      0.8409      0.7909      0.8372      0.8250      0.9921      0.7451      0.6136
 57      0.8849      0.8815      1.1952      0.8201      0.8972      0.8337      0.6962      0.9970      0.9568
 58      0.0000      0.0344      0.1168      0.1429      0.2389      0.0000      0.1035      0.0692      0.0000
 59      0.0000      0.0673      0.1709      0.1126      0.0338      0.0000      0.0000      0.0709      0.0984
 60      0.6500      0.5898      0.7113      0.6941      0.7461      0.4649      0.7035      0.6626      0.7371
 61      3.4846      2.0711      1.7721      3.3423      2.0963      3.0115      1.8707      1.6200      2.3390
 62      2.8181      1.4820      1.7700      1.3852      2.5712      1.8939      1.5227      1.4927      1.3778
 63      2.9572      2.7262      3.1194      3.1439      2.8091      3.0631      1.9683      2.7038      2.9939
 64      3.2063      2.7983      2.9223      2.6179      2.5492      2.6679      2.9426      3.2162      2.7862
 65      0.8314      0.4924      0.5579      0.5817      0.7578      0.4443      0.5101      0.5053      0.4853
 66      0.0000      0.0479      0.0073      0.0167      0.0000      0.0625      0.0000      0.1232      0.0000

# j      m_j: min, <> & last-chain-values for 1 ...  7 chains
  1  0.0000E+00  2.5472E-03  2.0499E-03  2.3918E-03  2.7284E-03  2.4669E-03  2.9940E-03  2.1004E-03  3.7387E-03
  2  0.0000E+00  8.0946E-04  6.8994E-04  3.0922E-04  7.9291E-04  7.7686E-04  9.4723E-04  7.4063E-04  6.0411E-04
  3  0.0000E+00  7.4005E-04  5.6000E-04  5.8145E-04  2.7098E-05  7.1304E-04  1.1067E-03  7.4512E-04  5.6403E-04
  4  2.3674E-03  2.3301E-03  2.0873E-03  2.6250E-03  2.3645E-03  1.9966E-03  2.3054E-03  1.9177E-03  2.4093E-03
  5  2.6159E-03  2.1312E-03  0.0000E+00  2.7850E-03  2.6039E-03  2.5990E-03  2.5416E-03  1.9775E-03  1.1371E-03
  6  4.8454E-03  3.2484E-03  6.0491E-03  3.2548E-03  2.1527E-03  3.7716E-03  3.8010E-03  3.1677E-03  3.9401E-03
  7  0.0000E+00  8.7806E-04  0.0000E+00  0.0000E+00  0.0000E+00  0.0000E+00  0.0000E+00  4.7927E-03  0.0000E+00
  8  0.0000E+00  1.7638E-03  0.0000E+00  9.9952E-04  3.9686E-03  2.1793E-03  2.4140E-03  5.3225E-03  2.5738E-03
  9  1.5601E-02  1.3285E-02  9.9763E-03  1.3103E-02  1.1944E-02  1.3774E-02  1.8706E-02  1.1993E-02  1.4744E-02
 10  0.0000E+00  1.7087E-03  0.0000E+00  0.0000E+00  0.0000E+00  0.0000E+00  0.0000E+00  0.0000E+00  0.0000E+00
 11  9.9166E-02  1.0660E-01  8.5640E-02  1.0506E-01  1.0714E-01  9.7934E-02  1.0879E-01  9.2893E-02  9.7071E-02
 12  7.7163E-02  6.2362E-02  6.0554E-02  7.1772E-02  5.5505E-02  5.3558E-02  6.4987E-02  7.0641E-02  5.3924E-02
 13  6.1984E-01  1.0297E+00  9.2540E-01  6.9107E-01  9.8812E-01  1.0512E+00  9.3718E-01  1.1006E+00  1.0945E+00
 14  0.0000E+00  4.4562E-01  7.5395E-02  0.0000E+00  5.1139E-02  7.6100E-03  2.2089E-01  4.6021E-02  0.0000E+00
 15  4.3657E+00  5.9029E+00  6.1350E+00  5.5271E+00  4.7438E+00  4.9223E+00  5.2811E+00  5.4125E+00  6.0231E+00
 16  1.8744E+01  2.0634E+01  2.1868E+01  2.0016E+01  2.0487E+01  2.0552E+01  2.1434E+01  2.0502E+01  1.9512E+01
 17  1.7986E+00  3.7861E+00  3.6717E+00  2.9726E+00  4.0176E+00  4.1999E+00  1.9271E+00  1.7546E+00  4.0371E+00
 18  3.8915E-03  3.0024E-03  3.0008E-03  3.7257E-03  3.0151E-03  3.5422E-03  2.5714E-03  3.2108E-03  2.9263E-03
 19  1.9373E-03  1.5463E-03  1.4883E-03  2.1005E-03  1.4986E-03  1.9804E-03  1.6219E-03  1.5061E-03  1.4424E-03
 20  4.2013E-03  3.7160E-03  3.1033E-03  3.9075E-03  3.4245E-03  3.4720E-03  4.2442E-03  4.2022E-03  3.9057E-03
 21  0.0000E+00  2.9010E-04  0.0000E+00  0.0000E+00  0.0000E+00  1.0178E-03  0.0000E+00  0.0000E+00  0.0000E+00
 22  9.6350E-03  9.2608E-03  8.8074E-03  9.8873E-03  9.2866E-03  9.4534E-03  9.1718E-03  9.5254E-03  9.1749E-03
 23  0.0000E+00  4.3451E-04  5.2208E-04  0.0000E+00  2.6098E-03  1.6080E-04  6.0040E-04  4.9892E-04  0.0000E+00
 24  2.9884E-03  7.4398E-04  2.6899E-03  4.6984E-03  2.1724E-03  0.0000E+00  0.0000E+00  2.4225E-03  3.0061E-03
 25  0.0000E+00  2.9770E-03  0.0000E+00  4.5983E-03  0.0000E+00  6.3319E-03  0.0000E+00  4.6569E-03  6.6888E-04
 26  0.0000E+00  1.1747E-03  0.0000E+00  0.0000E+00  0.0000E+00  0.0000E+00  5.3209E-03  0.0000E+00  5.9457E-04
 27  0.0000E+00  6.2034E-03  1.6639E-02  0.0000E+00  0.0000E+00  3.7962E-02  2.1735E-03  5.3213E-03  4.4165E-03
 28  1.1789E-01  1.3224E-01  1.2354E-01  1.8669E-01  1.5377E-01  8.7184E-02  1.0960E-01  1.1767E-01  1.6153E-01
 29  7.9801E-01  1.9575E+00  1.5346E+00  1.4952E+00  1.8468E+00  1.7134E+00  1.5799E+00  1.8722E+00  1.1407E+00
 30  5.3587E+00  4.5079E+00  4.5639E+00  4.7482E+00  4.8575E+00  4.8413E+00  4.6073E+00  4.4663E+00  4.4533E+00
 31  3.8016E+00  3.9332E+00  3.9345E+00  3.3770E+00  3.9604E+00  3.6016E+00  4.0126E+00  3.5892E+00  4.2753E+00
 32  5.2743E+00  4.1149E+00  4.4816E+00  5.1886E+00  4.2851E+00  4.4064E+00  4.1205E+00  3.4930E+00  4.4918E+00
 33  2.2034E+01  2.1016E+01  2.1110E+01  2.2038E+01  1.9556E+01  2.0271E+01  2.1678E+01  2.1304E+01  2.0608E+01
 34  2.8668E+00  3.0086E+00  2.6293E+00  3.2123E+00  2.4629E+00  3.3219E+00  2.7889E+00  3.8233E+00  3.2318E+00
 35  6.6149E-03  5.2971E-03  5.0626E-03  5.2801E-03  5.2389E-03  5.1763E-03  5.0509E-03  4.7929E-03  5.6317E-03
 36  2.9812E-03  2.8012E-03  2.7369E-03  2.7226E-03  2.7419E-03  2.6262E-03  2.6102E-03  2.9105E-03  3.0108E-03
 37  1.8296E-03  1.7581E-03  2.1086E-03  1.7970E-03  1.7280E-03  1.6773E-03  1.7697E-03  1.7564E-03  1.5948E-03
 38  1.4085E-03  5.7672E-04  0.0000E+00  2.3379E-03  4.7935E-04  0.0000E+00  0.0000E+00  0.0000E+00  1.6618E-03
 39  0.0000E+00  4.2407E-04  0.0000E+00  0.0000E+00  1.3889E-06  0.0000E+00  0.0000E+00  0.0000E+00  1.0712E-03
 40  7.5140E-03  6.5297E-03  7.6939E-03  6.1149E-03  8.3167E-03  6.3496E-03  4.5917E-03  7.7062E-03  5.4754E-03
 41  1.4410E-02  1.2928E-02  5.0685E-03  1.1182E-02  1.2638E-02  1.8962E-02  1.3742E-02  1.7127E-02  1.3436E-02
 42  3.6985E-02  2.4049E-02  3.7101E-02  2.5843E-02  3.1655E-02  2.4755E-02  2.9430E-02  2.6987E-02  2.0932E-02
 43  0.0000E+00  4.6139E-03  0.0000E+00  0.0000E+00  1.2500E-02  1.6550E-02  1.3692E-02  2.0278E-03  5.9411E-04
 44  0.0000E+00  1.3230E-02  1.5832E-02  1.8253E-02  0.0000E+00  2.1377E-02  0.0000E+00  1.5857E-02  1.9631E-02
 45  7.3750E-01  5.7073E-01  5.2282E-01  5.1422E-01  5.7088E-01  6.0414E-01  6.3026E-01  5.5488E-01  6.7860E-01
 46  3.1031E-01  4.3357E-01  2.1414E-01  6.7627E-01  5.0608E-01  3.9939E-01  3.2792E-01  1.8079E-01  7.6940E-01
 47  1.9316E+00  1.1705E+00  1.3294E+00  1.0452E+00  1.6498E+00  1.3876E+00  2.1966E+00  1.3443E+00  1.4944E+00
 48  7.4588E+00  6.7247E+00  6.8313E+00  7.1671E+00  6.7800E+00  6.7568E+00  7.0535E+00  6.3524E+00  6.6079E+00
 49  3.8120E+00  2.6502E+00  2.0804E+00  2.7539E+00  2.6742E+00  2.8160E+00  2.9657E+00  4.8760E+00  3.1679E+00
 50  0.0000E+00  1.8700E+00  1.5728E+00  1.8287E+00  3.0486E+00  2.6238E+00  2.9103E+00  1.6702E+00  2.4769E+00
 51  4.7990E-03  4.4741E-03  3.6955E-03  4.5384E-03  4.5491E-03  3.6871E-03  4.7143E-03  4.1498E-03  4.8169E-03
 52  0.0000E+00  1.1644E-04  7.1755E-05  0.0000E+00  1.4063E-04  0.0000E+00  0.0000E+00  1.0768E-04  1.8883E-04
 53  2.1252E-03  2.2429E-03  1.9139E-03  2.1993E-03  2.1389E-03  2.4733E-03  1.8342E-03  2.2021E-03  2.2824E-03
 54  1.3164E-02  1.3240E-02  1.3257E-02  1.5621E-02  1.2875E-02  1.1836E-02  1.3268E-02  1.3578E-02  1.2218E-02
 55  8.1501E-03  8.2295E-03  7.8854E-03  5.7639E-03  8.6555E-03  6.2730E-03  8.1744E-03  9.0526E-03  9.0894E-03
 56  1.0364E-02  1.0887E-02  1.1857E-02  1.1517E-02  1.2314E-02  1.2084E-02  1.4329E-02  1.0671E-02  8.8955E-03
 57  1.6921E-02  1.7121E-02  2.2369E-02  1.5850E-02  1.7515E-02  1.6209E-02  1.3347E-02  1.8953E-02  1.8409E-02
 58  0.0000E+00  1.1299E-03  3.6960E-03  4.6711E-03  7.8880E-03  0.0000E+00  3.3556E-03  2.2243E-03  0.0000E+00
 59  0.0000E+00  4.7561E-03  1.1641E-02  7.9236E-03  2.4018E-03  0.0000E+00  0.0000E+00  4.9042E-03  6.8886E-03
 60  8.4034E-02  7.7460E-02  9.0005E-02  9.0706E-02  9.8470E-02  6.1107E-02  9.1179E-02  8.5164E-02  9.5885E-02
 61  9.8432E-01  5.9428E-01  4.8994E-01  9.5433E-01  6.0455E-01  8.6497E-01  5.2977E-01  4.5493E-01  6.6483E-01
 62  1.4515E+00  7.7534E-01  8.9226E-01  7.2117E-01  1.3520E+00  9.9182E-01  7.8624E-01  7.6432E-01  7.1406E-01
 63  3.0303E+00  2.8377E+00  3.1286E+00  3.2565E+00  2.9387E+00  3.1915E+00  2.0221E+00  2.7545E+00  3.0870E+00
 64  9.0875E+00  8.0564E+00  8.1066E+00  7.5000E+00  7.3763E+00  7.6886E+00  8.3615E+00  9.0624E+00  7.9462E+00
 65  4.9812E+00  2.9964E+00  3.2716E+00  3.5230E+00  4.6351E+00  2.7067E+00  3.0641E+00  3.0095E+00  2.9255E+00
 66  0.0000E+00  4.1166E-01  6.0825E-02  1.4258E-01  0.0000E+00  5.3792E-01  0.0000E+00  1.0363E+00  0.0000E+00

# AV, chi2 & Mass for <> & i_chain = 1 ...  7 solutions
AV       0.1091      0.1262      0.0924      0.1284      0.1254      0.1253      0.1261      0.1265      0.1267
chi2 4.4843E-04  3.3167E-03  2.1107E-03  1.8410E-03  2.3212E-03  2.3006E-03  2.3733E-03  2.2397E-03  2.4331E-03
Mass 2.2375E-13  2.2540E-13  2.2354E-13  2.2718E-13  2.2403E-13  2.2490E-13  2.2834E-13  2.3040E-13  2.2770E-13
 -76.87                                  [v0_min (km/s) before EX0s...]
   4.06                                  [vd_min (km/s) before EX0s...]


## Synthetic spectrum (Best Model) ##l_obs f_obs f_syn wei
 3478    [Nl_obs]
 3741.00    1.06813   0.67914    0.000
 3742.00    1.17531   0.63545    0.000
 3743.00    1.13771   0.60320    0.000
 3744.00    0.90700   0.57166    0.000
 3745.00    0.56380   0.53989    0.046
 3746.00    0.36905   0.51810    0.042
 3747.00    0.24968   0.46383    0.039
 3748.00    0.18005   0.40391    0.038
 3749.00    0.13229   0.41557    0.038
 3750.00    0.30406   0.49884    0.038
 3751.00    0.55872   0.58295    0.039
 3752.00    0.65936   0.63946    0.039
 3753.00    0.71063   0.69631    0.039
 3754.00    0.83081   0.74287    0.039
 3755.00    0.96946   0.73722    0.040
 3756.00    1.03376   0.66657    0.039
 3757.00    1.08174   0.59367    0.038
 3758.00    0.84138   0.59064    0.038
 3759.00    0.55068   0.63192    0.038
 3760.00    0.46403   0.66477    0.053
 3761.00    0.40448   0.67706    0.097
 3762.00    0.47643   0.66723    0.055
 3763.00    0.56073   0.66211    0.037
 3764.00    0.66063   0.67160    0.035
 3765.00    0.76143   0.64369    0.035
 3766.00    0.77438   0.59687    0.038
 3767.00    0.78430   0.58738    0.042
 3768.00    0.67826   0.57959    0.038
 3769.00    0.57366   0.54387    0.036
 3770.00    0.50392   0.54660    0.035
 3771.00    0.45029   0.61003    0.034
 3772.00    0.60777   0.66743    0.035
 3773.00    0.76196   0.68718    0.037
 3774.00    0.88720   0.69395    0.036
 3775.00    0.99379   0.71270    0.036
 3776.00    0.97935   0.73528    0.040
 3777.00    0.98052   0.74928    0.043
 3778.00    1.06066   0.77454    0.041
 3779.00    1.10192   0.80849    0.040
 3780.00    0.98406   0.81937    0.039
 3781.00    0.86235   0.81365    0.038
 3782.00    0.72761   0.82038    0.037
 3783.00    0.66512   0.83310    0.036
 3784.00    0.80931   0.80313    0.037
 3785.00    0.92124   0.73482    0.038
 3786.00    0.95436   0.69522    0.039
 3787.00    0.81920   0.68401    0.039
 3788.00    0.32938   0.67189    0.036
 3789.00    0.05307   0.67005    0.035
 3790.00    0.16782   0.68803    0.034
 3791.00    0.22392   0.68876    0.034
 3792.00    0.18612   0.65173    0.034
 3793.00    0.26470   0.60212    0.035
 3794.00    0.50674   0.56635    0.035
 3795.00    0.56304   0.53562    0.035
 3796.00    0.38978   0.48312    0.032
 3797.00    0.35887   0.44433    0.033
 3798.00    0.48306   0.47579    0.035
 3799.00    0.58537   0.56062    0.037
 3800.00    0.66665   0.63580    0.038
 3801.00    0.62133   0.68776    0.038
 3802.00    0.46872   0.73731    0.036
 3803.00    0.52957   0.76606    0.036
 3804.00    0.74969   0.76025    0.038
 3805.00    0.92852   0.73019    0.038
 3806.00    1.08028   0.71215    0.038
 3807.00    1.00856   0.73995    0.037
 3808.00    0.80861   0.78851    0.036
 3809.00    0.76242   0.81791    0.038
 3810.00    0.79307   0.81875    0.040
 3811.00    0.80970   0.78647    0.044
 3812.00    0.82027   0.73108    0.050
 3813.00    0.91257   0.68942    0.043
 3814.00    1.03517   0.66710    0.035
 3815.00    1.05786   0.67132    0.033
 3816.00    1.04914   0.71055    0.034
 3817.00    0.89514   0.72447    0.040
 3818.00    0.70303   0.66911    0.051
 3819.00    0.69576   0.60608    0.043
 3820.00    0.72809   0.61934    0.035
 3821.00    0.61546   0.68078    0.034
 3822.00    0.47823   0.69754    0.033
 3823.00    0.37585   0.64758    0.032
 3824.00    0.27793   0.59858    0.032
 3825.00    0.13269   0.58533    0.031
 3826.00   -0.01680   0.58713    0.000
 3827.00    0.23516   0.58452    0.036
 3828.00    0.50870   0.58281    0.045
 3829.00    0.42205   0.58466    0.039
 3830.00    0.32722   0.55888    0.035
 3831.00    0.15074   0.49815    0.034
 3832.00    0.00004   0.44549    0.000
 3833.00    0.42228   0.41545    0.034
 3834.00    0.80484   0.40944    0.035
 3835.00    0.69413   0.43646    0.035
 3836.00    0.57714   0.46429    0.035
 3837.00    0.40706   0.47494    0.035
 3838.00    0.29100   0.49526    0.035
 3839.00    0.51466   0.52621    0.035
 3840.00    0.69484   0.57312    0.035
 3841.00    0.66045   0.64109    0.034
 3842.00    0.62494   0.69115    0.033
 3843.00    0.58502   0.71292    0.034
 3844.00    0.59555   0.71768    0.035
 3845.00    0.77384   0.72183    0.040
 3846.00    0.90278   0.74369    0.044
 3847.00    0.89316   0.75497    0.000
 3848.00    0.85070   0.72832    0.000
 3849.00    0.72941   0.70487    0.000
 3850.00    0.66287   0.72962    0.000
 3851.00    0.70989   0.76430    0.000
 3852.00    0.76990   0.76497    0.000
 3853.00    0.85335   0.74818    0.000
 3854.00    0.94044   0.72614    0.000
 3855.00    1.03328   0.70771    0.000
 3856.00    1.03578   0.71115    0.000
 3857.00    0.91322   0.69735    0.000
 3858.00    0.81424   0.65591    0.000
 3859.00    0.74398   0.64787    0.000
 3860.00    0.76103   0.69677    0.000
 3861.00    0.87188   0.75678    0.000
 3862.00    0.95231   0.78416    0.000
 3863.00    1.00391   0.77854    0.000
 3864.00    0.95174   0.76082    0.000
 3865.00    0.81290   0.75130    0.000
 3866.00    0.73257   0.75196    0.000
 3867.00    0.69526   0.75565    0.000
 3868.00    0.68069   0.75258    0.000
 3869.00    0.68079   0.72740    0.000
 3870.00    0.70648   0.68547    0.000
 3871.00    0.74663   0.65091    0.000
 3872.00    0.76870   0.66325    0.000
 3873.00    0.78188   0.71819    0.000
 3874.00    0.69401   0.76005    0.000
 3875.00    0.56318   0.75410    0.000
 3876.00    0.49781   0.70499    0.000
 3877.00    0.45627   0.65192    0.000
 3878.00    0.52594   0.65803    0.000
 3879.00    0.62989   0.69432    0.000
 3880.00    0.56569   0.68218    0.000
 3881.00    0.45832   0.64472    0.032
 3882.00    0.46346   0.64658    0.032
 3883.00    0.49212   0.66354    0.031
 3884.00    0.48355   0.62063    0.033
 3885.00    0.46883   0.54403    0.034
 3886.00    0.38013   0.49955    0.033
 3887.00    0.28226   0.47233    0.031
 3888.00    0.45347   0.46142    0.032
 3889.00    0.64770   0.51131    0.032
 3890.00    0.75083   0.59601    0.034
 3891.00    0.84941   0.66115    0.037
 3892.00    0.62310   0.68859    0.034
 3893.00    0.39450   0.69107    0.031
 3894.00    0.36258   0.68707    0.030
 3895.00    0.33268   0.70784    0.029
 3896.00    0.34433   0.74272    0.029
 3897.00    0.36613   0.74289    0.029
 3898.00    0.50800   0.72604    0.029
 3899.00    0.65478   0.73698    0.029
 3900.00    0.84143   0.77408    0.030
 3901.00    0.99550   0.78057    0.031
 3902.00    0.95064   0.76057    0.030
 3903.00    0.90247   0.75462    0.029
 3904.00    0.83838   0.73292    0.027
 3905.00    0.79010   0.71687    0.026
 3906.00    0.80368   0.75369    0.027
 3907.00    0.79602   0.80827    0.027
 3908.00    0.71906   0.83737    0.028
 3909.00    0.64441   0.84382    0.028
 3910.00    0.57611   0.85317    0.028
 3911.00    0.60685   0.86154    0.029
 3912.00    0.87147   0.84719    0.030
 3913.00    1.05312   0.83213    0.031
 3914.00    1.06541   0.83044    0.032
 3915.00    1.00636   0.81801    0.032
 3916.00    0.82060   0.80566    0.034
 3917.00    0.67472   0.79256    0.034
 3918.00    0.59079   0.76435    0.033
 3919.00    0.61199   0.73112    0.033
 3920.00    0.77662   0.71813    0.033
 3921.00    0.86018   0.73161    0.034
 3922.00    0.84633   0.74892    0.034
 3923.00    0.76847   0.75901    0.033
 3924.00    0.62282   0.74241    0.033
 3925.00    0.50486   0.70400    0.032
 3926.00    0.41275   0.66154    0.033
 3927.00    0.47156   0.61248    0.033
 3928.00    0.65465   0.56497    0.033
 3929.00    0.67512   0.52036    0.033
 3930.00    0.57769   0.47203    0.033
 3931.00    0.47183   0.42050    0.033
 3932.00    0.36060   0.37715    0.033
 3933.00    0.32951   0.36918    0.032
 3934.00    0.34302   0.40563    0.031
 3935.00    0.55052   0.46758    0.032
 3936.00    0.85191   0.53174    0.033
 3937.00    0.93194   0.59041    0.033
 3938.00    0.91941   0.64601    0.033
 3939.00    0.70583   0.68591    0.032
 3940.00    0.42032   0.69948    0.030
 3941.00    0.36887   0.70096    0.030
 3942.00    0.38816   0.69038    0.031
 3943.00    0.57150   0.68364    0.031
 3944.00    0.79604   0.72436    0.031
 3945.00    0.96913   0.78363    0.031
 3946.00    1.13172   0.79231    0.031
 3947.00    1.09895   0.77113    0.032
 3948.00    1.03490   0.77916    0.032
 3949.00    0.96211   0.81387    0.032
 3950.00    0.88826   0.82688    0.032
 3951.00    0.82369   0.80086    0.032
 3952.00    0.75987   0.79299    0.033
 3953.00    0.77951   0.82692    0.033
 3954.00    0.80298   0.82955    0.033
 3955.00    0.83048   0.78474    0.033
 3956.00    0.85817   0.76182    0.032
 3957.00    0.89351   0.78064    0.033
 3958.00    0.92263   0.79617    0.034
 3959.00    0.83393   0.75813    0.033
 3960.00    0.74494   0.67164    0.000
 3961.00    0.65281   0.60750    0.000
 3962.00    0.58934   0.58696    0.000
 3963.00    0.75112   0.56130    0.000
 3964.00    0.88792   0.50879    0.000
 3965.00    0.87655   0.43653    0.000
 3966.00    0.85355   0.35811    0.000
 3967.00    0.77594   0.29552    0.000
 3968.00    0.70219   0.27105    0.000
 3969.00    0.64322   0.29611    0.000
 3970.00    0.63197   0.36274    0.000
 3971.00    0.77322   0.44045    0.000
 3972.00    0.85852   0.50641    0.000
 3973.00    0.79230   0.56938    0.000
 3974.00    0.74311   0.63389    0.000
 3975.00    0.73347   0.68053    0.000
 3976.00    0.81428   0.71727    0.000
 3977.00    1.07678   0.76250    0.000
 3978.00    1.20680   0.80949    0.000
 3979.00    1.10510   0.84100    0.000
 3980.00    1.05238   0.83846    0.000
 3981.00    1.07466   0.81643    0.034
 3982.00    1.15707   0.81361    0.034
 3983.00    1.32034   0.83346    0.034
 3984.00    1.45174   0.85670    0.034
 3985.00    1.54539   0.86555    0.034
 3986.00    1.52990   0.87613    0.034
 3987.00    1.40044   0.90318    0.033
 3988.00    1.33523   0.90313    0.033
 3989.00    1.32920   0.88765    0.033
 3990.00    1.36724   0.90138    0.033
 3991.00    1.44105   0.92755    0.032
 3992.00    1.39636   0.93844    0.032
 3993.00    1.26701   0.92342    0.031
 3994.00    1.30015   0.90138    0.031
 3995.00    1.43518   0.88047    0.031
 3996.00    1.39560   0.85782    0.031
 3997.00    1.26034   0.86187    0.031
 3998.00    1.14567   0.91046    0.031
 3999.00    1.04083   0.95246    0.031
 4000.00    0.97939   0.95732    0.030
 4001.00    0.93580   0.96374    0.030
 4002.00    1.02283   0.97272    0.030
 4003.00    1.15574   0.92893    0.030
 4004.00    1.25546   0.84915    0.031
 4005.00    1.34535   0.83065    0.032
 4006.00    1.25258   0.88370    0.032
 4007.00    1.11494   0.93046    0.032
 4008.00    1.13048   0.94192    0.031
 4009.00    1.17646   0.94644    0.031
 4010.00    0.99714   0.95610    0.031
 4011.00    0.78281   0.95828    0.031
 4012.00    0.87385   0.95983    0.031
 4013.00    1.00000   0.96364    0.031
 4014.00    1.03485   0.97755    0.031
 4015.00    1.06265   0.98197    0.031
 4016.00    1.08276   0.95937    0.032
 4017.00    1.10255   0.95801    0.032
 4018.00    1.01333   0.99022    0.032
 4019.00    0.92391   0.99909    0.032
 4020.00    0.86899   0.97982    0.032
 4021.00    0.84016   0.96768    0.032
 4022.00    1.27145   0.95844    0.032
 4023.00    1.64626   0.92967    0.033
 4024.00    1.41336   0.91387    0.033
 4025.00    1.20154   0.94079    0.033
 4026.00    1.14967   0.98314    0.032
 4027.00    1.11145   1.00824    0.032
 4028.00    1.15193   0.98710    0.033
 4029.00    1.17049   0.91383    0.034
 4030.00    1.08857   0.85558    0.033
 4031.00    1.02498   0.84525    0.032
 4032.00    1.03014   0.84906    0.032
 4033.00    1.01138   0.86647    0.032
 4034.00    0.91765   0.90469    0.031
 4035.00    0.85975   0.96236    0.031
 4036.00    0.89719   1.01926    0.031
 4037.00    0.90962   1.04184    0.030
 4038.00    0.86496   1.02550    0.030
 4039.00    0.86108   0.98843    0.030
 4040.00    0.93783   0.97082    0.031
 4041.00    0.96316   0.98965    0.031
 4042.00    0.89993   0.98086    0.031
 4043.00    0.87640   0.89725    0.031
 4044.00    0.91275   0.79497    0.031
 4045.00    0.96288   0.78242    0.031
 4046.00    1.03126   0.87748    0.031
 4047.00    1.06646   0.96186    0.032
 4048.00    1.06290   0.98721    0.031
 4049.00    1.02197   1.00186    0.031
 4050.00    0.94254   1.00672    0.031
 4051.00    0.92825   0.98529    0.030
 4052.00    0.97310   0.95785    0.030
 4053.00    1.04129   0.93368    0.030
 4054.00    1.12816   0.92151    0.030
 4055.00    1.10089   0.92464    0.030
 4056.00    0.99323   0.90917    0.030
 4057.00    0.90247   0.89261    0.030
 4058.00    0.82213   0.92040    0.030
 4059.00    0.88013   0.96838    0.030
 4060.00    1.01278   0.97815    0.031
 4061.00    1.10204   0.91765    0.031
 4062.00    1.17095   0.82992    0.031
 4063.00    1.22279   0.81775    0.031
 4064.00    1.26773   0.88504    0.031
 4065.00    1.16594   0.91691    0.031
 4066.00    1.01357   0.90749    0.030
 4067.00    0.93172   0.93505    0.030
 4068.00    0.87035   0.98216    0.030
 4069.00    0.93002   0.96593    0.030
 4070.00    1.01875   0.88913    0.030
 4071.00    1.09257   0.86276    0.030
 4072.00    1.16349   0.92262    0.030
 4073.00    1.26577   0.96412    0.030
 4074.00    1.37276   0.93218    0.030
 4075.00    1.21658   0.86064    0.030
 4076.00    1.03129   0.80302    0.030
 4077.00    0.89464   0.81066    0.030
 4078.00    0.76155   0.87379    0.029
 4079.00    0.90935   0.94635    0.030
 4080.00    1.06790   0.99488    0.031
 4081.00    1.13767   0.99057    0.031
 4082.00    1.20532   0.94936    0.031
 4083.00    1.21171   0.91761    0.031
 4084.00    1.21294   0.91277    0.030
 4085.00    1.12891   0.93524    0.030
 4086.00    1.04400   0.97896    0.030
 4087.00    0.95006   1.01415    0.030
 4088.00    0.88355   1.01627    0.029
 4089.00    1.01833   0.99700    0.030
 4090.00    1.08725   0.97386    0.030
 4091.00    0.78665   0.95007    0.030
 4092.00    0.61350   0.94807    0.000
 4093.00    1.01060   0.94731    0.000
 4094.00    1.28447   0.89893    0.000
 4095.00    1.10575   0.83933    0.000
 4096.00    0.95268   0.81267    0.000
 4097.00    0.87851   0.80024    0.000
 4098.00    0.88624   0.76779    0.000
 4099.00    1.10803   0.69045    0.000
 4100.00    1.17273   0.59664    0.000
 4101.00    0.88463   0.58196    0.000
 4102.00    0.72307   0.65866    0.000
 4103.00    0.80773   0.74478    0.000
 4104.00    0.83791   0.81152    0.000
 4105.00    0.77563   0.86302    0.000
 4106.00    0.73929   0.88662    0.000
 4107.00    0.74152   0.89006    0.000
 4108.00    0.80540   0.88306    0.000
 4109.00    0.94983   0.87516    0.000
 4110.00    1.09244   0.88069    0.000
 4111.00    1.23296   0.90111    0.000
 4112.00    1.22502   0.93212    0.000
 4113.00    1.06637   0.95723    0.029
 4114.00    1.02688   0.96925    0.029
 4115.00    1.09406   0.98001    0.029
 4116.00    1.15822   0.97308    0.029
 4117.00    1.21997   0.93039    0.029
 4118.00    1.18948   0.89916    0.029
 4119.00    1.09498   0.91443    0.029
 4120.00    0.97664   0.93131    0.029
 4121.00    0.84378   0.92884    0.029
 4122.00    0.85049   0.93286    0.028
 4123.00    0.93136   0.95863    0.028
 4124.00    0.97077   0.98215    0.029
 4125.00    0.99106   0.97219    0.029
 4126.00    1.02994   0.94174    0.029
 4127.00    1.07621   0.91973    0.029
 4128.00    0.93317   0.92062    0.029
 4129.00    0.72605   0.92242    0.028
 4130.00    0.76258   0.89928    0.028
 4131.00    0.86843   0.86078    0.028
 4132.00    0.97203   0.85406    0.028
 4133.00    1.07510   0.87999    0.028
 4134.00    1.07824   0.92956    0.028
 4135.00    1.06253   0.97660    0.027
 4136.00    1.10417   0.98452    0.028
 4137.00    1.15419   0.99262    0.029
 4138.00    1.15183   1.00982    0.028
 4139.00    1.14390   1.01122    0.028
 4140.00    1.07848   0.98394    0.028
 4141.00    1.00909   0.90609    0.028
 4142.00    0.91562   0.81692    0.028
 4143.00    0.82133   0.81210    0.028
 4144.00    0.99252   0.88945    0.029
 4145.00    1.15859   0.95212    0.029
 4146.00    1.13813   0.97054    0.029
 4147.00    1.12509   0.96517    0.029
 4148.00    1.22678   0.94176    0.029
 4149.00    1.29863   0.92600    0.029
 4150.00    1.07635   0.93408    0.029
 4151.00    0.87824   0.93666    0.029
 4152.00    0.85168   0.92397    0.029
 4153.00    0.84023   0.90601    0.029
 4154.00    0.91134   0.90295    0.029
 4155.00    0.96089   0.90688    0.029
 4156.00    0.91626   0.91741    0.028
 4157.00    0.86155   0.94798    0.028
 4158.00    0.77058   0.97576    0.028
 4159.00    0.66816   0.98153    0.027
 4160.00    0.53122   0.97783    0.027
 4161.00    0.46653   0.99401    0.027
 4162.00    0.58737   1.00883    0.028
 4163.00    0.72817   0.99617    0.029
 4164.00    0.91306   0.98242    0.029
 4165.00    1.06492   0.96766    0.029
 4166.00    1.15352   0.94032    0.028
 4167.00    1.09909   0.93764    0.028
 4168.00    0.80561   0.96641    0.028
 4169.00    0.68493   0.97279    0.028
 4170.00    0.81737   0.92783    0.029
 4171.00    0.90406   0.85773    0.029
 4172.00    0.93183   0.82852    0.029
 4173.00    0.84790   0.85693    0.028
 4174.00    0.63723   0.89651    0.028
 4175.00    0.54232   0.91181    0.029
 4176.00    0.56326   0.89886    0.029
 4177.00    0.61030   0.89070    0.029
 4178.00    0.68038   0.91799    0.028
 4179.00    0.81614   0.94849    0.028
 4180.00    1.00299   0.93942    0.028
 4181.00    1.02434   0.91586    0.028
 4182.00    0.93253   0.92113    0.027
 4183.00    0.95655   0.94697    0.027
 4184.00    1.05001   0.97082    0.028
 4185.00    1.09019   0.95142    0.028
 4186.00    1.10249   0.89730    0.028
 4187.00    1.06096   0.89383    0.028
 4188.00    0.99501   0.93918    0.028
 4189.00    0.94195   0.95852    0.027
 4190.00    0.89390   0.94611    0.027
 4191.00    0.92362   0.96238    0.027
 4192.00    0.97915   1.00590    0.028
 4193.00    0.82298   1.00412    0.027
 4194.00    0.60780   0.95109    0.027
 4195.00    0.55531   0.90785    0.027
 4196.00    0.54015   0.88686    0.028
 4197.00    0.62449   0.86121    0.028
 4198.00    0.72712   0.86014    0.028
 4199.00    0.96020   0.88701    0.028
 4200.00    1.21172   0.88571    0.027
 4201.00    1.19230   0.87402    0.027
 4202.00    1.14524   0.89697    0.027
 4203.00    1.12712   0.92243    0.027
 4204.00    1.11089   0.93430    0.026
 4205.00    1.02713   0.95719    0.026
 4206.00    0.94144   0.98347    0.027
 4207.00    0.94187   0.99800    0.027
 4208.00    0.94536   0.98726    0.027
 4209.00    1.03872   0.96868    0.027
 4210.00    1.11392   0.97819    0.027
 4211.00    0.92487   0.99995    0.027
 4212.00    0.75502   0.99594    0.026
 4213.00    0.76671   0.95571    0.026
 4214.00    0.79137   0.89470    0.026
 4215.00    0.90528   0.88249    0.026
 4216.00    1.01657   0.94484    0.026
 4217.00    1.11395   1.00141    0.026
 4218.00    1.17351   1.01812    0.026
 4219.00    1.07153   1.02745    0.026
 4220.00    0.98389   1.03114    0.026
 4221.00    0.94676   0.99991    0.026
 4222.00    0.89592   0.94592    0.026
 4223.00    0.80446   0.88468    0.026
 4224.00    0.75260   0.80105    0.026
 4225.00    0.80066   0.70976    0.026
 4226.00    0.86206   0.70019    0.025
 4227.00    0.95249   0.81357    0.025
 4228.00    1.01497   0.93507    0.025
 4229.00    1.02474   0.99061    0.025
 4230.00    1.01207   1.00781    0.024
 4231.00    0.96245   0.98087    0.024
 4232.00    0.93513   0.93387    0.024
 4233.00    0.94001   0.92783    0.024
 4234.00    0.97207   0.92606    0.024
 4235.00    1.03863   0.90101    0.024
 4236.00    1.04505   0.90649    0.024
 4237.00    0.98419   0.92641    0.024
 4238.00    0.94060   0.92998    0.024
 4239.00    0.91406   0.94605    0.024
 4240.00    0.91147   0.98046    0.024
 4241.00    0.92971   0.99064    0.024
 4242.00    0.96116   0.99293    0.024
 4243.00    1.00272   1.02564    0.024
 4244.00    0.96623   1.03841    0.025
 4245.00    0.87713   0.99802    0.025
 4246.00    0.94812   0.94669    0.026
 4247.00    1.11364   0.92476    0.026
 4248.00    1.05773   0.91245    0.027
 4249.00    0.88783   0.88724    0.026
 4250.00    0.92270   0.90095    0.027
 4251.00    1.04894   0.95179    0.027
 4252.00    1.09059   0.95361    0.027
 4253.00    1.09980   0.90870    0.026
 4254.00    1.00062   0.90146    0.026
 4255.00    0.86611   0.95559    0.026
 4256.00    0.77168   1.00196    0.026
 4257.00    0.68818   0.97503    0.026
 4258.00    0.71543   0.90931    0.026
 4259.00    0.76749   0.85950    0.026
 4260.00    0.76847   0.86698    0.027
 4261.00    0.76032   0.93940    0.027
 4262.00    0.77578   1.00981    0.027
 4263.00    0.79448   1.03622    0.027
 4264.00    0.90952   1.04447    0.027
 4265.00    1.03397   1.04048    0.027
 4266.00    1.03633   1.00396    0.027
 4267.00    1.03123   0.96771    0.027
 4268.00    0.97065   0.94616    0.026
 4269.00    0.90813   0.89535    0.026
 4270.00    0.76095   0.81719    0.026
 4271.00    0.61761   0.79442    0.025
 4272.00    0.57558   0.83419    0.026
 4273.00    0.54489   0.84926    0.026
 4274.00    0.67005   0.86032    0.026
 4275.00    0.78816   0.92140    0.026
 4276.00    0.84212   0.98905    0.026
 4277.00    0.87545   1.01774    0.027
 4278.00    0.77138   0.99486    0.027
 4279.00    0.70242   0.94526    0.027
 4280.00    0.81523   0.92971    0.027
 4281.00    0.88179   0.94039    0.027
 4282.00    0.75528   0.95319   -2.000
 4283.00    0.61429   0.95803   -2.000
 4284.00    0.42331   0.93195   -2.000
 4285.00    0.26936   0.91084   -2.000
 4286.00    0.22302   0.91515   -2.000
 4287.00    0.34788   0.89507   -2.000
 4288.00    0.89739   0.83042   -2.000
 4289.00    1.25105   0.79238   -2.000
 4290.00    1.18600   0.83383   -2.000
 4291.00    1.07168   0.91022   -2.000
 4292.00    0.86585   0.94771   -2.000
 4293.00    0.65663   0.92521   -2.000
 4294.00    0.44191   0.90714   -2.000
 4295.00    0.37624   0.90498   -2.000
 4296.00    0.52263   0.87917   -2.000
 4297.00    0.58176   0.82503   -2.000
 4298.00    0.53169   0.75147    0.027
 4299.00    0.56245   0.71813    0.026
 4300.00    0.68238   0.74346    0.026
 4301.00    0.71462   0.76021    0.026
 4302.00    0.66152   0.76585    0.026
 4303.00    0.57341   0.78864    0.026
 4304.00    0.45524   0.79616    0.026
 4305.00    0.46780   0.77909    0.026
 4306.00    0.57915   0.74169    0.026
 4307.00    0.55959   0.70214    0.026
 4308.00    0.45308   0.71019    0.026
 4309.00    0.51877   0.75819    0.026
 4310.00    0.68459   0.80621    0.026
 4311.00    0.81663   0.83954    0.026
 4312.00    0.93155   0.86148    0.025
 4313.00    0.97453   0.88175    0.025
 4314.00    0.98595   0.94168    0.025
 4315.00    1.01272   1.04234    0.025
 4316.00    1.04529   1.09831    0.025
 4317.00    0.94476   1.09154    0.025
 4318.00    0.80169   1.06926    0.025
 4319.00    0.73467   1.04412    0.025
 4320.00    0.68797   1.01728    0.025
 4321.00    0.71621   0.99608    0.026
 4322.00    0.76084   0.93664    0.026
 4323.00    0.80031   0.84196    0.026
 4324.00    0.83889   0.76736    0.025
 4325.00    0.84646   0.77658    0.025
 4326.00    0.84994   0.88418    0.025
 4327.00    0.83405   0.99544    0.026
 4328.00    0.81636   1.03038    0.026
 4329.00    0.78123   1.00361    0.026
 4330.00    0.74510   0.98490    0.000
 4331.00    0.85528   0.99600    0.000
 4332.00    0.96744   1.00197    0.000
 4333.00    0.91516   1.00397    0.000
 4334.00    0.86633   1.00551    0.000
 4335.00    0.90033   0.95614    0.000
 4336.00    0.93415   0.84027    0.000
 4337.00    0.96574   0.73614    0.000
 4338.00    0.97897   0.66539    0.000
 4339.00    0.83185   0.61014    0.000
 4340.00    0.70272   0.64307    0.000
 4341.00    0.68972   0.75865    0.000
 4342.00    0.68490   0.83761    0.000
 4343.00    0.72133   0.87079    0.000
 4344.00    0.72545   0.91829    0.000
 4345.00    0.59769   0.95263    0.000
 4346.00    0.53428   0.96214    0.000
 4347.00    0.68859   0.99373    0.000
 4348.00    0.80191   1.03204    0.000
 4349.00    0.79828   0.99752    0.000
 4350.00    0.79708   0.89199    0.000
 4351.00    0.80177   0.83799    0.025
 4352.00    0.81932   0.89014    0.025
 4353.00    0.86391   0.95617    0.026
 4354.00    0.92253   0.98409    0.025
 4355.00    1.00678   1.01440    0.025
 4356.00    0.99595   1.03875    0.025
 4357.00    0.83320   1.01444    0.025
 4358.00    0.80395   0.97624    0.025
 4359.00    0.96188   0.99214    0.025
 4360.00    1.03115   1.04351    0.025
 4361.00    0.99103   1.06755    0.025
 4362.00    0.98181   1.06539    0.025
 4363.00    1.00621   1.08324    0.025
 4364.00    0.95930   1.10627    0.025
 4365.00    0.84398   1.07936    0.025
 4366.00    0.80049   1.01861    0.025
 4367.00    0.81777   0.99039    0.025
 4368.00    0.83358   1.00349    0.025
 4369.00    0.84829   1.01418    0.025
 4370.00    0.80705   1.02008    0.025
 4371.00    0.72919   1.02277    0.025
 4372.00    0.65386   0.99022    0.025
 4373.00    0.57997   0.92768    0.025
 4374.00    0.63204   0.89980    0.025
 4375.00    0.74693   0.94517    0.025
 4376.00    0.77359   1.02134    0.025
 4377.00    0.76216   1.06122    0.025
 4378.00    0.70947   1.05291    0.025
 4379.00    0.64153   1.03164    0.025
 4380.00    0.64002   1.00659    0.025
 4381.00    0.65936   0.92429    0.025
 4382.00    0.56701   0.79137    0.025
 4383.00    0.44545   0.73325    0.025
 4384.00    0.46959   0.80610    0.024
 4385.00    0.52485   0.91740    0.024
 4386.00    0.61765   0.96509    0.024
 4387.00    0.71679   0.96177    0.025
 4388.00    0.65795   0.95562    0.024
 4389.00    0.57893   0.95022    0.024
 4390.00    0.68449   0.96185    0.024
 4391.00    0.80652   0.99704    0.024
 4392.00    0.71452   1.00959    0.024
 4393.00    0.61111   0.97860    0.025
 4394.00    0.68605   0.96064    0.024
 4395.00    0.76502   1.00821    0.024
 4396.00    0.88860   1.07039    0.024
 4397.00    0.99636   1.07256    0.024
 4398.00    0.75660   1.02303    0.025
 4399.00    0.53854   0.96763    0.025
 4400.00    0.58864   0.96927    0.025
 4401.00    0.63446   1.02167    0.025
 4402.00    0.64428   1.00868    0.025
 4403.00    0.66416   0.91328    0.025
 4404.00    0.74703   0.87365    0.025
 4405.00    0.81370   0.92868    0.025
 4406.00    0.80066   0.96215    0.025
 4407.00    0.78232   0.94983    0.025
 4408.00    0.74282   0.97566    0.025
 4409.00    0.71307   1.04104    0.025
 4410.00    0.71562   1.08528    0.025
 4411.00    0.75520   1.10406    0.025
 4412.00    0.89856   1.09062    0.025
 4413.00    0.98145   1.01260    0.025
 4414.00    0.91940   0.93234    0.025
 4415.00    0.90567   0.93643    0.025
 4416.00    0.99194   0.98560    0.025
 4417.00    1.01027   1.03596    0.025
 4418.00    0.90632   1.08780    0.025
 4419.00    0.79187   1.10550    0.025
 4420.00    0.66091   1.07000    0.025
 4421.00    0.65512   1.01933    0.025
 4422.00    0.82233   1.00948    0.025
 4423.00    0.91686   1.03535    0.025
 4424.00    0.92299   1.04450    0.025
 4425.00    0.82592   1.03364    0.025
 4426.00    0.61818   1.03176    0.025
 4427.00    0.62585   1.04893    0.025
 4428.00    0.83724   1.04884    0.025
 4429.00    0.97133   1.01753    0.025
 4430.00    1.04094   1.02045    0.026
 4431.00    0.94916   1.04916    0.026
 4432.00    0.73887   1.03153    0.025
 4433.00    0.68201   0.97264    0.025
 4434.00    0.72408   0.93364    0.025
 4435.00    0.79593   0.96443    0.025
 4436.00    0.88459   1.04255    0.026
 4437.00    0.91667   1.10567    0.026
 4438.00    0.92096   1.12833    0.026
 4439.00    0.84939   1.10075    0.026
 4440.00    0.74563   1.03744    0.026
 4441.00    0.85758   0.97800    0.026
 4442.00    1.04793   0.95930    0.026
 4443.00    1.09360   1.00074    0.026
 4444.00    1.09479   1.07332    0.026
 4445.00    1.07566   1.10607    0.026
 4446.00    1.05133   1.09104    0.026
 4447.00    0.99119   1.08975    0.026
 4448.00    0.92358   1.09212    0.026
 4449.00    0.91223   1.06963    0.026
 4450.00    0.91012   1.06494    0.026
 4451.00    0.87386   1.07576    0.026
 4452.00    0.83339   1.05063    0.025
 4453.00    0.79656   0.98609    0.026
 4454.00    0.76005   0.93679    0.026
 4455.00    0.76265   0.94944    0.025
 4456.00    0.76717   0.98149    0.025
 4457.00    0.69331   0.98315    0.025
 4458.00    0.62086   0.97190    0.025
 4459.00    0.71584   0.96673    0.025
 4460.00    0.80542   0.94970    0.025
 4461.00    0.78567   0.95335    0.000
 4462.00    0.77507   1.01038    0.000
 4463.00    0.87199   1.05209    0.000
 4464.00    0.95478   1.04888    0.000
 4465.00    0.92299   1.04091    0.000
 4466.00    0.91325   1.03729    0.000
 4467.00    1.03771   1.02081    0.000
 4468.00    1.10210   0.99631    0.000
 4469.00    0.87838   0.99676    0.000
 4470.00    0.70125   1.02188    0.000
 4471.00    0.70611   1.06047    0.000
 4472.00    0.73172   1.10509    0.000
 4473.00    0.82486   1.12817    0.000
 4474.00    0.93570   1.12134    0.000
 4475.00    1.09526   1.12573    0.000
 4476.00    1.15985   1.15451    0.000
 4477.00    1.00065   1.15758    0.000
 4478.00    0.89993   1.10479    0.000
 4479.00    0.91832   1.02619    0.000
 4480.00    0.93124   0.97498    0.000
 4481.00    0.93443   0.98523    0.000
 4482.00    0.97533   1.04974    0.025
 4483.00    1.07472   1.11488    0.025
 4484.00    1.07747   1.14946    0.025
 4485.00    0.94862   1.15879    0.025
 4486.00    0.92236   1.13676    0.025
 4487.00    1.01912   1.08211    0.026
 4488.00    1.00866   1.03074    0.026
 4489.00    0.88483   1.02635    0.025
 4490.00    0.81252   1.06759    0.025
 4491.00    0.78826   1.10779    0.025
 4492.00    0.82355   1.10019    0.025
 4493.00    0.90780   1.05113    0.025
 4494.00    0.97271   1.02199    0.025
 4495.00    1.02364   1.03396    0.025
 4496.00    0.96051   1.07141    0.025
 4497.00    0.82494   1.11548    0.025
 4498.00    0.84787   1.13653    0.025
 4499.00    0.95883   1.12009    0.025
 4500.00    0.90352   1.08832    0.025
 4501.00    0.76788   1.10573    0.025
 4502.00    0.66753   1.17069    0.025
 4503.00    0.58190   1.20899    0.025
 4504.00    0.76676   1.20294    0.025
 4505.00    1.04815   1.17840    0.025
 4506.00    1.09536   1.15337    0.025
 4507.00    1.07197   1.14347    0.025
 4508.00    1.06789   1.15514    0.025
 4509.00    1.06864   1.17393    0.025
 4510.00    0.95997   1.17180    0.025
 4511.00    0.82906   1.14362    0.025
 4512.00    0.87006   1.11471    0.025
 4513.00    0.93847   1.09771    0.025
 4514.00    0.93761   1.09866    0.025
 4515.00    0.92852   1.11184    0.024
 4516.00    1.08858   1.10542    0.025
 4517.00    1.26232   1.09198    0.025
 4518.00    1.15196   1.10920    0.025
 4519.00    1.02867   1.13945    0.025
 4520.00    0.96471   1.14911    0.025
 4521.00    0.90114   1.11614    0.025
 4522.00    0.82021   1.08140    0.025
 4523.00    0.74502   1.07889    0.025
 4524.00    0.77763   1.06441    0.025
 4525.00    0.79949   1.02750    0.025
 4526.00    0.70093   0.99144    0.025
 4527.00    0.62391   0.96712    0.025
 4528.00    0.71553   0.96705    0.025
 4529.00    0.78651   0.99077    0.025
 4530.00    0.73548   1.02035    0.025
 4531.00    0.69251   1.04429    0.025
 4532.00    0.68718   1.02549    0.025
 4533.00    0.69315   0.97992    0.025
 4534.00    0.74227   0.96900    0.025
 4535.00    0.77984   1.02666    0.025
 4536.00    0.78059   1.11857    0.025
 4537.00    0.79863   1.15583    0.025
 4538.00    0.86343   1.12946    0.025
 4539.00    0.90001   1.08886    0.025
 4540.00    0.87122   1.07217    0.025
 4541.00    0.87011   1.09484    0.025
 4542.00    0.92445   1.11599    0.025
 4543.00    0.93722   1.09531    0.025
 4544.00    0.87739   1.06980    0.025
 4545.00    0.83570   1.07764    0.025
 4546.00    0.82173   1.08762    0.025
 4547.00    0.81996   1.06441    0.025
 4548.00    0.83456   1.02466    0.025
 4549.00    0.82982   1.03217    0.025
 4550.00    0.80222   1.07467    0.000
 4551.00    0.81919   1.07765    0.000
 4552.00    0.88262   1.05033    0.000
 4553.00    0.90529   1.02550    0.000
 4554.00    0.89050   1.02358    0.000
 4555.00    0.84079   1.06246    0.000
 4556.00    0.76277   1.11901    0.000
 4557.00    0.83364   1.14788    0.000
 4558.00    1.01068   1.15082    0.000
 4559.00    1.00521   1.15009    0.000
 4560.00    0.88553   1.15458    0.000
 4561.00    0.83990   1.14701    0.000
 4562.00    0.83478   1.10546    0.000
 4563.00    0.81515   1.06117    0.000
 4564.00    0.78862   1.05467    0.000
 4565.00    0.81051   1.09044    0.000
 4566.00    0.85226   1.14249    0.000
 4567.00    0.86196   1.16720    0.000
 4568.00    0.86043   1.16134    0.000
 4569.00    0.85418   1.13045    0.000
 4570.00    0.84655   1.07837    0.000
 4571.00    0.94815   1.07486    0.000
 4572.00    1.07650   1.13165    0.000
 4573.00    1.00885   1.15916    0.000
 4574.00    0.90236   1.14686    0.000
 4575.00    0.82923   1.14309    0.000
 4576.00    0.76127   1.14375    0.000
 4577.00    0.77754   1.12475    0.000
 4578.00    0.80344   1.08341    0.000
 4579.00    0.91452   1.04711    0.000
 4580.00    1.03215   1.04495    0.000
 4581.00    0.94403   1.06680    0.000
 4582.00    0.84734   1.07483    0.000
 4583.00    0.80989   1.06883    0.000
 4584.00    0.77347   1.06672    0.000
 4585.00    0.75903   1.07193    0.000
 4586.00    0.74698   1.10001    0.000
 4587.00    0.77674   1.13578    0.000
 4588.00    0.80970   1.15029    0.000
 4589.00    0.87707   1.13493    0.000
 4590.00    0.92954   1.10068    0.000
 4591.00    0.86946   1.07581    0.000
 4592.00    0.82779   1.07681    0.000
 4593.00    0.89200   1.08227    0.000
 4594.00    0.92990   1.07828    0.000
 4595.00    0.84757   1.08084    0.000
 4596.00    0.80087   1.09014    0.000
 4597.00    0.88751   1.10076    0.000
 4598.00    0.94934   1.10545    0.000
 4599.00    0.93363   1.08608    0.000
 4600.00    0.90102   1.07551    0.000
 4601.00    0.82359   1.09085    0.000
 4602.00    0.74584   1.10179    0.000
 4603.00    0.66739   1.10130    0.000
 4604.00    0.65927   1.09430    0.000
 4605.00    0.78989   1.10116    0.000
 4606.00    0.92077   1.13112    0.000
 4607.00    1.05210   1.17290    0.000
 4608.00    1.19972   1.19701    0.000
 4609.00    1.37189   1.18350    0.000
 4610.00    1.39492   1.15473    0.000
 4611.00    1.22061   1.13674    0.000
 4612.00    1.15744   1.12899    0.000
 4613.00    1.22381   1.14080    0.000
 4614.00    1.18899   1.15657    0.000
 4615.00    1.05018   1.15244    0.000
 4616.00    0.91376   1.15365    0.000
 4617.00    0.77949   1.14778    0.000
 4618.00    0.76488   1.12680    0.000
 4619.00    0.84586   1.13551    0.000
 4620.00    0.89055   1.16450    0.000
 4621.00    0.90975   1.16895    0.000
 4622.00    0.91409   1.16487    0.000
 4623.00    0.90927   1.16390    0.000
 4624.00    0.90447   1.15083    0.000
 4625.00    0.89969   1.14250    0.000
 4626.00    0.84845   1.15031    0.000
 4627.00    0.77548   1.14527    0.000
 4628.00    0.73642   1.12521    0.000
 4629.00    0.71104   1.13361    0.000
 4630.00    0.79433   1.16405    0.000
 4631.00    0.91500   1.15941    0.000
 4632.00    1.02793   1.12539    0.000
 4633.00    1.13861   1.11157    0.000
 4634.00    1.04478   1.11773    0.000
 4635.00    0.90197   1.11647    0.000
 4636.00    0.93499   1.09854    0.000
 4637.00    1.00198   1.08167    0.000
 4638.00    0.94231   1.07670    0.000
 4639.00    0.86362   1.08461    0.000
 4640.00    0.82612   1.11485    0.000
 4641.00    0.79315   1.13721    0.000
 4642.00    0.87828   1.12874    0.000
 4643.00    0.97200   1.10907    0.000
 4644.00    0.98163   1.07852    0.000
 4645.00    0.98807   1.03267    0.000
 4646.00    0.87244   1.01087    0.000
 4647.00    0.76075   1.02910    0.000
 4648.00    0.81750   1.06542    0.000
 4649.00    0.86811   1.09871    0.000
 4650.00    0.81822   1.11674    0.000
 4651.00    0.77366   1.12718    0.000
 4652.00    0.78360   1.12561    0.000
 4653.00    0.77637   1.09395    0.000
 4654.00    0.64359   1.06442    0.000
 4655.00    0.56598   1.06511    0.000
 4656.00    0.79675   1.09635    0.000
 4657.00    0.96978   1.15289    0.000
 4658.00    0.88517   1.19779    0.000
 4659.00    0.83984   1.20278    0.000
 4660.00    0.93841   1.17241    0.000
 4661.00    0.97973   1.13131    0.000
 4662.00    0.84538   1.10438    0.000
 4663.00    0.74539   1.10118    0.000
 4664.00    0.73497   1.09068    0.000
 4665.00    0.75881   1.03408    0.000
 4666.00    0.85946   0.96888    0.000
 4667.00    0.89086   0.96632    0.000
 4668.00    0.78779   1.01996    0.000
 4669.00    0.79145   1.07772    0.000
 4670.00    0.97586   1.11447    0.000
 4671.00    0.99716   1.11859    0.000
 4672.00    0.77642   1.10411    0.000
 4673.00    0.67327   1.10093    0.000
 4674.00    0.72348   1.11961    0.000
 4675.00    0.75003   1.14664    0.000
 4676.00    0.74937   1.14642    0.000
 4677.00    0.77205   1.11447    0.000
 4678.00    0.81836   1.08394    0.000
 4679.00    0.83817   1.06843    0.000
 4680.00    0.83429   1.06288    0.000
 4681.00    0.89905   1.07506    0.000
 4682.00    1.01785   1.10494    0.000
 4683.00    1.03600   1.12277    0.000
 4684.00    0.98442   1.12013    0.000
 4685.00    0.90284   1.11465    0.000
 4686.00    0.80305   1.10773    0.000
 4687.00    0.80715   1.10522    0.000
 4688.00    0.86633   1.11030    0.000
 4689.00    0.91553   1.10501    0.000
 4690.00    0.96014   1.09351    0.000
 4691.00    0.99141   1.10028    0.000
 4692.00    1.01740   1.11776    0.000
 4693.00    0.86133   1.13424    0.000
 4694.00    0.64380   1.15375    0.000
 4695.00    0.68947   1.16164    0.000
 4696.00    0.80984   1.13506    0.000
 4697.00    0.86705   1.08586    0.000
 4698.00    0.90948   1.06333    0.000
 4699.00    0.82064   1.07563    0.000
 4700.00    0.70710   1.07667    0.000
 4701.00    0.68957   1.05410    0.000
 4702.00    0.68599   1.04262    0.000
 4703.00    0.75435   1.06911    0.000
 4704.00    0.83031   1.09945    0.000
 4705.00    0.66419   1.09405    0.000
 4706.00    0.48144   1.06522    0.000
 4707.00    0.55717   1.04633    0.000
 4708.00    0.64170   1.04967    0.000
 4709.00    0.87451   1.08046    0.000
 4710.00    1.09419   1.12218    0.000
 4711.00    0.87910   1.13040    0.000
 4712.00    0.67964   1.10290    0.000
 4713.00    0.71989   1.07244    0.000
 4714.00    0.75965   1.07788    0.000
 4715.00    0.79452   1.11904    0.000
 4716.00    0.83109   1.15081    0.000
 4717.00    0.87961   1.16182    0.000
 4718.00    0.92240   1.17370    0.000
 4719.00    0.93401   1.18164    0.000
 4720.00    0.92475   1.17208    0.000
 4721.00    0.82451   1.15453    0.000
 4722.00    0.74124   1.15534    0.000
 4723.00    0.71884   1.17731    0.000
 4724.00    0.73899   1.18781    0.000
 4725.00    0.88722   1.15733    0.000
 4726.00    0.96152   1.09441    0.000
 4727.00    0.84635   1.05143    0.000
 4728.00    0.78499   1.05115    0.000
 4729.00    0.84221   1.06376    0.000
 4730.00    0.86504   1.07621    0.000
 4731.00    0.82213   1.09747    0.000
 4732.00    0.78610   1.11581    0.000
 4733.00    0.76156   1.12702    0.000
 4734.00    0.77075   1.13009    0.000
 4735.00    0.82926   1.10739    0.000
 4736.00    0.85530   1.09845    0.000
 4737.00    0.83960   1.13161    0.000
 4738.00    0.83797   1.15073    0.000
 4739.00    0.85230   1.13343    0.000
 4740.00    0.88835   1.11978    0.000
 4741.00    0.94611   1.13139    0.000
 4742.00    0.99834   1.14980    0.000
 4743.00    1.04568   1.14950    0.000
 4744.00    1.00285   1.14246    0.000
 4745.00    0.89001   1.15498    0.000
 4746.00    0.81881   1.16814    0.000
 4747.00    0.77604   1.16417    0.000
 4748.00    0.76534   1.16188    0.000
 4749.00    0.77384   1.16641    0.000
 4750.00    0.82899   1.16012    0.000
 4751.00    0.90849   1.14055    0.000
 4752.00    0.93311   1.12373    0.000
 4753.00    0.93288   1.11312    0.000
 4754.00    0.87594   1.11020    0.000
 4755.00    0.79691   1.11072    0.000
 4756.00    0.78596   1.11560    0.000
 4757.00    0.79756   1.12610    0.000
 4758.00    0.81997   1.14002    0.000
 4759.00    0.84540   1.14386    0.000
 4760.00    0.81342   1.11588    0.000
 4761.00    0.76832   1.07482    0.022
 4762.00    0.83957   1.05780    0.022
 4763.00    0.93212   1.05404    0.023
 4764.00    0.89470   1.04356    0.023
 4765.00    0.83898   1.04321    0.023
 4766.00    0.76818   1.06726    0.023
 4767.00    0.69586   1.10048    0.023
 4768.00    0.81529   1.12994    0.023
 4769.00    0.94713   1.13742    0.022
 4770.00    1.01693   1.11378    0.023
 4771.00    1.08472   1.09774    0.023
 4772.00    1.08419   1.11791    0.023
 4773.00    1.08154   1.15256    0.023
 4774.00    1.01759   1.16333    0.023
 4775.00    0.95918   1.15614    0.023
 4776.00    0.98083   1.16014    0.023
 4777.00    1.00054   1.16026    0.023
 4778.00    1.00210   1.14410    0.022
 4779.00    0.99109   1.13452    0.022
 4780.00    0.89400   1.13385    0.022
 4781.00    0.84039   1.11823    0.022
 4782.00    1.01707   1.09691    0.022
 4783.00    1.12937   1.10265    0.022
 4784.00    0.96747   1.11060    0.022
 4785.00    0.85234   1.09081    0.022
 4786.00    0.90151   1.08588    0.022
 4787.00    0.96940   1.09680    0.022
 4788.00    1.09258   1.09319    0.023
 4789.00    1.13913   1.09737    0.023
 4790.00    0.99275   1.11398    0.023
 4791.00    0.90708   1.13092    0.023
 4792.00    0.95309   1.15933    0.023
 4793.00    0.99709   1.19084    0.023
 4794.00    1.03732   1.20003    0.023
 4795.00    1.03195   1.18373    0.023
 4796.00    0.95166   1.15571    0.023
 4797.00    0.90042   1.12382    0.023
 4798.00    0.89103   1.10197    0.023
 4799.00    0.93486   1.10780    0.023
 4800.00    1.04610   1.13922    0.023
 4801.00    1.09227   1.16994    0.024
 4802.00    1.06574   1.17249    0.023
 4803.00    1.01913   1.14620    0.023
 4804.00    0.95275   1.11892    0.024
 4805.00    0.95729   1.11315    0.024
 4806.00    1.02344   1.10911    0.023
 4807.00    0.97521   1.10505    0.023
 4808.00    0.83946   1.11720    0.023
 4809.00    0.84809   1.13182    0.023
 4810.00    0.95385   1.13506    0.023
 4811.00    0.95809   1.13422    0.023
 4812.00    0.90251   1.13624    0.023
 4813.00    0.80116   1.14188    0.023
 4814.00    0.67628   1.14991    0.023
 4815.00    0.76929   1.16073    0.024
 4816.00    0.95930   1.17130    0.024
 4817.00    1.04237   1.17784    0.023
 4818.00    1.08451   1.18162    0.023
 4819.00    0.93996   1.17743    0.023
 4820.00    0.73469   1.16522    0.024
 4821.00    0.76664   1.13374    0.024
 4822.00    0.86316   1.08560    0.023
 4823.00    0.89449   1.07606    0.024
 4824.00    0.91126   1.11526    0.024
 4825.00    0.89480   1.14579    0.024
 4826.00    0.87243   1.14202    0.024
 4827.00    0.94369   1.12350    0.024
 4828.00    1.02771   1.11689    0.024
 4829.00    0.98838   1.12039    0.024
 4830.00    0.93707   1.10589    0.024
 4831.00    0.87004   1.08994    0.024
 4832.00    0.80206   1.10706    0.023
 4833.00    0.93023   1.13351    0.024
 4834.00    1.06260   1.13806    0.024
 4835.00    1.01798   1.13202    0.024
 4836.00    0.97715   1.13122    0.024
 4837.00    1.03530   1.11759    0.024
 4838.00    1.08621   1.08933    0.024
 4839.00    1.03819   1.07739    0.024
 4840.00    0.98246   1.09038    0.023
 4841.00    0.85707   1.09600    0.023
 4842.00    0.74891   1.08698    0.023
 4843.00    0.75511   1.09953    0.023
 4844.00    0.77091   1.12901    0.022
 4845.00    0.83626   1.13580    0.022
 4846.00    0.87315   1.10922    0.023
 4847.00    0.79157   1.07353    0.023
 4848.00    0.76794   1.06965    0.000
 4849.00    0.94383   1.09361    0.000
 4850.00    1.07736   1.10077    0.000
 4851.00    1.08804   1.09131    0.000
 4852.00    1.05335   1.07548    0.000
 4853.00    0.90639   1.03063    0.000
 4854.00    0.77602   0.97801    0.000
 4855.00    0.68106   0.97340    0.000
 4856.00    0.64900   0.99559    0.000
 4857.00    0.73351   0.97338    0.000
 4858.00    0.83558   0.88774    0.000
 4859.00    0.96607   0.76911    0.000
 4860.00    0.99968   0.69865    0.000
 4861.00    0.89573   0.75231    0.000
 4862.00    0.80975   0.86313    0.000
 4863.00    0.74622   0.93020    0.000
 4864.00    0.73253   0.97106    0.000
 4865.00    0.77371   1.00788    0.000
 4866.00    0.76039   1.02833    0.000
 4867.00    0.69415   1.03885    0.000
 4868.00    0.69661   1.04173    0.000
 4869.00    0.75790   1.00652    0.000
 4870.00    0.78572   0.95316    0.000
 4871.00    0.78828   0.95674    0.000
 4872.00    0.78314   1.01230    0.000
 4873.00    0.77289   1.04862    0.000
 4874.00    0.75185   1.05428    0.000
 4875.00    0.72455   1.06273    0.022
 4876.00    0.73793   1.07691    0.022
 4877.00    0.77189   1.09444    0.022
 4878.00    0.79373   1.12572    0.022
 4879.00    0.81027   1.12854    0.022
 4880.00    0.84113   1.09254    0.022
 4881.00    0.87738   1.07867    0.023
 4882.00    0.95978   1.09162    0.022
 4883.00    1.05690   1.08207    0.022
 4884.00    1.08070   1.05079    0.022
 4885.00    1.08496   1.03692    0.022
 4886.00    1.04362   1.05053    0.023
 4887.00    0.99234   1.06363    0.023
 4888.00    0.85298   1.05031    0.022
 4889.00    0.69836   1.00878    0.022
 4890.00    0.76832   0.98607    0.022
 4891.00    0.86785   1.04032    0.022
 4892.00    0.87529   1.12392    0.022
 4893.00    0.87418   1.17626    0.022
 4894.00    0.95545   1.20049    0.022
 4895.00    1.04138   1.20396    0.022
 4896.00    0.97844   1.19770    0.022
 4897.00    0.91256   1.18196    0.022
 4898.00    0.89798   1.14733    0.022
 4899.00    0.88610   1.12434    0.022
 4900.00    0.93853   1.13393    0.022
 4901.00    0.98826   1.13323    0.022
 4902.00    1.00301   1.11285    0.023
 4903.00    1.00319   1.11888    0.023
 4904.00    0.87679   1.15813    0.023
 4905.00    0.77389   1.18514    0.023
 4906.00    0.82226   1.17198    0.022
 4907.00    0.88122   1.13451    0.022
 4908.00    0.99337   1.09180    0.023
 4909.00    1.07134   1.06331    0.023
 4910.00    1.01011   1.07405    0.023
 4911.00    0.95555   1.10873    0.022
 4912.00    0.92349   1.13355    0.022
 4913.00    0.89764   1.15234    0.022
 4914.00    0.88948   1.17389    0.022
 4915.00    0.88337   1.17178    0.022
 4916.00    0.88226   1.12378    0.022
 4917.00    0.88883   1.04244    0.022
 4918.00    0.91155   0.96906    0.023
 4919.00    0.85847   0.94270    0.023
 4920.00    0.66709   0.97729    0.022
 4921.00    0.60243   1.03896    0.022
 4922.00    0.73986   1.06461    0.022
 4923.00    0.85165   1.05818    0.022
 4924.00    0.92757   1.07655    0.023
 4925.00    0.94471   1.12374    0.023
 4926.00    0.88948   1.15435    0.022
 4927.00    0.86470   1.17020    0.023
 4928.00    0.87297   1.18730    0.023
 4929.00    0.90706   1.19095    0.023
 4930.00    0.96587   1.18106    0.022
 4931.00    0.99492   1.14603    0.022
 4932.00    0.99883   1.08736    0.023
 4933.00    1.01057   1.07091    0.023
 4934.00    1.02812   1.10926    0.023
 4935.00    1.05709   1.12205    0.023
 4936.00    1.09350   1.07852    0.023
 4937.00    1.01499   1.02668    0.023
 4938.00    0.87078   1.02578    0.023
 4939.00    0.83149   1.08490    0.023
 4940.00    0.84443   1.14333    0.000
 4941.00    0.97068   1.16362    0.000
 4942.00    1.14574   1.17541    0.000
 4943.00    1.09464   1.17991    0.000
 4944.00    0.96004   1.16050    0.000
 4945.00    1.01728   1.14792    0.000
 4946.00    1.13453   1.16509    0.000
 4947.00    1.20783   1.18433    0.000
 4948.00    1.26965   1.18931    0.000
 4949.00    1.14843   1.19314    0.000
 4950.00    0.98823   1.19613    0.000
 4951.00    1.01545   1.18245    0.000
 4952.00    1.07427   1.16299    0.000
 4953.00    1.03235   1.15319    0.000
 4954.00    0.97763   1.13189    0.000
 4955.00    0.94428   1.06224    0.000
 4956.00    0.91282   0.97650    0.000
 4957.00    0.85385   0.98707    0.000
 4958.00    0.79344   1.08553    0.000
 4959.00    0.87549   1.15189    0.000
 4960.00    0.95953   1.15772    0.000
 4961.00    0.98621   1.15030    0.000
 4962.00    1.01108   1.15096    0.000
 4963.00    0.99651   1.13383    0.000
 4964.00    0.98574   1.09664    0.000
 4965.00    1.02147   1.07741    0.000
 4966.00    1.04242   1.08132    0.000
 4967.00    0.93966   1.08726    0.000
 4968.00    0.84630   1.09463    0.000
 4969.00    0.81159   1.10431    0.000
 4970.00    0.81035   1.12100    0.000
 4971.00    0.97320   1.14090    0.000
 4972.00    1.10399   1.15376    0.000
 4973.00    1.10722   1.16290    0.000
 4974.00    1.09659   1.16060    0.000
 4975.00    1.04013   1.14725    0.000
 4976.00    0.98475   1.12709    0.000
 4977.00    0.93238   1.10012    0.000
 4978.00    0.89074   1.08533    0.000
 4979.00    0.87474   1.07544    0.000
 4980.00    0.85166   1.03681    0.000
 4981.00    0.81392   0.98206    0.000
 4982.00    0.79201   0.96387    0.000
 4983.00    0.79856   0.99070    0.000
 4984.00    0.84400   1.02928    0.000
 4985.00    0.95056   1.07206    0.000
 4986.00    1.00924   1.11340    0.000
 4987.00    1.00189   1.12430    0.000
 4988.00    1.00215   1.10727    0.000
 4989.00    1.01163   1.08678    0.000
 4990.00    1.02286   1.08251    0.000
 4991.00    1.03596   1.09823    0.000
 4992.00    1.03909   1.10049    0.000
 4993.00    1.03280   1.09624    0.000
 4994.00    1.02680   1.11329    0.000
 4995.00    1.02104   1.12553    0.000
 4996.00    0.98591   1.11972    0.000
 4997.00    0.92925   1.09922    0.000
 4998.00    0.91428   1.06167    0.000
 4999.00    0.92615   1.03381    0.000
 5000.00    0.86476   1.03165    0.000
 5001.00    0.76213   1.04292    0.000
 5002.00    0.82580   1.05419    0.000
 5003.00    0.97094   1.04270    0.000
 5004.00    1.01697   1.00273    0.000
 5005.00    1.02104   0.97911    0.000
 5006.00    0.94378   1.01405    0.000
 5007.00    0.83703   1.07395    0.000
 5008.00    0.85284   1.09913    0.000
 5009.00    0.90625   1.08569    0.000
 5010.00    0.93873   1.05136    0.000
 5011.00    0.96586   1.00468    0.000
 5012.00    0.88983   0.96997    0.000
 5013.00    0.79237   0.96476    0.000
 5014.00    0.85402   0.99237    0.000
 5015.00    0.94172   1.02008    0.000
 5016.00    0.85592   1.01408    0.000
 5017.00    0.74883   1.00464    0.000
 5018.00    0.78510   1.02549    0.000
 5019.00    0.83348   1.04994    0.000
 5020.00    0.87422   1.04473    0.000
 5021.00    0.91460   1.02996    0.000
 5022.00    0.87377   1.04576    0.000
 5023.00    0.83232   1.07607    0.000
 5024.00    0.82931   1.08520    0.000
 5025.00    0.82688   1.07098    0.000
 5026.00    0.83594   1.04625    0.000
 5027.00    0.84425   1.05104    0.000
 5028.00    0.84379   1.08470    0.000
 5029.00    0.84589   1.10392    0.022
 5030.00    0.86863   1.11591    0.022
 5031.00    0.89340   1.13992    0.023
 5032.00    0.93044   1.15496    0.023
 5033.00    0.96228   1.12915    0.023
 5034.00    0.96923   1.06989    0.023
 5035.00    0.98067   1.03749    0.023
 5036.00    1.00961   1.05200    0.023
 5037.00    1.02244   1.04943    0.023
 5038.00    0.98300   1.00079    0.023
 5039.00    0.93866   0.93663    0.023
 5040.00    0.88085   0.91380    0.023
 5041.00    0.85182   0.97540    0.022
 5042.00    0.89046   1.06424    0.023
 5043.00    0.88290   1.11688    0.023
 5044.00    0.78144   1.14889    0.022
 5045.00    0.70248   1.16068    0.022
 5046.00    0.66330   1.12933    0.022
 5047.00    0.68656   1.07201    0.022
 5048.00    0.80646   1.03627    0.023
 5049.00    0.89454   1.03379    0.023
 5050.00    0.93938   1.04031    0.023
 5051.00    0.96519   1.05533    0.023
 5052.00    0.96822   1.08805    0.023
 5053.00    0.98571   1.11859    0.023
 5054.00    1.01846   1.12993    0.022
 5055.00    1.02329   1.12904    0.022
 5056.00    1.00213   1.13212    0.022
 5057.00    1.00963   1.13949    0.022
 5058.00    1.04064   1.14175    0.022
 5059.00    1.02302   1.14885    0.022
 5060.00    0.97028   1.16245    0.022
 5061.00    1.00359   1.15962    0.022
 5062.00    1.09146   1.12104    0.022
 5063.00    1.07382   1.05945    0.022
 5064.00    0.99769   1.03301    0.022
 5065.00    0.90540   1.05651    0.022
 5066.00    0.80531   1.07007    0.022
 5067.00    0.80079   1.06349    0.022
 5068.00    0.83606   1.07601    0.022
 5069.00    0.83707   1.09729    0.022
 5070.00    0.82588   1.08477    0.022
 5071.00    0.87387   1.06044    0.021
 5072.00    0.93965   1.07030    0.021
 5073.00    0.95903   1.08714    0.021
 5074.00    0.96683   1.08154    0.022
 5075.00    0.82835   1.08068    0.022
 5076.00    0.66023   1.08713    0.021
 5077.00    0.68851   1.05359    0.021
 5078.00    0.74800   0.98432    0.021
 5079.00    0.83038   0.95920    0.021
 5080.00    0.91548   0.99298    0.021
 5081.00    0.92957   1.02332    0.021
 5082.00    0.93796   1.03110    0.021
 5083.00    0.98156   1.05013    0.021
 5084.00    1.02674   1.08053    0.020
 5085.00    1.03798   1.09300    0.021
 5086.00    1.04887   1.08867    0.021
 5087.00    1.06208   1.09071    0.020
 5088.00    1.07135   1.10006    0.020
 5089.00    1.00719   1.10299    0.020
 5090.00    0.95591   1.10724    0.021
 5091.00    1.04807   1.12475    0.020
 5092.00    1.11554   1.14069    0.020
 5093.00    0.99067   1.13445    0.021
 5094.00    0.90545   1.10919    0.021
 5095.00    1.05389   1.07874    0.022
 5096.00    1.16021   1.04401    0.022
 5097.00    1.06999   1.00590    0.022
 5098.00    0.99268   0.99415    0.022
 5099.00    0.96457   1.03271    0.022
 5100.00    0.94741   1.08212    0.021
 5101.00    0.96511   1.09922    0.021
 5102.00    0.96084   1.08898    0.021
 5103.00    0.89733   1.07539    0.021
 5104.00    0.86153   1.06701    0.021
 5105.00    0.88982   1.05189    0.021
 5106.00    0.93348   1.03058    0.021
 5107.00    1.00790   1.02636    0.022
 5108.00    1.03521   1.02991    0.022
 5109.00    0.98042   1.03108    0.022
 5110.00    0.97518   1.05412    0.022
 5111.00    1.04552   1.08211    0.022
 5112.00    1.03078   1.09249    0.023
 5113.00    0.90203   1.09937    0.022
 5114.00    0.87166   1.10634    0.023
 5115.00    0.95738   1.11784    0.023
 5116.00    1.01680   1.13477    0.024
 5117.00    1.04887   1.13821    0.023
 5118.00    1.02918   1.12298    0.023
 5119.00    0.96200   1.09942    0.023
 5120.00    0.96641   1.07461    0.023
 5121.00    1.02874   1.04472    0.023
 5122.00    0.97669   1.00853    0.023
 5123.00    0.84323   0.99313    0.023
 5124.00    0.84214   1.00722    0.023
 5125.00    0.92375   1.02108    0.023
 5126.00    0.91649   1.02069    0.023
 5127.00    0.86074   1.01517    0.022
 5128.00    0.87999   1.01420    0.022
 5129.00    0.93483   1.02816    0.022
 5130.00    1.02820   1.05194    0.022
 5131.00    1.13733   1.06415    0.022
 5132.00    1.14192   1.06678    0.022
 5133.00    1.10995   1.08143    0.022
 5134.00    1.12432   1.09858    0.022
 5135.00    1.15234   1.08231    0.022
 5136.00    1.08649   1.04621    0.022
 5137.00    0.99771   1.01746    0.022
 5138.00    1.02345   1.00764    0.022
 5139.00    1.07182   1.03265    0.021
 5140.00    1.00509   1.04232    0.021
 5141.00    0.92061   1.01130    0.022
 5142.00    0.94708   1.01018    0.022
 5143.00    0.98619   1.04016    0.021
 5144.00    0.98526   1.04029    0.022
 5145.00    0.98127   1.01916    0.022
 5146.00    0.89660   1.01203    0.022
 5147.00    0.80862   1.02644    0.021
 5148.00    0.89210   1.04454    0.021
 5149.00    0.97396   1.03697    0.021
 5150.00    0.92858   1.01451    0.021
 5151.00    0.88595   1.00399    0.021
 5152.00    0.89087   1.00365    0.021
 5153.00    0.89903   1.01353    0.021
 5154.00    0.94160   1.04178    0.021
 5155.00    0.97970   1.07764    0.021
 5156.00    0.98423   1.10482    0.021
 5157.00    0.97660   1.11244    0.021
 5158.00    0.89930   1.10844    0.021
 5159.00    0.85058   1.10882    0.021
 5160.00    0.93207   1.09768    0.021
 5161.00    0.98024   1.07280    0.021
 5162.00    0.90416   1.05898    0.021
 5163.00    0.86279   1.03354    0.021
 5164.00    0.92976   0.96044    0.021
 5165.00    0.92416   0.85763    0.021
 5166.00    0.72636   0.78323    0.021
 5167.00    0.62008   0.79329    0.021
 5168.00    0.72186   0.86982    0.021
 5169.00    0.78223   0.91540    0.021
 5170.00    0.76101   0.85793    0.022
 5171.00    0.73503   0.77159    0.022
 5172.00    0.70089   0.79339    0.021
 5173.00    0.72326   0.91440    0.021
 5174.00    0.83058   1.01134    0.022
 5175.00    0.90914   1.04202    0.022
 5176.00    0.94969   1.05157    0.022
 5177.00    0.97157   1.05823    0.022
 5178.00    0.97173   1.05050    0.022
 5179.00    0.96622   1.02608    0.021
 5180.00    0.95491   0.97147    0.021
 5181.00    0.87212   0.86694    0.021
 5182.00    0.72465   0.76746    0.021
 5183.00    0.68373   0.78621    0.021
 5184.00    0.72779   0.91166    0.021
 5185.00    0.77895   1.01738    0.021
 5186.00    0.83509   1.04997    0.021
 5187.00    0.90203   1.04789    0.022
 5188.00    0.97562   1.06116    0.022
 5189.00    1.05070   1.06237    0.022
 5190.00    1.12658   1.00499    0.000
 5191.00    1.08263   0.95435    0.000
 5192.00    0.98276   0.97329    0.000
 5193.00    0.85818   1.00628    0.000
 5194.00    0.72366   1.01134    0.000
 5195.00    0.81804   1.02331    0.000
 5196.00    0.99098   1.04824    0.000
 5197.00    1.04858   1.06901    0.000
 5198.00    1.07286   1.08660    0.000
 5199.00    0.95239   1.09254    0.000
 5200.00    0.79735   1.08203    0.000
 5201.00    0.77944   1.06611    0.000
 5202.00    0.78793   1.04218    0.000
 5203.00    0.84676   0.99226    0.000
 5204.00    0.91312   0.94385    0.000
 5205.00    0.83590   0.93704    0.000
 5206.00    0.74295   0.94183    0.000
 5207.00    0.82380   0.93067    0.000
 5208.00    0.91719   0.94460    0.000
 5209.00    0.88286   0.99186    0.000
 5210.00    0.84376   1.04532    0.000
 5211.00    0.86953   1.09270    0.021
 5212.00    0.89846   1.11382    0.021
 5213.00    1.03116   1.09444    0.021
 5214.00    1.15570   1.05207    0.021
 5215.00    1.14805   1.03145    0.021
 5216.00    1.13590   1.05081    0.021
 5217.00    1.07791   1.08826    0.021
 5218.00    1.02902   1.11580    0.020
 5219.00    1.04630   1.12809    0.020
 5220.00    1.05463   1.13250    0.020
 5221.00    1.01314   1.12085    0.020
 5222.00    0.96830   1.08585    0.020
 5223.00    0.90855   1.03319    0.021
 5224.00    0.86008   0.97065    0.021
 5225.00    0.85277   0.91829    0.021
 5226.00    0.85780   0.92766    0.021
 5227.00    0.90063   1.00790    0.021
 5228.00    0.93655   1.07905    0.021
 5229.00    0.95449   1.10551    0.021
 5230.00    0.97187   1.10366    0.021
 5231.00    0.98799   1.06747    0.021
 5232.00    0.99644   1.02951    0.021
 5233.00    0.99003   1.03133    0.021
 5234.00    0.99045   1.06285    0.021
 5235.00    1.00241   1.10392    0.021
 5236.00    1.04134   1.13170    0.022
 5237.00    1.12024   1.13525    0.021
 5238.00    1.16572   1.12809    0.021
 5239.00    1.16767   1.12670    0.022
 5240.00    1.15559   1.12884    0.022
 5241.00    1.12741   1.12368    0.022
 5242.00    1.09149   1.12631    0.022
 5243.00    1.04773   1.14434    0.021
 5244.00    1.02548   1.13817    0.022
 5245.00    1.02241   1.08722    0.022
 5246.00    1.01011   1.04671    0.022
 5247.00    0.99054   1.05273    0.021
 5248.00    0.98176   1.05556    0.021
 5249.00    0.98042   1.03701    0.022
 5250.00    1.01247   1.04371    0.022
 5251.00    1.06477   1.07324    0.022
 5252.00    1.07875   1.08333    0.022
 5253.00    1.07244   1.06579    0.022
 5254.00    1.04161   1.05984    0.022
 5255.00    0.99954   1.09910    0.022
 5256.00    1.03195   1.14857    0.022
 5257.00    1.09382   1.16810    0.022
 5258.00    1.00211   1.15727    0.022
 5259.00    0.85866   1.12243    0.022
 5260.00    0.87912   1.06832    0.022
 5261.00    0.94598   1.00844    0.022
 5262.00    0.88274   0.96093    0.022
 5263.00    0.78914   0.92850    0.021
 5264.00    0.82539   0.91165    0.022
 5265.00    0.88598   0.93261    0.022
 5266.00    0.90375   0.97803    0.022
 5267.00    0.91532   0.95969    0.022
 5268.00    0.80282   0.88127    0.022
 5269.00    0.67726   0.87704    0.022
 5270.00    0.71379   0.96943    0.022
 5271.00    0.76137   1.04125    0.022
 5272.00    0.82883   1.05148    0.022
 5273.00    0.89695   1.03878    0.022
 5274.00    0.83465   1.02946    0.021
 5275.00    0.77745   1.05917    0.021
 5276.00    0.88813   1.12214    0.021
 5277.00    0.99399   1.15656    0.021
 5278.00    1.02650   1.14323    0.021
 5279.00    1.05842   1.10809    0.021
 5280.00    1.08459   1.07537    0.021
 5281.00    1.09546   1.05023    0.021
 5282.00    0.99866   1.03554    0.021
 5283.00    0.94724   1.05772    0.021
 5284.00    1.14189   1.12161    0.020
 5285.00    1.28706   1.17268    0.020
 5286.00    1.21714   1.17810    0.020
 5287.00    1.16212   1.16454    0.020
 5288.00    1.16042   1.16518    0.021
 5289.00    1.15126   1.17760    0.021
 5290.00    1.11970   1.17870    0.021
 5291.00    1.08749   1.16387    0.021
 5292.00    1.05360   1.15115    0.021
 5293.00    1.03029   1.14704    0.022
 5294.00    1.03025   1.12532    0.021
 5295.00    1.07190   1.06923    0.021
 5296.00    1.19308   1.01177    0.022
 5297.00    1.23941   1.00858    0.022
 5298.00    1.16110   1.05682    0.022
 5299.00    1.11778   1.08893    0.022
 5300.00    1.12555   1.08596    0.022
 5301.00    1.14392   1.09377    0.021
 5302.00    1.17592   1.13059    0.021
 5303.00    1.17883   1.16855    0.021
 5304.00    1.14888   1.17815    0.021
 5305.00    1.11804   1.16021    0.021
 5306.00    1.08632   1.14301    0.022
 5307.00    1.10270   1.15123    0.022
 5308.00    1.16138   1.17222    0.022
 5309.00    1.17766   1.18000    0.022
 5310.00    1.16109   1.17294    0.021
 5311.00    1.14009   1.16121    0.021
 5312.00    1.11608   1.15191    0.022
 5313.00    1.13252   1.14664    0.021
 5314.00    1.17311   1.13255    0.021
 5315.00    1.24497   1.11190    0.021
 5316.00    1.33311   1.11161    0.022
 5317.00    1.25802   1.12839    0.022
 5318.00    1.10918   1.13559    0.021
 5319.00    1.03729   1.13363    0.021
 5320.00    0.99528   1.12997    0.021
 5321.00    0.99842   1.11517    0.021
 5322.00    1.01649   1.08315    0.021
 5323.00    0.99690   1.06097    0.020
 5324.00    0.96687   1.06880    0.020
 5325.00    0.99156   1.05100    0.020
 5326.00    1.02872   0.96638    0.020
 5327.00    1.04910   0.90078    0.020
 5328.00    1.06641   0.94880    0.020
 5329.00    1.01140   1.05016    0.020
 5330.00    0.94623   1.10358    0.020
 5331.00    0.95400   1.10477    0.020
 5332.00    0.96912   1.10778    0.020
 5333.00    1.04982   1.13242    0.020
 5334.00    1.13472   1.14618    0.020
 5335.00    1.07581   1.13622    0.020
 5336.00    1.01269   1.12559    0.020
 5337.00    0.98099   1.11447    0.020
 5338.00    0.95397   1.07655    0.020
 5339.00    1.06072   1.03501    0.020
 5340.00    1.16210   1.04625    0.020
 5341.00    1.18640   1.09589    0.020
 5342.00    1.20962   1.12688    0.020
 5343.00    1.22284   1.12548    0.020
 5344.00    1.22396   1.10775    0.019
 5345.00    1.14254   1.10045    0.020
 5346.00    1.07688   1.10130    0.020
 5347.00    1.09434   1.08504    0.020
 5348.00    1.10514   1.07529    0.020
 5349.00    1.08764   1.10253    0.020
 5350.00    1.07979   1.14096    0.020
 5351.00    1.10573   1.15551    0.020
 5352.00    1.14874   1.15865    0.020
 5353.00    1.24205   1.17603    0.021
 5354.00    1.27215   1.19524    0.021
 5355.00    1.14342   1.19987    0.020
 5356.00    1.09528   1.19913    0.020
 5357.00    1.22157   1.19910    0.020
 5358.00    1.26650   1.19520    0.020
 5359.00    1.15860   1.17888    0.020
 5360.00    1.08038   1.15071    0.020
 5361.00    1.05086   1.12929    0.021
 5362.00    1.09934   1.12176    0.021
 5363.00    1.26004   1.11228    0.021
 5364.00    1.31120   1.10303    0.021
 5365.00    1.22377   1.10585    0.021
 5366.00    1.11935   1.10906    0.021
 5367.00    0.99598   1.09775    0.021
 5368.00    0.96964   1.05870   -2.000
 5369.00    1.03871   1.00587   -2.000
 5370.00    1.04003   0.99272   -2.000
 5371.00    0.98261   1.04600   -2.000
 5372.00    0.97082   1.11951   -2.000
 5373.00    0.99389   1.16163   -2.000
 5374.00    0.99369   1.17134   -2.000
 5375.00    0.97786   1.16155   -2.000
 5376.00    0.99460   1.15359   -2.000
 5377.00    1.03052   1.15726   -2.000
 5378.00    1.08283   1.15398   -2.000
 5379.00    1.14357   1.13878   -2.000
 5380.00    1.17020   1.12629   -2.000
 5381.00    1.18168   1.11717   -2.000
 5382.00    1.16699   1.11361   -2.000
 5383.00    1.14232   1.12896    0.020
 5384.00    1.13004   1.14826    0.020
 5385.00    1.12178   1.15162    0.020
 5386.00    1.17084   1.14435    0.019
 5387.00    1.23547   1.12942    0.019
 5388.00    1.20228   1.10741    0.019
 5389.00    1.14731   1.09102    0.019
 5390.00    1.13133   1.08568    0.019
 5391.00    1.12228   1.08362    0.019
 5392.00    1.11038   1.08228    0.019
 5393.00    1.09811   1.08268    0.019
 5394.00    1.06328   1.06892    0.019
 5395.00    1.02628   1.03004    0.019
 5396.00    1.03523   1.01384    0.019
 5397.00    1.04695   1.05397    0.019
 5398.00    1.05651   1.09513    0.019
 5399.00    1.06565   1.10317    0.020
 5400.00    1.01307   1.10824    0.019
 5401.00    0.96186   1.10841    0.019
 5402.00    0.94598   1.07034    0.019
 5403.00    0.93560   1.00827    0.019
 5404.00    0.99977   0.97355    0.019
 5405.00    1.05262   0.99421    0.020
 5406.00    1.00365   1.04183    0.020
 5407.00    0.97028   1.05752    0.020
 5408.00    1.04006   1.03512    0.020
 5409.00    1.09017   1.03121    0.020
 5410.00    1.03905   1.07162    0.020
 5411.00    1.03240   1.11455    0.020
 5412.00    1.21032   1.12505    0.020
 5413.00    1.33695   1.11560    0.020
 5414.00    1.28739   1.11926    0.020
 5415.00    1.23328   1.14245    0.020
 5416.00    1.16601   1.15677    0.020
 5417.00    1.11801   1.14797    0.020
 5418.00    1.11763   1.12855    0.020
 5419.00    1.11325   1.11653    0.020
 5420.00    1.10037   1.12328    0.019
 5421.00    1.12715   1.12855    0.019
 5422.00    1.22727   1.10518    0.020
 5423.00    1.24440   1.08520    0.020
 5424.00    1.12742   1.10913    0.020
 5425.00    1.07281   1.15113    0.020
 5426.00    1.10660   1.15821    0.020
 5427.00    1.10662   1.10472    0.020
 5428.00    1.06451   1.04096    0.019
 5429.00    1.08757   1.04466    0.019
 5430.00    1.18225   1.08437    0.019
 5431.00    1.19637   1.08426    0.019
 5432.00    1.13239   1.05464    0.019
 5433.00    1.10527   1.03544    0.019
 5434.00    1.10967   1.04243    0.019
 5435.00    1.12647   1.07201    0.019
 5436.00    1.15262   1.11261    0.018
 5437.00    1.15489   1.15144    0.018
 5438.00    1.14136   1.17456    0.018
 5439.00    1.15934   1.18142    0.019
 5440.00    1.19558   1.18118    0.019
 5441.00    1.20491   1.18045    0.019
 5442.00    1.20065   1.17063    0.019
 5443.00    1.18240   1.13452    0.018
 5444.00    1.15803   1.07182    0.018
 5445.00    1.14729   1.01674    0.019
 5446.00    1.14166   1.02147    0.019
 5447.00    1.14812   1.07852    0.019
 5448.00    1.15844   1.12501    0.019
 5449.00    1.11054   1.13811    0.019
 5450.00    1.04717   1.13393    0.019
 5451.00    1.03382   1.12269    0.019
 5452.00    1.03136   1.09662    0.019
 5453.00    1.12629   1.04824    0.019
 5454.00    1.23803   1.01175    0.020
 5455.00    1.23791   1.03653    0.019
 5456.00    1.22311   1.09927    0.019
 5457.00    1.27084   1.13868    0.019
 5458.00    1.32433   1.13967    0.020
 5459.00    1.22861   1.12096    0.019
 5460.00    1.12449   1.09588    0.019
 5461.00    1.10849   1.06756    0.019
 5462.00    1.09507   1.05905    0.020
 5463.00    1.14415   1.08436    0.020
 5464.00    1.19307   1.10775    0.020
 5465.00    1.23821   1.11105    0.020
 5466.00    1.27466   1.11656    0.019
 5467.00    1.19938   1.12330    0.019
 5468.00    1.13504   1.11417    0.019
 5469.00    1.16543   1.10081    0.019
 5470.00    1.18857   1.09855    0.019
 5471.00    1.16524   1.09194    0.019
 5472.00    1.14715   1.07669    0.019
 5473.00    1.15526   1.06795    0.019
 5474.00    1.15526   1.04371    0.019
 5475.00    1.12231   1.00319    0.019
 5476.00    1.10555   1.00902    0.020
 5477.00    1.14330   1.06549    0.019
 5478.00    1.17420   1.09816   -2.000
 5479.00    1.18562   1.07706   -2.000
 5480.00    1.18624   1.04947   -2.000
 5481.00    1.16063   1.05779   -2.000
 5482.00    1.15812   1.09060   -2.000
 5483.00    1.20397   1.12358   -2.000
 5484.00    1.08368   1.13565   -2.000
 5485.00    0.66082   1.11413   -2.000
 5486.00    0.25545   1.08500   -2.000
 5487.00   -0.12209   1.08341   -2.000
 5488.00   -0.48551   1.09760   -2.000
 5489.00   -0.82923   1.10634   -2.000
 5490.00   -0.76400   1.11502   -2.000
 5491.00   -0.19603   1.11507   -2.000
 5492.00    0.24160   1.10439   -2.000
 5493.00    0.53796   1.10607   -2.000
 5494.00    0.78822   1.11313   -2.000
 5495.00    0.99441   1.09865   -2.000
 5496.00    1.12771   1.08311   -2.000
 5497.00    1.19957   1.10218   -2.000
 5498.00    1.23162   1.12601   -2.000
 5499.00    1.23412   1.11111   -2.000
 5500.00    1.22352   1.08002   -2.000
 5501.00    1.20439   1.07330   -2.000
 5502.00    1.18271   1.08736    0.019
 5503.00    1.15957   1.09374    0.019
 5504.00    1.16669   1.07584    0.019
 5505.00    1.18884   1.05609    0.019
 5506.00    1.17739   1.07036    0.019
 5507.00    1.15150   1.09863    0.019
 5508.00    1.12974   1.10470    0.019
 5509.00    1.10950   1.09193    0.019
 5510.00    1.07058   1.06747    0.019
 5511.00    1.02583   1.04347    0.019
 5512.00    1.06482   1.04073    0.019
 5513.00    1.12561   1.05666    0.019
 5514.00    1.13103   1.07664    0.019
 5515.00    1.12471   1.09446    0.020
 5516.00    1.19596   1.11527    0.019
 5517.00    1.28024   1.13730    0.019
 5518.00    1.27656   1.14455    0.019
 5519.00    1.26175   1.13785    0.019
 5520.00    1.24642   1.13148    0.019
 5521.00    1.23105   1.13047    0.018
 5522.00    1.19030   1.13062    0.018
 5523.00    1.14823   1.12372    0.018
 5524.00    1.07105   1.10551    0.018
 5525.00    0.99532   1.07676    0.018
 5526.00    1.07899   1.04372    0.018
 5527.00    1.16084   1.03507    0.018
 5528.00    1.20352   1.06891    0.018
 5529.00    1.23983   1.10970    0.017
 5530.00    1.19852   1.12202    0.017
 5531.00    1.16436   1.11454    0.017
 5532.00    1.18972   1.10287    0.017
 5533.00    1.20639   1.08938    0.018
 5534.00    1.16894   1.08608    0.018
 5535.00    1.13464   1.09931    0.017
 5536.00    1.11569   1.10914    0.018
 5537.00    1.10628   1.11337    0.018
 5538.00    1.13476   1.12684    0.018
 5539.00    1.15904   1.14267    0.018
 5540.00    1.16944   1.14323    0.018
 5541.00    1.18038   1.12532    0.019
 5542.00    1.19282   1.10820    0.019
 5543.00    1.19209   1.10672    0.022
 5544.00    1.15996   1.10918    0.055
 5545.00    1.14086   1.11191   -1.000
 5546.00    1.14865   1.12712   -1.000
 5547.00    1.15373   1.14647   -1.000
 5548.00    1.15396   1.15421 1948.307
 5549.00    1.15392   1.15352 1948.307
 5550.00    1.15343   1.14815   -1.000
 5551.00    1.14186   1.13427   -1.000
 5552.00    1.11505   1.11530 1948.307
 5553.00    1.09027   1.10594   -1.000
 5554.00    1.06793   1.11234   -1.000
 5555.00    1.02463   1.11960    0.076
 5556.00    0.95893   1.11834    0.025
 5557.00    0.97170   1.11846    0.019
 5558.00    1.05843   1.12187    0.018
 5559.00    1.11596   1.12028    0.018
 5560.00    1.14922   1.11058    0.018
 5561.00    1.16594   1.09615    0.018
 5562.00    1.17057   1.08943    0.018
 5563.00    1.13084   1.09033    0.018
 5564.00    1.06261   1.08509    0.018
 5565.00    1.07620   1.08041    0.018
 5566.00    1.13576   1.08414    0.018
 5567.00    1.15710   1.08327    0.018
 5568.00    1.15974   1.07973    0.017
 5569.00    1.17500   1.09061    0.018
 5570.00    1.19557   1.09483    0.018
 5571.00    1.17632   1.07630    0.017
 5572.00    1.14265   1.07601    0.017
 5573.00    1.14283   1.09987    0.017
 5574.00    1.15337   1.10772    0.017
 5575.00    1.17050   1.10590    0.017
 5576.00    1.18930   1.11245    0.017
 5577.00    1.19305   1.11613    0.017
 5578.00    1.19368   1.11897    0.017
 5579.00    1.19225   1.12034    0.017
 5580.00    1.19047   1.11076    0.017
 5581.00    1.14116   1.10427    0.017
 5582.00    1.08605   1.10713    0.017
 5583.00    1.02489   1.09990    0.017
 5584.00    0.96322   1.07114    0.017
 5585.00    0.99505   1.02913    0.018
 5586.00    1.03140   0.99755    0.018
 5587.00    1.10209   0.99259    0.018
 5588.00    1.17184   1.01120    0.018
 5589.00    1.15532   1.04152    0.018
 5590.00    1.13734   1.06318    0.019
 5591.00    1.09036   1.06539    0.019
 5592.00    1.04652   1.05675    0.019
 5593.00    1.03926   1.05969    0.019
 5594.00    1.02935   1.08978    0.019
 5595.00    0.99821   1.11266    0.019
 5596.00    0.96466   1.09163    0.019
 5597.00    0.91647   1.05854    0.019
 5598.00    0.88855   1.05013    0.019
 5599.00    0.95725   1.04686    0.019
 5600.00    1.00384   1.03166    0.019
 5601.00    0.96455   1.02443    0.019
 5602.00    0.95990   1.04804    0.018
 5603.00    1.06736   1.09386    0.018
 5604.00    1.12799   1.12985    0.018
 5605.00    1.06037   1.14438    0.018
 5606.00    1.02111   1.14518    0.018
 5607.00    1.04837   1.14080    0.018
 5608.00    1.07801   1.13707    0.018
 5609.00    1.11247   1.13814    0.018
 5610.00    1.13251   1.14505    0.017
 5611.00    1.12708   1.14730    0.017
 5612.00    1.10853   1.12094    0.017
 5613.00    1.06971   1.05792    0.017
 5614.00    1.04537   1.00990    0.017
 5615.00    1.04068   1.02747    0.017
 5616.00    1.06521   1.07183    0.017
 5617.00    1.12463   1.08826    0.017
 5618.00    1.15865   1.08594    0.017
 5619.00    1.16590   1.09276    0.017
 5620.00    1.13696   1.10875    0.017
 5621.00    1.07441   1.10873    0.017
 5622.00    1.01227   1.07625    0.017
 5623.00    0.95048   1.04027    0.017
 5624.00    0.97587   1.04305    0.017
 5625.00    1.06412   1.07239    0.017
 5626.00    1.11182   1.09304    0.017
 5627.00    1.13386   1.10637    0.017
 5628.00    1.12784   1.12148    0.017
 5629.00    1.10630   1.13091    0.017
 5630.00    1.08502   1.13131    0.017
 5631.00    1.06388   1.12519    0.018
 5632.00    1.05846   1.11522    0.018
 5633.00    1.05958   1.10481    0.018
 5634.00    1.13129   1.09327    0.018
 5635.00    1.22807   1.07916    0.018
 5636.00    1.22217   1.07119    0.018
 5637.00    1.18546   1.07759    0.018
 5638.00    1.19565   1.08505    0.018
 5639.00    1.21751   1.07697    0.018
 5640.00    1.19556   1.06800    0.018
 5641.00    1.16476   1.07529    0.017
 5642.00    1.14098   1.08596    0.017
 5643.00    1.11832   1.09144    0.017
 5644.00    1.15377   1.09701    0.017
 5645.00    1.19606   1.10357    0.018
 5646.00    1.13816   1.10793    0.017
 5647.00    1.07225   1.10472    0.017
 5648.00    1.07282   1.09805    0.017
 5649.00    1.07636   1.10096    0.017
 5650.00    1.07610   1.11460    0.017
 5651.00    1.07599   1.12322    0.017
 5652.00    1.08493   1.11274    0.017
 5653.00    1.09541   1.09247    0.017
 5654.00    1.13436   1.08675    0.017
 5655.00    1.16944   1.08172    0.017
 5656.00    1.16177   1.04264    0.017
 5657.00    1.15125   1.00565    0.017
 5658.00    1.11858   1.02591    0.016
 5659.00    1.08127   1.06502    0.016
 5660.00    1.01676   1.06570    0.016
 5661.00    0.96335   1.05138    0.016
 5662.00    0.96160   1.06370    0.016
 5663.00    0.96608   1.09195    0.016
 5664.00    0.99426   1.10460    0.017
 5665.00    1.02897   1.09389    0.017
 5666.00    1.08441   1.07747    0.017
 5667.00    1.11971   1.07397    0.017
 5668.00    1.10085   1.08124    0.017
 5669.00    1.10824   1.08989    0.017
 5670.00    1.17618   1.10283    0.017
 5671.00    1.21662   1.12277    0.017
 5672.00    1.20212   1.13521    0.017
 5673.00    1.16485   1.12989    0.018
 5674.00    1.08796   1.12295    0.018
 5675.00    1.04416   1.12887    0.018
 5676.00    1.05073   1.13250    0.018
 5677.00    1.05544   1.12330    0.018
 5678.00    1.05768   1.11566    0.018
 5679.00    1.04221   1.11255    0.018
 5680.00    1.00590   1.09693    0.018
 5681.00    0.97271   1.07462    0.018
 5682.00    0.94276   1.07219    0.017
 5683.00    0.94681   1.08700    0.017
 5684.00    0.98203   1.09265    0.017
 5685.00    0.99723   1.07910    0.017
 5686.00    0.99627   1.06356    0.017
 5687.00    1.04336   1.06584    0.017
 5688.00    1.12458   1.08544    0.017
 5689.00    1.16990   1.10652    0.017
 5690.00    1.19285   1.12162    0.017
 5691.00    1.17981   1.13095    0.017
 5692.00    1.14718   1.12936    0.017
 5693.00    1.16513   1.12209    0.017
 5694.00    1.20701   1.12070    0.017
 5695.00    1.20369   1.12041    0.017
 5696.00    1.18191   1.10768    0.017
 5697.00    1.11270   1.09085    0.017
 5698.00    1.02695   1.08334    0.017
 5699.00    1.00480   1.07289    0.017
 5700.00    1.00136   1.05976    0.017
 5701.00    1.02995   1.06374    0.017
 5702.00    1.06634   1.08255    0.017
 5703.00    1.06445   1.09188    0.017
 5704.00    1.05501   1.07845    0.017
 5705.00    1.03593   1.05638    0.017
 5706.00    1.01536   1.03734    0.017
 5707.00    1.02036   1.01899    0.017
 5708.00    1.02826   1.01322    0.017
 5709.00    1.02127   1.02149    0.017
 5710.00    1.01315   1.02971    0.017
 5711.00    1.08759   1.05106    0.017
 5712.00    1.16540   1.08529    0.017
 5713.00    1.13707   1.10526    0.017
 5714.00    1.10894   1.11210    0.017
 5715.00    1.12282   1.11557    0.017
 5716.00    1.13558   1.11392    0.017
 5717.00    1.12896   1.11595    0.018
 5718.00    1.12522   1.12487    0.018
 5719.00    1.15184   1.13273    0.017
 5720.00    1.17837   1.14060    0.017
 5721.00    1.20414   1.14780    0.018
 5722.00    1.22655   1.14849    0.018
 5723.00    1.22982   1.14337    0.017
 5724.00    1.22728   1.13079    0.017
 5725.00    1.19840   1.10960    0.017
 5726.00    1.16630   1.09943    0.017
 5727.00    1.12219   1.11356    0.017
 5728.00    1.08886   1.12714    0.017
 5729.00    1.08910   1.11659    0.017
 5730.00    1.09469   1.10071    0.017
 5731.00    1.11440   1.10752    0.016
 5732.00    1.12799   1.12751    0.016
 5733.00    1.12766   1.13868    0.017
 5734.00    1.14532   1.13740    0.017
 5735.00    1.19830   1.13014    0.017
 5736.00    1.24146   1.12512    0.017
 5737.00    1.26781   1.12411    0.017
 5738.00    1.28759   1.12409    0.017
 5739.00    1.29749   1.12399    0.017
 5740.00    1.29878   1.12154    0.000
 5741.00    1.28871   1.11666    0.000
 5742.00    1.26563   1.11850    0.000
 5743.00    1.22746   1.13198    0.000
 5744.00    1.22377   1.14387    0.000
 5745.00    1.25539   1.13550    0.000
 5746.00    1.28259   1.11081    0.000
 5747.00    1.30580   1.10097    0.000
 5748.00    1.30557   1.11853    0.000
 5749.00    1.28669   1.13507    0.000
 5750.00    1.25878   1.12400    0.000
 5751.00    1.22456   1.09127    0.000
 5752.00    1.20269   1.06460    0.000
 5753.00    1.18840   1.06931    0.000
 5754.00    1.19965   1.10155    0.000
 5755.00    1.22459   1.13218    0.000
 5756.00    1.22840   1.14511    0.000
 5757.00    1.22237   1.14119    0.000
 5758.00    1.19571   1.12361    0.000
 5759.00    1.16077   1.09944    0.000
 5760.00    1.14820   1.07569    0.000
 5761.00    1.14329   1.06427    0.000
 5762.00    1.17201   1.08198    0.000
 5763.00    1.21043   1.11727    0.000
 5764.00    1.23642   1.13877    0.000
 5765.00    1.25944   1.14308    0.000
 5766.00    1.29210   1.14242    0.000
 5767.00    1.32661   1.13947    0.000
 5768.00    1.33079   1.13510    0.000
 5769.00    1.33046   1.13015    0.000
 5770.00    1.30706   1.12263    0.000
 5771.00    1.28115   1.11702    0.000
 5772.00    1.25851   1.11464    0.000
 5773.00    1.23610   1.11181    0.000
 5774.00    1.22971   1.11496    0.000
 5775.00    1.22392   1.12425    0.000
 5776.00    1.19942   1.12860    0.000
 5777.00    1.17596   1.12149    0.000
 5778.00    1.19204   1.09722    0.000
 5779.00    1.20880   1.05937    0.000
 5780.00    1.23658   1.03510    0.000
 5781.00    1.25662   1.03984    0.000
 5782.00    1.19824   1.04967    0.000
 5783.00    1.14909   1.04408    0.000
 5784.00    1.16686   1.04339    0.000
 5785.00    1.18185   1.06666    0.000
 5786.00    1.18139   1.09432    0.000
 5787.00    1.17475   1.10909    0.000
 5788.00    1.14065   1.10825    0.000
 5789.00    1.11690   1.09417    0.000
 5790.00    1.13085   1.08957    0.000
 5791.00    1.13687   1.10350   -2.000
 5792.00    1.11865   1.12033   -2.000
 5793.00    1.10889   1.13344   -2.000
 5794.00    1.12111   1.13676   -2.000
 5795.00    1.12297   1.12023   -2.000
 5796.00    1.10168   1.09838   -2.000
 5797.00    1.09603   1.10218   -2.000
 5798.00    1.12060   1.12952   -2.000
 5799.00    1.13710   1.15149   -2.000
 5800.00    1.14000   1.15929   -2.000
 5801.00    1.15478   1.15481   -2.000
 5802.00    1.18710   1.13538   -2.000
 5803.00    1.20730   1.11420   -2.000
 5804.00    1.21176   1.10802   -2.000
 5805.00    1.19359   1.11423   -2.000
 5806.00    1.14951   1.12212   -2.000
 5807.00    1.16363   1.12621   -2.000
 5808.00    1.23653   1.12983   -2.000
 5809.00    1.26355   1.13525   -2.000
 5810.00    1.24972   1.13787   -2.000
 5811.00    1.21391   1.13647    0.000
 5812.00    1.16087   1.13096    0.000
 5813.00    1.13655   1.11726    0.000
 5814.00    1.13207   1.09984    0.000
 5815.00    1.12991   1.09657    0.000
 5816.00    1.12917   1.11509    0.000
 5817.00    1.14206   1.13742    0.000
 5818.00    1.16214   1.14766    0.000
 5819.00    1.19278   1.14907    0.000
 5820.00    1.22826   1.14604    0.000
 5821.00    1.23392   1.13992    0.000
 5822.00    1.22782   1.13640    0.000
 5823.00    1.24070   1.13954    0.000
 5824.00    1.25996   1.14368    0.000
 5825.00    1.28986   1.14344    0.000
 5826.00    1.32277   1.14245    0.000
 5827.00    1.31249   1.14505    0.000
 5828.00    1.29215   1.14862    0.000
 5829.00    1.29328   1.14758    0.000
 5830.00    1.29842   1.14442    0.000
 5831.00    1.24279   1.14251    0.000
 5832.00    1.17839   1.13673    0.000
 5833.00    1.17597   1.12878    0.000
 5834.00    1.18004   1.13029    0.000
 5835.00    1.16582   1.13705    0.000
 5836.00    1.15037   1.13389    0.000
 5837.00    1.14374   1.12750    0.000
 5838.00    1.13740   1.13305    0.000
 5839.00    1.17503   1.14581    0.000
 5840.00    1.21288   1.15388    0.000
 5841.00    1.25699   1.15530    0.000
 5842.00    1.29527   1.15192    0.000
 5843.00    1.24531   1.14443    0.000
 5844.00    1.19936   1.13349    0.000
 5845.00    1.19242   1.12014    0.000
 5846.00    1.18124   1.11136    0.000
 5847.00    1.14038   1.11278    0.000
 5848.00    1.10903   1.11836    0.000
 5849.00    1.12914   1.11808    0.000
 5850.00    1.14571   1.10503    0.000
 5851.00    1.14691   1.08248    0.000
 5852.00    1.14463   1.07081    0.000
 5853.00    1.12995   1.08030    0.000
 5854.00    1.11491   1.08567    0.000
 5855.00    1.09882   1.06475    0.000
 5856.00    1.09690   1.04071    0.000
 5857.00    1.13113   1.04613    0.000
 5858.00    1.15100   1.07219    0.000
 5859.00    1.13936   1.09280    0.000
 5860.00    1.11975   1.09583    0.000
 5861.00    1.08494   1.09035    0.000
 5862.00    1.07488   1.09480    0.000
 5863.00    1.10592   1.10405    0.000
 5864.00    1.12287   1.09946    0.000
 5865.00    1.11930   1.08673    0.000
 5866.00    1.12024   1.08902    0.000
 5867.00    1.12696   1.10649    0.000
 5868.00    1.15167   1.12143    0.000
 5869.00    1.19671   1.12635    0.000
 5870.00    1.21263   1.12185    0.000
 5871.00    1.19958   1.11305    0.000
 5872.00    1.21266   1.10890    0.000
 5873.00    1.24870   1.10998    0.000
 5874.00    1.25576   1.10803    0.000
 5875.00    1.24041   1.10252    0.000
 5876.00    1.22353   1.09858    0.000
 5877.00    1.20561   1.09226    0.000
 5878.00    1.18599   1.08053    0.000
 5879.00    1.16536   1.07536    0.000
 5880.00    1.13107   1.08314    0.000
 5881.00    1.08968   1.08760    0.000
 5882.00    1.10595   1.08009    0.000
 5883.00    1.14820   1.07580    0.000
 5884.00    1.16861   1.08068    0.000
 5885.00    1.18055   1.07632    0.000
 5886.00    1.14842   1.03298    0.000
 5887.00    1.10175   0.92882    0.000
 5888.00    1.05050   0.81352    0.000
 5889.00    0.99798   0.79652    0.000
 5890.00    0.95627   0.88091    0.000
 5891.00    0.91701   0.96147    0.000
 5892.00    0.90164   0.98319    0.000
 5893.00    0.89062   0.93730    0.000
 5894.00    0.89779   0.86057    0.000
 5895.00    0.90750   0.85565    0.000
 5896.00    0.93944   0.93467    0.000
 5897.00    0.97361   1.00376    0.000
 5898.00    0.98766   1.03378    0.000
 5899.00    1.00044   1.05531    0.000
 5900.00    1.05814   1.07192    0.000
 5901.00    1.11705   1.07876    0.016
 5902.00    1.13591   1.08168    0.016
 5903.00    1.15358   1.07971    0.016
 5904.00    1.13770   1.07377    0.016
 5905.00    1.12278   1.07479    0.016
 5906.00    1.12153   1.08424    0.016
 5907.00    1.12470   1.09000    0.016
 5908.00    1.16908   1.08944    0.016
 5909.00    1.20721   1.09283    0.016
 5910.00    1.20285   1.09789    0.016
 5911.00    1.19710   1.08831    0.016
 5912.00    1.18407   1.06357    0.016
 5913.00    1.17483   1.04637    0.016
 5914.00    1.18165   1.04771    0.016
 5915.00    1.18395   1.06011    0.016
 5916.00    1.17044   1.07441    0.016
 5917.00    1.15177   1.08371    0.016
 5918.00    1.11795   1.09029    0.016
 5919.00    1.08552   1.09232    0.016
 5920.00    1.05659   1.08571    0.016
 5921.00    1.04934   1.08117    0.016
 5922.00    1.08891   1.08597    0.016
 5923.00    1.12999   1.09346    0.016
 5924.00    1.17393   1.09901    0.016
 5925.00    1.20453   1.09930    0.016
 5926.00    1.21328   1.09109    0.016
 5927.00    1.23244   1.07632    0.017
 5928.00    1.26654   1.06249    0.017
 5929.00    1.26756   1.06581    0.017
 5930.00    1.22682   1.08630    0.017
 5931.00    1.18452   1.09790    0.016
 5932.00    1.14047   1.08649    0.016
 5933.00    1.13520   1.07086    0.016
 5934.00    1.16801   1.07450    0.016
 5935.00    1.16975   1.08985    0.016
 5936.00    1.14459   1.09955    0.016
 5937.00    1.14636   1.10407    0.015
 5938.00    1.16867   1.10028    0.016
 5939.00    1.18181   1.08360    0.016
 5940.00    1.18879   1.07064    0.016
 5941.00    1.15647   1.07451    0.016
 5942.00    1.10108   1.08617    0.016
 5943.00    1.07165   1.09743    0.016
 5944.00    1.05550   1.10613    0.016
 5945.00    1.07949   1.10458    0.016
 5946.00    1.12128   1.08694    0.016
 5947.00    1.13769   1.06624    0.016
 5948.00    1.14445   1.06594    0.016
 5949.00    1.16897   1.08174    0.016
 5950.00    1.19923   1.08333    0.016
 5951.00    1.21737   1.06882    0.016
 5952.00    1.23222   1.06820    0.016
 5953.00    1.23047   1.08228    0.016
 5954.00    1.22504   1.08288    0.016
 5955.00    1.21401   1.06959    0.017
 5956.00    1.20198   1.06513    0.017
 5957.00    1.19541   1.07519    0.016
 5958.00    1.18958   1.09065    0.016
 5959.00    1.19755   1.10378    0.016
 5960.00    1.20684   1.11073    0.016
 5961.00    1.20088   1.11124    0.016
 5962.00    1.19400   1.10795    0.016
 5963.00    1.16555   1.10026    0.016
 5964.00    1.13683   1.09066    0.016
 5965.00    1.15128   1.09129    0.016
 5966.00    1.16635   1.10110    0.016
 5967.00    1.19699   1.10873    0.016
 5968.00    1.22604   1.11360    0.016
 5969.00    1.23361   1.11763    0.016
 5970.00    1.23951   1.11833    0.016
 5971.00    1.23053   1.11634    0.016
 5972.00    1.22073   1.11166    0.015
 5973.00    1.20564   1.09933    0.015
 5974.00    1.18890   1.08090    0.015
 5975.00    1.16374   1.06723    0.015
 5976.00    1.13799   1.06487    0.016
 5977.00    1.10976   1.07309    0.016
 5978.00    1.09956   1.08867    0.016
 5979.00    1.15108   1.10164    0.016
 5980.00    1.19163   1.10163    0.016
 5981.00    1.20050   1.08439    0.016
 5982.00    1.18921   1.05710    0.016
 5983.00    1.12827   1.04531    0.016
 5984.00    1.08715   1.05956    0.016
 5985.00    1.08817   1.07663    0.016
 5986.00    1.10503   1.08351    0.016
 5987.00    1.15113   1.08995    0.016
 5988.00    1.17832   1.09591    0.016
 5989.00    1.17503   1.09176    0.016
 5990.00    1.18582   1.08541    0.016
 5991.00    1.21654   1.09366    0.016
 5992.00    1.24078   1.11008    0.016
 5993.00    1.25695   1.11608    0.016
 5994.00    1.25180   1.10734    0.016
 5995.00    1.22326   1.09053    0.016
 5996.00    1.18298   1.07732    0.016
 5997.00    1.13135   1.07706    0.015
 5998.00    1.11435   1.08625    0.015
 5999.00    1.12689   1.09371    0.015
 6000.00    1.14925   1.08841    0.015
 6001.00    1.17899   1.07539    0.015
 6002.00    1.20872   1.07521    0.015
 6003.00    1.23844   1.08549    0.015
 6004.00    1.25891   1.08489    0.015
 6005.00    1.27405   1.06785    0.015
 6006.00    1.23211   1.04579    0.015
 6007.00    1.16143   1.04418    0.015
 6008.00    1.16974   1.07133    0.015
 6009.00    1.21250   1.09600    0.016
 6010.00    1.24888   1.09295    0.016
 6011.00    1.28287   1.07337    0.016
 6012.00    1.27984   1.06508    0.016
 6013.00    1.26505   1.07357    0.016
 6014.00    1.20144   1.07599    0.016
 6015.00    1.12487   1.06897    0.016
 6016.00    1.10561   1.07073    0.016
 6017.00    1.09877   1.07397    0.016
 6018.00    1.13831   1.06396    0.016
 6019.00    1.18582   1.05384    0.017
 6020.00    1.16514   1.05698    0.017
 6021.00    1.13554   1.06542    0.017
 6022.00    1.12769   1.06965    0.016
 6023.00    1.12183   1.07704    0.016
 6024.00    1.16525   1.08798    0.016
 6025.00    1.21141   1.09024    0.016
 6026.00    1.21062   1.09215    0.016
 6027.00    1.20889   1.10239    0.016
 6028.00    1.21664   1.10899    0.016
 6029.00    1.22452   1.10723    0.016
 6030.00    1.23567   1.10766    0.016
 6031.00    1.24672   1.11366    0.015
 6032.00    1.25644   1.11750    0.015
 6033.00    1.26413   1.11676    0.015
 6034.00    1.25439   1.11555    0.015
 6035.00    1.24136   1.11591    0.015
 6036.00    1.20730   1.11610    0.015
 6037.00    1.17485   1.11228    0.015
 6038.00    1.15041   1.10566    0.015
 6039.00    1.13381   1.10197    0.015
 6040.00    1.14891   1.10118    0.016
 6041.00    1.17372   1.10555    0.016
 6042.00    1.23116   1.11534    0.016
 6043.00    1.26961   1.12190    0.016
 6044.00    1.25422   1.12331    0.016
 6045.00    1.23774   1.12436    0.016
 6046.00    1.21863   1.12435    0.016
 6047.00    1.20041   1.12186    0.016
 6048.00    1.18404   1.12237    0.016
 6049.00    1.18351   1.12551    0.016
 6050.00    1.21174   1.12304    0.016
 6051.00    1.22266   1.11393    0.016
 6052.00    1.20607   1.10541    0.016
 6053.00    1.17038   1.09932    0.016
 6054.00    1.10808   1.09190    0.016
 6055.00    1.07859   1.08798    0.016
 6056.00    1.08936   1.09320    0.015
 6057.00    1.11660   1.10442    0.015
 6058.00    1.16166   1.11453    0.016
 6059.00    1.18961   1.11791    0.016
 6060.00    1.20124   1.11267    0.015
 6061.00    1.19166   1.10113    0.015
 6062.00    1.16426   1.08441    0.015
 6063.00    1.14896   1.06172    0.015
 6064.00    1.14264   1.05459    0.015
 6065.00    1.14753   1.08046    0.015
 6066.00    1.15971   1.11327    0.015
 6067.00    1.18482   1.12820    0.015
 6068.00    1.21729   1.13039    0.015
 6069.00    1.25504   1.13049    0.015
 6070.00    1.29541   1.13173    0.015
 6071.00    1.27234   1.13280    0.015
 6072.00    1.22207   1.13264    0.015
 6073.00    1.20910   1.13128    0.016
 6074.00    1.20983   1.12672    0.016
 6075.00    1.21192   1.11626    0.016
 6076.00    1.21444   1.09828    0.016
 6077.00    1.21472   1.08357    0.016
 6078.00    1.21441   1.08518    0.016
 6079.00    1.22769   1.08872    0.016
 6080.00    1.24385   1.08028    0.016
 6081.00    1.22264   1.07529    0.016
 6082.00    1.19519   1.08144    0.016
 6083.00    1.15300   1.08399    0.015
 6084.00    1.10896   1.08220    0.015
 6085.00    1.12236   1.08778    0.015
 6086.00    1.14080   1.09780    0.015
 6087.00    1.18315   1.09651    0.015
 6088.00    1.22673   1.08089    0.015
 6089.00    1.22133   1.07010    0.015
 6090.00    1.21468   1.07284    0.015
 6091.00    1.18159   1.07786    0.015
 6092.00    1.14934   1.08550    0.015
 6093.00    1.13499   1.10115    0.015
 6094.00    1.12176   1.11025    0.015
 6095.00    1.12206   1.10451    0.015
 6096.00    1.11911   1.09959    0.015
 6097.00    1.08921   1.10572    0.015
 6098.00    1.06606   1.11386    0.015
 6099.00    1.08482   1.10284    0.015
 6100.00    1.10264   1.05626    0.016
 6101.00    1.11584   1.00978    0.015
 6102.00    1.13547   1.02050    0.015
 6103.00    1.18054   1.06874    0.016
 6104.00    1.21990   1.09854    0.016
 6105.00    1.24046   1.09874    0.016
 6106.00    1.24845   1.08945    0.016
 6107.00    1.22144   1.09245    0.016
 6108.00    1.20444   1.10350    0.016
 6109.00    1.21126   1.10123    0.016
 6110.00    1.22825   1.09276    0.016
 6111.00    1.26613   1.09807    0.016
 6112.00    1.27903   1.11173    0.016
 6113.00    1.24720   1.11591    0.016
 6114.00    1.21581   1.10486    0.016
 6115.00    1.18512   1.09585    0.015
 6116.00    1.16061   1.10101    0.015
 6117.00    1.14463   1.10118    0.015
 6118.00    1.14155   1.08348    0.015
 6119.00    1.15410   1.05432    0.015
 6120.00    1.15517   1.02342    0.015
 6121.00    1.14399   1.02232    0.015
 6122.00    1.11883   1.05960    0.015
 6123.00    1.08050   1.08939    0.015
 6124.00    1.06392   1.09009    0.015
 6125.00    1.06537   1.08079    0.015
 6126.00    1.08637   1.07340    0.015
 6127.00    1.12164   1.07336    0.015
 6128.00    1.14011   1.08560    0.015
 6129.00    1.14782   1.10072    0.015
 6130.00    1.13843   1.10709    0.015
 6131.00    1.11947   1.10757    0.015
 6132.00    1.11813   1.10085    0.015
 6133.00    1.12540   1.07489    0.016
 6134.00    1.09771   1.02322    0.016
 6135.00    1.05529   0.96791    0.016
 6136.00    1.03682   0.96406    0.016
 6137.00    1.02700   1.02253    0.016
 6138.00    1.07313   1.07682    0.016
 6139.00    1.13634   1.07662    0.016
 6140.00    1.18101   1.05252    0.016
 6141.00    1.22098   1.05826    0.016
 6142.00    1.20417   1.08949    0.016
 6143.00    1.17564   1.10964    0.015
 6144.00    1.13414   1.11098    0.015
 6145.00    1.09054   1.10349    0.015
 6146.00    1.08971   1.08915    0.015
 6147.00    1.09408   1.07192    0.014
 6148.00    1.14962   1.06146    0.015
 6149.00    1.20944   1.06427    0.015
 6150.00    1.22361   1.07781    0.015
 6151.00    1.23559   1.09080    0.015
 6152.00    1.23624   1.08740    0.015
 6153.00    1.23615   1.07233    0.015
 6154.00    1.20267   1.06766    0.015
 6155.00    1.16904   1.07159    0.015
 6156.00    1.13261   1.07109    0.015
 6157.00    1.09856   1.06641    0.015
 6158.00    1.09199   1.04709    0.015
 6159.00    1.08880   0.99606    0.016
 6160.00    1.11269   0.93770    0.016
 6161.00    1.13413   0.92097    0.016
 6162.00    1.14088   0.95208    0.016
 6163.00    1.14759   0.99393    0.016
 6164.00    1.15412   1.01846    0.016
 6165.00    1.16007   1.03163    0.016
 6166.00    1.16382   1.03197    0.016
 6167.00    1.17056   1.00162    0.016
 6168.00    1.18694   0.96982    0.016
 6169.00    1.20445   0.98448    0.015
 6170.00    1.22502   1.02526    0.015
 6171.00    1.23964   1.04332    0.015
 6172.00    1.24031   1.04181    0.015
 6173.00    1.24269   1.04242    0.015
 6174.00    1.24855   1.04223    0.015
 6175.00    1.23950   1.03987    0.015
 6176.00    1.20418   1.04737    0.014
 6177.00    1.17482   1.05840    0.014
 6178.00    1.15468   1.05815    0.015
 6179.00    1.14513   1.05807    0.015
 6180.00    1.14992   1.06716    0.015
 6181.00    1.15264   1.07311    0.015
 6182.00    1.15290   1.07208    0.015
 6183.00    1.14760   1.06803    0.015
 6184.00    1.13646   1.05588    0.015
 6185.00    1.14687   1.03894    0.015
 6186.00    1.17725   1.02921    0.016
 6187.00    1.19615   1.02802    0.016
 6188.00    1.20565   1.01926    0.016
 6189.00    1.16549   0.98866    0.016
 6190.00    1.08959   0.96947    0.016
 6191.00    1.07009   0.99581    0.016
 6192.00    1.08622   1.03546    0.016
 6193.00    1.06529   1.05376    0.016
 6194.00    1.02389   1.06007    0.016
 6195.00    0.89324   1.06633    0.016
 6196.00    0.71973   1.06429   -2.000
 6197.00    0.54308   1.04398   -2.000
 6198.00    0.36514   1.02105   -2.000
 6199.00    0.36862   1.02248   -2.000
 6200.00    0.43641   1.04500   -2.000
 6201.00    0.51129   1.06358   -2.000
 6202.00    0.58828   1.06745   -2.000
 6203.00    0.69692   1.06535   -2.000
 6204.00    0.81343   1.06702   -2.000
 6205.00    0.93250   1.07083   -2.000
 6206.00    1.05208   1.07216   -2.000
 6207.00    1.14308   1.07074   -2.000
 6208.00    1.22957   1.06531    0.015
 6209.00    1.21401   1.05728    0.016
 6210.00    1.18650   1.04728    0.016
 6211.00    1.11954   1.02520    0.015
 6212.00    1.04944   0.99693    0.015
 6213.00    1.04738   0.98189    0.015
 6214.00    1.04831   0.98504    0.015
 6215.00    1.07192   1.00348    0.015
 6216.00    1.09560   1.02026    0.015
 6217.00    1.11137   1.01416    0.015
 6218.00    1.12760   0.99808    0.016
 6219.00    1.15216   0.99737    0.015
 6220.00    1.17676   1.01183    0.015
 6221.00    1.20173   1.02435    0.015
 6222.00    1.22595   1.02459    0.015
 6223.00    1.24434   1.02313    0.015
 6224.00    1.25815   1.02825    0.015
 6225.00    1.24523   1.03272    0.015
 6226.00    1.22883   1.03199    0.015
 6227.00    1.19630   1.01755    0.015
 6228.00    1.16091   0.98293    0.015
 6229.00    1.11469   0.95426    0.015
 6230.00    1.08435   0.95898    0.015
 6231.00    1.10428   0.98408    0.015
 6232.00    1.12566   1.01467    0.014
 6233.00    1.15094   1.04302    0.015
 6234.00    1.17409   1.05351    0.015
 6235.00    1.19234   1.04377    0.015
 6236.00    1.19860   1.02593    0.015
 6237.00    1.18098   1.00838    0.015
 6238.00    1.15173   0.99481    0.015
 6239.00    1.10230   0.99573    0.015
 6240.00    1.06309   1.00125    0.015
 6241.00    1.03943   0.98955    0.015
 6242.00    1.03520   0.97756    0.015
 6243.00    1.05692   0.97932    0.015
 6244.00    1.07896   0.98117    0.015
 6245.00    1.10138   0.98946    0.015
 6246.00    1.11808   1.01297    0.015
 6247.00    1.12886   1.03420    0.016
 6248.00    1.12533   1.04045    0.015
 6249.00    1.10872   1.02966    0.015
 6250.00    1.08984   1.00107    0.015
 6251.00    1.06913   0.97486    0.015
 6252.00    1.05770   0.96998    0.015
 6253.00    1.05286   0.97782    0.015
 6254.00    1.06115   0.97851    0.015
 6255.00    1.07762   0.96613    0.015
 6256.00    1.07515   0.95077    0.015
 6257.00    1.06238   0.95198    0.015
 6258.00    1.04222   0.97653    0.015
 6259.00    1.01856   1.00047    0.016
 6260.00    0.98167   1.01712    0.016
 6261.00    0.93939   1.03648    0.017
 6262.00    0.91135   1.04254    0.018
 6263.00    0.88827   1.02599    0.018
 6264.00    0.94414   1.01537    0.018
 6265.00    1.02317   1.02589    0.018
 6266.00    1.09273   1.03492    0.017
 6267.00    1.15998   1.02939    0.017
 6268.00    1.15785   1.02210    0.016
 6269.00    1.14210   1.02370    0.015
 6270.00    1.13617   1.03316    0.015
 6271.00    1.13174   1.04222    0.016
 6272.00    1.12494   1.04310    0.016
 6273.00    1.11788   1.04062    0.015
 6274.00    1.13748   1.04131    0.015
 6275.00    1.15909   1.04208    0.015
 6276.00    1.18315   1.03985    0.015
 6277.00    1.20730   1.03125    0.015
 6278.00    1.19594   1.01427    0.015
 6279.00    1.18384   1.00404    0.015
 6280.00    1.15211   1.01143    0.000
 6281.00    1.12393   1.02680    0.000
 6282.00    1.15603   1.03942    0.000
 6283.00    1.19032   1.04240    0.000
 6284.00    1.24771   1.04339    0.000
 6285.00    1.29429   1.05260    0.000
 6286.00    1.26018   1.06482    0.000
 6287.00    1.22634   1.07114    0.000
 6288.00    1.19406   1.06496    0.000
 6289.00    1.16803   1.05031    0.000
 6290.00    1.17031   1.03955    0.000
 6291.00    1.17216   1.03689    0.000
 6292.00    1.17238   1.04206    0.000
 6293.00    1.17626   1.04560    0.000
 6294.00    1.19148   1.03302    0.000
 6295.00    1.20371   1.01267    0.000
 6296.00    1.20805   1.00716    0.000
 6297.00    1.21443   1.01848    0.000
 6298.00    1.22546   1.02482    0.000
 6299.00    1.22942   1.01222    0.000
 6300.00    1.21952   0.99714    0.000
 6301.00    1.20697   1.00286    0.000
 6302.00    1.18988   1.02315    0.000
 6303.00    1.18337   1.03505    0.000
 6304.00    1.19268   1.03897    0.000
 6305.00    1.20706   1.05093    0.000
 6306.00    1.22810   1.06562    0.000
 6307.00    1.23754   1.06773    0.000
 6308.00    1.23354   1.05674    0.000
 6309.00    1.22003   1.04276    0.000
 6310.00    1.19679   1.03644    0.000
 6311.00    1.18790   1.03978    0.000
 6312.00    1.19196   1.03562    0.000
 6313.00    1.19487   1.01814    0.000
 6314.00    1.19687   1.01192    0.000
 6315.00    1.18601   1.01477    0.000
 6316.00    1.16617   1.00284    0.000
 6317.00    1.15832   0.99518    0.000
 6318.00    1.15783   1.01221    0.000
 6319.00    1.17649   1.03200    0.000
 6320.00    1.20539   1.03624    0.000
 6321.00    1.22450   1.03779    0.015
 6322.00    1.23906   1.04901    0.015
 6323.00    1.26090   1.06004    0.015
 6324.00    1.28566   1.06278    0.015
 6325.00    1.31758   1.05892    0.015
 6326.00    1.35194   1.05768    0.016
 6327.00    1.32106   1.06135    0.015
 6328.00    1.27142   1.05793    0.015
 6329.00    1.22336   1.05351    0.015
 6330.00    1.17568   1.06128    0.015
 6331.00    1.16578   1.07301    0.014
 6332.00    1.16311   1.06733    0.014
 6333.00    1.16422   1.03526    0.014
 6334.00    1.16589   1.00321    0.014
 6335.00    1.17282   1.00230    0.014
 6336.00    1.18032   1.02237    0.014
 6337.00    1.17015   1.03715    0.014
 6338.00    1.15873   1.04916    0.014
 6339.00    1.14028   1.06232    0.014
 6340.00    1.12158   1.06305    0.015
 6341.00    1.12293   1.04616    0.015
 6342.00    1.12523   1.02473    0.015
 6343.00    1.15841   1.02025    0.015
 6344.00    1.19107   1.03077    0.015
 6345.00    1.21542   1.03988    0.015
 6346.00    1.23735   1.04841    0.015
 6347.00    1.23488   1.05940    0.015
 6348.00    1.23493   1.06593    0.015
 6349.00    1.25309   1.06735    0.015
 6350.00    1.26551   1.06686    0.015
 6351.00    1.24620   1.06074    0.015
 6352.00    1.21655   1.04430    0.015
 6353.00    1.14117   1.02743    0.015
 6354.00    1.07838   1.02735    0.015
 6355.00    1.06135   1.03319    0.014
 6356.00    1.05107   1.02080    0.014
 6357.00    1.06137   1.00103    0.014
 6358.00    1.07341   0.99663    0.014
 6359.00    1.09000   0.99812    0.014
 6360.00    1.10313   0.99179    0.014
 6361.00    1.10858   0.98822    0.014
 6362.00    1.11973   0.99743    0.014
 6363.00    1.14186   1.01297    0.015
 6364.00    1.16734   1.02614    0.015
 6365.00    1.19845   1.03837    0.015
 6366.00    1.21841   1.05187    0.015
 6367.00    1.22193   1.05748    0.015
 6368.00    1.23313   1.05182    0.015
 6369.00    1.25433   1.04784    0.015
 6370.00    1.25898   1.05631    0.015
 6371.00    1.24473   1.07012    0.015
 6372.00    1.23090   1.07574    0.015
 6373.00    1.21749   1.07327    0.015
 6374.00    1.20990   1.07181    0.015
 6375.00    1.20749   1.07042    0.015
 6376.00    1.17837   1.06065    0.015
 6377.00    1.12833   1.04767    0.015
 6378.00    1.10935   1.04180    0.015
 6379.00    1.11176   1.04254    0.014
 6380.00    1.13411   1.04974    0.014
 6381.00    1.16851   1.05773    0.014
 6382.00    1.18639   1.05617    0.014
 6383.00    1.19556   1.05139    0.014
 6384.00    1.19033   1.05516    0.014
 6385.00    1.17850   1.06292    0.014
 6386.00    1.14778   1.06500    0.014
 6387.00    1.10962   1.06376    0.014
 6388.00    1.09433   1.06403    0.014
 6389.00    1.08671   1.06206    0.014
 6390.00    1.12712   1.04547    0.014
 6391.00    1.18105   1.01334    0.014
 6392.00    1.22228   0.99820    0.015
 6393.00    1.26058   1.02047    0.015
 6394.00    1.28096   1.05371    0.016
 6395.00    1.29801   1.07245    0.016
 6396.00    1.27589   1.07104    0.016
 6397.00    1.24815   1.04093    0.016
 6398.00    1.27179   0.99808    0.016
 6399.00    1.30079   0.99652    0.015
 6400.00    1.31496   1.03780    0.015
 6401.00    1.32813   1.07151    0.015
 6402.00    1.27951   1.08217    0.015
 6403.00    1.22887   1.08078    0.015
 6404.00    1.18142   1.07103    0.015
 6405.00    1.13550   1.05149    0.014
 6406.00    1.13714   1.03372    0.015
 6407.00    1.13921   1.03992    0.015
 6408.00    1.14777   1.05528    0.014
 6409.00    1.15737   1.04652    0.014
 6410.00    1.17713   1.03039    0.014
 6411.00    1.20037   1.03424    0.014
 6412.00    1.24796   1.04531    0.014
 6413.00    1.28881   1.05109    0.015
 6414.00    1.29341   1.05671    0.015
 6415.00    1.28816   1.06050    0.015
 6416.00    1.24037   1.05845    0.015
 6417.00    1.20329   1.04679    0.015
 6418.00    1.20430   1.02339    0.015
 6419.00    1.20907   1.00523    0.015
 6420.00    1.22509   1.01732    0.015
 6421.00    1.22969   1.05209    0.015
 6422.00    1.20521   1.07402    0.015
 6423.00    1.19287   1.07452    0.015
 6424.00    1.20712   1.07348    0.015
 6425.00    1.22884   1.07955    0.015
 6426.00    1.26477   1.08363    0.015
 6427.00    1.27924   1.07314    0.015
 6428.00    1.25814   1.04267    0.015
 6429.00    1.23472   1.01305    0.015
 6430.00    1.20793   1.01423    0.015
 6431.00    1.19335   1.03800    0.015
 6432.00    1.19435   1.05957    0.015
 6433.00    1.20785   1.07173    0.014
 6434.00    1.23540   1.07717    0.014
 6435.00    1.26156   1.07188    0.014
 6436.00    1.28632   1.04471    0.014
 6437.00    1.29815   1.01343    0.014
 6438.00    1.29866   1.01968    0.014
 6439.00    1.29689   1.05663    0.014
 6440.00    1.29336   1.08367    0.015
 6441.00    1.29406   1.09117    0.015
 6442.00    1.29762   1.09093    0.015
 6443.00    1.27408   1.09129    0.015
 6444.00    1.23441   1.09410    0.015
 6445.00    1.19595   1.09313    0.015
 6446.00    1.15811   1.07399    0.015
 6447.00    1.14114   1.02593    0.015
 6448.00    1.13357   0.97966    0.015
 6449.00    1.15324   0.98449    0.015
 6450.00    1.18346   1.02643    0.016
 6451.00    1.19136   1.06122    0.015
 6452.00    1.19192   1.07055    0.015
 6453.00    1.17237   1.05380    0.015
 6454.00    1.14727   1.03277    0.014
 6455.00    1.15790   1.03753    0.014
 6456.00    1.17662   1.06339    0.014
 6457.00    1.18490   1.08553    0.014
 6458.00    1.19128   1.09229    0.014
 6459.00    1.18704   1.07504    0.014
 6460.00    1.18133   1.02880    0.014
 6461.00    1.17618   0.99431    0.014
 6462.00    1.17109   1.01025    0.014
 6463.00    1.16789   1.04691    0.014
 6464.00    1.16480   1.06997    0.015
 6465.00    1.18056   1.07998    0.015
 6466.00    1.19693   1.08153    0.015
 6467.00    1.23383   1.07368    0.015
 6468.00    1.27008   1.06229    0.015
 6469.00    1.28838   1.05010    0.015
 6470.00    1.30392   1.04508    0.015
 6471.00    1.28032   1.05484    0.015
 6472.00    1.25750   1.06032    0.015
 6473.00    1.24192   1.05070    0.015
 6474.00    1.22897   1.04626    0.015
 6475.00    1.23385   1.05732    0.015
 6476.00    1.23345   1.06718    0.015
 6477.00    1.20536   1.06852    0.014
 6478.00    1.18585   1.06384    0.014
 6479.00    1.20251   1.04528    0.014
 6480.00    1.21612   1.01715    0.014
 6481.00    1.21909   1.00588    0.014
 6482.00    1.21176   1.01990    0.014
 6483.00    1.17420   1.04006    0.014
 6484.00    1.15153   1.05174    0.014
 6485.00    1.16612   1.05680    0.014
 6486.00    1.17406   1.05936    0.014
 6487.00    1.16768   1.05639    0.014
 6488.00    1.15658   1.04540    0.014
 6489.00    1.13668   1.03287    0.014
 6490.00    1.11547   1.02186    0.014
 6491.00    1.09212   0.99562    0.015
 6492.00    1.07521   0.94491    0.015
 6493.00    1.06753   0.90335    0.015
 6494.00    1.07292   0.89763    0.015
 6495.00    1.09477   0.91756    0.015
 6496.00    1.13571   0.94591    0.015
 6497.00    1.19784   0.96491    0.015
 6498.00    1.24949   0.98161    0.015
 6499.00    1.29085   1.00495    0.015
 6500.00    1.30066   1.02474    0.015
 6501.00    1.28319   1.03631    0.015
 6502.00    1.27250   1.04259    0.015
 6503.00    1.26697   1.04833    0.014
 6504.00    1.26716   1.05413    0.014
 6505.00    1.27119   1.05370    0.014
 6506.00    1.26810   1.04502    0.014
 6507.00    1.26085   1.03874    0.014
 6508.00    1.23606   1.04337    0.014
 6509.00    1.20232   1.05166    0.014
 6510.00    1.18713   1.05431    0.014
 6511.00    1.18016   1.05325    0.015
 6512.00    1.17876   1.04922    0.015
 6513.00    1.17947   1.03802    0.015
 6514.00    1.16671   1.02480    0.015
 6515.00    1.14961   1.01777    0.015
 6516.00    1.16236   1.01315    0.015
 6517.00    1.18319   1.01365    0.015
 6518.00    1.19981   1.02816    0.015
 6519.00    1.21549   1.04577    0.015
 6520.00    1.22914   1.05302    0.015
 6521.00    1.24242   1.05255    0.015
 6522.00    1.27398   1.05335    0.015
 6523.00    1.30799   1.05444    0.015
 6524.00    1.33587   1.04566    0.015
 6525.00    1.36317   1.03178    0.015
 6526.00    1.34632   1.03063    0.014
 6527.00    1.32685   1.04226    0.014
 6528.00    1.29620   1.05138    0.000
 6529.00    1.26523   1.04871    0.000
 6530.00    1.22918   1.03724    0.000
 6531.00    1.19428   1.02805    0.000
 6532.00    1.18834   1.03098    0.000
 6533.00    1.18476   1.04389    0.000
 6534.00    1.21270   1.05342    0.000
 6535.00    1.24136   1.05163    0.000
 6536.00    1.27641   1.04780    0.000
 6537.00    1.31431   1.05273    0.000
 6538.00    1.37095   1.06106    0.000
 6539.00    1.41726   1.06074    0.000
 6540.00    1.41082   1.05085    0.000
 6541.00    1.40243   1.03919    0.000
 6542.00    1.38596   1.03042    0.000
 6543.00    1.36865   1.01689    0.000
 6544.00    1.34847   0.99595    0.000
 6545.00    1.33034   0.98995    0.000
 6546.00    1.31808   1.00553    0.000
 6547.00    1.30458   1.02084    0.000
 6548.00    1.28805   1.02211    0.000
 6549.00    1.27795   1.01369    0.000
 6550.00    1.28150   1.00594    0.000
 6551.00    1.27670   0.99964    0.000
 6552.00    1.25651   0.98664    0.000
 6553.00    1.24108   0.96900    0.000
 6554.00    1.23332   0.95971    0.000
 6555.00    1.25095   0.96402    0.000
 6556.00    1.30444   0.96948    0.000
 6557.00    1.35713   0.96365    0.000
 6558.00    1.40881   0.94236    0.000
 6559.00    1.43930   0.88055    0.000
 6560.00    1.44657   0.75383    0.000
 6561.00    1.42556   0.65253    0.000
 6562.00    1.37721   0.69728    0.000
 6563.00    1.32290   0.82967    0.000
 6564.00    1.26351   0.92584    0.000
 6565.00    1.22904   0.96796    0.000
 6566.00    1.21326   0.98027    0.000
 6567.00    1.21766   0.97521    0.000
 6568.00    1.23536   0.97387    0.000
 6569.00    1.21703   0.98245    0.000
 6570.00    1.17791   0.98285    0.000
 6571.00    1.15329   0.97086    0.000
 6572.00    1.13596   0.96047    0.000
 6573.00    1.15645   0.96307    0.000
 6574.00    1.19342   0.98383    0.000
 6575.00    1.22130   1.01053    0.000
 6576.00    1.24579   1.02649    0.000
 6577.00    1.29330   1.02814    0.000
 6578.00    1.34810   1.01864    0.000
 6579.00    1.41812   1.00698    0.000
 6580.00    1.49218   1.00810    0.000
 6581.00    1.47810   1.02003    0.000
 6582.00    1.44496   1.02781    0.000
 6583.00    1.42856   1.02638    0.000
 6584.00    1.41503   1.01975    0.000
 6585.00    1.38500   1.02066    0.000
 6586.00    1.35282   1.03209    0.000
 6587.00    1.29400   1.04139    0.000
 6588.00    1.23275   1.04365    0.000
 6589.00    1.22420   1.03361    0.000
 6590.00    1.21856   1.00115    0.000
 6591.00    1.20375   0.96097    0.000
 6592.00    1.18888   0.95398    0.000
 6593.00    1.18634   0.98484    0.000
 6594.00    1.18429   1.01438    0.000
 6595.00    1.19327   1.02086    0.000
 6596.00    1.20258   1.01281    0.000
 6597.00    1.21608   1.00931    0.000
 6598.00    1.22793   1.02130    0.000
 6599.00    1.22563   1.03806    0.000
 6600.00    1.22163   1.04501    0.000
 6601.00    1.20684   1.04089    0.000
 6602.00    1.18860   1.02987    0.000
 6603.00    1.15315   1.01860    0.000
 6604.00    1.12726   1.01346    0.000
 6605.00    1.13998   1.01039    0.000
 6606.00    1.15360   1.00068    0.000
 6607.00    1.17027   0.98856    0.000
 6608.00    1.18054   0.99497    0.000
 6609.00    1.17270   1.02021    0.015
 6610.00    1.16368   1.03680    0.015
 6611.00    1.15182   1.03277    0.015
 6612.00    1.14212   1.02533    0.015
 6613.00    1.13691   1.03172    0.015
 6614.00    1.14500   1.04143    0.014
 6615.00    1.17723   1.04171    0.014
 6616.00    1.20577   1.03814    0.014
 6617.00    1.22847   1.03905    0.014
 6618.00    1.23490   1.04351    0.014
 6619.00    1.21869   1.04650    0.014
 6620.00    1.20285   1.04444    0.014
 6621.00    1.18745   1.03437    0.014
 6622.00    1.19915   1.01682    0.014
 6623.00    1.24013   1.00393    0.014
 6624.00    1.25078   1.00858    0.014
 6625.00    1.23255   1.01976    0.014
 6626.00    1.21309   1.02478    0.014
 6627.00    1.19260   1.02467    0.015
 6628.00    1.19037   1.02209    0.015
 6629.00    1.20163   1.01824    0.015
 6630.00    1.17734   1.00989    0.015
 6631.00    1.12996   0.99380    0.015
 6632.00    1.11060   0.98158    0.015
 6633.00    1.10717   0.98880    0.015
 6634.00    1.11852   1.00819    0.015
 6635.00    1.13718   1.02303    0.015
 6636.00    1.15632   1.02740    0.014
 6637.00    1.17566   1.02299    0.014
 6638.00    1.19566   1.01893    0.014
 6639.00    1.21591   1.02429    0.014
 6640.00    1.24082   1.02567    0.014
 6641.00    1.26717   1.00742    0.014
 6642.00    1.27660   0.99175    0.014
 6643.00    1.28165   1.00050    0.014
 6644.00    1.26032   1.01600    0.014
 6645.00    1.23342   1.01946    0.014
 6646.00    1.19045   1.01815    0.014
 6647.00    1.14480   1.02131    0.014
 6648.00    1.12521   1.02336    0.014
 6649.00    1.10889   1.01913    0.014
 6650.00    1.11934   1.01387    0.015
 6651.00    1.13213   1.01247    0.015
 6652.00    1.14561   1.01380    0.015
 6653.00    1.15913   1.01624    0.015
 6654.00    1.19202   1.01642    0.015
 6655.00    1.22480   1.01519    0.015
 6656.00    1.22610   1.01647    0.015
 6657.00    1.22612   1.01697    0.015
 6658.00    1.19911   1.01359    0.015
 6659.00    1.17309   1.00820    0.015
 6660.00    1.15896   0.99782    0.014
 6661.00    1.14565   0.97966    0.014
 6662.00    1.13906   0.97315    0.014
 6663.00    1.13206   0.98546    0.014
 6664.00    1.12257   0.99596    0.014
 6665.00    1.11796   0.99677    0.014
 6666.00    1.13708   0.99767    0.014
 6667.00    1.15267   1.00597    0.014
 6668.00    1.15431   1.01723    0.014
 6669.00    1.16748   1.02372    0.014
 6670.00    1.21852   1.02366    0.015
 6671.00    1.25382   1.02213    0.015
 6672.00    1.24542   1.02220    0.015
 6673.00    1.21697   1.02292    0.015
 6674.00    1.14087   1.01577    0.015
 6675.00    1.08177   0.98752    0.015
 6676.00    1.05755   0.95467    0.015
 6677.00    1.06461   0.95484    0.015
 6678.00    1.12752   0.98082    0.015
 6679.00    1.18015   0.99671    0.014
 6680.00    1.21670   1.00009    0.014
 6681.00    1.22129   1.00414    0.014
 6682.00    1.18203   1.00983    0.014
 6683.00    1.15845   1.01275    0.014
 6684.00    1.15379   1.01233    0.014
 6685.00    1.16390   1.00976    0.014
 6686.00    1.18972   1.00679    0.014
 6687.00    1.19365   1.00776    0.014
 6688.00    1.17704   1.01115    0.014
 6689.00    1.16484   1.01288    0.014
 6690.00    1.15629   1.01234    0.014
 6691.00    1.17033   1.01187    0.014
 6692.00    1.20085   1.01060    0.015
 6693.00    1.21613   1.00227    0.015
 6694.00    1.22167   0.98780    0.015
 6695.00    1.21536   0.98135    0.015
 6696.00    1.20242   0.98638    0.000
 6697.00    1.19965   0.99576    0.000
 6698.00    1.20182   1.00724    0.000
 6699.00    1.19974   1.01451    0.000
 6700.00    1.19586   1.01236    0.000
 6701.00    1.18648   1.00227    0.000
 6702.00    1.17511   0.99154    0.000
 6703.00    1.17029   0.99015    0.000
 6704.00    1.16746   0.99777    0.000
 6705.00    1.18358   1.00476    0.000
 6706.00    1.20450   1.00677    0.000
 6707.00    1.20171   1.00590    0.000
 6708.00    1.19404   1.00124    0.000
 6709.00    1.19525   0.99855    0.000
 6710.00    1.19790   0.99929    0.000
 6711.00    1.22165   0.99486    0.000
 6712.00    1.24794   0.98615    0.000
 6713.00    1.28597   0.97663    0.000
 6714.00    1.32497   0.96354    0.000
 6715.00    1.32630   0.94646    0.000
 6716.00    1.32584   0.94182    0.000
 6717.00    1.24491   0.96072    0.000
 6718.00    1.16436   0.98219    0.000
 6719.00    1.16898   0.98790    0.000
 6720.00    1.17280   0.98623    0.000
 6721.00    1.16090   0.99061    0.000
 6722.00    1.14885   0.99684    0.000
 6723.00    1.13518   0.99423    0.000
 6724.00    1.12768   0.98578    0.000
 6725.00    1.16937   0.98420    0.000
 6726.00    1.20624   0.99057    0.000
 6727.00    1.21431   0.99697    0.000
 6728.00    1.22098   1.00122    0.000
 6729.00    1.22097   1.00283    0.000
 6730.00    1.22506   1.00027    0.000
 6731.00    1.24492   0.99542    0.000
 6732.00    1.26119   0.99359    0.000
 6733.00    1.26595   0.99629    0.000
 6734.00    1.26301   1.00018    0.000
 6735.00    1.23910   0.99794    0.000
 6736.00    1.21579   0.98778    0.000
 6737.00    1.19390   0.97865    0.000
 6738.00    1.18186   0.97973    0.000
 6739.00    1.18970   0.98680    0.000
 6740.00    1.20315   0.98590    0.000
 6741.00    1.22649   0.97822    0.000
 6742.00    1.22415   0.97884    0.000
 6743.00    1.18232   0.98606    0.000
 6744.00    1.14350   0.98771    0.000
 6745.00    1.10876   0.98392    0.000
 6746.00    1.09707   0.97866    0.000
 6747.00    1.11283   0.97170    0.000
 6748.00    1.13441   0.96591    0.000
 6749.00    1.16211   0.96913    0.000
 6750.00    1.17233   0.97371    0.000
 6751.00    1.16638   0.97185    0.000
 6752.00    1.14287   0.97580    0.000
 6753.00    1.10502   0.98438    0.015
 6754.00    1.09427   0.99047    0.016
 6755.00    1.10298   0.99642    0.016
 6756.00    1.14002   1.00249    0.016
 6757.00    1.19493   1.00663    0.017
 6758.00    1.19489   1.00861    0.017
 6759.00    1.16456   1.00778    0.017
 6760.00    1.19034   1.00408    0.017
 6761.00    1.24300   1.00336    0.018
 6762.00    1.27819   1.00497    0.018
 6763.00    1.30614   1.00295    0.017
 6764.00    1.29036   0.99300    0.017
 6765.00    1.25911   0.97814    0.018
 6766.00    1.24872   0.97227    0.017
 6767.00    1.24457   0.98038    0.017
 6768.00    1.28135   0.98582    0.016
 6769.00    1.32826   0.98111    0.016
 6770.00    1.36087   0.98020    0.016
 6771.00    1.39060   0.98948    0.016
 6772.00    1.41271   1.00158    0.016
 6773.00    1.43362   1.01021    0.016
 6774.00    1.39641   1.01404    0.015
 6775.00    1.35242   1.01318    0.015
 6776.00    1.31609   1.01239    0.015
 6777.00    1.28037   1.01544    0.015
 6778.00    1.28762   1.01632    0.016
 6779.00    1.29675   1.01017    0.017
 6780.00    1.28189   0.99673    0.016
 6781.00    1.26610   0.97917    0.016
 6782.00    1.21856   0.96582    0.016
 6783.00    1.17158   0.96316    0.016
 6784.00    1.13480   0.96792    0.016
 6785.00    1.10382   0.97681    0.016
 6786.00    1.13641   0.98774    0.016
 6787.00    1.16780   0.99242    0.016
 6788.00    1.18989   0.99101    0.015
 6789.00    1.21730   0.99189    0.015
 6790.00    1.27568   0.99285    0.015
 6791.00    1.31687   0.98686    0.016
 6792.00    1.27855   0.98023    0.016
 6793.00    1.25142   0.98052    0.015
 6794.00    1.26658   0.98343    0.015
 6795.00    1.27382   0.98746    0.015
 6796.00    1.25606   0.99053    0.015
 6797.00    1.24148   0.99221    0.015
 6798.00    1.23538   0.99537    0.015
 6799.00    1.22727   0.99943    0.016
 6800.00    1.21453   1.00181    0.016
 6801.00    1.20290   0.99901    0.016
 6802.00    1.19349   0.99331    0.016
 6803.00    1.18418   0.99274    0.016
 6804.00    1.17506   0.99256    0.016
 6805.00    1.15898   0.98952    0.016
 6806.00    1.13235   0.99159    0.016
 6807.00    1.10732   0.99306    0.015
 6808.00    1.08444   0.98889    0.015
 6809.00    1.07787   0.98904    0.015
 6810.00    1.09047   0.99388    0.015
 6811.00    1.12252   0.99538    0.015
 6812.00    1.17472   0.98891    0.015
 6813.00    1.22261   0.98058    0.016
 6814.00    1.26658   0.98396    0.016
 6815.00    1.25534   0.99581    0.016
 6816.00    1.19968   1.00119    0.016
 6817.00    1.16259   0.99592    0.016
 6818.00    1.13863   0.98784    0.016
 6819.00    1.14910   0.98790    0.016
 6820.00    1.18093   0.99691    0.016
 6821.00    1.18296   1.00495    0.016
 6822.00    1.16879   1.00793    0.015
 6823.00    1.17534   1.00839    0.015
 6824.00    1.19166   1.00723    0.016
 6825.00    1.19356   0.99875    0.016
 6826.00    1.18961   0.98473    0.015
 6827.00    1.21989   0.98011    0.015
 6828.00    1.26206   0.98958    0.015
 6829.00    1.25385   1.00055    0.015
 6830.00    1.23091   1.00175    0.015
 6831.00    1.21274   0.99798    0.015
 6832.00    1.19572   0.99977    0.015
 6833.00    1.21989   1.00543    0.015
 6834.00    1.25211   1.00618    0.015
 6835.00    1.26250   1.00074    0.015
 6836.00    1.26956   0.99221    0.015
 6837.00    1.25629   0.98095    0.016
 6838.00    1.24074   0.96870    0.016
 6839.00    1.21390   0.95628    0.016
 6840.00    1.18621   0.95027    0.017
 6841.00    1.16043   0.95724    0.017
 6842.00    1.13473   0.97388    0.017
 6843.00    1.11195   0.99040    0.016
 6844.00    1.09156   0.99784    0.015
 6845.00    1.16576   0.99827    0.016
 6846.00    1.23398   0.99856    0.016
 6847.00    1.20112   0.99773    0.016
 6848.00    1.17200   0.99500    0.015
 6849.00    1.18205   0.99344    0.015
 6850.00    1.18954   0.99453    0.015
 6851.00    1.17795   0.99497    0.015
 6852.00    1.16528   0.98458    0.015
 6853.00    1.14646   0.96659    0.015
 6854.00    1.13509   0.96110    0.015
 6855.00    1.15730   0.96815    0.015
 6856.00    1.17745   0.97440    0.015
 6857.00    1.18999   0.97937    0.015
 6858.00    1.19644   0.97799    0.015
 6859.00    1.18405   0.96605    0.015
 6860.00    1.17879   0.96065    0.016
 6861.00    1.19225   0.97492    0.016
 6862.00    1.19430   0.99501    0.016
 6863.00    1.17054   1.00181    0.016
 6864.00    1.16665   0.99467    0.016
 6865.00    1.20165   0.98103    0.016
 6866.00    1.21858   0.96870    0.016
 6867.00    1.20467   0.96938    0.016
 6868.00    1.19093   0.98025    0.016
 6869.00    1.17743   0.98322    0.016
 6870.00    1.16755   0.97549    0.016
 6871.00    1.16241   0.97334    0.015
 6872.00    1.16358   0.97926    0.015
 6873.00    1.17204   0.98240    0.015
 6874.00    1.17614   0.98430    0.015
 6875.00    1.17578   0.99120    0.015
 6876.00    1.20284   0.99969    0.015
 6877.00    1.25458   1.00266    0.015
 6878.00    1.24561   0.99950    0.015
 6879.00    1.18848   0.98933    0.015
 6880.00    1.18189   0.97540    0.015
 6881.00    1.21055   0.96940    0.015
 6882.00    1.24776   0.97738    0.015
 6883.00    1.29020   0.98643    0.016
 6884.00    1.25979   0.98653    0.016
 6885.00    1.19045   0.98926    0.015
 6886.00    1.18689   0.99821    0.015
 6887.00    1.21385   1.00430    0.016
 6888.00    1.22070   1.00708    0.016
 6889.00    1.21950   1.01029    0.015
 6890.00    1.20434   1.00996    0.015
 6891.00    1.18443   1.00597    0.015
 6892.00    1.19665   1.00349    0.015
 6893.00    1.21809   1.00050    0.015
 6894.00    1.23736   0.99680    0.015
 6895.00    1.25612   0.99752    0.015
 6896.00    1.27626   1.00218    0.015
 6897.00    1.29666   1.00274    0.015
 6898.00    1.26942   0.99661    0.015
 6899.00    1.23515   0.99507    0.015
 6900.00    1.20957   1.00304    0.015
 6901.00    1.18493   1.00995    0.016
 6902.00    1.19482   1.00870    0.016
 6903.00    1.20715   1.00476    0.016
 6904.00    1.18040   1.00638    0.016
 6905.00    1.15225   1.01369    0.015
 6906.00    1.19054   1.01809    0.015
 6907.00    1.22807   1.01806    0.016
 6908.00    1.23182   1.01566    0.016
 6909.00    1.23515   1.01032    0.016
 6910.00    1.23187   1.00485    0.015
 6911.00    1.21706   0.99657    0.015
 6912.00    1.08684   0.98446    0.015
 6913.00    0.96775   0.98162    0.015
 6914.00    0.92859   0.98702    0.014
 6915.00    0.91860   0.98950    0.014
 6916.00    1.06948   0.99335    0.015
 6917.00    1.19245   0.99920    0.015
 6918.00    1.19234   1.00539    0.015
 6919.00    1.18776   1.01175    0.015
 6920.00    1.16695   1.01429    0.015
 6921.00    1.15428   1.00747    0.015
 6922.00    1.16640   0.99048    0.016
 6923.00    1.17786   0.97623    0.016
 6924.00    1.18765   0.97621    0.016
 6925.00    1.18645   0.98907    0.016
 6926.00    1.16080   1.00222    0.016
 6927.00    1.14572   1.00745    0.016
 6928.00    1.15102   1.00753    0.016
 6929.00    1.16961   1.00531    0.016
 6930.00    1.21055   0.99929    0.015
 6931.00    1.22981   0.98985    0.015
 6932.00    1.21712   0.98978    0.015
 6933.00    1.19050   0.99982    0.015
 6934.00    1.14583   1.00540    0.015
 6935.00    1.12927   1.00422    0.015
 6936.00    1.14477   1.00269    0.015
 6937.00    1.17041   1.00520    0.015
 6938.00    1.20626   1.01095    0.016
 6939.00    1.21155   1.01493    0.016
 6940.00    1.18972   1.01243    0.016
 6941.00    1.16996   1.00346    0.016
 6942.00    1.15181   0.98850    0.016
 6943.00    1.17182   0.97412    0.016
 6944.00    1.21808   0.97760    0.016
 6945.00    1.22341   0.99511    0.016
 6946.00    1.20406   1.00762    0.015
 6947.00    1.19663   1.01226    0.016
 6948.00    1.19547   1.00965    0.016
 6949.00    1.19637   0.99840    0.016
 6950.00    1.19821   0.98989    0.016
 6951.00    1.20327   0.98798    0.016
 6952.00    1.20959   0.98751    0.016
 6953.00    1.19783   0.99129    0.016
 6954.00    1.18002   1.00060    0.015
 6955.00    1.16882   1.00802    0.015
 6956.00    1.15947   1.00966    0.015
 6957.00    1.14217   1.00938    0.015
 6958.00    1.12303   1.00964    0.015
 6959.00    1.14592   1.01191    0.016
 6960.00    1.17661   1.01477    0.016
 6961.00    1.17018   1.01733    0.016
 6962.00    1.15844   1.01846    0.016
 6963.00    1.19054   1.01351    0.016
 6964.00    1.22717   1.00719    0.016
 6965.00    1.22356   1.01059    0.016
 6966.00    1.21727   1.02090    0.016
 6967.00    1.23115   1.02511    0.016
 6968.00    1.24566   1.01961    0.016
 6969.00    1.19113   1.01059    0.016
 6970.00    1.13815   1.00997    0.016
 6971.00    1.13297   1.01783    0.016
 6972.00    1.12826   1.01865    0.016
 6973.00    1.13072   1.00842    0.015
 6974.00    1.13404   0.99477    0.015
 6975.00    1.14555   0.97638    0.015
 6976.00    1.15669   0.94910    0.015
 6977.00    1.16525   0.93513    0.015
 6978.00    1.17255   0.95524    0.015
 6979.00    1.17304   0.98774    0.016
 6980.00    1.18141   1.00892    0.016
 6981.00    1.22370   1.01961    0.016
 6982.00    1.24139   1.02338    0.016
 6983.00    1.17169   1.02319    0.016
 6984.00    1.10699   1.02252    0.016
 6985.00    1.05721   1.02036    0.016
 6986.00    1.02537   1.01306    0.016
 6987.00    1.03911   1.00285    0.016
 6988.00    1.05931   1.00002    0.016
 6989.00    1.09362   1.00750    0.016
 6990.00    1.12254   1.01740    0.016
 6991.00    1.14123   1.02052    0.016
 6992.00    1.15359   1.01573    0.016
 6993.00    1.15547   1.01209    0.016
 6994.00    1.17793   1.01449    0.016
 6995.00    1.23026   1.01780    0.015
 6996.00    1.23873   1.01370    0.015
 6997.00    1.19120   0.99867    0.016
 6998.00    1.18234   0.98589    0.016
 6999.00    1.21698   0.99048    0.016
 7000.00    1.22754   1.00503    0.016
 7001.00    1.21422   1.00905    0.017
 7002.00    1.18973   0.99807    0.017
 7003.00    1.15546   0.98768    0.016
 7004.00    1.13728   0.98741    0.016
 7005.00    1.13149   0.99390    0.017
 7006.00    1.13291   1.00232    0.017
 7007.00    1.13920   1.01067    0.017
 7008.00    1.15370   1.01289    0.017
 7009.00    1.17306   1.00737    0.016
 7010.00    1.18961   1.00523    0.016
 7011.00    1.20470   1.01063    0.016
 7012.00    1.20918   1.01083    0.016
 7013.00    1.20889   0.99037    0.016
 7014.00    1.19315   0.95778    0.016
 7015.00    1.17145   0.95092    0.015
 7016.00    1.13110   0.97999    0.016
 7017.00    1.08463   1.01038    0.016
 7018.00    1.11224   1.02370    0.016
 7019.00    1.16024   1.02554    0.016
 7020.00    1.16621   1.01642    0.016
 7021.00    1.16268   0.99589    0.016
 7022.00    1.19482   0.97891    0.017
 7023.00    1.23340   0.98069    0.017
 7024.00    1.19350   0.99548    0.017
 7025.00    1.14274   1.00526    0.017
 7026.00    1.18058   1.00774    0.017
 7027.00    1.22722   1.01034    0.017
 7028.00    1.20899   1.01474    0.017
 7029.00    1.18669   1.01773    0.017
 7030.00    1.14852   1.01556    0.017
 7031.00    1.11005   1.01147    0.017
 7032.00    1.11268   1.00896    0.016
 7033.00    1.11654   1.01103    0.016
 7034.00    1.15437   1.01740    0.016
 7035.00    1.18994   1.01105    0.016
 7036.00    1.19380   0.98764    0.016
 7037.00    1.19446   0.98108    0.016
 7038.00    1.16568   1.00720    0.016
 7039.00    1.14107   1.03764    0.016
 7040.00    1.14462   1.05264    0.017
 7041.00    1.14022   1.05386    0.017
 7042.00    1.09426   1.04381    0.017
 7043.00    1.07322   1.03094    0.017
 7044.00    1.15717   1.02986    0.017
 7045.00    1.21881   1.04044    0.018
 7046.00    1.20289   1.05150    0.018
 7047.00    1.20634   1.05512    0.017
 7048.00    1.26649   1.05091    0.018
 7049.00    1.27374   1.03996    0.018
 7050.00    1.14892   1.01762   -2.000
 7051.00    1.06593   0.98955   -2.000
 7052.00    1.07290   0.96984   -2.000
 7053.00    1.09839   0.96355   -2.000
 7054.00    1.15847   0.97177   -2.000
 7055.00    1.20806   0.98604   -2.000
 7056.00    1.24055   0.99096   -2.000
 7057.00    1.25729   0.97923   -2.000
 7058.00    1.25151   0.96185   -2.000
 7059.00    1.22671   0.95668   -2.000
 7060.00    1.17795   0.96336   -2.000
 7061.00    1.19883   0.97103   -2.000
 7062.00    1.29693   0.97936   -2.000
 7063.00    1.34300   0.98267   -2.000
 7064.00    1.33817   0.97321   -2.000
 7065.00    1.32208   0.95825   -2.000
 7066.00    1.29628   0.94472   -2.000
 7067.00    1.26525   0.94471   -2.000
 7068.00    1.23026   0.96322   -2.000
 7069.00    1.21358   0.98245   -2.000
 7070.00    1.20915   0.98981   -2.000
 7071.00    1.24331   0.99164   -2.000
 7072.00    1.30005   0.99286   -2.000
 7073.00    1.26829   0.99145   -2.000
 7074.00    1.19140   0.98906   -2.000
 7075.00    1.24431   0.98890   -2.000
 7076.00    1.35452   0.99177   -2.000
 7077.00    1.33768   0.99447   -2.000
 7078.00    1.27267   0.99775   -2.000
 7079.00    1.21527   1.00053   -2.000
 7080.00    1.16033   0.99410   -2.000
 7081.00    1.20361   0.97418   -2.000
 7082.00    1.27335   0.94660   -2.000
 7083.00    1.27774   0.93090   -2.000
 7084.00    1.26771   0.93596   -2.000
 7085.00    1.29193   0.93891   -2.000
 7086.00    1.32217   0.93023   -2.000
 7087.00    1.21933   0.92188   -2.000
 7088.00    1.09867   0.91682   -2.000
 7089.00    1.17078   0.91781   -2.000
 7090.00    1.26120   0.92395   -2.000
 7091.00    1.25136   0.92476   -2.000
 7092.00    1.23564   0.92428   -2.000
 7093.00    1.21585   0.92398   -2.000
 7094.00    1.19565   0.92349   -2.000
 7095.00    1.13485   0.92510   -2.000
 7096.00    1.07708   0.93100   -2.000
 7097.00    1.09485   0.94564   -2.000
 7098.00    1.11089   0.95365   -2.000
 7099.00    1.10406   0.95180   -2.000
 7100.00    1.09604   0.94397   -2.000
 7101.00    1.07756   0.93938   -2.000
 7102.00    1.06379   0.94520   -2.000
 7103.00    1.08074   0.95567   -2.000
 7104.00    1.10312   0.95697   -2.000
 7105.00    1.15323   0.95037   -2.000
 7106.00    1.19088   0.94871   -2.000
 7107.00    1.17728   0.95155   -2.000
 7108.00    1.17225   0.94575   -2.000
 7109.00    1.19643   0.93280   -2.000
 7110.00    1.21178   0.92913   -2.000
 7111.00    1.20177   0.93882   -2.000
 7112.00    1.18247   0.94914   -2.000
 7113.00    1.14041   0.95327   -2.000
 7114.00    1.13708   0.95719   -2.000
 7115.00    1.21574   0.96040   -2.000
 7116.00    1.27564   0.96043   -2.000
 7117.00    1.30104   0.95894   -2.000
 7118.00    1.27346   0.95679   -2.000
 7119.00    1.16076   0.95197   -2.000
 7120.00    1.09140   0.94413   -2.000
 7121.00    1.08315   0.94652   -2.000
 7122.00    1.07346   0.95489   -2.000
 7123.00    1.06199   0.94776   -2.000
 7124.00    1.06229   0.93056   -2.000
 7125.00    1.07546   0.92350   -2.000
 7126.00    1.05501   0.92796   -2.000
 7127.00    1.00213   0.92757   -2.000
 7128.00    0.99332   0.91330   -2.000
 7129.00    1.02198   0.90032   -2.000
 7130.00    1.08331   0.90601   -2.000
 7131.00    1.16911   0.92144   -2.000
 7132.00    1.19454   0.93559   -2.000
 7133.00    1.18026   0.94311   -2.000
 7134.00    1.13347   0.94504   -2.000
 7135.00    1.06796   0.94861   -2.000
 7136.00    1.05107   0.94670   -2.000
 7137.00    1.05858   0.93773   -2.000
 7138.00    1.11286   0.93613   -2.000
 7139.00    1.18745   0.94510   -2.000
 7140.00    1.23938   0.95029   -2.000
 7141.00    1.28288   0.94952   -2.000
 7142.00    1.24919   0.94909   -2.000
 7143.00    1.19113   0.94824   -2.000
 7144.00    1.14277   0.94709   -2.000
 7145.00    1.09696   0.93524   -2.000
 7146.00    1.08273   0.91359   -2.000
 7147.00    1.07531   0.91170   -2.000
 7148.00    1.14168   0.92907   -2.000
 7149.00    1.22066   0.94276   -2.000
 7150.00    1.16117   0.95420   -2.000
 7151.00    1.08375   0.96621   -2.000
 7152.00    1.08275   0.96818   -2.000
 7153.00    1.08870   0.96038   -2.000
 7154.00    1.10690   0.96124   -2.000
 7155.00    1.12578   0.97401   -2.000
 7156.00    1.08068   0.97686   -2.000
 7157.00    1.03408   0.96607   -2.000
 7158.00    0.97306   0.95634   -2.000
 7159.00    0.91974   0.95813   -2.000
 7160.00    1.04119   0.96564   -2.000
 7161.00    1.15048   0.95149   -2.000
 7162.00    1.10659   0.92051   -2.000
 7163.00    1.07060   0.89917   -2.000
 7164.00    1.10204   0.90882   -2.000
 7165.00    1.11888   0.93513   -2.000
 7166.00    1.04326   0.95278   -2.000
 7167.00    0.99383   0.95490   -2.000
 7168.00    1.07444   0.95198   -2.000
 7169.00    1.13258   0.95502   -2.000
 7170.00    1.10031   0.96310   -2.000
 7171.00    1.08053   0.96833   -2.000
 7172.00    1.10248   0.96608   -2.000
 7173.00    1.10942   0.95614   -2.000
 7174.00    1.07400   0.94432   -2.000
 7175.00    1.06421   0.94491   -2.000
 7176.00    1.11626   0.95622   -2.000
 7177.00    1.15260   0.95561   -2.000
 7178.00    1.15623   0.93578   -2.000
 7179.00    1.16406   0.91622   -2.000
 7180.00    1.17949   0.91965   -2.000
 7181.00    1.15467   0.94443   -2.000
 7182.00    1.06615   0.96337   -2.000
 7183.00    0.99203   0.96386   -2.000
 7184.00    0.93792   0.94935   -2.000
 7185.00    0.91377   0.92373   -2.000
 7186.00    0.92626   0.90731   -2.000
 7187.00    0.98341   0.90962   -2.000
 7188.00    1.08869   0.92331   -2.000
 7189.00    1.13671   0.93961   -2.000
 7190.00    1.13026   0.94306   -2.000
 7191.00    1.11890   0.93714   -2.000
 7192.00    1.10341   0.93870   -2.000
 7193.00    1.08456   0.94897   -2.000
 7194.00    1.06324   0.94992   -2.000
 7195.00    1.06870   0.93868   -2.000
 7196.00    1.09153   0.93678   -2.000
 7197.00    1.03916   0.94689   -2.000
 7198.00    0.94413   0.95304   -2.000
 7199.00    0.92603   0.94603   -2.000
 7200.00    0.94593   0.93454   -2.000
 7201.00    1.01035   0.93951   -2.000
 7202.00    1.09378   0.95734   -2.000
 7203.00    1.10454   0.96475   -2.000
 7204.00    1.08871   0.94627   -2.000
 7205.00    1.02063   0.91248   -2.000
 7206.00    0.93638   0.89932   -2.000
 7207.00    0.93218   0.91216   -2.000
 7208.00    0.94864   0.93503   -2.000
 7209.00    1.00192   0.95790   -2.000
 7210.00    1.06294   0.96403   -2.000
 7211.00    1.08211   0.95449   -2.000
 7212.00    1.09433   0.94442   -2.000
 7213.00    1.07100   0.94069   -2.000
 7214.00    1.04322   0.94325   -2.000
 7215.00    1.02003   0.95339   -2.000
 7216.00    0.99723   0.96561   -2.000
 7217.00    1.01458   0.96755   -2.000
 7218.00    1.03398   0.96193   -2.000
