###################################################################
## OUTPUT of StarlightChains_v04.for    [Cid@UFSC - 01/Apr/2007] ##
###################################################################

## Some input info
KUG0210-078._31_40.txt                   [arq_obs]
Base.CB07.vall.4m                        [arq_base]
Masks.EmLines.NEW.gm                     [arq_masks]
StCv04.C11.config                        [arq_config]
   66                                    [N_base]
    0                                    [N_YAV_components = # of components with extra extinction!]
    0                                    [i_FitPowerLaw (1/0 = Yes/No)]
-9.99                                    [alpha_PowerLaw]
CCM                                      [red_law_option]
 1.458241                                [q_norm = A(l_norm)/A(V)]

## (Re)Sampling Parameters
 3741.00                                 [l_ini (A)]
 7218.00                                 [l_fin (A)]
    1.00                                 [dl    (A)]     (OBS: dl_cushion =    50.00 A)

## Normalization info
 4020.00                                 [l_norm (A) - for base]
 4010.00                                 [llow_norm (A) - window for f_obs]
 4060.00                                 [lupp_norm (A) - window for f_obs]
1.234725E-17                             [fobs_norm (in input units)]

## S/N
 3691.00                                 [llow_SN (A) - window for S/N]
 7268.00                                 [lupp_SN (A) - window for S/N]
   5.013                                 [S/N in S/N window]
   3.962                                 [S/N in norm. window]
   0.019                                 [S/N_err in S/N window]
   0.015                                 [S/N_err in norm. window]
  1.0000                                 [fscale_chi2]

## etc...
    -2007465                             [idum_orig]
  2430                                   [NOl_eff]
  2424                                   [Nl_eff]
     6    NSIGMA                         [Ntot_cliped & clip_method]
  2195970                                [Nglobal_steps]
   7                                     [N_chains]
  36                                     [NEX0s_base = N_base in EX0s-fits]
 0   0   1        6   2.0   1.237E+03    [Clip-Bug, RC-Crash & Burn-In warning-flags, n_censored_weights, wei_nsig_threshold & wei_limit]
    47     46.330     45.645      0.685  [idt_all, wdt_TotTime, wdt_UsrTime & wdt_SysTime (sec)]

## Synthesis Results - Best model ##

 1.88666E-05                             [chi2/Nl_eff]
    13.84962                             [adev (%)]

   126.45399                             [sum-of-x (%)]
 7.69151E-18                             [Flux_tot (units of input spectrum!)]
 7.28809E-13                             [Mini_tot (???)]
 3.65766E-13                             [Mcor_tot (???)]

-154.22                                  [v0_min  (km/s)]
 234.49                                  [vd_min  (km/s)]
-0.5272                                  [AV_min  (mag)]
 0.0000                                  [YAV_min (mag)]

# j     x_j(%)      Mini_j(%)     Mcor_j(%)     age_j(yr)     Z_j      (L/M)_j    YAV?  Mstars   component_j        a/Fe...       SSP_chi2r SSP_adev(%)   SSP_AV   SSP_x(%)
  1      0.0000     0.0000E+00    0.0000E+00    1.000000E+06  0.00400  1.094E-02    0   1.0000   age020_m42            0.0000     2.7429E-05    19.0369   3.4153   104.9915
  2      0.0000     0.0000E+00    0.0000E+00    3.160000E+06  0.00400  4.007E-02    0   0.9999   age045_m42            0.0000     2.5527E-05    18.1072   2.6726   112.7031
  3      0.0000     0.0000E+00    0.0000E+00    5.010000E+06  0.00400  2.539E-02    0   0.9488   age055_m42            0.0000     2.6225E-05    18.5727   3.0037   109.6076
  4     11.9567     3.8087E-03    6.9971E-03    6.610000E+06  0.00400  2.620E-02    0   0.9220   age061_m42            0.0000     2.5627E-05    18.2365   2.6045   112.7476
  5      0.0000     0.0000E+00    0.0000E+00    1.000000E+07  0.00400  1.322E-02    0   0.8862   age070_m42            0.0000     2.6971E-05    19.5242   2.3583   113.7184
  6      1.1010     1.1657E-03    1.9908E-03    1.445000E+07  0.00400  7.883E-03    0   0.8571   age078_m42            0.0000     2.7172E-05    19.5864   2.6836   110.9424
  7      0.0000     0.0000E+00    0.0000E+00    2.512000E+07  0.00400  5.251E-03    0   0.8174   age090_m42            0.0000     2.7109E-05    19.7469   2.2336   114.1537
  8      0.0000     0.0000E+00    0.0000E+00    4.000000E+07  0.00400  3.649E-03    0   0.7851   age104_m42            0.0000     2.6521E-05    19.4091   1.9984   115.4199
  9      0.0000     0.0000E+00    0.0000E+00    5.500000E+07  0.00400  3.098E-03    0   0.7629   age110_m42            0.0000     2.5950E-05    18.6441   2.1322   116.1726
 10      0.0000     0.0000E+00    0.0000E+00    1.015200E+08  0.00400  2.228E-03    0   0.7207   age116_m42            0.0000     2.5796E-05    18.1822   2.1418   116.7959
 11      0.0000     0.0000E+00    0.0000E+00    2.861200E+08  0.00400  1.093E-03    0   0.6648   age125_m42            0.0000     2.6104E-05    18.4071   1.5781   119.8404
 12      0.0000     0.0000E+00    0.0000E+00    5.088000E+08  0.00400  6.597E-04    0   0.6365   age130_m42            0.0000     2.5460E-05    17.4672   1.5484   121.6881
 13      0.0000     0.0000E+00    0.0000E+00    1.434000E+09  0.00400  2.132E-04    0   0.5798   age139_m42            0.0000     2.3017E-05    16.3081   0.5603   124.9448
 14      0.0000     0.0000E+00    0.0000E+00    4.250000E+09  0.00400  5.895E-05    0   0.5377   age158_m42            0.0000     2.0761E-05    15.4310   0.0917   121.3981
 15      0.0000     0.0000E+00    0.0000E+00    7.500000E+09  0.00400  3.510E-05    0   0.5212   age171_m42            0.0000     2.0221E-05    14.9405  -0.1112   121.1821
 16     17.1273     7.1292E+00    7.1510E+00    1.300000E+10  0.00400  2.005E-05    0   0.5034   age193_m42            0.0000     1.9895E-05    14.5787  -0.2884   120.9797
 17      0.0000     0.0000E+00    0.0000E+00    1.800000E+10  0.00400  1.525E-05    0   0.4967   age213_m42            0.0000     2.0023E-05    14.7406  -0.3076   120.2984
 18      3.7111     2.5018E-03    4.9849E-03    1.000000E+06  0.00800  1.238E-02    0   1.0000   age020_m52            0.0000     2.7439E-05    19.0454   3.4117   105.2071
 19      0.0000     0.0000E+00    0.0000E+00    3.160000E+06  0.00800  3.074E-02    0   0.9966   age045_m52            0.0000     2.7135E-05    18.9266   3.3326   106.2399
 20      0.0645     2.0169E-05    3.7950E-05    5.010000E+06  0.00800  2.668E-02    0   0.9443   age055_m52            0.0000     2.6440E-05    18.7382   3.0894   108.5588
 21      0.0000     0.0000E+00    0.0000E+00    6.610000E+06  0.00800  2.136E-02    0   0.9177   age061_m52            0.0000     2.5631E-05    19.0936   1.8536   115.3077
 22      9.1150     6.2610E-03    1.1012E-02    1.000000E+07  0.00800  1.215E-02    0   0.8827   age070_m52            0.0000     2.7659E-05    20.0766   2.5484   113.0371
 23      0.0000     0.0000E+00    0.0000E+00    1.445000E+07  0.00800  8.717E-03    0   0.8552   age078_m52            0.0000     2.7032E-05    19.5684   2.6497   112.4662
 24      0.0000     0.0000E+00    0.0000E+00    2.512000E+07  0.00800  5.592E-03    0   0.8162   age090_m52            0.0000     2.7107E-05    19.7967   2.2957   115.5319
 25      0.0000     0.0000E+00    0.0000E+00    4.000000E+07  0.00800  3.896E-03    0   0.7841   age104_m52            0.0000     2.6435E-05    19.3081   2.1966   116.8546
 26      0.0000     0.0000E+00    0.0000E+00    1.015200E+08  0.00800  2.148E-03    0   0.7226   age116_m52            0.0000     2.5670E-05    18.4884   2.1162   117.4303
 27      0.0000     0.0000E+00    0.0000E+00    2.861200E+08  0.00800  9.925E-04    0   0.6683   age125_m52            0.0000     2.5514E-05    17.4741   1.6128   122.8594
 28      0.0000     0.0000E+00    0.0000E+00    9.047900E+08  0.00800  3.141E-04    0   0.6138   age135_m52            0.0000     2.2794E-05    15.6415   0.7746   129.6677
 29      0.0000     0.0000E+00    0.0000E+00    1.434000E+09  0.00800  1.719E-04    0   0.5853   age139_m52            0.0000     2.1128E-05    15.5710   0.1903   127.2521
 30      0.0000     0.0000E+00    0.0000E+00    2.500000E+09  0.00800  7.872E-05    0   0.5600   age150_m52            0.0000     1.9930E-05    14.5424  -0.1071   125.2137
 31      0.0000     0.0000E+00    0.0000E+00    4.250000E+09  0.00800  4.336E-05    0   0.5426   age158_m52            0.0000     1.9796E-05    14.5020  -0.1239   124.1225
 32      9.2650     2.4477E+00    2.5942E+00    6.250000E+09  0.00800  3.159E-05    0   0.5319   age166_m52            0.0000     1.9457E-05    13.8972  -0.3487   125.0635
 33      0.0000     0.0000E+00    0.0000E+00    1.300000E+10  0.00800  1.361E-05    0   0.5073   age193_m52            0.0000     1.9354E-05    13.2764  -0.8472   125.4892
 34      0.0000     0.0000E+00    0.0000E+00    1.800000E+10  0.00800  9.886E-06    0   0.4990   age213_m52            0.0000     1.9512E-05    12.9952  -0.9799   125.9030
 35      0.0000     0.0000E+00    0.0000E+00    1.000000E+06  0.02000  1.544E-02    0   1.0000   age020_m62            0.0000     2.7531E-05    19.0778   3.4080   105.4447
 36      0.0000     0.0000E+00    0.0000E+00    3.160000E+06  0.02000  3.762E-02    0   0.9858   age045_m62            0.0000     2.7376E-05    18.9957   3.3445   106.4557
 37      0.0000     0.0000E+00    0.0000E+00    5.010000E+06  0.02000  3.296E-02    0   0.9342   age055_m62            0.0000     2.5893E-05    18.2912   2.9535   111.3355
 38      0.0000     0.0000E+00    0.0000E+00    8.710000E+06  0.02000  1.154E-02    0   0.8861   age067_m62            0.0000     3.2895E-05    23.5875   2.0605   113.5180
 39      0.0000     0.0000E+00    0.0000E+00    1.445000E+07  0.02000  7.663E-03    0   0.8472   age078_m62            0.0000     2.8488E-05    20.8908   2.2076   114.9463
 40      0.0000     0.0000E+00    0.0000E+00    2.512000E+07  0.02000  4.532E-03    0   0.8099   age090_m62            0.0000     2.8775E-05    21.0681   2.2025   114.4839
 41      0.0000     0.0000E+00    0.0000E+00    5.500000E+07  0.02000  2.733E-03    0   0.7595   age110_m62            0.0000     2.6469E-05    19.3559   2.1819   115.9352
 42      0.0000     0.0000E+00    0.0000E+00    1.609000E+08  0.02000  1.369E-03    0   0.6985   age120_m62            0.0000     2.6093E-05    18.1752   1.9919   120.2385
 43      0.0000     0.0000E+00    0.0000E+00    2.861200E+08  0.02000  9.013E-04    0   0.6714   age125_m62            0.0000     2.6115E-05    17.3653   1.7252   124.3783
 44      0.0000     0.0000E+00    0.0000E+00    5.088000E+08  0.02000  5.028E-04    0   0.6449   age130_m62            0.0000     2.4589E-05    15.7565   1.3118   129.2121
 45      0.0000     0.0000E+00    0.0000E+00    9.047900E+08  0.02000  2.428E-04    0   0.6179   age135_m62            0.0000     2.1621E-05    15.0144   0.7024   129.5391
 46      0.0000     0.0000E+00    0.0000E+00    1.434000E+09  0.02000  1.263E-04    0   0.5908   age139_m62            0.0000     2.0369E-05    14.7607   0.2475   128.1764
 47      0.0000     0.0000E+00    0.0000E+00    2.500000E+09  0.02000  5.985E-05    0   0.5673   age150_m62            0.0000     1.9525E-05    14.0337  -0.1466   127.6646
 48      0.0000     0.0000E+00    0.0000E+00    4.250000E+09  0.02000  3.271E-05    0   0.5468   age158_m62            0.0000     1.9214E-05    13.3375  -0.4868   128.0784
 49      0.0000     0.0000E+00    0.0000E+00    1.000000E+10  0.02000  1.360E-05    0   0.5167   age181_m62            0.0000     1.9628E-05    12.9464  -0.8819   129.4854
 50     23.2180     2.7200E+01    2.7169E+01    1.800000E+10  0.02000  7.124E-06    0   0.5013   age213_m62            0.0000     2.0734E-05    12.5831  -1.0000   125.8841
 51      0.0000     0.0000E+00    0.0000E+00    1.000000E+06  0.05000  2.592E-02    0   0.9998   age020_m72            0.0000     2.7854E-05    19.2302   3.4021   105.3990
 52      0.0000     0.0000E+00    0.0000E+00    3.160000E+06  0.05000  4.845E-02    0   0.9577   age045_m72            0.0000     2.6600E-05    18.6498   3.2195   108.1496
 53      0.0000     0.0000E+00    0.0000E+00    5.010000E+06  0.05000  3.072E-02    0   0.9147   age055_m72            0.0000     2.7970E-05    20.1061   2.7731   111.3213
 54      0.0000     0.0000E+00    0.0000E+00    6.610000E+06  0.05000  1.455E-02    0   0.8877   age061_m72            0.0000     3.7046E-05    25.5547   2.1094   113.5528
 55      0.0000     0.0000E+00    0.0000E+00    1.000000E+07  0.05000  9.074E-03    0   0.8524   age070_m72            0.0000     2.8614E-05    20.2415   2.9408   111.1435
 56      0.0000     0.0000E+00    0.0000E+00    2.512000E+07  0.05000  4.250E-03    0   0.7902   age090_m72            0.0000     2.7721E-05    19.9738   2.6461   113.3041
 57      0.0000     0.0000E+00    0.0000E+00    4.000000E+07  0.05000  3.087E-03    0   0.7618   age104_m72            0.0000     2.7996E-05    20.1409   2.4205   115.0670
 58      0.0000     0.0000E+00    0.0000E+00    1.015200E+08  0.05000  1.700E-03    0   0.7096   age116_m72            0.0000     2.6783E-05    18.7889   2.1441   119.2770
 59      0.0000     0.0000E+00    0.0000E+00    2.861200E+08  0.05000  7.384E-04    0   0.6633   age125_m72            0.0000     2.5343E-05    16.5275   1.5727   126.9651
 60      0.0000     0.0000E+00    0.0000E+00    5.088000E+08  0.05000  3.819E-04    0   0.6372   age130_m72            0.0000     2.2745E-05    15.2194   1.0479   130.5718
 61      6.3733     3.1736E-01    3.8637E-01    9.047900E+08  0.05000  1.676E-04    0   0.6110   age135_m72            0.0000     2.0174E-05    14.2201   0.3105   130.1931
 62      0.0000     0.0000E+00    0.0000E+00    1.434000E+09  0.05000  8.837E-05    0   0.5874   age139_m72            0.0000     1.9675E-05    13.9598  -0.1579   129.9949
 63      0.0000     0.0000E+00    0.0000E+00    2.500000E+09  0.05000  4.233E-05    0   0.5598   age150_m72            0.0000     1.9053E-05    13.2193  -0.5051   129.9486
 64      5.1687     3.0060E+00    3.1440E+00    6.250000E+09  0.05000  1.435E-05    0   0.5249   age166_m72            0.0000     1.9534E-05    12.9979  -0.9945   129.6256
 65     22.5274     2.8867E+01    2.8966E+01    1.300000E+10  0.05000  6.513E-06    0   0.5036   age193_m72            0.0000     2.2794E-05    13.4928  -1.0000   122.1132
 66     16.8260     3.1019E+01    3.0564E+01    1.800000E+10  0.05000  4.527E-06    0   0.4945   age213_m72            0.0000     2.6744E-05    15.2357  -1.0000   116.3616


## Synthesis Results - Average & Chains ##

# j      x_j: min, <> & last-chain-values for 1 ...  7 chains
  1      0.0000      0.9847      0.4462      0.0557      0.0000      0.0000      0.0000      0.1023      0.0000
  2      0.0000      2.3901      8.8552      9.0313      7.8372      7.4783      6.9542      8.0585      8.4509
  3      0.0000      1.3652      1.4524      0.2069      0.6890      0.1334      0.2833      0.2394      0.0000
  4     11.9567      1.5432      0.0000      1.4912      0.0000      0.4381      0.0000      0.2507      0.1659
  5      0.0000      1.0765      0.0000      0.2759      0.0000      0.1219      1.1657      0.2876      1.0304
  6      1.1010      1.7664      4.4928      5.8035      3.3292      4.5957      1.5120      4.6670      3.8906
  7      0.0000      1.1665      0.0000      0.0270      3.9798      0.0625      0.5358      0.0000      1.3247
  8      0.0000      1.1277      1.2996      0.0189      0.0000      0.0909      0.1987      0.0041      0.8503
  9      0.0000      1.5182      0.7792      0.1598      0.0000      0.3934      0.5025      0.2493      0.0000
 10      0.0000      1.7586      0.0000      0.2568      0.0000      1.9805      0.1148      1.8250      0.1183
 11      0.0000      1.4473      0.0000      0.2796      0.0130      0.2471      0.0000      0.0000      0.3346
 12      0.0000      1.5106      0.1286      0.0000      0.0000      0.0000      0.0000      0.0000      1.5738
 13      0.0000      1.3509      0.4037      0.0000      0.2677      0.0000      0.1202      0.0000      0.0000
 14      0.0000      1.2118      0.9960      0.5296      0.1677      0.0000      0.1851      0.0011      0.4080
 15      0.0000      1.4210      0.5545      0.4655      3.4304      0.1054      0.7245      0.0000      0.1176
 16     17.1273      1.2827      0.5329      0.0000      0.2511      0.0000      0.6749      0.4929      0.4594
 17      0.0000      1.0817      1.0519      0.0000      1.1827      0.0000      0.0000      0.0000      0.5728
 18      3.7111      1.6649      2.1524      0.2383      0.1204      0.1769      0.4333      0.6758      0.7600
 19      0.0000      1.4467      0.9134      2.1248      1.5985      2.6335      0.4362      1.6796      2.8587
 20      0.0645      1.2496      0.3141      1.1100      1.1114      0.0000      1.0049      1.0259      0.0164
 21      0.0000      1.0013      0.2627      0.2020      0.2493      0.3570      0.0000      0.0000      0.0486
 22      9.1150      1.7474      1.2511      1.7804      0.0000      1.6871      0.9529      1.7081      3.0596
 23      0.0000      1.3479      1.9864      2.9344      2.6486      0.4254      0.7637      2.8010      2.2782
 24      0.0000      1.2067      0.4430      0.2206      1.1914      0.1868      0.1648      0.1101      0.2448
 25      0.0000      1.3743      1.5522      1.6288      2.1360      1.2892      1.1677      1.5407      0.7552
 26      0.0000      1.3009      0.6652      0.0000      0.0000      0.0000      0.0000      0.0011      0.3289
 27      0.0000      1.7790      0.4878      0.0000      0.4061      0.9820      2.2693      0.9060      0.6385
 28      0.0000      1.2933      0.5327      0.0000      0.0000      0.0000      0.0000      0.1165      0.0000
 29      0.0000      1.5157      0.5893      0.0000      0.8443      0.1650      0.1432      0.4125      0.0000
 30      0.0000      1.2252      0.0974      0.0000      0.0000      4.1273      0.0400      0.0000      0.0000
 31      0.0000      1.7586      0.6588      0.0000      3.7931      0.0000      0.0498      0.0353      0.5620
 32      9.2650      1.4496      0.2084      0.0000      0.0000      2.7873      0.2620      3.4442      0.3753
 33      0.0000      1.1487      0.3915      0.0000      0.2106      0.0000      0.0000      0.1884      0.8944
 34      0.0000      1.0558      0.0000      0.0692      0.2114      0.0323      0.0000      0.0000      0.4707
 35      0.0000      1.4320      0.6129      0.0723      0.2355      0.0000      0.0915      0.0000      0.4437
 36      0.0000      1.0872      1.3779      1.1120      0.0000      1.0698      0.9520      1.1046      1.0255
 37      0.0000      1.3169      0.0000      0.5613      0.5642      0.4107      0.2302      0.6158      0.9570
 38      0.0000      1.0088      0.2142      0.4851      2.9161      2.0420      0.0399      0.3124      0.3880
 39      0.0000      1.2130      0.1339      0.5210      0.4133      0.4000      0.4939      0.8483      0.0718
 40      0.0000      1.5992      0.3861      0.1012      0.2406      0.0000      0.0000      0.0000      0.5435
 41      0.0000      1.1116      1.1462      0.7216      0.0428      0.8851      0.9597      0.6806      0.3226
 42      0.0000      1.2692      0.6217      0.2832      0.5408      0.0000      0.1989      0.4175      0.2207
 43      0.0000      1.2604      0.6657      0.1570      0.2300      0.2056      0.0136      0.1273      0.2392
 44      0.0000      1.6507      0.1150      1.7902      1.3299      1.4739      3.6707      2.1414      2.1083
 45      0.0000      1.3290      0.7343      0.0000      0.2009      0.0000      0.0088      0.2253      0.0000
 46      0.0000      0.9186      0.0000      0.8706      0.0887      0.5314      0.3949      0.0024      0.0000
 47      0.0000      1.4931      0.1189      0.4594      0.1887      0.3409      0.0411      1.6173      0.7546
 48      0.0000      0.9555      1.1466      0.0000      0.1000      0.0000      0.0000      0.0000      0.2017
 49      0.0000      1.3890      1.3560      0.0000      1.7411      0.0000      0.3480      0.0000      0.2046
 50     23.2180      2.7990      9.1565     11.5593      8.3933     10.1902     17.4573     11.0267     11.1063
 51      0.0000      1.2437      0.9826      0.0469      0.3921      0.0000      0.0000      0.2378      0.2074
 52      0.0000      1.4054      0.2086      0.2747      0.0534      0.0000      0.0000      0.0000      0.5416
 53      0.0000      1.3424      0.0000      0.4008      0.7414      0.5465      0.5241      0.5600      0.0000
 54      0.0000      1.2216      0.1038      0.0139      0.0000      0.5982      0.1838      0.1871      1.1966
 55      0.0000      1.3201      2.0321      2.2983      0.0000      2.3623      2.3956      2.3169      1.1698
 56      0.0000      1.4280      1.8948      1.7587      1.0322      2.5806      1.3373      3.8661      2.0550
 57      0.0000      1.1603      0.2453      0.5665      0.5186      0.2696      0.0000      0.7963      0.4633
 58      0.0000      1.0289      0.1253      0.0000      0.1558      0.5552      1.0526      0.5523      0.9203
 59      0.0000      1.1982      0.2334      0.2817      2.2300      0.2112      0.0000      0.4359      0.7173
 60      0.0000      1.4417      1.6313      2.3181      1.0520      1.6359      1.9026      0.7393      0.0000
 61      6.3733      1.0942      0.9188      0.7190      1.1100      0.5814      0.7916      1.0300      0.7155
 62      0.0000      1.0236      1.0389      0.0191      0.6960      0.2243      0.0355      0.0000      0.0000
 63      0.0000      1.6128      0.8028      1.7960      2.7853      1.0126      1.0713      0.1181      1.3282
 64      5.1687      1.9499      5.6273      6.6049      5.3383      6.0999      6.8467      6.6691      6.1084
 65     22.5274      2.1794      7.4432      6.2140      5.4359      5.9354     10.4208      5.9822      6.2301
 66     16.8260      3.9011     21.3015     24.2192     20.9502     23.2263     20.4493     23.1687     22.6129

# j      m_j: min, <> & last-chain-values for 1 ...  7 chains
  1  0.0000E+00  7.1201E-03  1.0322E-03  1.2008E-04  0.0000E+00  0.0000E+00  0.0000E+00  2.2687E-04  0.0000E+00
  2  0.0000E+00  4.7181E-03  5.5926E-03  5.3139E-03  5.1646E-03  4.6096E-03  3.7736E-03  4.8770E-03  5.1303E-03
  3  0.0000E+00  4.0359E-03  1.3737E-03  1.8230E-04  6.7997E-04  1.2313E-04  2.3017E-04  2.1695E-04  0.0000E+00
  4  6.9971E-03  4.2959E-03  0.0000E+00  1.2373E-03  0.0000E+00  3.8083E-04  0.0000E+00  2.1398E-04  1.4205E-04
  5  0.0000E+00  5.7088E-03  0.0000E+00  4.3608E-04  0.0000E+00  2.0191E-04  1.6993E-03  4.6761E-04  1.6804E-03
  6  1.9908E-03  1.5193E-02  1.2363E-02  1.4878E-02  9.5590E-03  1.2343E-02  3.5749E-03  1.2307E-02  1.0291E-02
  7  0.0000E+00  1.4364E-02  0.0000E+00  9.9149E-05  1.6360E-02  2.4039E-04  1.8138E-03  0.0000E+00  5.0165E-03
  8  0.0000E+00  1.9194E-02  7.0770E-03  9.6080E-05  0.0000E+00  4.8318E-04  9.2966E-04  2.1385E-05  4.4508E-03
  9  0.0000E+00  2.9576E-02  4.8565E-03  9.2785E-04  0.0000E+00  2.3928E-03  2.6906E-03  1.4890E-03  0.0000E+00
 10  0.0000E+00  4.5002E-02  0.0000E+00  1.9589E-03  0.0000E+00  1.5825E-02  8.0729E-04  1.4317E-02  9.3064E-04
 11  0.0000E+00  6.9638E-02  0.0000E+00  4.0098E-03  2.0804E-04  3.7127E-03  0.0000E+00  0.0000E+00  4.9510E-03
 12  0.0000E+00  1.1530E-01  3.1407E-03  0.0000E+00  0.0000E+00  0.0000E+00  0.0000E+00  0.0000E+00  3.6941E-02
 13  0.0000E+00  2.9063E-01  2.7784E-02  0.0000E+00  1.9227E-02  0.0000E+00  7.1111E-03  0.0000E+00  0.0000E+00
 14  0.0000E+00  8.7438E-01  2.2994E-01  1.1391E-01  4.0397E-02  0.0000E+00  3.6714E-02  2.5348E-04  9.0524E-02
 15  0.0000E+00  1.6692E+00  2.0838E-01  1.6298E-01  1.3452E+00  3.8642E-02  2.3393E-01  0.0000E+00  4.2482E-02
 16  7.1510E+00  2.5476E+00  3.3862E-01  0.0000E+00  1.6646E-01  0.0000E+00  3.6847E-01  3.0011E-01  2.8062E-01
 17  0.0000E+00  2.7871E+00  8.6714E-01  0.0000E+00  1.0172E+00  0.0000E+00  0.0000E+00  0.0000E+00  4.5384E-01
 18  4.9849E-03  1.0639E-02  4.4003E-03  4.5380E-04  2.5680E-04  3.5294E-04  7.6116E-04  1.3238E-03  1.4934E-03
 19  0.0000E+00  3.7104E-03  7.4947E-04  1.6243E-03  1.3686E-03  2.1090E-03  3.0753E-04  1.3207E-03  2.2547E-03
 20  3.7950E-05  3.4986E-03  2.8140E-04  9.2634E-04  1.0388E-03  0.0000E+00  7.7338E-04  8.8059E-04  1.4162E-05
 21  0.0000E+00  3.4030E-03  2.8560E-04  2.0461E-04  2.8284E-04  3.7884E-04  0.0000E+00  0.0000E+00  5.0807E-05
 22  1.1012E-02  1.0042E-02  2.3004E-03  3.0498E-03  0.0000E+00  3.0276E-03  1.5053E-03  3.0097E-03  5.4076E-03
 23  0.0000E+00  1.0461E-02  4.9321E-03  6.7881E-03  6.8621E-03  1.0310E-03  1.6292E-03  6.6646E-03  5.4373E-03
 24  0.0000E+00  1.3933E-02  1.6364E-03  7.5903E-04  4.5924E-03  6.7366E-04  5.2304E-04  3.8962E-04  8.6939E-04
 25  0.0000E+00  2.1880E-02  7.9066E-03  7.7295E-03  1.1352E-02  6.4089E-03  5.1103E-03  7.5203E-03  3.6973E-03
 26  0.0000E+00  3.4619E-02  5.6634E-03  0.0000E+00  0.0000E+00  0.0000E+00  0.0000E+00  8.7143E-06  2.6913E-03
 27  0.0000E+00  9.4760E-02  8.3128E-03  0.0000E+00  7.2211E-03  1.6334E-02  3.3228E-02  1.4796E-02  1.0460E-02
 28  0.0000E+00  1.9992E-01  2.6347E-02  0.0000E+00  0.0000E+00  0.0000E+00  0.0000E+00  5.5208E-03  0.0000E+00
 29  0.0000E+00  4.0824E-01  5.0779E-02  0.0000E+00  7.5920E-02  1.3876E-02  1.0599E-02  3.4063E-02  0.0000E+00
 30  0.0000E+00  6.8950E-01  1.7544E-02  0.0000E+00  0.0000E+00  7.2525E-01  6.1806E-03  0.0000E+00  0.0000E+00
 31  0.0000E+00  1.7409E+00  2.0867E-01  0.0000E+00  1.2535E+00  0.0000E+00  1.3564E-02  1.0713E-02  1.7110E-01
 32  2.5942E+00  1.9308E+00  8.8806E-02  0.0000E+00  0.0000E+00  1.1593E+00  9.5941E-02  1.4065E+00  1.5375E-01
 33  0.0000E+00  3.3872E+00  3.6933E-01  0.0000E+00  2.0730E-01  0.0000E+00  0.0000E+00  1.7031E-01  8.1101E-01
 34  0.0000E+00  4.2159E+00  0.0000E+00  8.2348E-02  2.8173E-01  4.0262E-02  0.0000E+00  0.0000E+00  5.7798E-01
 35  0.0000E+00  7.3367E-03  1.0046E-03  1.1047E-04  4.0284E-04  0.0000E+00  1.2893E-04  0.0000E+00  6.9903E-04
 36  0.0000E+00  2.2536E-03  9.1381E-04  6.8704E-04  0.0000E+00  6.9243E-04  5.4248E-04  7.0198E-04  6.5372E-04
 37  0.0000E+00  2.9527E-03  0.0000E+00  3.7513E-04  4.2227E-04  2.8755E-04  1.4186E-04  4.2331E-04  6.5988E-04
 38  0.0000E+00  6.1279E-03  4.1624E-04  8.7835E-04  5.9131E-03  3.8730E-03  6.6609E-05  5.8183E-04  7.2487E-04
 39  0.0000E+00  1.0608E-02  3.7480E-04  1.3583E-03  1.2066E-03  1.0923E-03  1.1874E-03  2.2746E-03  1.9308E-04
 40  0.0000E+00  2.2608E-02  1.7465E-03  4.2646E-04  1.1352E-03  0.0000E+00  0.0000E+00  0.0000E+00  2.3630E-03
 41  0.0000E+00  2.4437E-02  8.0618E-03  4.7281E-03  3.1417E-04  6.0756E-03  5.7992E-03  4.5870E-03  2.1812E-03
 42  0.0000E+00  5.1229E-02  8.0286E-03  3.4067E-03  7.2873E-03  0.0000E+00  2.2066E-03  5.1659E-03  2.7396E-03
 43  0.0000E+00  7.4277E-02  1.2551E-02  2.7577E-03  4.5240E-03  3.7837E-03  2.2093E-04  2.2992E-03  4.3342E-03
 44  0.0000E+00  1.6749E-01  3.7336E-03  5.4140E-02  4.5045E-02  4.6697E-02  1.0238E-01  6.6611E-02  6.5786E-02
 45  0.0000E+00  2.6755E-01  4.7295E-02  0.0000E+00  1.3500E-02  0.0000E+00  4.8551E-04  1.3907E-02  0.0000E+00
 46  0.0000E+00  3.3992E-01  0.0000E+00  9.6021E-02  1.0951E-02  6.1403E-02  4.0167E-02  2.7398E-04  0.0000E+00
 47  0.0000E+00  1.1196E+00  2.8524E-02  1.0268E-01  4.7241E-02  7.9810E-02  8.4641E-03  3.7179E-01  1.7400E-01
 48  0.0000E+00  1.2635E+00  4.8511E-01  0.0000E+00  4.4161E-02  0.0000E+00  0.0000E+00  0.0000E+00  8.2029E-02
 49  0.0000E+00  4.1746E+00  1.3038E+00  0.0000E+00  1.7468E+00  0.0000E+00  2.8754E-01  0.0000E+00  1.8913E-01
 50  2.7169E+01  1.5581E+01  1.6307E+01  1.9179E+01  1.5597E+01  1.7713E+01  2.6713E+01  1.8818E+01  1.9013E+01
 51  0.0000E+00  3.7950E-03  9.5927E-04  4.2661E-05  3.9940E-04  0.0000E+00  0.0000E+00  2.2251E-04  1.9465E-04
 52  0.0000E+00  2.1976E-03  1.0438E-04  1.2802E-04  2.7854E-05  0.0000E+00  0.0000E+00  0.0000E+00  2.6045E-04
 53  0.0000E+00  3.1620E-03  0.0000E+00  2.8139E-04  5.8297E-04  4.0191E-04  3.3937E-04  4.0440E-04  0.0000E+00
 54  0.0000E+00  5.8959E-03  1.6030E-04  2.0003E-05  0.0000E+00  9.0155E-04  2.4381E-04  2.7683E-04  1.7760E-03
 55  0.0000E+00  9.8099E-03  4.8314E-03  5.0907E-03  0.0000E+00  5.4816E-03  4.8936E-03  5.2784E-03  2.6733E-03
 56  0.0000E+00  2.1003E-02  8.9163E-03  7.7103E-03  5.0681E-03  1.1852E-02  5.4070E-03  1.7433E-02  9.2951E-03
 57  0.0000E+00  2.2652E-02  1.5319E-03  3.2964E-03  3.3797E-03  1.6434E-03  0.0000E+00  4.7660E-03  2.7816E-03
 58  0.0000E+00  3.3976E-02  1.3239E-03  0.0000E+00  1.7174E-03  5.7242E-03  9.5543E-03  5.5914E-03  9.3457E-03
 59  0.0000E+00  8.5145E-02  5.3074E-03  5.9672E-03  5.2900E-02  4.6863E-03  0.0000E+00  9.4960E-03  1.5676E-02
 60  0.0000E+00  1.9030E-01  6.8888E-02  9.1197E-02  4.6351E-02  6.7421E-02  6.9030E-02  2.9918E-02  0.0000E+00
 61  3.8637E-01  3.1557E-01  8.4774E-02  6.1801E-02  1.0686E-01  5.2359E-02  6.2751E-02  9.1069E-02  6.3453E-02
 62  0.0000E+00  5.3825E-01  1.7477E-01  2.9934E-03  1.2217E-01  3.6833E-02  5.1319E-03  0.0000E+00  0.0000E+00
 63  0.0000E+00  1.6873E+00  2.6870E-01  5.6004E-01  9.7273E-01  3.3078E-01  3.0809E-01  3.7883E-02  4.2731E-01
 64  3.1440E+00  5.6422E+00  5.2096E+00  5.6966E+00  5.1566E+00  5.5115E+00  5.4459E+00  5.9163E+00  5.4357E+00
 65  2.8966E+01  1.3331E+01  1.4566E+01  1.1329E+01  1.1100E+01  1.1336E+01  1.7521E+01  1.1218E+01  1.1719E+01
 66  3.0564E+01  3.3710E+01  5.8890E+01  6.2379E+01  6.0434E+01  6.2670E+01  4.8573E+01  6.1379E+01  6.0091E+01

# AV, chi2 & Mass for <> & i_chain = 1 ...  7 solutions
AV      -0.5272      0.3649      0.4468      0.4143      0.4348      0.4257      0.2645      0.4141      0.4325
chi2 1.8867E-05  7.2106E-05  3.4372E-05  3.5275E-05  3.4791E-05  3.6418E-05  3.7972E-05  3.3874E-05  3.4891E-05
Mass 3.6577E-13  2.5479E-13  8.8903E-13  9.1355E-13  8.3843E-13  8.8543E-13  8.0996E-13  8.8783E-13  9.0728E-13
-154.22                                  [v0_min (km/s) before EX0s...]
 234.49                                  [vd_min (km/s) before EX0s...]


## Synthetic spectrum (Best Model) ##l_obs f_obs f_syn wei
 3478    [Nl_obs]
 3741.00    0.49660   0.67169    0.000
 3742.00    0.36300   0.64902    0.000
 3743.00    0.06676   0.62309    0.000
 3744.00    0.02465   0.59902    0.000
 3745.00    0.13061   0.58107    0.032
 3746.00    0.34499   0.57266    0.033
 3747.00    0.61445   0.57838    0.033
 3748.00    0.52908   0.60023    0.032
 3749.00    0.28769   0.63381    0.031
 3750.00    0.36924   0.67173    0.031
 3751.00    0.57271   0.70813    0.032
 3752.00    0.63579   0.73807    0.031
 3753.00    0.65387   0.75624    0.030
 3754.00    0.84511   0.75995    0.031
 3755.00    1.08275   0.75234    0.031
 3756.00    1.29620   0.74141    0.031
 3757.00    1.50433   0.73354    0.031
 3758.00    1.44432   0.72937    0.035
 3759.00    1.33751   0.72691    0.039
 3760.00    1.16870   0.72473    0.057
 3761.00    0.99165   0.72274    0.110
 3762.00    1.10329   0.72197    0.054
 3763.00    1.24205   0.72173    0.034
 3764.00    1.18805   0.72081    0.032
 3765.00    1.12292   0.72223    0.030
 3766.00    0.80380   0.72917    0.030
 3767.00    0.48262   0.74019    0.029
 3768.00    0.64155   0.75402    0.031
 3769.00    0.79781   0.77190    0.033
 3770.00    0.88922   0.79285    0.032
 3771.00    0.96736   0.81353    0.032
 3772.00    0.87170   0.83236    0.031
 3773.00    0.77132   0.85006    0.030
 3774.00    0.62950   0.86762    0.028
 3775.00    0.51303   0.88484    0.027
 3776.00    0.56088   0.90128    0.028
 3777.00    0.60335   0.91658    0.029
 3778.00    0.61858   0.92856    0.029
 3779.00    0.61001   0.93449    0.029
 3780.00    0.50400   0.93351    0.029
 3781.00    0.43890   0.92536    0.029
 3782.00    0.51253   0.90897    0.030
 3783.00    0.56842   0.88387    0.030
 3784.00    0.57359   0.85357    0.030
 3785.00    0.56619   0.82397    0.030
 3786.00    0.52811   0.79783    0.030
 3787.00    0.45425   0.77575    0.029
 3788.00    0.30500   0.75795    0.029
 3789.00    0.32329   0.74251    0.029
 3790.00    0.64845   0.72553    0.029
 3791.00    0.83139   0.70569    0.029
 3792.00    0.78668   0.68508    0.029
 3793.00    0.75236   0.66681    0.029
 3794.00    0.73264   0.65312    0.029
 3795.00    0.73812   0.64553    0.029
 3796.00    0.77477   0.64755    0.028
 3797.00    0.67290   0.66268    0.028
 3798.00    0.42013   0.68934    0.027
 3799.00    0.32075   0.72161    0.027
 3800.00    0.36877   0.75444    0.027
 3801.00    0.44302   0.78452    0.028
 3802.00    0.53948   0.80870    0.029
 3803.00    0.56360   0.82531    0.029
 3804.00    0.53374   0.83498    0.029
 3805.00    0.52917   0.84073    0.028
 3806.00    0.54116   0.84517    0.028
 3807.00    0.50188   0.84698    0.028
 3808.00    0.43318   0.84342    0.029
 3809.00    0.47794   0.83329    0.029
 3810.00    0.57941   0.81646    0.030
 3811.00    0.43609   0.79453    0.029
 3812.00    0.18691   0.77071    0.028
 3813.00    0.09341   0.74752    0.028
 3814.00    0.05763   0.72741    0.028
 3815.00    0.27705   0.71121    0.028
 3816.00    0.57669   0.69593    0.029
 3817.00    0.71356   0.67996    0.034
 3818.00    0.80772   0.66634    0.045
 3819.00    0.68427   0.65774    0.037
 3820.00    0.51419   0.65174    0.029
 3821.00    0.52186   0.64360    0.029
 3822.00    0.55971   0.63220    0.030
 3823.00    0.51110   0.62067    0.030
 3824.00    0.45141   0.61095    0.029
 3825.00    0.32298   0.60208    0.028
 3826.00    0.18838   0.59245    0.027
 3827.00    0.05038   0.58165    0.028
 3828.00   -0.08780   0.56971    0.000
 3829.00   -0.01564   0.55584    0.000
 3830.00    0.06123   0.54066    0.028
 3831.00    0.18056   0.52739    0.028
 3832.00    0.30339   0.51878    0.029
 3833.00    0.50407   0.51634    0.029
 3834.00    0.69860   0.52028    0.029
 3835.00    0.81652   0.52925    0.029
 3836.00    0.89767   0.54351    0.030
 3837.00    0.66810   0.56431    0.031
 3838.00    0.47710   0.59085    0.032
 3839.00    0.52873   0.62208    0.030
 3840.00    0.55283   0.65586    0.028
 3841.00    0.44108   0.68723    0.028
 3842.00    0.31837   0.71308    0.027
 3843.00    0.15180   0.73300    0.028
 3844.00    0.03565   0.74743    0.028
 3845.00    0.08711   0.75722    0.028
 3846.00    0.15005   0.76177    0.028
 3847.00    0.24528   0.76116    0.000
 3848.00    0.42365   0.75889    0.000
 3849.00    0.80172   0.75797    0.000
 3850.00    0.97422   0.75609    0.000
 3851.00    0.72041   0.75015    0.000
 3852.00    0.55634   0.74087    0.000
 3853.00    0.55414   0.73015    0.000
 3854.00    0.61723   0.71980    0.000
 3855.00    0.78331   0.71179    0.000
 3856.00    0.89123   0.70594    0.000
 3857.00    0.91863   0.70317    0.000
 3858.00    0.97527   0.70694    0.000
 3859.00    1.06753   0.71811    0.000
 3860.00    1.01943   0.73281    0.000
 3861.00    0.82057   0.74562    0.000
 3862.00    0.68207   0.75352    0.000
 3863.00    0.60074   0.75666    0.000
 3864.00    0.73219   0.75612    0.000
 3865.00    1.04141   0.75218    0.000
 3866.00    1.17688   0.74549    0.000
 3867.00    1.18456   0.73772    0.000
 3868.00    1.14446   0.73034    0.000
 3869.00    1.07349   0.72498    0.000
 3870.00    0.99699   0.72302    0.000
 3871.00    0.91735   0.72555    0.000
 3872.00    0.81298   0.73120    0.000
 3873.00    0.69645   0.73523    0.000
 3874.00    0.55434   0.73387    0.000
 3875.00    0.40135   0.72751    0.000
 3876.00    0.29310   0.71981    0.000
 3877.00    0.20114   0.71447    0.000
 3878.00    0.26362   0.70939    0.000
 3879.00    0.37371   0.70070    0.000
 3880.00    0.51590   0.69057    0.000
 3881.00    0.66633   0.68304    0.029
 3882.00    0.84523   0.67611    0.029
 3883.00    1.03009   0.66552    0.029
 3884.00    0.93552   0.65533    0.030
 3885.00    0.79486   0.65354    0.030
 3886.00    0.70375   0.66127    0.030
 3887.00    0.61878   0.67696    0.029
 3888.00    0.79181   0.70065    0.029
 3889.00    0.98693   0.72979    0.029
 3890.00    0.88758   0.75929    0.029
 3891.00    0.77355   0.78420    0.030
 3892.00    0.86496   0.80270    0.030
 3893.00    0.95867   0.81620    0.030
 3894.00    0.98330   0.82797    0.029
 3895.00    0.99792   0.83759    0.029
 3896.00    0.80797   0.84214    0.028
 3897.00    0.63296   0.84368    0.028
 3898.00    0.63462   0.84597    0.027
 3899.00    0.65822   0.84964    0.027
 3900.00    0.86060   0.85154    0.028
 3901.00    1.04937   0.85233    0.029
 3902.00    1.15498   0.85585    0.029
 3903.00    1.23605   0.86167    0.028
 3904.00    1.19909   0.87160    0.026
 3905.00    1.12228   0.88834    0.025
 3906.00    0.88940   0.90874    0.025
 3907.00    0.72304   0.92817    0.025
 3908.00    0.77347   0.94425    0.025
 3909.00    0.80457   0.95665    0.026
 3910.00    0.78237   0.96453    0.026
 3911.00    0.80152   0.96532    0.027
 3912.00    0.91830   0.95879    0.028
 3913.00    0.90456   0.94628    0.029
 3914.00    0.62441   0.92834    0.028
 3915.00    0.52060   0.90743    0.028
 3916.00    0.73000   0.88517    0.029
 3917.00    0.97610   0.86181    0.030
 3918.00    1.27922   0.83890    0.030
 3919.00    1.30604   0.81870    0.030
 3920.00    0.95584   0.80167    0.029
 3921.00    0.71891   0.78535    0.029
 3922.00    0.61803   0.76706    0.029
 3923.00    0.58748   0.74377    0.028
 3924.00    0.63140   0.71451    0.028
 3925.00    0.65787   0.68050    0.029
 3926.00    0.66804   0.64313    0.029
 3927.00    0.68187   0.60525    0.030
 3928.00    0.69871   0.56990    0.029
 3929.00    0.68161   0.54010    0.029
 3930.00    0.63990   0.51888    0.029
 3931.00    0.65311   0.50849    0.029
 3932.00    0.70127   0.51033    0.029
 3933.00    0.70586   0.52423    0.030
 3934.00    0.68621   0.54852    0.030
 3935.00    0.69801   0.57999    0.029
 3936.00    0.72502   0.61473    0.029
 3937.00    0.71771   0.64953    0.029
 3938.00    0.69606   0.68238    0.029
 3939.00    0.54193   0.71198    0.029
 3940.00    0.34043   0.73801    0.028
 3941.00    0.34604   0.76078    0.029
 3942.00    0.41424   0.78310    0.029
 3943.00    0.36024   0.80915    0.029
 3944.00    0.27554   0.83698    0.029
 3945.00    0.54862   0.86062    0.030
 3946.00    0.89466   0.88022    0.030
 3947.00    1.23914   0.90005    0.031
 3948.00    1.58337   0.91927    0.031
 3949.00    1.27300   0.93227    0.031
 3950.00    0.88447   0.93685    0.031
 3951.00    0.86219   0.93807    0.031
 3952.00    0.86975   0.93869    0.032
 3953.00    0.78376   0.93244    0.031
 3954.00    0.69347   0.91532    0.031
 3955.00    0.79413   0.89192    0.031
 3956.00    0.89870   0.86589    0.031
 3957.00    1.08021   0.83454    0.032
 3958.00    1.24880   0.79343    0.033
 3959.00    1.17270   0.74369    0.032
 3960.00    1.06430   0.69246    0.000
 3961.00    0.59186   0.64367    0.000
 3962.00    0.18821   0.59597    0.000
 3963.00    0.32538   0.54965    0.000
 3964.00    0.46975   0.50857    0.000
 3965.00    0.65684   0.47768    0.000
 3966.00    0.80039   0.46021    0.000
 3967.00    0.73955   0.45800    0.000
 3968.00    0.68460   0.47249    0.000
 3969.00    0.65218   0.50308    0.000
 3970.00    0.71633   0.54676    0.000
 3971.00    1.08911   0.59970    0.000
 3972.00    1.28429   0.65878    0.000
 3973.00    0.99843   0.72041    0.000
 3974.00    0.82005   0.77956    0.000
 3975.00    0.89126   0.83323    0.000
 3976.00    0.91784   0.88100    0.000
 3977.00    0.85479   0.92225    0.000
 3978.00    0.89575   0.95598    0.000
 3979.00    1.11865   0.98113    0.000
 3980.00    1.34641   0.99974    0.000
 3981.00    1.58160   1.01636    0.031
 3982.00    1.65411   1.03237    0.031
 3983.00    1.50781   1.04715    0.031
 3984.00    1.49628   1.06039    0.031
 3985.00    1.64433   1.07324    0.031
 3986.00    1.68100   1.08656    0.030
 3987.00    1.60135   1.09648    0.030
 3988.00    1.44723   1.10236    0.030
 3989.00    1.22452   1.10739    0.029
 3990.00    1.24913   1.11131    0.029
 3991.00    1.47455   1.11268    0.030
 3992.00    1.48837   1.11174    0.030
 3993.00    1.35099   1.11122    0.030
 3994.00    1.27185   1.11258    0.030
 3995.00    1.22921   1.11589    0.031
 3996.00    1.28952   1.12304    0.030
 3997.00    1.40623   1.13406    0.030
 3998.00    1.36542   1.14318    0.030
 3999.00    1.24956   1.14621    0.031
 4000.00    1.02268   1.14615    0.030
 4001.00    0.75016   1.14470    0.030
 4002.00    1.05062   1.13843    0.030
 4003.00    1.55231   1.12833    0.031
 4004.00    1.15515   1.12358    0.031
 4005.00    0.49167   1.12922    0.030
 4006.00    0.38055   1.14041    0.030
 4007.00    0.40512   1.15215    0.030
 4008.00    0.52011   1.16486    0.030
 4009.00    0.65309   1.17948    0.030
 4010.00    0.79991   1.19311    0.030
 4011.00    0.94888   1.20351    0.030
 4012.00    1.18740   1.21164    0.031
 4013.00    1.43622   1.21899    0.031
 4014.00    1.22005   1.22378    0.031
 4015.00    0.96793   1.22435    0.030
 4016.00    0.86437   1.22416    0.031
 4017.00    0.76706   1.22482    0.031
 4018.00    0.77512   1.22269    0.030
 4019.00    0.78603   1.21707    0.029
 4020.00    0.87983   1.21160    0.030
 4021.00    0.96360   1.20802    0.030
 4022.00    0.87052   1.20371    0.030
 4023.00    0.78839   1.19706    0.030
 4024.00    0.82403   1.18905    0.030
 4025.00    0.86208   1.17971    0.030
 4026.00    0.91854   1.16688    0.030
 4027.00    0.95006   1.14762    0.030
 4028.00    0.83782   1.12336    0.030
 4029.00    0.81055   1.10287    0.029
 4030.00    1.17275   1.09341    0.030
 4031.00    1.45535   1.09474    0.030
 4032.00    1.43938   1.10535    0.029
 4033.00    1.35308   1.12461    0.029
 4034.00    1.04633   1.15029    0.028
 4035.00    0.85840   1.17670    0.028
 4036.00    0.98657   1.19594    0.028
 4037.00    1.12347   1.20234    0.028
 4038.00    1.28034   1.19423    0.029
 4039.00    1.34219   1.17566    0.029
 4040.00    1.21622   1.15380    0.029
 4041.00    1.09168   1.13088    0.029
 4042.00    0.96961   1.10641    0.029
 4043.00    0.95768   1.08650    0.029
 4044.00    1.11189   1.08206    0.029
 4045.00    1.12388   1.09628    0.030
 4046.00    0.94737   1.11900    0.030
 4047.00    1.00000   1.14031    0.030
 4048.00    1.32016   1.15848    0.030
 4049.00    1.45343   1.17260    0.030
 4050.00    1.39429   1.17903    0.031
 4051.00    1.29194   1.17537    0.031
 4052.00    1.15034   1.16424    0.030
 4053.00    1.27774   1.15160    0.030
 4054.00    1.62045   1.14081    0.030
 4055.00    1.44807   1.12925    0.030
 4056.00    0.91300   1.11537    0.030
 4057.00    0.85363   1.10277    0.030
 4058.00    1.08810   1.09461    0.031
 4059.00    1.06195   1.08817    0.031
 4060.00    0.89518   1.07728    0.030
 4061.00    0.98201   1.06472    0.030
 4062.00    1.18770   1.06205    0.030
 4063.00    0.89773   1.07226    0.030
 4064.00    0.40751   1.08373    0.030
 4065.00    0.46782   1.08945    0.030
 4066.00    0.71796   1.09672    0.030
 4067.00    0.81889   1.10941    0.030
 4068.00    0.87651   1.11720    0.030
 4069.00    0.87863   1.11231    0.030
 4070.00    0.86743   1.10341    0.030
 4071.00    0.88417   1.10078    0.030
 4072.00    0.90634   1.10105    0.030
 4073.00    0.98771   1.09807    0.030
 4074.00    1.07801   1.09490    0.030
 4075.00    1.06901   1.09861    0.030
 4076.00    1.04902   1.11117    0.030
 4077.00    1.00621   1.12914    0.030
 4078.00    0.96173   1.14953    0.030
 4079.00    1.11741   1.17007    0.030
 4080.00    1.28076   1.18794    0.030
 4081.00    1.22853   1.20300    0.030
 4082.00    1.17980   1.21715    0.031
 4083.00    1.30759   1.23071    0.030
 4084.00    1.42608   1.24325    0.030
 4085.00    1.39130   1.25459    0.030
 4086.00    1.34032   1.26313    0.029
 4087.00    1.12265   1.26670    0.029
 4088.00    0.94547   1.26317    0.029
 4089.00    1.06550   1.25091    0.030
 4090.00    1.16383   1.23103    0.030
 4091.00    1.14042   1.20696    0.029
 4092.00    1.12217   1.17956    0.000
 4093.00    1.12707   1.14609    0.000
 4094.00    1.12147   1.10778    0.000
 4095.00    1.07728   1.07062    0.000
 4096.00    1.06858   1.03998    0.000
 4097.00    1.16901   1.01600    0.000
 4098.00    1.27659   0.99661    0.000
 4099.00    1.40290   0.98525    0.000
 4100.00    1.39195   0.98828    0.000
 4101.00    1.07274   1.00497    0.000
 4102.00    0.86235   1.02827    0.000
 4103.00    0.86371   1.05337    0.000
 4104.00    0.97461   1.07887    0.000
 4105.00    1.27136   1.10216    0.000
 4106.00    1.43295   1.12037    0.000
 4107.00    1.39362   1.13382    0.000
 4108.00    1.34315   1.14416    0.000
 4109.00    1.27814   1.15280    0.000
 4110.00    1.34519   1.16152    0.000
 4111.00    1.56425   1.17075    0.000
 4112.00    1.56299   1.17734    0.000
 4113.00    1.33808   1.18016    0.028
 4114.00    1.11853   1.18198    0.028
 4115.00    0.90376   1.18201    0.028
 4116.00    1.02303   1.17737    0.028
 4117.00    1.40583   1.17080    0.029
 4118.00    1.53976   1.16882    0.029
 4119.00    1.50098   1.17085    0.029
 4120.00    1.29963   1.17144    0.029
 4121.00    0.99934   1.17038    0.028
 4122.00    0.97138   1.17070    0.028
 4123.00    1.08810   1.17107    0.028
 4124.00    1.23187   1.16624    0.029
 4125.00    1.38813   1.15492    0.029
 4126.00    1.31346   1.14025    0.029
 4127.00    1.14710   1.12634    0.029
 4128.00    0.93541   1.11422    0.029
 4129.00    0.70839   1.10489    0.029
 4130.00    0.79695   1.10031    0.029
 4131.00    0.97530   1.10198    0.029
 4132.00    1.10011   1.11081    0.029
 4133.00    1.21234   1.12497    0.029
 4134.00    1.26162   1.14030    0.029
 4135.00    1.29901   1.15084    0.029
 4136.00    1.07404   1.15295    0.029
 4137.00    0.81077   1.14658    0.029
 4138.00    0.88930   1.13508    0.029
 4139.00    1.00415   1.12128    0.029
 4140.00    1.02969   1.10427    0.029
 4141.00    1.04904   1.08669    0.029
 4142.00    1.07579   1.07667    0.029
 4143.00    1.10279   1.07764    0.030
 4144.00    1.30701   1.08361    0.030
 4145.00    1.49029   1.08901    0.030
 4146.00    0.97040   1.09351    0.029
 4147.00    0.50421   1.09688    0.028
 4148.00    0.86835   1.09754    0.028
 4149.00    1.16159   1.09645    0.029
 4150.00    0.75603   1.09488    0.029
 4151.00    0.42826   1.09362    0.029
 4152.00    0.65281   1.09504    0.029
 4153.00    0.90475   1.10113    0.029
 4154.00    1.30615   1.11083    0.030
 4155.00    1.58886   1.12263    0.030
 4156.00    1.35279   1.13813    0.029
 4157.00    1.12648   1.15562    0.029
 4158.00    0.93524   1.16957    0.028
 4159.00    0.76091   1.17850    0.028
 4160.00    0.63759   1.18466    0.028
 4161.00    0.60549   1.18656    0.028
 4162.00    0.80768   1.18155    0.028
 4163.00    1.08113   1.17276    0.028
 4164.00    1.51199   1.16323    0.029
 4165.00    1.72702   1.15093    0.029
 4166.00    1.52862   1.13519    0.028
 4167.00    1.34195   1.12029    0.028
 4168.00    1.17487   1.10776    0.028
 4169.00    1.06908   1.09457    0.028
 4170.00    1.05307   1.07994    0.028
 4171.00    1.13669   1.06804    0.028
 4172.00    1.34864   1.06284    0.028
 4173.00    1.20142   1.06360    0.028
 4174.00    0.64661   1.06720    0.027
 4175.00    0.45264   1.07164    0.027
 4176.00    0.61981   1.07765    0.027
 4177.00    0.90295   1.08675    0.027
 4178.00    1.28847   1.09745    0.028
 4179.00    1.36814   1.10659    0.028
 4180.00    1.20995   1.11263    0.027
 4181.00    1.01001   1.11646    0.027
 4182.00    0.78153   1.12088    0.027
 4183.00    0.77949   1.12693    0.026
 4184.00    0.91318   1.13046    0.026
 4185.00    1.07376   1.12869    0.026
 4186.00    1.24840   1.12856    0.026
 4187.00    1.37473   1.13560    0.026
 4188.00    1.47916   1.14233    0.027
 4189.00    1.45051   1.14113    0.027
 4190.00    1.36992   1.13655    0.026
 4191.00    1.20424   1.13322    0.027
 4192.00    1.01030   1.12504    0.027
 4193.00    0.94514   1.10841    0.027
 4194.00    0.91588   1.09040    0.026
 4195.00    0.98620   1.07603    0.026
 4196.00    1.07936   1.06388    0.027
 4197.00    1.23674   1.05633    0.027
 4198.00    1.40594   1.05774    0.027
 4199.00    1.35390   1.06537    0.027
 4200.00    1.27058   1.07641    0.026
 4201.00    1.03412   1.09361    0.026
 4202.00    0.78205   1.11604    0.026
 4203.00    0.79978   1.13729    0.026
 4204.00    0.83509   1.15457    0.026
 4205.00    1.09801   1.16955    0.026
 4206.00    1.36741   1.18182    0.026
 4207.00    1.30218   1.18804    0.026
 4208.00    1.23895   1.18695    0.027
 4209.00    1.23424   1.18175    0.027
 4210.00    1.23763   1.17684    0.027
 4211.00    1.35892   1.17457    0.027
 4212.00    1.46421   1.17430    0.027
 4213.00    1.41804   1.17511    0.027
 4214.00    1.38956   1.18020    0.028
 4215.00    1.48262   1.19191    0.028
 4216.00    1.58430   1.20231    0.027
 4217.00    1.73183   1.20163    0.027
 4218.00    1.76159   1.19013    0.027
 4219.00    1.28838   1.17001    0.027
 4220.00    0.87835   1.13773    0.027
 4221.00    0.69091   1.09567    0.027
 4222.00    0.57940   1.05675    0.027
 4223.00    0.69273   1.02874    0.027
 4224.00    0.81859   1.01085    0.027
 4225.00    0.97610   1.00709    0.026
 4226.00    1.08287   1.02285    0.026
 4227.00    1.07939   1.05043    0.026
 4228.00    1.06338   1.07869    0.026
 4229.00    1.02372   1.10485    0.026
 4230.00    0.99204   1.12540    0.026
 4231.00    0.97348   1.13673    0.026
 4232.00    1.01831   1.14362    0.026
 4233.00    1.15463   1.14937    0.025
 4234.00    1.27223   1.15271    0.025
 4235.00    1.36603   1.15889    0.026
 4236.00    1.53662   1.17242    0.026
 4237.00    1.79311   1.18824    0.026
 4238.00    1.83176   1.20485    0.025
 4239.00    1.65544   1.22511    0.025
 4240.00    1.53617   1.24285    0.026
 4241.00    1.46655   1.25065    0.026
 4242.00    1.47239   1.25207    0.026
 4243.00    1.53609   1.24932    0.026
 4244.00    1.35469   1.23579    0.026
 4245.00    1.00810   1.21200    0.026
 4246.00    1.07086   1.18933    0.026
 4247.00    1.37529   1.17161    0.027
 4248.00    1.55611   1.15267    0.028
 4249.00    1.67328   1.13529    0.028
 4250.00    1.76342   1.12966    0.028
 4251.00    1.84150   1.13305    0.028
 4252.00    1.57152   1.13424    0.028
 4253.00    1.16811   1.13364    0.027
 4254.00    1.02004   1.13844    0.027
 4255.00    0.95519   1.14671    0.027
 4256.00    1.31949   1.15315    0.027
 4257.00    1.80093   1.15997    0.027
 4258.00    1.57867   1.17069    0.027
 4259.00    1.19871   1.18550    0.026
 4260.00    1.20353   1.20473    0.027
 4261.00    1.27716   1.22421    0.028
 4262.00    1.46137   1.23521    0.028
 4263.00    1.66072   1.23637    0.028
 4264.00    1.35252   1.22948    0.027
 4265.00    0.99475   1.20912    0.026
 4266.00    1.01192   1.17506    0.026
 4267.00    1.05202   1.13977    0.026
 4268.00    1.14988   1.10901    0.026
 4269.00    1.24805   1.07938    0.026
 4270.00    1.10019   1.05893    0.026
 4271.00    0.95027   1.05880    0.026
 4272.00    0.74609   1.07285    0.025
 4273.00    0.56530   1.09096    0.025
 4274.00    0.70589   1.11385    0.025
 4275.00    0.84024   1.14088    0.025
 4276.00    0.91793   1.16473    0.026
 4277.00    0.99412   1.17985    0.026
 4278.00    1.06028   1.18641    0.026
 4279.00    1.11141   1.18700    0.026
 4280.00    1.08470   1.18232    0.026
 4281.00    1.07874   1.17345    0.026
 4282.00    1.15935   1.16250   -2.000
 4283.00    1.16607   1.14778   -2.000
 4284.00    0.91775   1.12838   -2.000
 4285.00    0.78248   1.11117   -2.000
 4286.00    0.97583   1.10023   -2.000
 4287.00    1.22470   1.09100   -2.000
 4288.00    1.61125   1.08206   -2.000
 4289.00    1.86602   1.07796   -2.000
 4290.00    1.83903   1.08020   -2.000
 4291.00    1.69912   1.08176   -2.000
 4292.00    1.34951   1.07535   -2.000
 4293.00    1.04189   1.06134   -2.000
 4294.00    0.80236   1.04291   -2.000
 4295.00    0.78928   1.02095   -2.000
 4296.00    1.09834   0.99556   -2.000
 4297.00    1.32914   0.96784   -2.000
 4298.00    1.46198   0.94255    0.026
 4299.00    1.42996   0.92512    0.026
 4300.00    1.21608   0.91269    0.026
 4301.00    1.12712   0.90065    0.026
 4302.00    1.15971   0.89118    0.026
 4303.00    1.14628   0.88625    0.026
 4304.00    1.09336   0.88528    0.026
 4305.00    0.91784   0.88912    0.025
 4306.00    0.64967   0.90046    0.025
 4307.00    0.46740   0.92307    0.025
 4308.00    0.34218   0.95831    0.025
 4309.00    0.53195   1.00294    0.025
 4310.00    0.90490   1.05667    0.025
 4311.00    1.20138   1.11917    0.025
 4312.00    1.45911   1.18068    0.025
 4313.00    1.40336   1.23476    0.025
 4314.00    1.21006   1.28257    0.025
 4315.00    1.18654   1.31843    0.025
 4316.00    1.22696   1.33324    0.025
 4317.00    1.40665   1.33003    0.025
 4318.00    1.63087   1.31316    0.025
 4319.00    1.62042   1.28320    0.025
 4320.00    1.54724   1.24620    0.025
 4321.00    1.28754   1.21268    0.025
 4322.00    0.98701   1.18998    0.025
 4323.00    1.00121   1.18025    0.025
 4324.00    1.07016   1.18356    0.026
 4325.00    1.24244   1.20096    0.026
 4326.00    1.42838   1.23207    0.026
 4327.00    1.61196   1.26690    0.026
 4328.00    1.79532   1.29358    0.026
 4329.00    1.60573   1.31220    0.026
 4330.00    1.39481   1.32486    0.000
 4331.00    1.43013   1.32272    0.000
 4332.00    1.47077   1.30088    0.000
 4333.00    1.46358   1.27100    0.000
 4334.00    1.44889   1.23786    0.000
 4335.00    1.25408   1.19617    0.000
 4336.00    1.06577   1.15741    0.000
 4337.00    0.96219   1.13635    0.000
 4338.00    0.90448   1.12661    0.000
 4339.00    1.24749   1.12613    0.000
 4340.00    1.53815   1.14640    0.000
 4341.00    1.49059   1.17903    0.000
 4342.00    1.45034   1.20734    0.000
 4343.00    1.44696   1.23608    0.000
 4344.00    1.45030   1.26810    0.000
 4345.00    1.48111   1.28692    0.000
 4346.00    1.47113   1.28798    0.000
 4347.00    1.32314   1.28735    0.000
 4348.00    1.26297   1.28915    0.000
 4349.00    1.45341   1.28231    0.000
 4350.00    1.61121   1.27074    0.000
 4351.00    1.68945   1.27172    0.026
 4352.00    1.70420   1.28429    0.026
 4353.00    1.58539   1.29401    0.026
 4354.00    1.44655   1.30263    0.026
 4355.00    1.27110   1.32092    0.026
 4356.00    1.19567   1.34296    0.026
 4357.00    1.28002   1.35725    0.026
 4358.00    1.45128   1.36788    0.026
 4359.00    1.74436   1.38421    0.026
 4360.00    1.81706   1.40049    0.026
 4361.00    1.61786   1.40592    0.026
 4362.00    1.34328   1.40380    0.026
 4363.00    0.98670   1.40236    0.025
 4364.00    0.95458   1.39766    0.025
 4365.00    1.23371   1.38247    0.026
 4366.00    1.43893   1.36345    0.027
 4367.00    1.58164   1.34846    0.026
 4368.00    1.50941   1.33302    0.026
 4369.00    1.27706   1.31356    0.026
 4370.00    1.27906   1.29671    0.026
 4371.00    1.43440   1.28682    0.026
 4372.00    1.25823   1.27995    0.026
 4373.00    0.89220   1.27242    0.025
 4374.00    1.03099   1.26472    0.026
 4375.00    1.42162   1.25725    0.026
 4376.00    1.67272   1.24751    0.026
 4377.00    1.86361   1.22831    0.027
 4378.00    1.61881   1.19724    0.026
 4379.00    1.21279   1.16514    0.026
 4380.00    1.29572   1.14101    0.026
 4381.00    1.53197   1.12109    0.027
 4382.00    1.45372   1.10447    0.026
 4383.00    1.29319   1.10253    0.026
 4384.00    1.11459   1.11774    0.025
 4385.00    0.93213   1.13765    0.025
 4386.00    1.16307   1.15779    0.026
 4387.00    1.46392   1.18285    0.026
 4388.00    1.53358   1.20933    0.026
 4389.00    1.57370   1.22970    0.026
 4390.00    1.50457   1.24728    0.026
 4391.00    1.42568   1.26816    0.026
 4392.00    1.34503   1.28749    0.026
 4393.00    1.26428   1.29984    0.026
 4394.00    1.37354   1.30839    0.026
 4395.00    1.48610   1.31263    0.025
 4396.00    1.56453   1.30983    0.025
 4397.00    1.63709   1.30267    0.025
 4398.00    1.58051   1.28791    0.026
 4399.00    1.52883   1.26168    0.026
 4400.00    1.53781   1.23790    0.026
 4401.00    1.52412   1.22592    0.025
 4402.00    1.31974   1.21276    0.025
 4403.00    1.17741   1.19908    0.026
 4404.00    1.42401   1.20474    0.026
 4405.00    1.63060   1.22652    0.026
 4406.00    1.64042   1.24523    0.026
 4407.00    1.63350   1.26444    0.026
 4408.00    1.55980   1.29177    0.025
 4409.00    1.46532   1.31196    0.025
 4410.00    1.30190   1.31842    0.025
 4411.00    1.17204   1.32545    0.024
 4412.00    1.13620   1.33258    0.024
 4413.00    1.14860   1.33152    0.025
 4414.00    1.27664   1.33209    0.025
 4415.00    1.38100   1.34126    0.025
 4416.00    1.43636   1.34889    0.025
 4417.00    1.48266   1.35161    0.025
 4418.00    1.51262   1.35652    0.025
 4419.00    1.52703   1.36155    0.025
 4420.00    1.51693   1.36006    0.025
 4421.00    1.56412   1.35454    0.025
 4422.00    1.69046   1.35137    0.024
 4423.00    1.70156   1.35150    0.024
 4424.00    1.57248   1.34945    0.025
 4425.00    1.49312   1.34333    0.025
 4426.00    1.46705   1.33993    0.025
 4427.00    1.40390   1.33988    0.025
 4428.00    1.30568   1.33457    0.025
 4429.00    1.25742   1.32440    0.025
 4430.00    1.25083   1.31927    0.025
 4431.00    1.38994   1.31981    0.025
 4432.00    1.63603   1.32058    0.025
 4433.00    1.66911   1.32368    0.025
 4434.00    1.56485   1.33259    0.024
 4435.00    1.48849   1.34432    0.024
 4436.00    1.42785   1.35442    0.025
 4437.00    1.56545   1.36223    0.025
 4438.00    1.80037   1.36864    0.025
 4439.00    1.77801   1.37354    0.025
 4440.00    1.64648   1.37934    0.025
 4441.00    1.36490   1.38631    0.025
 4442.00    1.02879   1.39246    0.025
 4443.00    1.14013   1.40275    0.025
 4444.00    1.38907   1.41573    0.025
 4445.00    1.25653   1.42057    0.025
 4446.00    1.02632   1.41873    0.025
 4447.00    1.16362   1.41635    0.024
 4448.00    1.37751   1.40625    0.024
 4449.00    1.47050   1.38438    0.024
 4450.00    1.54363   1.36003    0.024
 4451.00    1.34516   1.33757    0.024
 4452.00    1.11320   1.31340    0.023
 4453.00    1.05060   1.28784    0.024
 4454.00    1.00241   1.26753    0.024
 4455.00    1.00552   1.25748    0.024
 4456.00    1.01115   1.25111    0.024
 4457.00    0.92681   1.24629    0.023
 4458.00    0.84486   1.25252    0.023
 4459.00    1.00214   1.26644    0.024
 4460.00    1.15893   1.27727    0.024
 4461.00    1.30548   1.28994    0.000
 4462.00    1.44575   1.30976    0.000
 4463.00    1.51209   1.32606    0.000
 4464.00    1.57602   1.33579    0.000
 4465.00    1.62030   1.34857    0.000
 4466.00    1.63027   1.36373    0.000
 4467.00    1.43144   1.37633    0.000
 4468.00    1.26617   1.39074    0.000
 4469.00    1.26192   1.41043    0.000
 4470.00    1.29863   1.42957    0.000
 4471.00    1.49532   1.44611    0.000
 4472.00    1.61834   1.46291    0.000
 4473.00    1.50181   1.47471    0.000
 4474.00    1.41604   1.47672    0.000
 4475.00    1.41491   1.47398    0.000
 4476.00    1.42828   1.46910    0.000
 4477.00    1.47579   1.45994    0.000
 4478.00    1.44672   1.45085    0.000
 4479.00    1.26167   1.44670    0.000
 4480.00    1.17841   1.44624    0.000
 4481.00    1.27561   1.44887    0.000
 4482.00    1.37251   1.45499    0.023
 4483.00    1.46897   1.46003    0.023
 4484.00    1.51110   1.46060    0.023
 4485.00    1.47923   1.45819    0.023
 4486.00    1.47222   1.45237    0.023
 4487.00    1.49501   1.44336    0.023
 4488.00    1.55365   1.43319    0.023
 4489.00    1.65019   1.42318    0.024
 4490.00    1.66356   1.41637    0.024
 4491.00    1.59937   1.41425    0.023
 4492.00    1.55024   1.41466    0.023
 4493.00    1.51349   1.41778    0.023
 4494.00    1.61230   1.42814    0.023
 4495.00    1.80921   1.44457    0.023
 4496.00    1.81303   1.46136    0.023
 4497.00    1.69419   1.48052    0.023
 4498.00    1.69976   1.50447    0.023
 4499.00    1.77444   1.52703    0.023
 4500.00    1.73433   1.54409    0.023
 4501.00    1.63876   1.56063    0.023
 4502.00    1.68172   1.57626    0.023
 4503.00    1.78246   1.58402    0.022
 4504.00    1.78004   1.58592    0.023
 4505.00    1.74081   1.58584    0.023
 4506.00    1.55833   1.58130    0.023
 4507.00    1.33265   1.57206    0.023
 4508.00    1.45670   1.56132    0.023
 4509.00    1.66834   1.54962    0.023
 4510.00    1.63911   1.53669    0.022
 4511.00    1.56091   1.52525    0.022
 4512.00    1.42192   1.51628    0.022
 4513.00    1.27324   1.50866    0.023
 4514.00    1.42008   1.50402    0.023
 4515.00    1.60204   1.50296    0.023
 4516.00    1.49647   1.50181    0.022
 4517.00    1.36763   1.49778    0.021
 4518.00    1.44024   1.49113    0.022
 4519.00    1.52200   1.48112    0.023
 4520.00    1.44933   1.46527    0.022
 4521.00    1.37785   1.44165    0.022
 4522.00    1.46411   1.41497    0.022
 4523.00    1.54715   1.38945    0.023
 4524.00    1.56981   1.36356    0.022
 4525.00    1.58128   1.34041    0.022
 4526.00    1.46733   1.32407    0.022
 4527.00    1.37379   1.31436    0.022
 4528.00    1.44004   1.31234    0.022
 4529.00    1.47583   1.31685    0.022
 4530.00    1.33155   1.32471    0.022
 4531.00    1.20105   1.33831    0.022
 4532.00    1.13502   1.35689    0.022
 4533.00    1.12973   1.37518    0.022
 4534.00    1.35658   1.39280    0.022
 4535.00    1.49771   1.41207    0.022
 4536.00    1.36557   1.42943    0.022
 4537.00    1.26081   1.43960    0.022
 4538.00    1.23002   1.44690    0.022
 4539.00    1.23229   1.45184    0.022
 4540.00    1.31114   1.45035    0.022
 4541.00    1.40319   1.44729    0.022
 4542.00    1.52170   1.44517    0.023
 4543.00    1.56269   1.43990    0.023
 4544.00    1.46835   1.43240    0.022
 4545.00    1.43859   1.42767    0.022
 4546.00    1.50754   1.42525    0.022
 4547.00    1.58390   1.42113    0.022
 4548.00    1.67020   1.41708    0.022
 4549.00    1.67978   1.41935    0.022
 4550.00    1.59866   1.42501    0.000
 4551.00    1.44154   1.43011    0.000
 4552.00    1.20521   1.44083    0.000
 4553.00    1.13713   1.45647    0.000
 4554.00    1.22375   1.47147    0.000
 4555.00    1.40775   1.48664    0.000
 4556.00    1.67067   1.50081    0.000
 4557.00    1.74110   1.51060    0.000
 4558.00    1.67425   1.51556    0.000
 4559.00    1.59253   1.51576    0.000
 4560.00    1.50150   1.51317    0.000
 4561.00    1.45880   1.51018    0.000
 4562.00    1.44253   1.50733    0.000
 4563.00    1.44433   1.50535    0.000
 4564.00    1.45471   1.50546    0.000
 4565.00    1.37008   1.50961    0.000
 4566.00    1.24648   1.51415    0.000
 4567.00    1.38634   1.51451    0.000
 4568.00    1.61852   1.51765    0.000
 4569.00    1.59662   1.52262    0.000
 4570.00    1.49964   1.51954    0.000
 4571.00    1.39254   1.51648    0.000
 4572.00    1.28297   1.51726    0.000
 4573.00    1.37346   1.51021    0.000
 4574.00    1.50361   1.49880    0.000
 4575.00    1.33652   1.48931    0.000
 4576.00    1.12341   1.47711    0.000
 4577.00    1.20216   1.46415    0.000
 4578.00    1.31432   1.45405    0.000
 4579.00    1.42749   1.44633    0.000
 4580.00    1.54074   1.44356    0.000
 4581.00    1.66590   1.44583    0.000
 4582.00    1.79155   1.44987    0.000
 4583.00    1.67041   1.45684    0.000
 4584.00    1.54573   1.46589    0.000
 4585.00    1.36116   1.47286    0.000
 4586.00    1.19318   1.47797    0.000
 4587.00    1.31498   1.48002    0.000
 4588.00    1.42731   1.47801    0.000
 4589.00    1.43833   1.47325    0.000
 4590.00    1.44646   1.46520    0.000
 4591.00    1.43276   1.45684    0.000
 4592.00    1.42707   1.45052    0.000
 4593.00    1.46734   1.44408    0.000
 4594.00    1.46583   1.44001    0.000
 4595.00    1.27337   1.43999    0.000
 4596.00    1.12236   1.43956    0.000
 4597.00    1.12637   1.44120    0.000
 4598.00    1.16453   1.44676    0.000
 4599.00    1.30947   1.45090    0.000
 4600.00    1.40382   1.45747    0.000
 4601.00    1.36385   1.46916    0.000
 4602.00    1.33036   1.48100    0.000
 4603.00    1.31162   1.49490    0.000
 4604.00    1.34111   1.51174    0.000
 4605.00    1.46576   1.52736    0.000
 4606.00    1.52007   1.54067    0.000
 4607.00    1.45343   1.55289    0.000
 4608.00    1.36783   1.56142    0.000
 4609.00    1.25368   1.56474    0.000
 4610.00    1.26885   1.56802    0.000
 4611.00    1.45512   1.57028    0.000
 4612.00    1.50673   1.56876    0.000
 4613.00    1.40140   1.57086    0.000
 4614.00    1.38517   1.57376    0.000
 4615.00    1.46050   1.57169    0.000
 4616.00    1.52113   1.57433    0.000
 4617.00    1.56842   1.57801    0.000
 4618.00    1.56904   1.57423    0.000
 4619.00    1.53239   1.57408    0.000
 4620.00    1.57387   1.57684    0.000
 4621.00    1.67029   1.57198    0.000
 4622.00    1.62136   1.56790    0.000
 4623.00    1.48283   1.56876    0.000
 4624.00    1.35876   1.56495    0.000
 4625.00    1.24247   1.55837    0.000
 4626.00    1.24580   1.55631    0.000
 4627.00    1.30507   1.55362    0.000
 4628.00    1.54294   1.54492    0.000
 4629.00    1.85282   1.53636    0.000
 4630.00    1.85355   1.52987    0.000
 4631.00    1.74794   1.51865    0.000
 4632.00    1.74016   1.50427    0.000
 4633.00    1.76071   1.49254    0.000
 4634.00    1.62445   1.48214    0.000
 4635.00    1.45064   1.47033    0.000
 4636.00    1.46566   1.45930    0.000
 4637.00    1.51715   1.45287    0.000
 4638.00    1.57034   1.44621    0.000
 4639.00    1.62378   1.43603    0.000
 4640.00    1.57120   1.42917    0.000
 4641.00    1.50696   1.42225    0.000
 4642.00    1.55352   1.41076    0.000
 4643.00    1.60813   1.40359    0.000
 4644.00    1.53248   1.40105    0.000
 4645.00    1.45191   1.39892    0.000
 4646.00    1.55176   1.40246    0.000
 4647.00    1.64487   1.41114    0.000
 4648.00    1.45417   1.42143    0.000
 4649.00    1.27560   1.43361    0.000
 4650.00    1.29540   1.44504    0.000
 4651.00    1.32184   1.45686    0.000
 4652.00    1.41612   1.46955    0.000
 4653.00    1.49668   1.47980    0.000
 4654.00    1.47695   1.49080    0.000
 4655.00    1.47259   1.50175    0.000
 4656.00    1.55422   1.50784    0.000
 4657.00    1.64001   1.51029    0.000
 4658.00    1.74436   1.50713    0.000
 4659.00    1.74986   1.49509    0.000
 4660.00    1.39325   1.47765    0.000
 4661.00    1.15926   1.45723    0.000
 4662.00    1.30149   1.43290    0.000
 4663.00    1.37363   1.41049    0.000
 4664.00    1.26297   1.39602    0.000
 4665.00    1.20090   1.38673    0.000
 4666.00    1.24771   1.38353    0.000
 4667.00    1.30672   1.39055    0.000
 4668.00    1.38942   1.40286    0.000
 4669.00    1.45544   1.41618    0.000
 4670.00    1.49321   1.43062    0.000
 4671.00    1.51886   1.44348    0.000
 4672.00    1.52653   1.45324    0.000
 4673.00    1.52312   1.45827    0.000
 4674.00    1.50526   1.45837    0.000
 4675.00    1.46329   1.45748    0.000
 4676.00    1.39360   1.45439    0.000
 4677.00    1.34777   1.44829    0.000
 4678.00    1.32612   1.44492    0.000
 4679.00    1.31034   1.44461    0.000
 4680.00    1.29980   1.44302    0.000
 4681.00    1.35779   1.44325    0.000
 4682.00    1.46977   1.44752    0.000
 4683.00    1.58793   1.44923    0.000
 4684.00    1.71037   1.44943    0.000
 4685.00    1.65472   1.45296    0.000
 4686.00    1.49091   1.45416    0.000
 4687.00    1.50314   1.45346    0.000
 4688.00    1.60872   1.45684    0.000
 4689.00    1.57306   1.45962    0.000
 4690.00    1.47241   1.45985    0.000
 4691.00    1.37951   1.46170    0.000
 4692.00    1.28968   1.46232    0.000
 4693.00    1.35752   1.45840    0.000
 4694.00    1.47861   1.45169    0.000
 4695.00    1.44963   1.44393    0.000
 4696.00    1.37806   1.43437    0.000
 4697.00    1.46412   1.42291    0.000
 4698.00    1.58707   1.41311    0.000
 4699.00    1.52650   1.40609    0.000
 4700.00    1.43139   1.40086    0.000
 4701.00    1.43199   1.39809    0.000
 4702.00    1.44651   1.39701    0.000
 4703.00    1.32193   1.39865    0.000
 4704.00    1.18264   1.40273    0.000
 4705.00    1.28729   1.40562    0.000
 4706.00    1.40870   1.41038    0.000
 4707.00    1.43703   1.41849    0.000
 4708.00    1.46220   1.42528    0.000
 4709.00    1.52700   1.43357    0.000
 4710.00    1.58472   1.44449    0.000
 4711.00    1.41040   1.45545    0.000
 4712.00    1.25052   1.46954    0.000
 4713.00    1.31206   1.48435    0.000
 4714.00    1.36953   1.49876    0.000
 4715.00    1.38710   1.51573    0.000
 4716.00    1.41683   1.52990    0.000
 4717.00    1.53246   1.53977    0.000
 4718.00    1.63773   1.54772    0.000
 4719.00    1.68661   1.55030    0.000
 4720.00    1.70382   1.54627    0.000
 4721.00    1.58297   1.53754    0.000
 4722.00    1.50044   1.52464    0.000
 4723.00    1.55543   1.50722    0.000
 4724.00    1.59172   1.48853    0.000
 4725.00    1.57174   1.47212    0.000
 4726.00    1.48528   1.45627    0.000
 4727.00    1.22844   1.44472    0.000
 4728.00    1.12770   1.44194    0.000
 4729.00    1.37109   1.44101    0.000
 4730.00    1.51758   1.44315    0.000
 4731.00    1.47882   1.45381    0.000
 4732.00    1.45535   1.46210    0.000
 4733.00    1.45741   1.46851    0.000
 4734.00    1.43290   1.48142    0.000
 4735.00    1.36953   1.48995    0.000
 4736.00    1.41507   1.49464    0.000
 4737.00    1.60061   1.50444    0.000
 4738.00    1.63609   1.51164    0.000
 4739.00    1.50158   1.51652    0.000
 4740.00    1.44566   1.52361    0.000
 4741.00    1.46823   1.52905    0.000
 4742.00    1.51280   1.53497    0.000
 4743.00    1.57675   1.54034    0.000
 4744.00    1.56021   1.54186    0.000
 4745.00    1.48118   1.54385    0.000
 4746.00    1.57990   1.54447    0.000
 4747.00    1.79995   1.53962    0.000
 4748.00    1.80173   1.53363    0.000
 4749.00    1.67292   1.52782    0.000
 4750.00    1.56545   1.51921    0.000
 4751.00    1.46912   1.51019    0.000
 4752.00    1.45414   1.50318    0.000
 4753.00    1.47597   1.49677    0.000
 4754.00    1.48877   1.49000    0.000
 4755.00    1.49804   1.48348    0.000
 4756.00    1.51333   1.47784    0.000
 4757.00    1.53062   1.46968    0.000
 4758.00    1.56495   1.45875    0.000
 4759.00    1.60404   1.44985    0.000
 4760.00    1.46548   1.44059    0.000
 4761.00    1.28628   1.42994    0.020
 4762.00    1.35683   1.42501    0.020
 4763.00    1.47311   1.42542    0.020
 4764.00    1.50003   1.42667    0.020
 4765.00    1.51436   1.43343    0.020
 4766.00    1.53403   1.44595    0.020
 4767.00    1.55423   1.45784    0.020
 4768.00    1.55039   1.47065    0.020
 4769.00    1.54498   1.48527    0.020
 4770.00    1.67918   1.49861    0.020
 4771.00    1.81679   1.50956    0.020
 4772.00    1.55606   1.51790    0.020
 4773.00    1.29927   1.52569    0.020
 4774.00    1.15666   1.53009    0.020
 4775.00    1.03175   1.52821    0.020
 4776.00    1.16269   1.52471    0.020
 4777.00    1.29221   1.52012    0.019
 4778.00    1.40837   1.51060    0.019
 4779.00    1.50957   1.49784    0.019
 4780.00    1.50831   1.48913    0.019
 4781.00    1.51301   1.48167    0.020
 4782.00    1.54923   1.46990    0.019
 4783.00    1.54581   1.46567    0.019
 4784.00    1.37358   1.46820    0.019
 4785.00    1.25652   1.46640    0.019
 4786.00    1.33333   1.47171    0.019
 4787.00    1.43581   1.48492    0.019
 4788.00    1.61415   1.49412    0.019
 4789.00    1.71210   1.50598    0.019
 4790.00    1.60761   1.52160    0.019
 4791.00    1.52701   1.53172    0.019
 4792.00    1.49824   1.53848    0.019
 4793.00    1.48378   1.54443    0.020
 4794.00    1.49625   1.54565    0.019
 4795.00    1.51713   1.54304    0.019
 4796.00    1.55183   1.54048    0.019
 4797.00    1.56792   1.53733    0.019
 4798.00    1.55719   1.53312    0.019
 4799.00    1.55253   1.53041    0.019
 4800.00    1.55558   1.52737    0.019
 4801.00    1.49198   1.52250    0.019
 4802.00    1.35393   1.51960    0.019
 4803.00    1.29066   1.51566    0.019
 4804.00    1.30104   1.50985    0.019
 4805.00    1.35884   1.50851    0.019
 4806.00    1.45783   1.50848    0.019
 4807.00    1.54233   1.50810    0.019
 4808.00    1.61573   1.51225    0.019
 4809.00    1.57714   1.51865    0.019
 4810.00    1.46321   1.52481    0.019
 4811.00    1.47815   1.53238    0.019
 4812.00    1.56902   1.54104    0.019
 4813.00    1.56889   1.54793    0.019
 4814.00    1.52200   1.55285    0.019
 4815.00    1.49772   1.55717    0.019
 4816.00    1.48349   1.55647    0.019
 4817.00    1.50431   1.55246    0.019
 4818.00    1.53853   1.54867    0.019
 4819.00    1.54198   1.53910    0.019
 4820.00    1.53543   1.52897    0.019
 4821.00    1.52917   1.52279    0.019
 4822.00    1.52300   1.51361    0.019
 4823.00    1.57476   1.50664    0.019
 4824.00    1.63947   1.50330    0.019
 4825.00    1.63346   1.49812    0.019
 4826.00    1.61485   1.49621    0.019
 4827.00    1.60476   1.49507    0.019
 4828.00    1.59584   1.49143    0.019
 4829.00    1.63631   1.49209    0.019
 4830.00    1.68157   1.49351    0.019
 4831.00    1.49119   1.49172    0.019
 4832.00    1.28652   1.49158    0.019
 4833.00    1.28876   1.49216    0.019
 4834.00    1.29719   1.49015    0.019
 4835.00    1.43354   1.48653    0.019
 4836.00    1.56558   1.48291    0.019
 4837.00    1.58523   1.48082    0.019
 4838.00    1.59777   1.47868    0.019
 4839.00    1.51330   1.47558    0.019
 4840.00    1.44116   1.47673    0.019
 4841.00    1.48060   1.47934    0.019
 4842.00    1.50783   1.47896    0.019
 4843.00    1.45397   1.48105    0.019
 4844.00    1.42481   1.48157    0.019
 4845.00    1.52311   1.47773    0.019
 4846.00    1.59521   1.47580    0.019
 4847.00    1.55819   1.46878    0.019
 4848.00    1.52761   1.45596    0.000
 4849.00    1.51914   1.44580    0.000
 4850.00    1.50636   1.43018    0.000
 4851.00    1.48108   1.40638    0.000
 4852.00    1.38526   1.38536    0.000
 4853.00    1.11487   1.36271    0.000
 4854.00    0.98092   1.33248    0.000
 4855.00    1.13807   1.30697    0.000
 4856.00    1.25921   1.28670    0.000
 4857.00    1.31361   1.26405    0.000
 4858.00    1.36973   1.25191    0.000
 4859.00    1.42863   1.25151    0.000
 4860.00    1.45506   1.25116    0.000
 4861.00    1.43537   1.26038    0.000
 4862.00    1.45369   1.27927    0.000
 4863.00    1.51949   1.29326    0.000
 4864.00    1.58640   1.30566    0.000
 4865.00    1.65454   1.32110    0.000
 4866.00    1.65388   1.33100    0.000
 4867.00    1.58639   1.33401    0.000
 4868.00    1.49223   1.34014    0.000
 4869.00    1.37524   1.34946    0.000
 4870.00    1.31919   1.35561    0.000
 4871.00    1.30913   1.36422    0.000
 4872.00    1.32704   1.38116    0.000
 4873.00    1.36349   1.39706    0.000
 4874.00    1.40973   1.40772    0.000
 4875.00    1.46165   1.42293    0.019
 4876.00    1.45279   1.43560    0.020
 4877.00    1.41318   1.43663    0.020
 4878.00    1.40914   1.43809    0.020
 4879.00    1.42068   1.43801    0.020
 4880.00    1.53598   1.42788    0.020
 4881.00    1.69028   1.41662    0.020
 4882.00    1.78206   1.40799    0.020
 4883.00    1.85391   1.39754    0.020
 4884.00    1.71741   1.38696    0.020
 4885.00    1.52538   1.38326    0.020
 4886.00    1.52932   1.38522    0.020
 4887.00    1.57601   1.38884    0.019
 4888.00    1.43632   1.40333    0.019
 4889.00    1.26432   1.42431    0.020
 4890.00    1.32772   1.44335    0.020
 4891.00    1.42212   1.46996    0.020
 4892.00    1.44772   1.49617    0.020
 4893.00    1.46692   1.51357    0.020
 4894.00    1.47682   1.53058    0.020
 4895.00    1.48620   1.54050    0.020
 4896.00    1.61325   1.54107    0.020
 4897.00    1.74097   1.54225    0.019
 4898.00    1.64801   1.53921    0.019
 4899.00    1.55680   1.53117    0.019
 4900.00    1.50676   1.52692    0.019
 4901.00    1.45937   1.52319    0.020
 4902.00    1.44612   1.51675    0.020
 4903.00    1.44344   1.51072    0.020
 4904.00    1.53279   1.50580    0.019
 4905.00    1.61538   1.50028    0.019
 4906.00    1.65443   1.49260    0.019
 4907.00    1.67518   1.48633    0.019
 4908.00    1.60391   1.48214    0.019
 4909.00    1.54821   1.47600    0.019
 4910.00    1.55583   1.46985    0.019
 4911.00    1.57772   1.46382    0.019
 4912.00    1.64772   1.45309    0.019
 4913.00    1.66008   1.43842    0.019
 4914.00    1.50836   1.42177    0.019
 4915.00    1.41448   1.40356    0.019
 4916.00    1.46130   1.38632    0.018
 4917.00    1.51326   1.37287    0.018
 4918.00    1.57598   1.36696    0.019
 4919.00    1.59471   1.36934    0.019
 4920.00    1.53319   1.37853    0.019
 4921.00    1.52171   1.39601    0.019
 4922.00    1.59004   1.42003    0.019
 4923.00    1.55775   1.44260    0.019
 4924.00    1.38466   1.46407    0.018
 4925.00    1.30854   1.48748    0.018
 4926.00    1.35186   1.50178    0.018
 4927.00    1.42368   1.50813    0.018
 4928.00    1.52645   1.51361    0.018
 4929.00    1.59348   1.50802    0.018
 4930.00    1.62629   1.49668    0.018
 4931.00    1.60809   1.48831    0.018
 4932.00    1.54681   1.47356    0.018
 4933.00    1.53565   1.45931    0.018
 4934.00    1.56174   1.45384    0.018
 4935.00    1.58754   1.44956    0.018
 4936.00    1.61315   1.45040    0.018
 4937.00    1.56318   1.45896    0.018
 4938.00    1.47000   1.46922    0.018
 4939.00    1.48197   1.48506    0.018
 4940.00    1.54627   1.50456    0.000
 4941.00    1.49026   1.51915    0.000
 4942.00    1.38245   1.53338    0.000
 4943.00    1.35257   1.54839    0.000
 4944.00    1.35147   1.55701    0.000
 4945.00    1.38827   1.56114    0.000
 4946.00    1.43694   1.56427    0.000
 4947.00    1.46983   1.56263    0.000
 4948.00    1.49861   1.55415    0.000
 4949.00    1.49860   1.54210    0.000
 4950.00    1.49246   1.52685    0.000
 4951.00    1.56219   1.50774    0.000
 4952.00    1.64471   1.48889    0.000
 4953.00    1.60310   1.46936    0.000
 4954.00    1.54571   1.45486    0.000
 4955.00    1.59108   1.44905    0.000
 4956.00    1.64558   1.44206    0.000
 4957.00    1.62072   1.44104    0.000
 4958.00    1.59168   1.44860    0.000
 4959.00    1.58209   1.45347    0.000
 4960.00    1.57277   1.45636    0.000
 4961.00    1.55582   1.45750    0.000
 4962.00    1.54332   1.45849    0.000
 4963.00    1.62754   1.45927    0.000
 4964.00    1.69433   1.45662    0.000
 4965.00    1.54726   1.45777    0.000
 4966.00    1.42708   1.46215    0.000
 4967.00    1.53209   1.46583    0.000
 4968.00    1.60819   1.47274    0.000
 4969.00    1.50385   1.47821    0.000
 4970.00    1.42622   1.48183    0.000
 4971.00    1.47956   1.48361    0.000
 4972.00    1.49895   1.47873    0.000
 4973.00    1.38318   1.47063    0.000
 4974.00    1.31426   1.45726    0.000
 4975.00    1.40032   1.43866    0.000
 4976.00    1.51765   1.42018    0.000
 4977.00    1.72239   1.39978    0.000
 4978.00    1.81222   1.38008    0.000
 4979.00    1.62723   1.36651    0.000
 4980.00    1.50516   1.35872    0.000
 4981.00    1.51304   1.35409    0.000
 4982.00    1.52086   1.35576    0.000
 4983.00    1.52855   1.36634    0.000
 4984.00    1.56337   1.37724    0.000
 4985.00    1.64079   1.38835    0.000
 4986.00    1.64053   1.40330    0.000
 4987.00    1.53312   1.41324    0.000
 4988.00    1.52892   1.42135    0.000
 4989.00    1.65004   1.42884    0.000
 4990.00    1.64454   1.42923    0.000
 4991.00    1.50349   1.43125    0.000
 4992.00    1.45193   1.43028    0.000
 4993.00    1.48486   1.42155    0.000
 4994.00    1.61138   1.41547    0.000
 4995.00    1.81580   1.40561    0.000
 4996.00    1.68797   1.39104    0.000
 4997.00    1.31666   1.37911    0.000
 4998.00    1.24013   1.36482    0.000
 4999.00    1.35331   1.35084    0.000
 5000.00    1.37982   1.34088    0.000
 5001.00    1.35756   1.33189    0.000
 5002.00    1.40584   1.32521    0.000
 5003.00    1.48870   1.32203    0.000
 5004.00    1.55803   1.32040    0.000
 5005.00    1.62162   1.31734    0.000
 5006.00    1.56947   1.31537    0.000
 5007.00    1.47534   1.31527    0.000
 5008.00    1.48456   1.31007    0.000
 5009.00    1.52548   1.30389    0.000
 5010.00    1.49740   1.29954    0.000
 5011.00    1.45170   1.29360    0.000
 5012.00    1.37595   1.29095    0.000
 5013.00    1.29396   1.28993    0.000
 5014.00    1.36490   1.29138    0.000
 5015.00    1.46089   1.29779    0.000
 5016.00    1.41606   1.30339    0.000
 5017.00    1.35394   1.31019    0.000
 5018.00    1.36747   1.31881    0.000
 5019.00    1.38739   1.32783    0.000
 5020.00    1.40678   1.33792    0.000
 5021.00    1.42613   1.34513    0.000
 5022.00    1.42640   1.35515    0.000
 5023.00    1.42707   1.36683    0.000
 5024.00    1.47033   1.37546    0.000
 5025.00    1.50385   1.38778    0.000
 5026.00    1.34202   1.39722    0.000
 5027.00    1.19909   1.40392    0.000
 5028.00    1.27690   1.41332    0.000
 5029.00    1.35696   1.41552    0.017
 5030.00    1.45519   1.41224    0.017
 5031.00    1.53380   1.40633    0.018
 5032.00    1.49347   1.39337    0.018
 5033.00    1.45963   1.37943    0.018
 5034.00    1.45680   1.36237    0.018
 5035.00    1.44450   1.34289    0.017
 5036.00    1.39526   1.33273    0.018
 5037.00    1.34609   1.32572    0.018
 5038.00    1.29712   1.32295    0.018
 5039.00    1.28033   1.32943    0.017
 5040.00    1.35190   1.33739    0.017
 5041.00    1.41349   1.35131    0.017
 5042.00    1.45161   1.36793    0.017
 5043.00    1.46767   1.37807    0.017
 5044.00    1.43892   1.38655    0.017
 5045.00    1.43448   1.39328    0.017
 5046.00    1.47307   1.39610    0.017
 5047.00    1.50422   1.39694    0.017
 5048.00    1.52387   1.39867    0.017
 5049.00    1.50704   1.40467    0.017
 5050.00    1.44063   1.41224    0.018
 5051.00    1.41614   1.42120    0.018
 5052.00    1.44182   1.43333    0.018
 5053.00    1.46339   1.44526    0.018
 5054.00    1.48062   1.45637    0.017
 5055.00    1.44662   1.46385    0.017
 5056.00    1.36494   1.46743    0.017
 5057.00    1.37253   1.46956    0.017
 5058.00    1.45339   1.46507    0.018
 5059.00    1.56809   1.45623    0.018
 5060.00    1.70722   1.44653    0.018
 5061.00    1.72041   1.43372    0.018
 5062.00    1.65376   1.42156    0.018
 5063.00    1.57821   1.40856    0.018
 5064.00    1.49772   1.39702    0.017
 5065.00    1.51030   1.39201    0.018
 5066.00    1.56776   1.38750    0.018
 5067.00    1.51382   1.38279    0.018
 5068.00    1.41351   1.38081    0.018
 5069.00    1.44517   1.38053    0.018
 5070.00    1.52382   1.37747    0.018
 5071.00    1.44909   1.37079    0.018
 5072.00    1.32824   1.36531    0.018
 5073.00    1.37226   1.35856    0.018
 5074.00    1.45745   1.34791    0.018
 5075.00    1.44462   1.33675    0.018
 5076.00    1.41191   1.32887    0.018
 5077.00    1.40883   1.32377    0.018
 5078.00    1.41046   1.31850    0.018
 5079.00    1.45580   1.31818    0.018
 5080.00    1.50630   1.32569    0.018
 5081.00    1.38292   1.33584    0.018
 5082.00    1.24556   1.34663    0.017
 5083.00    1.33248   1.36051    0.017
 5084.00    1.42950   1.37603    0.017
 5085.00    1.38453   1.38962    0.017
 5086.00    1.33920   1.40094    0.017
 5087.00    1.35988   1.41005    0.017
 5088.00    1.37967   1.41670    0.017
 5089.00    1.38295   1.41926    0.017
 5090.00    1.38480   1.41674    0.017
 5091.00    1.37082   1.41209    0.017
 5092.00    1.36934   1.40515    0.017
 5093.00    1.46529   1.39468    0.017
 5094.00    1.53051   1.38376    0.017
 5095.00    1.41471   1.37367    0.017
 5096.00    1.31132   1.36598    0.017
 5097.00    1.26584   1.36025    0.017
 5098.00    1.24110   1.35439    0.017
 5099.00    1.29534   1.35268    0.017
 5100.00    1.32843   1.35281    0.017
 5101.00    1.29423   1.34993    0.016
 5102.00    1.28037   1.34796    0.016
 5103.00    1.32134   1.34619    0.016
 5104.00    1.33282   1.34367    0.016
 5105.00    1.27607   1.34485    0.016
 5106.00    1.23755   1.34583    0.016
 5107.00    1.23548   1.34926    0.016
 5108.00    1.26251   1.35874    0.016
 5109.00    1.34023   1.36654    0.016
 5110.00    1.39989   1.37702    0.017
 5111.00    1.43202   1.38993    0.017
 5112.00    1.47354   1.39779    0.017
 5113.00    1.52765   1.40505    0.017
 5114.00    1.53799   1.40829    0.017
 5115.00    1.49667   1.40495    0.018
 5116.00    1.45206   1.39971    0.018
 5117.00    1.40402   1.38856    0.018
 5118.00    1.37519   1.37340    0.017
 5119.00    1.36399   1.35774    0.017
 5120.00    1.28427   1.34079    0.017
 5121.00    1.14912   1.32663    0.017
 5122.00    1.17739   1.31471    0.017
 5123.00    1.32199   1.30553    0.017
 5124.00    1.34240   1.30273    0.017
 5125.00    1.28523   1.30374    0.016
 5126.00    1.23574   1.30746    0.016
 5127.00    1.19043   1.31392    0.017
 5128.00    1.24249   1.32114    0.017
 5129.00    1.34074   1.32959    0.017
 5130.00    1.27911   1.33625    0.017
 5131.00    1.15204   1.34110    0.017
 5132.00    1.26755   1.34360    0.017
 5133.00    1.46786   1.34037    0.017
 5134.00    1.43341   1.33896    0.017
 5135.00    1.32975   1.33494    0.017
 5136.00    1.34273   1.32552    0.017
 5137.00    1.38420   1.32017    0.018
 5138.00    1.40604   1.31312    0.017
 5139.00    1.42400   1.30699    0.017
 5140.00    1.52151   1.30540    0.019
 5141.00    1.63128   1.29884    0.023
 5142.00    1.41506   1.29439    0.023
 5143.00    1.16171   1.29557    0.022
 5144.00    1.20938   1.29309    0.022
 5145.00    1.28002   1.29120    0.022
 5146.00    1.44465   1.29219    0.020
 5147.00    1.61315   1.29337    0.018
 5148.00    1.35467   1.29782    0.018
 5149.00    1.10248   1.30371    0.017
 5150.00    1.26315   1.30991    0.017
 5151.00    1.41211   1.31984    0.017
 5152.00    1.35811   1.33071    0.017
 5153.00    1.31182   1.33917    0.018
 5154.00    1.34743   1.34781    0.018
 5155.00    1.37309   1.35253    0.017
 5156.00    1.32381   1.35000    0.017
 5157.00    1.29299   1.34211    0.017
 5158.00    1.36786   1.32467    0.017
 5159.00    1.42280   1.30010    0.017
 5160.00    1.38689   1.27040    0.017
 5161.00    1.34517   1.23222    0.017
 5162.00    1.28172   1.19338    0.017
 5163.00    1.23650   1.15683    0.017
 5164.00    1.24814   1.12253    0.017
 5165.00    1.23017   1.09377    0.017
 5166.00    1.13376   1.07064    0.017
 5167.00    1.09786   1.05832    0.017
 5168.00    1.19955   1.05891    0.016
 5169.00    1.25321   1.06798    0.016
 5170.00    1.21230   1.08131    0.016
 5171.00    1.20856   1.09773    0.016
 5172.00    1.26859   1.11845    0.016
 5173.00    1.28669   1.14119    0.016
 5174.00    1.24175   1.15874    0.016
 5175.00    1.26367   1.16813    0.017
 5176.00    1.37389   1.17227    0.017
 5177.00    1.41888   1.16995    0.017
 5178.00    1.38797   1.16457    0.017
 5179.00    1.33221   1.16074    0.016
 5180.00    1.25094   1.15872    0.016
 5181.00    1.20472   1.16196    0.016
 5182.00    1.19024   1.16766    0.016
 5183.00    1.16406   1.17990    0.016
 5184.00    1.12856   1.20171    0.016
 5185.00    1.16263   1.22050    0.016
 5186.00    1.24552   1.23603    0.016
 5187.00    1.29628   1.25100    0.016
 5188.00    1.32728   1.26321    0.016
 5189.00    1.36885   1.27415    0.016
 5190.00    1.41611   1.28154    0.000
 5191.00    1.38510   1.28654    0.000
 5192.00    1.31757   1.29535    0.000
 5193.00    1.34756   1.30558    0.000
 5194.00    1.41677   1.31200    0.000
 5195.00    1.49264   1.31744    0.000
 5196.00    1.57079   1.32089    0.000
 5197.00    1.48829   1.31960    0.000
 5198.00    1.35938   1.31359    0.000
 5199.00    1.35798   1.30138    0.000
 5200.00    1.38704   1.28674    0.000
 5201.00    1.40516   1.27156    0.000
 5202.00    1.42119   1.25537    0.000
 5203.00    1.32786   1.24326    0.000
 5204.00    1.21818   1.23522    0.000
 5205.00    1.19130   1.23432    0.000
 5206.00    1.17350   1.24277    0.000
 5207.00    1.12411   1.25345    0.000
 5208.00    1.07244   1.26952    0.000
 5209.00    1.22355   1.28902    0.000
 5210.00    1.38223   1.30792    0.000
 5211.00    1.33235   1.32745    0.017
 5212.00    1.28553   1.34429    0.017
 5213.00    1.38528   1.35794    0.017
 5214.00    1.47725   1.36720    0.017
 5215.00    1.44291   1.37323    0.017
 5216.00    1.41986   1.37608    0.017
 5217.00    1.51156   1.37473    0.017
 5218.00    1.57378   1.36873    0.017
 5219.00    1.42142   1.35845    0.017
 5220.00    1.30455   1.34618    0.017
 5221.00    1.38543   1.33226    0.017
 5222.00    1.44802   1.32205    0.017
 5223.00    1.42928   1.31436    0.017
 5224.00    1.39083   1.30899    0.017
 5225.00    1.28034   1.31096    0.017
 5226.00    1.20068   1.31495    0.017
 5227.00    1.21539   1.32459    0.017
 5228.00    1.24013   1.33913    0.017
 5229.00    1.29096   1.35091    0.017
 5230.00    1.32876   1.36632    0.016
 5231.00    1.33738   1.38119    0.016
 5232.00    1.34488   1.39315    0.016
 5233.00    1.35018   1.40760    0.016
 5234.00    1.36793   1.41981    0.016
 5235.00    1.40670   1.43109    0.016
 5236.00    1.42827   1.44038    0.016
 5237.00    1.42434   1.44517    0.016
 5238.00    1.41810   1.44835    0.016
 5239.00    1.40885   1.44822    0.016
 5240.00    1.40550   1.44337    0.016
 5241.00    1.40892   1.43425    0.016
 5242.00    1.37980   1.42461    0.016
 5243.00    1.31779   1.41468    0.016
 5244.00    1.29189   1.40189    0.016
 5245.00    1.29822   1.39024    0.016
 5246.00    1.27370   1.38058    0.016
 5247.00    1.22494   1.37575    0.016
 5248.00    1.30884   1.37495    0.016
 5249.00    1.48446   1.37293    0.016
 5250.00    1.50542   1.37721    0.016
 5251.00    1.43262   1.38521    0.016
 5252.00    1.39086   1.39105    0.016
 5253.00    1.36551   1.39591    0.016
 5254.00    1.36425   1.39495    0.016
 5255.00    1.37406   1.39082    0.016
 5256.00    1.37727   1.38201    0.016
 5257.00    1.37788   1.36438    0.016
 5258.00    1.38719   1.34136    0.016
 5259.00    1.39944   1.31386    0.016
 5260.00    1.37498   1.28405    0.016
 5261.00    1.34012   1.25766    0.017
 5262.00    1.35089   1.23339    0.017
 5263.00    1.37232   1.21002    0.017
 5264.00    1.33838   1.19491    0.017
 5265.00    1.29407   1.19081    0.017
 5266.00    1.23769   1.19549    0.017
 5267.00    1.17957   1.20557    0.017
 5268.00    1.17722   1.21929    0.017
 5269.00    1.18073   1.23795    0.018
 5270.00    1.17069   1.26466    0.018
 5271.00    1.15973   1.29427    0.017
 5272.00    1.23427   1.31916    0.018
 5273.00    1.31167   1.34259    0.018
 5274.00    1.22563   1.36263    0.018
 5275.00    1.14337   1.37905    0.018
 5276.00    1.18802   1.39461    0.017
 5277.00    1.23442   1.40453    0.017
 5278.00    1.30734   1.41166    0.017
 5279.00    1.37100   1.42049    0.017
 5280.00    1.34428   1.42942    0.017
 5281.00    1.31742   1.43941    0.017
 5282.00    1.28961   1.45016    0.017
 5283.00    1.28444   1.46160    0.017
 5284.00    1.40203   1.47530    0.017
 5285.00    1.48910   1.48679    0.016
 5286.00    1.44352   1.49332    0.016
 5287.00    1.40434   1.49527    0.016
 5288.00    1.38806   1.49388    0.016
 5289.00    1.39064   1.48864    0.016
 5290.00    1.44990   1.47750    0.016
 5291.00    1.48772   1.46228    0.016
 5292.00    1.47075   1.44591    0.016
 5293.00    1.45583   1.43294    0.016
 5294.00    1.44545   1.42247    0.016
 5295.00    1.44152   1.41313    0.016
 5296.00    1.44992   1.40946    0.016
 5297.00    1.44016   1.41251    0.016
 5298.00    1.40015   1.42289    0.016
 5299.00    1.38495   1.43694    0.016
 5300.00    1.40596   1.45086    0.016
 5301.00    1.43545   1.46626    0.016
 5302.00    1.47580   1.48287    0.016
 5303.00    1.53413   1.49869    0.016
 5304.00    1.61278   1.51097    0.016
 5305.00    1.60544   1.51908    0.016
 5306.00    1.51233   1.52399    0.015
 5307.00    1.43518   1.52659    0.015
 5308.00    1.37205   1.52719    0.016
 5309.00    1.35940   1.52485    0.016
 5310.00    1.38587   1.51947    0.016
 5311.00    1.37079   1.51286    0.016
 5312.00    1.32742   1.50569    0.016
 5313.00    1.34941   1.49697    0.016
 5314.00    1.41045   1.48782    0.016
 5315.00    1.42913   1.47701    0.016
 5316.00    1.42574   1.46429    0.016
 5317.00    1.34137   1.45065    0.016
 5318.00    1.22044   1.43407    0.016
 5319.00    1.31508   1.41718    0.016
 5320.00    1.49348   1.39922    0.016
 5321.00    1.50609   1.37911    0.016
 5322.00    1.46389   1.35935    0.016
 5323.00    1.41311   1.34440    0.016
 5324.00    1.35995   1.33622    0.016
 5325.00    1.35878   1.33257    0.016
 5326.00    1.36946   1.33344    0.016
 5327.00    1.31783   1.33863    0.016
 5328.00    1.25483   1.35267    0.016
 5329.00    1.31589   1.37139    0.016
 5330.00    1.39434   1.38841    0.016
 5331.00    1.37880   1.40352    0.016
 5332.00    1.35377   1.41508    0.016
 5333.00    1.37821   1.42472    0.016
 5334.00    1.40584   1.42984    0.016
 5335.00    1.38091   1.43074    0.016
 5336.00    1.35453   1.43060    0.016
 5337.00    1.37433   1.42800    0.016
 5338.00    1.39348   1.42561    0.016
 5339.00    1.39396   1.42320    0.016
 5340.00    1.39466   1.42175    0.016
 5341.00    1.39848   1.42506    0.016
 5342.00    1.41033   1.42748    0.016
 5343.00    1.49732   1.43063    0.016
 5344.00    1.56945   1.43679    0.015
 5345.00    1.54023   1.44381    0.016
 5346.00    1.51004   1.45486    0.016
 5347.00    1.47479   1.46635    0.015
 5348.00    1.43892   1.47869    0.015
 5349.00    1.40041   1.49415    0.015
 5350.00    1.38266   1.50877    0.015
 5351.00    1.43764   1.52275    0.015
 5352.00    1.47697   1.53396    0.015
 5353.00    1.47016   1.54190    0.015
 5354.00    1.47018   1.54727    0.015
 5355.00    1.48738   1.54751    0.015
 5356.00    1.49005   1.54337    0.015
 5357.00    1.46128   1.53571    0.015
 5358.00    1.41592   1.52460    0.015
 5359.00    1.33939   1.51037    0.015
 5360.00    1.31933   1.49491    0.015
 5361.00    1.39193   1.47779    0.015
 5362.00    1.47454   1.46103    0.015
 5363.00    1.57154   1.44512    0.015
 5364.00    1.56944   1.42925    0.015
 5365.00    1.44199   1.41783    0.015
 5366.00    1.37163   1.41005    0.015
 5367.00    1.36494   1.40748    0.015
 5368.00    1.38600   1.40864   -2.000
 5369.00    1.43436   1.41319   -2.000
 5370.00    1.44854   1.42271   -2.000
 5371.00    1.43306   1.43501   -2.000
 5372.00    1.40614   1.45024   -2.000
 5373.00    1.37049   1.46312   -2.000
 5374.00    1.30947   1.47329   -2.000
 5375.00    1.23141   1.48119   -2.000
 5376.00    1.26284   1.48626   -2.000
 5377.00    1.35868   1.48956   -2.000
 5378.00    1.36340   1.49012   -2.000
 5379.00    1.32140   1.48831   -2.000
 5380.00    1.30528   1.48431   -2.000
 5381.00    1.30067   1.47955   -2.000
 5382.00    1.34681   1.47363   -2.000
 5383.00    1.41232   1.46651    0.016
 5384.00    1.41570   1.45857    0.015
 5385.00    1.39894   1.44886    0.015
 5386.00    1.47686   1.43797    0.015
 5387.00    1.58049   1.42687    0.015
 5388.00    1.56911   1.41497    0.015
 5389.00    1.53212   1.40327    0.015
 5390.00    1.41551   1.39321    0.015
 5391.00    1.28475   1.38343    0.015
 5392.00    1.30924   1.37660    0.015
 5393.00    1.35480   1.37122    0.015
 5394.00    1.39448   1.36651    0.015
 5395.00    1.43359   1.36370    0.015
 5396.00    1.44887   1.36009    0.015
 5397.00    1.46272   1.35746    0.015
 5398.00    1.47754   1.35440    0.015
 5399.00    1.49212   1.34955    0.015
 5400.00    1.46296   1.34416    0.015
 5401.00    1.43697   1.33917    0.015
 5402.00    1.49287   1.33494    0.015
 5403.00    1.53840   1.33253    0.015
 5404.00    1.44338   1.33339    0.014
 5405.00    1.36124   1.33908    0.014
 5406.00    1.39499   1.34945    0.014
 5407.00    1.43814   1.36190    0.015
 5408.00    1.54343   1.37620    0.014
 5409.00    1.61356   1.39177    0.014
 5410.00    1.50283   1.40934    0.014
 5411.00    1.42274   1.42642    0.014
 5412.00    1.46979   1.43993    0.015
 5413.00    1.50020   1.45066    0.015
 5414.00    1.47343   1.45859    0.015
 5415.00    1.46115   1.46434    0.014
 5416.00    1.49076   1.46730    0.015
 5417.00    1.49390   1.46695    0.015
 5418.00    1.43167   1.46436    0.015
 5419.00    1.38415   1.46133    0.015
 5420.00    1.36793   1.45728    0.015
 5421.00    1.36859   1.45120    0.015
 5422.00    1.40046   1.44463    0.015
 5423.00    1.41901   1.43617    0.015
 5424.00    1.41603   1.42808    0.015
 5425.00    1.43441   1.42111    0.015
 5426.00    1.48310   1.41159    0.015
 5427.00    1.50049   1.40307    0.015
 5428.00    1.47886   1.39562    0.015
 5429.00    1.43195   1.39125    0.015
 5430.00    1.35724   1.39396    0.015
 5431.00    1.34082   1.39755    0.015
 5432.00    1.38090   1.40431    0.015
 5433.00    1.36854   1.41419    0.015
 5434.00    1.31134   1.42616    0.015
 5435.00    1.30471   1.44123    0.015
 5436.00    1.33616   1.45339    0.015
 5437.00    1.39484   1.46280    0.015
 5438.00    1.47152   1.46755    0.015
 5439.00    1.48398   1.46759    0.015
 5440.00    1.45923   1.46503    0.015
 5441.00    1.44290   1.45844    0.015
 5442.00    1.43082   1.45077    0.015
 5443.00    1.48868   1.44132    0.015
 5444.00    1.57711   1.43176    0.015
 5445.00    1.58595   1.42442    0.015
 5446.00    1.56495   1.41808    0.014
 5447.00    1.53024   1.41443    0.014
 5448.00    1.49116   1.41152    0.014
 5449.00    1.40301   1.40878    0.014
 5450.00    1.30182   1.40638    0.014
 5451.00    1.31912   1.40503    0.014
 5452.00    1.36219   1.40395    0.014
 5453.00    1.41862   1.40407    0.014
 5454.00    1.47736   1.40456    0.014
 5455.00    1.47420   1.40555    0.014
 5456.00    1.46292   1.40937    0.014
 5457.00    1.40425   1.41188    0.014
 5458.00    1.34119   1.41375    0.014
 5459.00    1.37770   1.41494    0.014
 5460.00    1.41980   1.41555    0.014
 5461.00    1.43329   1.41740    0.014
 5462.00    1.44662   1.41776    0.014
 5463.00    1.50861   1.41774    0.014
 5464.00    1.56611   1.41753    0.014
 5465.00    1.51781   1.41461    0.014
 5466.00    1.46850   1.41086    0.014
 5467.00    1.40620   1.40576    0.014
 5468.00    1.35626   1.39818    0.014
 5469.00    1.41326   1.39034    0.014
 5470.00    1.45699   1.38217    0.014
 5471.00    1.41564   1.37524    0.014
 5472.00    1.38224   1.36897    0.014
 5473.00    1.38866   1.36259    0.014
 5474.00    1.41592   1.35992    0.014
 5475.00    1.52779   1.35958    0.014
 5476.00    1.62687   1.36200    0.014
 5477.00    1.68289   1.36789    0.014
 5478.00    1.68139   1.37377   -2.000
 5479.00    1.51649   1.38019   -2.000
 5480.00    1.42542   1.38610   -2.000
 5481.00    1.51356   1.39340   -2.000
 5482.00    1.58320   1.40096   -2.000
 5483.00    1.61407   1.40729   -2.000
 5484.00    1.56538   1.41194   -2.000
 5485.00    1.37182   1.41434   -2.000
 5486.00    1.29655   1.41666   -2.000
 5487.00    1.40958   1.41867   -2.000
 5488.00    1.40044   1.42106   -2.000
 5489.00    1.22064   1.42174   -2.000
 5490.00    1.13593   1.42197   -2.000
 5491.00    1.16812   1.42281   -2.000
 5492.00    1.23157   1.42234   -2.000
 5493.00    1.32889   1.42126   -2.000
 5494.00    1.37610   1.41967   -2.000
 5495.00    1.37541   1.41798   -2.000
 5496.00    1.43254   1.41559   -2.000
 5497.00    1.53840   1.41250   -2.000
 5498.00    1.59259   1.40840   -2.000
 5499.00    1.60842   1.40437   -2.000
 5500.00    1.62530   1.40042   -2.000
 5501.00    1.64285   1.39600   -2.000
 5502.00    1.58979   1.39277    0.014
 5503.00    1.49644   1.38906    0.014
 5504.00    1.47182   1.38537    0.014
 5505.00    1.48134   1.38232    0.014
 5506.00    1.48872   1.37973    0.014
 5507.00    1.49517   1.37915    0.014
 5508.00    1.48293   1.37871    0.014
 5509.00    1.46381   1.37862    0.014
 5510.00    1.43759   1.38143    0.014
 5511.00    1.40917   1.38544    0.014
 5512.00    1.37643   1.39199    0.014
 5513.00    1.34257   1.40021    0.014
 5514.00    1.32586   1.40861    0.014
 5515.00    1.31281   1.41783    0.014
 5516.00    1.33151   1.42532    0.014
 5517.00    1.35555   1.43116    0.014
 5518.00    1.35205   1.43472    0.014
 5519.00    1.34506   1.43494    0.014
 5520.00    1.40055   1.43260    0.014
 5521.00    1.46154   1.42916    0.014
 5522.00    1.42164   1.42478    0.014
 5523.00    1.37647   1.41974    0.014
 5524.00    1.37184   1.41458    0.014
 5525.00    1.36885   1.41006    0.014
 5526.00    1.43255   1.40803    0.014
 5527.00    1.49024   1.40715    0.014
 5528.00    1.41858   1.40861    0.014
 5529.00    1.35150   1.41151    0.014
 5530.00    1.34018   1.41415    0.014
 5531.00    1.33570   1.41783    0.014
 5532.00    1.38825   1.42120    0.014
 5533.00    1.42922   1.42591    0.014
 5534.00    1.39806   1.43030    0.014
 5535.00    1.37501   1.43411    0.014
 5536.00    1.39165   1.43867    0.014
 5537.00    1.39987   1.44237    0.014
 5538.00    1.37468   1.44610    0.014
 5539.00    1.36007   1.44945    0.016
 5540.00    1.38039   1.45257    0.037
 5541.00    1.39817   1.45562   -1.000
 5542.00    1.40884   1.45828   -1.000
 5543.00    1.42893   1.46101   -1.000
 5544.00    1.47153   1.46396   -1.000
 5545.00    1.49938   1.46632   -1.000
 5546.00    1.49682   1.46771   -1.000
 5547.00    1.49470   1.46869    0.074
 5548.00    1.49335   1.46841    0.019
 5549.00    1.47704   1.46676    0.013
 5550.00    1.43726   1.46388    0.013
 5551.00    1.39826   1.46034    0.013
 5552.00    1.36034   1.45628    0.013
 5553.00    1.34281   1.45194    0.013
 5554.00    1.34999   1.44722    0.013
 5555.00    1.36229   1.44229    0.013
 5556.00    1.38004   1.43758    0.013
 5557.00    1.38654   1.43205    0.013
 5558.00    1.38242   1.42675    0.014
 5559.00    1.37729   1.42128    0.014
 5560.00    1.37131   1.41586    0.014
 5561.00    1.35529   1.41116    0.013
 5562.00    1.33192   1.40631    0.013
 5563.00    1.31226   1.40314    0.013
 5564.00    1.29500   1.40043    0.013
 5565.00    1.32750   1.39847    0.013
 5566.00    1.38797   1.39831    0.014
 5567.00    1.43781   1.39903    0.014
 5568.00    1.48246   1.40120    0.014
 5569.00    1.50715   1.40348    0.014
 5570.00    1.52341   1.40662    0.014
 5571.00    1.47334   1.41045    0.014
 5572.00    1.39927   1.41364    0.014
 5573.00    1.34577   1.41671    0.014
 5574.00    1.29856   1.41887    0.014
 5575.00    1.29509   1.41911    0.014
 5576.00    1.30277   1.41719    0.014
 5577.00    1.34419   1.41332    0.013
 5578.00    1.39259   1.40664    0.013
 5579.00    1.40588   1.39761    0.013
 5580.00    1.41343   1.38731    0.014
 5581.00    1.40467   1.37540    0.013
 5582.00    1.39392   1.36370    0.013
 5583.00    1.36533   1.35252    0.013
 5584.00    1.33524   1.34240    0.013
 5585.00    1.33594   1.33560    0.013
 5586.00    1.33812   1.33140    0.013
 5587.00    1.28747   1.33116    0.013
 5588.00    1.23636   1.33401    0.013
 5589.00    1.20561   1.33806    0.013
 5590.00    1.17784   1.34352    0.013
 5591.00    1.20904   1.34841    0.013
 5592.00    1.24346   1.35355    0.013
 5593.00    1.31534   1.35814    0.014
 5594.00    1.37632   1.36165    0.014
 5595.00    1.34968   1.36429    0.014
 5596.00    1.32458   1.36715    0.013
 5597.00    1.30885   1.37020    0.014
 5598.00    1.28939   1.37451    0.014
 5599.00    1.25220   1.38124    0.014
 5600.00    1.22971   1.38905    0.014
 5601.00    1.26429   1.39945    0.014
 5602.00    1.29073   1.40998    0.014
 5603.00    1.29085   1.42074    0.014
 5604.00    1.30297   1.42976    0.013
 5605.00    1.34795   1.43525    0.014
 5606.00    1.39778   1.43820    0.014
 5607.00    1.45895   1.43712    0.014
 5608.00    1.49456   1.43355    0.014
 5609.00    1.47831   1.42739    0.014
 5610.00    1.47346   1.41902    0.013
 5611.00    1.48873   1.40969    0.013
 5612.00    1.46868   1.39925    0.013
 5613.00    1.39404   1.39085    0.013
 5614.00    1.35227   1.38419    0.013
 5615.00    1.35511   1.37942    0.013
 5616.00    1.35726   1.37710    0.013
 5617.00    1.35857   1.37545    0.013
 5618.00    1.32799   1.37530    0.013
 5619.00    1.26380   1.37601    0.013
 5620.00    1.25829   1.37769    0.013
 5621.00    1.30733   1.37992    0.013
 5622.00    1.33056   1.38300    0.013
 5623.00    1.33266   1.38762    0.013
 5624.00    1.32565   1.39283    0.013
 5625.00    1.31207   1.39867    0.013
 5626.00    1.32521   1.40443    0.013
 5627.00    1.35526   1.40881    0.013
 5628.00    1.36235   1.41189    0.013
 5629.00    1.35673   1.41315    0.013
 5630.00    1.34486   1.41257    0.013
 5631.00    1.32998   1.41002    0.013
 5632.00    1.33254   1.40642    0.013
 5633.00    1.34235   1.40205    0.013
 5634.00    1.33971   1.39737    0.013
 5635.00    1.33265   1.39351    0.013
 5636.00    1.33584   1.39045    0.013
 5637.00    1.34209   1.38876    0.013
 5638.00    1.34040   1.38773    0.013
 5639.00    1.33673   1.38821    0.013
 5640.00    1.29683   1.38978    0.013
 5641.00    1.24962   1.39201    0.013
 5642.00    1.21772   1.39548    0.013
 5643.00    1.18825   1.39855    0.013
 5644.00    1.19043   1.40158    0.013
 5645.00    1.19633   1.40376    0.013
 5646.00    1.23021   1.40516    0.013
 5647.00    1.26632   1.40525    0.013
 5648.00    1.29565   1.40347    0.013
 5649.00    1.32468   1.40066    0.013
 5650.00    1.35051   1.39664    0.013
 5651.00    1.37629   1.39078    0.013
 5652.00    1.40086   1.38382    0.013
 5653.00    1.42298   1.37718    0.013
 5654.00    1.39981   1.37116    0.013
 5655.00    1.37598   1.36523    0.013
 5656.00    1.34473   1.36187    0.013
 5657.00    1.31576   1.36064    0.013
 5658.00    1.30445   1.36128    0.013
 5659.00    1.29795   1.36388    0.013
 5660.00    1.31965   1.36794    0.013
 5661.00    1.33248   1.37335    0.013
 5662.00    1.30396   1.37947    0.013
 5663.00    1.28082   1.38649    0.013
 5664.00    1.27810   1.39287    0.013
 5665.00    1.27204   1.39951    0.013
 5666.00    1.25539   1.40634    0.013
 5667.00    1.25671   1.41329    0.012
 5668.00    1.30638   1.41985    0.012
 5669.00    1.35294   1.42620    0.012
 5670.00    1.39235   1.43198    0.012
 5671.00    1.42516   1.43632    0.012
 5672.00    1.44479   1.43863    0.013
 5673.00    1.46068   1.43952    0.013
 5674.00    1.47005   1.43884    0.013
 5675.00    1.46551   1.43623    0.013
 5676.00    1.43980   1.43223    0.013
 5677.00    1.40107   1.42695    0.013
 5678.00    1.34491   1.42151    0.013
 5679.00    1.31996   1.41541    0.013
 5680.00    1.33177   1.41052    0.013
 5681.00    1.35047   1.40664    0.013
 5682.00    1.37633   1.40445    0.013
 5683.00    1.36536   1.40369    0.013
 5684.00    1.32066   1.40404    0.013
 5685.00    1.29402   1.40623    0.013
 5686.00    1.28197   1.40925    0.013
 5687.00    1.25728   1.41377    0.013
 5688.00    1.22359   1.41732    0.013
 5689.00    1.23496   1.42088    0.013
 5690.00    1.27441   1.42275    0.013
 5691.00    1.28704   1.42247    0.013
 5692.00    1.28505   1.42057    0.013
 5693.00    1.32582   1.41643    0.013
 5694.00    1.38684   1.41130    0.013
 5695.00    1.40523   1.40382    0.013
 5696.00    1.40620   1.39599    0.013
 5697.00    1.35300   1.38758    0.013
 5698.00    1.28089   1.37855    0.013
 5699.00    1.29742   1.37008    0.013
 5700.00    1.34000   1.36213    0.013
 5701.00    1.35029   1.35500    0.013
 5702.00    1.35271   1.34847    0.013
 5703.00    1.31595   1.34291    0.013
 5704.00    1.27148   1.33877    0.013
 5705.00    1.23932   1.33683    0.013
 5706.00    1.20904   1.33688    0.012
 5707.00    1.21344   1.34070    0.013
 5708.00    1.22176   1.34681    0.013
 5709.00    1.26962   1.35536    0.013
 5710.00    1.32049   1.36707    0.013
 5711.00    1.28723   1.37958    0.013
 5712.00    1.25056   1.39276    0.013
 5713.00    1.28309   1.40613    0.012
 5714.00    1.31578   1.41849    0.012
 5715.00    1.33285   1.42951    0.012
 5716.00    1.35155   1.43936    0.013
 5717.00    1.39824   1.44710    0.013
 5718.00    1.43891   1.45294    0.013
 5719.00    1.41573   1.45704    0.013
 5720.00    1.39715   1.45914    0.013
 5721.00    1.41295   1.45932    0.013
 5722.00    1.43019   1.45827    0.013
 5723.00    1.45566   1.45641    0.013
 5724.00    1.47528   1.45351    0.013
 5725.00    1.46835   1.45147    0.013
 5726.00    1.45586   1.44994    0.013
 5727.00    1.42262   1.44880    0.013
 5728.00    1.40012   1.44786    0.013
 5729.00    1.41107   1.44768    0.013
 5730.00    1.42818   1.44861    0.013
 5731.00    1.46158   1.44945    0.013
 5732.00    1.49163   1.45061    0.013
 5733.00    1.51409   1.45133    0.013
 5734.00    1.51390   1.45180    0.013
 5735.00    1.46918   1.45221    0.013
 5736.00    1.42968   1.45215    0.012
 5737.00    1.39912   1.45194    0.013
 5738.00    1.39937   1.45149    0.013
 5739.00    1.44585   1.45095    0.013
 5740.00    1.45356   1.44988    0.000
 5741.00    1.41016   1.44868    0.000
 5742.00    1.38572   1.44724    0.000
 5743.00    1.38331   1.44514    0.000
 5744.00    1.40168   1.44249    0.000
 5745.00    1.44132   1.43884    0.000
 5746.00    1.45159   1.43601    0.000
 5747.00    1.43530   1.43321    0.000
 5748.00    1.43124   1.43062    0.000
 5749.00    1.43691   1.42785    0.000
 5750.00    1.43515   1.42552    0.000
 5751.00    1.42819   1.42387    0.000
 5752.00    1.42466   1.42355    0.000
 5753.00    1.42324   1.42411    0.000
 5754.00    1.39833   1.42439    0.000
 5755.00    1.36081   1.42520    0.000
 5756.00    1.36599   1.42552    0.000
 5757.00    1.39105   1.42625    0.000
 5758.00    1.46121   1.42712    0.000
 5759.00    1.54948   1.42919    0.000
 5760.00    1.52780   1.43179    0.000
 5761.00    1.46849   1.43653    0.000
 5762.00    1.45266   1.44111    0.000
 5763.00    1.44936   1.44542    0.000
 5764.00    1.45689   1.44920    0.000
 5765.00    1.46701   1.45187    0.000
 5766.00    1.47092   1.45336    0.000
 5767.00    1.47364   1.45322    0.000
 5768.00    1.42210   1.45199    0.000
 5769.00    1.36247   1.44858    0.000
 5770.00    1.32582   1.44457    0.000
 5771.00    1.29168   1.43882    0.000
 5772.00    1.33706   1.43162    0.000
 5773.00    1.38813   1.42354    0.000
 5774.00    1.37754   1.41413    0.000
 5775.00    1.36467   1.40408    0.000
 5776.00    1.36696   1.39338    0.000
 5777.00    1.37033   1.38301    0.000
 5778.00    1.41020   1.37294    0.000
 5779.00    1.44840   1.36575    0.000
 5780.00    1.45979   1.36121    0.000
 5781.00    1.46803   1.35947    0.000
 5782.00    1.44447   1.36006    0.000
 5783.00    1.41865   1.36389    0.000
 5784.00    1.37653   1.37067    0.000
 5785.00    1.33952   1.37831    0.000
 5786.00    1.33088   1.38729    0.000
 5787.00    1.33404   1.39634    0.000
 5788.00    1.38957   1.40477    0.000
 5789.00    1.43829   1.41390    0.000
 5790.00    1.46222   1.42205    0.000
 5791.00    1.47923   1.42942   -2.000
 5792.00    1.47508   1.43611   -2.000
 5793.00    1.46887   1.44169   -2.000
 5794.00    1.45730   1.44613   -2.000
 5795.00    1.46376   1.44968   -2.000
 5796.00    1.51044   1.45351   -2.000
 5797.00    1.54347   1.45652   -2.000
 5798.00    1.55013   1.45825   -2.000
 5799.00    1.54393   1.45925   -2.000
 5800.00    1.51604   1.45918   -2.000
 5801.00    1.48273   1.45803   -2.000
 5802.00    1.44140   1.45690   -2.000
 5803.00    1.41604   1.45580   -2.000
 5804.00    1.41144   1.45485   -2.000
 5805.00    1.40877   1.45407   -2.000
 5806.00    1.40833   1.45344   -2.000
 5807.00    1.42988   1.45296   -2.000
 5808.00    1.47363   1.45283   -2.000
 5809.00    1.50206   1.45247   -2.000
 5810.00    1.51686   1.45259   -2.000
 5811.00    1.50887   1.45295    0.000
 5812.00    1.48300   1.45365    0.000
 5813.00    1.47159   1.45500    0.000
 5814.00    1.47016   1.45728    0.000
 5815.00    1.46398   1.46082    0.000
 5816.00    1.45493   1.46413    0.000
 5817.00    1.45457   1.46760    0.000
 5818.00    1.45881   1.47078    0.000
 5819.00    1.44923   1.47349    0.000
 5820.00    1.43333   1.47583    0.000
 5821.00    1.43419   1.47750    0.000
 5822.00    1.44165   1.47909    0.000
 5823.00    1.46807   1.47968    0.000
 5824.00    1.50084   1.47997    0.000
 5825.00    1.51491   1.47955    0.000
 5826.00    1.52370   1.47897    0.000
 5827.00    1.48979   1.47793    0.000
 5828.00    1.44594   1.47636    0.000
 5829.00    1.40869   1.47481    0.000
 5830.00    1.37268   1.47336    0.000
 5831.00    1.38463   1.47187    0.000
 5832.00    1.40350   1.47068    0.000
 5833.00    1.43934   1.47036    0.000
 5834.00    1.47696   1.47046    0.000
 5835.00    1.43553   1.47017    0.000
 5836.00    1.38875   1.47044    0.000
 5837.00    1.37169   1.47070    0.000
 5838.00    1.35562   1.47042    0.000
 5839.00    1.34743   1.46905    0.000
 5840.00    1.34084   1.46670    0.000
 5841.00    1.38455   1.46306    0.000
 5842.00    1.42676   1.45814    0.000
 5843.00    1.44636   1.45218    0.000
 5844.00    1.46608   1.44513    0.000
 5845.00    1.48692   1.43766    0.000
 5846.00    1.50276   1.42983    0.000
 5847.00    1.48364   1.42169    0.000
 5848.00    1.46044   1.41338    0.000
 5849.00    1.41519   1.40517    0.000
 5850.00    1.36908   1.39727    0.000
 5851.00    1.31926   1.39070    0.000
 5852.00    1.27875   1.38553    0.000
 5853.00    1.27149   1.38126    0.000
 5854.00    1.27076   1.37830    0.000
 5855.00    1.28958   1.37686    0.000
 5856.00    1.31122   1.37827    0.000
 5857.00    1.34003   1.38016    0.000
 5858.00    1.36473   1.38387    0.000
 5859.00    1.38037   1.38732    0.000
 5860.00    1.38900   1.39173    0.000
 5861.00    1.38426   1.39640    0.000
 5862.00    1.36967   1.40116    0.000
 5863.00    1.33871   1.40544    0.000
 5864.00    1.32615   1.40921    0.000
 5865.00    1.34040   1.41332    0.000
 5866.00    1.35960   1.41638    0.000
 5867.00    1.38513   1.41880    0.000
 5868.00    1.41521   1.41977    0.000
 5869.00    1.45041   1.41974    0.000
 5870.00    1.45509   1.41828    0.000
 5871.00    1.42938   1.41578    0.000
 5872.00    1.41829   1.41224    0.000
 5873.00    1.42003   1.40697    0.000
 5874.00    1.42910   1.40055    0.000
 5875.00    1.44383   1.39254    0.000
 5876.00    1.42692   1.38318    0.000
 5877.00    1.38848   1.37170    0.000
 5878.00    1.35090   1.35828    0.000
 5879.00    1.31382   1.34245    0.000
 5880.00    1.30168   1.32345    0.000
 5881.00    1.30251   1.30123    0.000
 5882.00    1.30639   1.27668    0.000
 5883.00    1.31164   1.25007    0.000
 5884.00    1.31639   1.22239    0.000
 5885.00    1.32094   1.19477    0.000
 5886.00    1.28560   1.16945    0.000
 5887.00    1.23712   1.14808    0.000
 5888.00    1.18965   1.13429    0.000
 5889.00    1.14247   1.12706    0.000
 5890.00    1.14334   1.12505    0.000
 5891.00    1.15514   1.12944    0.000
 5892.00    1.17422   1.13939    0.000
 5893.00    1.19462   1.15420    0.000
 5894.00    1.20559   1.17536    0.000
 5895.00    1.21524   1.19976    0.000
 5896.00    1.21124   1.22485    0.000
 5897.00    1.20587   1.25025    0.000
 5898.00    1.20581   1.27477    0.000
 5899.00    1.20609   1.29726    0.000
 5900.00    1.25098   1.31694    0.000
 5901.00    1.29699   1.33369    0.012
 5902.00    1.27696   1.34710    0.012
 5903.00    1.25683   1.35750    0.012
 5904.00    1.23348   1.36527    0.012
 5905.00    1.21465   1.37063    0.012
 5906.00    1.26016   1.37396    0.012
 5907.00    1.30875   1.37533    0.012
 5908.00    1.38594   1.37577    0.012
 5909.00    1.45155   1.37501    0.012
 5910.00    1.43854   1.37419    0.012
 5911.00    1.42670   1.37281    0.012
 5912.00    1.42102   1.37265    0.012
 5913.00    1.41892   1.37285    0.012
 5914.00    1.43196   1.37398    0.012
 5915.00    1.43332   1.37591    0.012
 5916.00    1.39387   1.37795    0.012
 5917.00    1.35883   1.38054    0.012
 5918.00    1.33679   1.38283    0.012
 5919.00    1.31693   1.38502    0.012
 5920.00    1.30255   1.38667    0.012
 5921.00    1.29227   1.38819    0.012
 5922.00    1.29085   1.38871    0.012
 5923.00    1.29016   1.38894    0.012
 5924.00    1.29087   1.38858    0.012
 5925.00    1.28929   1.38770    0.012
 5926.00    1.28397   1.38714    0.012
 5927.00    1.28746   1.38633    0.012
 5928.00    1.30358   1.38618    0.012
 5929.00    1.32861   1.38614    0.012
 5930.00    1.36489   1.38613    0.012
 5931.00    1.37943   1.38655    0.012
 5932.00    1.36976   1.38694    0.012
 5933.00    1.35413   1.38804    0.012
 5934.00    1.33264   1.38894    0.012
 5935.00    1.32748   1.38976    0.012
 5936.00    1.33645   1.39033    0.012
 5937.00    1.38582   1.39087    0.012
 5938.00    1.46599   1.39101    0.012
 5939.00    1.47818   1.39123    0.012
 5940.00    1.44481   1.39138    0.012
 5941.00    1.40674   1.39113    0.012
 5942.00    1.36592   1.39055    0.012
 5943.00    1.34117   1.38938    0.012
 5944.00    1.32463   1.38779    0.012
 5945.00    1.30370   1.38595    0.012
 5946.00    1.28082   1.38401    0.012
 5947.00    1.29348   1.38221    0.012
 5948.00    1.31968   1.38055    0.012
 5949.00    1.33061   1.37938    0.012
 5950.00    1.33660   1.37863    0.012
 5951.00    1.32530   1.37884    0.012
 5952.00    1.30931   1.37984    0.011
 5953.00    1.30001   1.38155    0.012
 5954.00    1.29220   1.38405    0.012
 5955.00    1.28100   1.38745    0.012
 5956.00    1.26920   1.39126    0.011
 5957.00    1.29240   1.39541    0.011
 5958.00    1.32032   1.39943    0.012
 5959.00    1.33161   1.40329    0.012
 5960.00    1.34129   1.40683    0.012
 5961.00    1.35301   1.40973    0.012
 5962.00    1.36486   1.41269    0.012
 5963.00    1.34978   1.41463    0.012
 5964.00    1.33383   1.41664    0.012
 5965.00    1.28884   1.41758    0.012
 5966.00    1.24538   1.41806    0.012
 5967.00    1.24062   1.41736    0.012
 5968.00    1.24109   1.41596    0.012
 5969.00    1.31195   1.41341    0.012
 5970.00    1.37951   1.41003    0.012
 5971.00    1.41744   1.40589    0.012
 5972.00    1.44085   1.40135    0.012
 5973.00    1.36860   1.39672    0.012
 5974.00    1.29993   1.39222    0.012
 5975.00    1.24966   1.38832    0.012
 5976.00    1.20919   1.38464    0.012
 5977.00    1.20925   1.38158    0.012
 5978.00    1.21619   1.37894    0.011
 5979.00    1.24664   1.37678    0.011
 5980.00    1.27968   1.37565    0.011
 5981.00    1.32022   1.37550    0.011
 5982.00    1.34895   1.37619    0.011
 5983.00    1.34858   1.37794    0.011
 5984.00    1.34841   1.38019    0.011
 5985.00    1.34866   1.38305    0.011
 5986.00    1.34567   1.38588    0.012
 5987.00    1.33668   1.38867    0.012
 5988.00    1.33156   1.39123    0.012
 5989.00    1.33268   1.39307    0.012
 5990.00    1.35705   1.39422    0.012
 5991.00    1.41434   1.39433    0.012
 5992.00    1.44258   1.39348    0.012
 5993.00    1.43468   1.39188    0.012
 5994.00    1.40828   1.38980    0.012
 5995.00    1.36159   1.38731    0.011
 5996.00    1.34247   1.38466    0.012
 5997.00    1.35005   1.38165    0.012
 5998.00    1.35546   1.37847    0.012
 5999.00    1.35902   1.37561    0.012
 6000.00    1.36210   1.37276    0.012
 6001.00    1.36483   1.36998    0.011
 6002.00    1.38560   1.36759    0.011
 6003.00    1.41830   1.36508    0.011
 6004.00    1.42198   1.36356    0.012
 6005.00    1.40890   1.36247    0.012
 6006.00    1.36247   1.36163    0.012
 6007.00    1.29924   1.36091    0.012
 6008.00    1.28872   1.36004    0.012
 6009.00    1.30117   1.35940    0.011
 6010.00    1.31919   1.35886    0.011
 6011.00    1.33929   1.35796    0.011
 6012.00    1.33190   1.35726    0.012
 6013.00    1.31579   1.35666    0.012
 6014.00    1.30689   1.35646    0.012
 6015.00    1.29991   1.35631    0.012
 6016.00    1.31477   1.35738    0.012
 6017.00    1.33436   1.35882    0.012
 6018.00    1.34206   1.36176    0.012
 6019.00    1.34771   1.36505    0.012
 6020.00    1.33601   1.36978    0.012
 6021.00    1.32205   1.37505    0.012
 6022.00    1.31639   1.38065    0.012
 6023.00    1.31151   1.38703    0.012
 6024.00    1.32090   1.39315    0.011
 6025.00    1.33109   1.39945    0.011
 6026.00    1.32780   1.40491    0.012
 6027.00    1.32439   1.41034    0.012
 6028.00    1.33707   1.41484    0.012
 6029.00    1.35041   1.41877    0.012
 6030.00    1.37930   1.42179    0.012
 6031.00    1.40376   1.42417    0.012
 6032.00    1.37184   1.42595    0.012
 6033.00    1.34391   1.42710    0.012
 6034.00    1.35027   1.42801    0.012
 6035.00    1.35560   1.42841    0.011
 6036.00    1.35438   1.42927    0.012
 6037.00    1.35099   1.42979    0.012
 6038.00    1.33679   1.43097    0.011
 6039.00    1.32873   1.43219    0.011
 6040.00    1.34555   1.43350    0.011
 6041.00    1.35118   1.43487    0.011
 6042.00    1.31923   1.43592    0.011
 6043.00    1.29965   1.43679    0.011
 6044.00    1.31515   1.43671    0.011
 6045.00    1.34297   1.43644    0.011
 6046.00    1.40062   1.43512    0.011
 6047.00    1.43217   1.43314    0.011
 6048.00    1.40915   1.43039    0.011
 6049.00    1.39290   1.42716    0.011
 6050.00    1.38894   1.42388    0.012
 6051.00    1.39636   1.42014    0.012
 6052.00    1.42186   1.41696    0.012
 6053.00    1.42221   1.41373    0.012
 6054.00    1.38749   1.41117    0.011
 6055.00    1.35069   1.40875    0.011
 6056.00    1.31134   1.40671    0.011
 6057.00    1.28454   1.40516    0.012
 6058.00    1.27132   1.40385    0.012
 6059.00    1.25652   1.40366    0.012
 6060.00    1.24021   1.40385    0.012
 6061.00    1.24265   1.40557    0.012
 6062.00    1.26087   1.40848    0.012
 6063.00    1.26436   1.41221    0.012
 6064.00    1.25694   1.41659    0.012
 6065.00    1.24505   1.42118    0.011
 6066.00    1.23023   1.42574    0.011
 6067.00    1.23589   1.42955    0.011
 6068.00    1.25320   1.43238    0.011
 6069.00    1.28593   1.43356    0.011
 6070.00    1.32630   1.43328    0.011
 6071.00    1.36904   1.43106    0.011
 6072.00    1.41279   1.42749    0.011
 6073.00    1.41811   1.42257    0.011
 6074.00    1.40931   1.41679    0.011
 6075.00    1.39435   1.41084    0.011
 6076.00    1.37747   1.40474    0.011
 6077.00    1.38532   1.39902    0.011
 6078.00    1.39957   1.39396    0.011
 6079.00    1.40591   1.38990    0.011
 6080.00    1.41057   1.38645    0.011
 6081.00    1.39561   1.38397    0.011
 6082.00    1.37737   1.38216    0.011
 6083.00    1.35442   1.38092    0.011
 6084.00    1.33088   1.38021    0.012
 6085.00    1.32650   1.37974    0.011
 6086.00    1.32380   1.37986    0.011
 6087.00    1.36402   1.38024    0.011
 6088.00    1.40646   1.38107    0.011
 6089.00    1.43386   1.38180    0.011
 6090.00    1.46006   1.38283    0.011
 6091.00    1.41807   1.38329    0.011
 6092.00    1.37725   1.38354    0.011
 6093.00    1.36135   1.38305    0.011
 6094.00    1.34581   1.38197    0.011
 6095.00    1.33470   1.37998    0.011
 6096.00    1.32628   1.37740    0.011
 6097.00    1.34025   1.37507    0.011
 6098.00    1.35054   1.37263    0.011
 6099.00    1.33805   1.37167    0.011
 6100.00    1.32141   1.37108    0.011
 6101.00    1.28451   1.37202    0.011
 6102.00    1.25301   1.37380    0.011
 6103.00    1.24290   1.37689    0.011
 6104.00    1.23764   1.38036    0.011
 6105.00    1.24842   1.38441    0.011
 6106.00    1.26743   1.38814    0.011
 6107.00    1.30938   1.39153    0.011
 6108.00    1.35293   1.39396    0.011
 6109.00    1.40028   1.39519    0.011
 6110.00    1.42866   1.39505    0.011
 6111.00    1.41801   1.39361    0.011
 6112.00    1.41457   1.39069    0.011
 6113.00    1.42403   1.38660    0.011
 6114.00    1.43567   1.38168    0.011
 6115.00    1.45074   1.37602    0.012
 6116.00    1.44425   1.37090    0.012
 6117.00    1.40814   1.36629    0.011
 6118.00    1.35757   1.36260    0.011
 6119.00    1.28949   1.36008    0.012
 6120.00    1.24877   1.35875    0.012
 6121.00    1.23720   1.35860    0.011
 6122.00    1.24486   1.35929    0.011
 6123.00    1.27060   1.36060    0.011
 6124.00    1.29690   1.36181    0.011
 6125.00    1.32365   1.36241    0.011
 6126.00    1.35259   1.36208    0.011
 6127.00    1.38314   1.36035    0.011
 6128.00    1.40369   1.35710    0.011
 6129.00    1.41782   1.35259    0.011
 6130.00    1.42090   1.34701    0.011
 6131.00    1.41777   1.34198    0.011
 6132.00    1.38531   1.33764    0.011
 6133.00    1.33854   1.33466    0.011
 6134.00    1.31309   1.33302    0.011
 6135.00    1.29664   1.33350    0.011
 6136.00    1.29144   1.33641    0.011
 6137.00    1.29030   1.34103    0.012
 6138.00    1.28959   1.34691    0.012
 6139.00    1.28900   1.35315    0.011
 6140.00    1.29675   1.35945    0.011
 6141.00    1.30662   1.36476    0.011
 6142.00    1.33798   1.36908    0.011
 6143.00    1.37377   1.37172    0.011
 6144.00    1.39098   1.37314    0.011
 6145.00    1.40517   1.37278    0.011
 6146.00    1.38132   1.37133    0.011
 6147.00    1.35283   1.36820    0.011
 6148.00    1.32524   1.36405    0.011
 6149.00    1.29773   1.35865    0.011
 6150.00    1.29750   1.35204    0.011
 6151.00    1.29859   1.34406    0.011
 6152.00    1.30057   1.33465    0.011
 6153.00    1.30252   1.32405    0.011
 6154.00    1.30116   1.31219    0.011
 6155.00    1.30081   1.30003    0.011
 6156.00    1.32015   1.28804    0.011
 6157.00    1.33801   1.27692    0.011
 6158.00    1.33884   1.26729    0.011
 6159.00    1.34053   1.25950    0.011
 6160.00    1.34904   1.25406    0.011
 6161.00    1.35502   1.25101    0.011
 6162.00    1.34578   1.25034    0.011
 6163.00    1.33436   1.25187    0.011
 6164.00    1.31263   1.25523    0.011
 6165.00    1.29135   1.26014    0.011
 6166.00    1.27181   1.26584    0.011
 6167.00    1.25253   1.27247    0.011
 6168.00    1.23412   1.27933    0.011
 6169.00    1.22103   1.28668    0.011
 6170.00    1.22250   1.29381    0.011
 6171.00    1.23162   1.30092    0.011
 6172.00    1.25865   1.30761    0.011
 6173.00    1.27449   1.31372    0.011
 6174.00    1.26763   1.31912    0.011
 6175.00    1.24822   1.32346    0.011
 6176.00    1.20672   1.32681    0.011
 6177.00    1.18502   1.32856    0.011
 6178.00    1.19386   1.32911    0.011
 6179.00    1.20642   1.32791    0.011
 6180.00    1.22401   1.32547    0.011
 6181.00    1.22372   1.32160    0.011
 6182.00    1.20211   1.31666    0.011
 6183.00    1.19860   1.31120    0.011
 6184.00    1.21412   1.30588    0.011
 6185.00    1.24082   1.30098    0.011
 6186.00    1.27787   1.29708    0.011
 6187.00    1.30519   1.29448    0.011
 6188.00    1.32455   1.29354    0.011
 6189.00    1.32774   1.29401    0.011
 6190.00    1.31930   1.29594    0.011
 6191.00    1.31712   1.29884    0.011
 6192.00    1.31890   1.30270    0.011
 6193.00    1.29150   1.30685    0.011
 6194.00    1.24800   1.31116    0.011
 6195.00    1.11119   1.31525    0.012
 6196.00    0.92959   1.31912   -2.000
 6197.00    0.92516   1.32264   -2.000
 6198.00    0.99418   1.32571   -2.000
 6199.00    1.22506   1.32824   -2.000
 6200.00    1.51332   1.32999   -2.000
 6201.00    1.66056   1.33086   -2.000
 6202.00    1.76560   1.33040   -2.000
 6203.00    1.63078   1.32869   -2.000
 6204.00    1.43637   1.32521   -2.000
 6205.00    1.32997   1.32035   -2.000
 6206.00    1.24129   1.31390   -2.000
 6207.00    1.20997   1.30649   -2.000
 6208.00    1.18769   1.29812    0.011
 6209.00    1.21691   1.28968    0.011
 6210.00    1.25216   1.28132    0.011
 6211.00    1.30012   1.27386    0.011
 6212.00    1.34908   1.26746    0.011
 6213.00    1.33851   1.26248    0.011
 6214.00    1.32533   1.25898    0.011
 6215.00    1.31989   1.25688    0.011
 6216.00    1.31439   1.25601    0.011
 6217.00    1.30261   1.25600    0.011
 6218.00    1.29061   1.25655    0.011
 6219.00    1.27465   1.25715    0.011
 6220.00    1.26241   1.25763    0.011
 6221.00    1.29099   1.25780    0.011
 6222.00    1.31949   1.25736    0.011
 6223.00    1.34738   1.25670    0.011
 6224.00    1.36708   1.25551    0.011
 6225.00    1.33882   1.25462    0.011
 6226.00    1.31053   1.25362    0.011
 6227.00    1.28205   1.25345    0.011
 6228.00    1.26331   1.25353    0.011
 6229.00    1.28152   1.25442    0.011
 6230.00    1.29459   1.25544    0.012
 6231.00    1.29139   1.25664    0.011
 6232.00    1.28101   1.25741    0.011
 6233.00    1.25133   1.25758    0.011
 6234.00    1.23054   1.25700    0.011
 6235.00    1.23018   1.25555    0.011
 6236.00    1.23488   1.25353    0.011
 6237.00    1.24965   1.25108    0.011
 6238.00    1.26031   1.24868    0.011
 6239.00    1.26383   1.24650    0.011
 6240.00    1.26212   1.24490    0.011
 6241.00    1.25247   1.24375    0.011
 6242.00    1.24924   1.24320    0.011
 6243.00    1.25459   1.24263    0.011
 6244.00    1.26040   1.24215    0.011
 6245.00    1.26678   1.24092    0.011
 6246.00    1.27960   1.23925    0.011
 6247.00    1.29912   1.23652    0.011
 6248.00    1.31505   1.23330    0.011
 6249.00    1.32768   1.22948    0.011
 6250.00    1.31327   1.22578    0.011
 6251.00    1.27705   1.22258    0.011
 6252.00    1.24561   1.22031    0.011
 6253.00    1.21756   1.21971    0.011
 6254.00    1.20522   1.22051    0.011
 6255.00    1.20267   1.22346    0.011
 6256.00    1.19114   1.22762    0.011
 6257.00    1.17474   1.23356    0.011
 6258.00    1.17818   1.23998    0.012
 6259.00    1.19100   1.24721    0.012
 6260.00    1.25716   1.25411    0.012
 6261.00    1.34504   1.26088    0.013
 6262.00    1.43760   1.26684    0.014
 6263.00    1.53178   1.27215    0.014
 6264.00    1.53314   1.27664    0.014
 6265.00    1.50727   1.28038    0.013
 6266.00    1.44067   1.28354    0.013
 6267.00    1.36418   1.28605    0.012
 6268.00    1.33838   1.28816    0.011
 6269.00    1.32252   1.28969    0.011
 6270.00    1.30352   1.29092    0.011
 6271.00    1.28405   1.29167    0.011
 6272.00    1.24750   1.29217    0.011
 6273.00    1.20903   1.29243    0.011
 6274.00    1.18773   1.29263    0.011
 6275.00    1.16772   1.29303    0.011
 6276.00    1.16186   1.29363    0.011
 6277.00    1.15657   1.29486    0.011
 6278.00    1.16727   1.29641    0.011
 6279.00    1.17900   1.29875    0.011
 6280.00    1.22799   1.30122    0.000
 6281.00    1.27582   1.30415    0.000
 6282.00    1.30393   1.30674    0.000
 6283.00    1.32926   1.30914    0.000
 6284.00    1.32548   1.31066    0.000
 6285.00    1.32152   1.31140    0.000
 6286.00    1.31633   1.31094    0.000
 6287.00    1.31136   1.30944    0.000
 6288.00    1.30769   1.30685    0.000
 6289.00    1.30030   1.30341    0.000
 6290.00    1.27604   1.29935    0.000
 6291.00    1.26059   1.29495    0.000
 6292.00    1.27780   1.29062    0.000
 6293.00    1.29907   1.28655    0.000
 6294.00    1.33293   1.28321    0.000
 6295.00    1.35617   1.28063    0.000
 6296.00    1.35141   1.27925    0.000
 6297.00    1.34388   1.27885    0.000
 6298.00    1.33007   1.27974    0.000
 6299.00    1.31870   1.28142    0.000
 6300.00    1.31211   1.28406    0.000
 6301.00    1.30647   1.28691    0.000
 6302.00    1.30247   1.29002    0.000
 6303.00    1.28637   1.29256    0.000
 6304.00    1.25215   1.29459    0.000
 6305.00    1.22788   1.29547    0.000
 6306.00    1.21670   1.29535    0.000
 6307.00    1.22773   1.29399    0.000
 6308.00    1.26451   1.29172    0.000
 6309.00    1.28355   1.28870    0.000
 6310.00    1.28446   1.28539    0.000
 6311.00    1.27597   1.28217    0.000
 6312.00    1.25902   1.27948    0.000
 6313.00    1.24016   1.27771    0.000
 6314.00    1.21981   1.27708    0.000
 6315.00    1.19691   1.27784    0.000
 6316.00    1.17223   1.27981    0.000
 6317.00    1.17339   1.28313    0.000
 6318.00    1.19038   1.28720    0.000
 6319.00    1.22993   1.29212    0.000
 6320.00    1.28155   1.29701    0.000
 6321.00    1.33250   1.30202    0.010
 6322.00    1.38314   1.30628    0.010
 6323.00    1.37800   1.30998    0.011
 6324.00    1.35051   1.31248    0.011
 6325.00    1.32754   1.31401    0.011
 6326.00    1.30611   1.31427    0.011
 6327.00    1.29538   1.31352    0.011
 6328.00    1.28772   1.31176    0.011
 6329.00    1.26843   1.30938    0.011
 6330.00    1.24638   1.30645    0.011
 6331.00    1.25156   1.30353    0.011
 6332.00    1.26194   1.30063    0.011
 6333.00    1.25054   1.29825    0.011
 6334.00    1.23590   1.29632    0.011
 6335.00    1.21736   1.29514    0.011
 6336.00    1.19839   1.29462    0.011
 6337.00    1.24236   1.29471    0.011
 6338.00    1.29081   1.29546    0.011
 6339.00    1.29390   1.29656    0.011
 6340.00    1.29533   1.29816    0.011
 6341.00    1.27357   1.29981    0.011
 6342.00    1.25236   1.30167    0.011
 6343.00    1.25345   1.30324    0.011
 6344.00    1.25516   1.30452    0.011
 6345.00    1.26663   1.30508    0.011
 6346.00    1.28071   1.30478    0.011
 6347.00    1.32097   1.30335    0.011
 6348.00    1.35529   1.30067    0.011
 6349.00    1.34676   1.29676    0.011
 6350.00    1.33366   1.29165    0.011
 6351.00    1.29529   1.28564    0.011
 6352.00    1.26163   1.27902    0.011
 6353.00    1.24881   1.27227    0.011
 6354.00    1.23358   1.26586    0.011
 6355.00    1.20956   1.26031    0.011
 6356.00    1.18865   1.25606    0.011
 6357.00    1.17721   1.25351    0.011
 6358.00    1.17989   1.25291    0.011
 6359.00    1.21912   1.25436    0.011
 6360.00    1.24823   1.25782    0.011
 6361.00    1.25479   1.26310    0.011
 6362.00    1.24646   1.26981    0.011
 6363.00    1.20940   1.27759    0.011
 6364.00    1.17726   1.28586    0.011
 6365.00    1.15344   1.29426    0.011
 6366.00    1.14534   1.30222    0.011
 6367.00    1.16044   1.30948    0.011
 6368.00    1.18744   1.31566    0.011
 6369.00    1.22989   1.32068    0.011
 6370.00    1.27117   1.32441    0.011
 6371.00    1.31110   1.32694    0.010
 6372.00    1.32175   1.32835    0.011
 6373.00    1.30287   1.32887    0.011
 6374.00    1.26853   1.32869    0.011
 6375.00    1.22045   1.32812    0.011
 6376.00    1.19044   1.32729    0.011
 6377.00    1.17459   1.32650    0.011
 6378.00    1.17797   1.32572    0.011
 6379.00    1.19461   1.32514    0.011
 6380.00    1.19414   1.32455    0.011
 6381.00    1.18334   1.32402    0.011
 6382.00    1.18186   1.32324    0.011
 6383.00    1.18527   1.32228    0.011
 6384.00    1.22014   1.32083    0.011
 6385.00    1.26938   1.31908    0.011
 6386.00    1.28997   1.31680    0.011
 6387.00    1.29929   1.31440    0.011
 6388.00    1.29000   1.31173    0.011
 6389.00    1.27448   1.30928    0.010
 6390.00    1.24983   1.30696    0.010
 6391.00    1.22261   1.30515    0.010
 6392.00    1.18753   1.30386    0.010
 6393.00    1.15062   1.30319    0.010
 6394.00    1.16212   1.30320    0.011
 6395.00    1.18263   1.30372    0.011
 6396.00    1.23554   1.30486    0.011
 6397.00    1.29310   1.30620    0.011
 6398.00    1.31562   1.30789    0.011
 6399.00    1.33448   1.30945    0.011
 6400.00    1.32172   1.31092    0.011
 6401.00    1.30684   1.31199    0.011
 6402.00    1.25971   1.31265    0.011
 6403.00    1.21152   1.31283    0.011
 6404.00    1.20061   1.31256    0.011
 6405.00    1.19042   1.31197    0.011
 6406.00    1.20259   1.31113    0.011
 6407.00    1.21421   1.31023    0.011
 6408.00    1.21760   1.30931    0.011
 6409.00    1.22173   1.30854    0.011
 6410.00    1.23300   1.30786    0.011
 6411.00    1.24230   1.30742    0.011
 6412.00    1.23785   1.30711    0.011
 6413.00    1.23322   1.30709    0.011
 6414.00    1.22764   1.30732    0.010
 6415.00    1.22711   1.30790    0.010
 6416.00    1.24844   1.30888    0.010
 6417.00    1.26147   1.31020    0.011
 6418.00    1.24495   1.31195    0.011
 6419.00    1.23173   1.31378    0.011
 6420.00    1.22839   1.31579    0.011
 6421.00    1.22808   1.31748    0.011
 6422.00    1.23550   1.31894    0.011
 6423.00    1.24250   1.31978    0.011
 6424.00    1.24861   1.32018    0.011
 6425.00    1.25138   1.31999    0.011
 6426.00    1.24781   1.31949    0.011
 6427.00    1.23407   1.31878    0.011
 6428.00    1.20346   1.31808    0.011
 6429.00    1.19009   1.31762    0.011
 6430.00    1.20179   1.31750    0.011
 6431.00    1.21662   1.31788    0.011
 6432.00    1.23544   1.31873    0.011
 6433.00    1.25479   1.32008    0.011
 6434.00    1.27472   1.32184    0.011
 6435.00    1.27457   1.32382    0.011
 6436.00    1.25447   1.32590    0.011
 6437.00    1.24799   1.32775    0.011
 6438.00    1.25343   1.32918    0.011
 6439.00    1.25287   1.32980    0.011
 6440.00    1.24767   1.32955    0.011
 6441.00    1.24213   1.32816    0.011
 6442.00    1.23636   1.32584    0.010
 6443.00    1.23560   1.32261    0.010
 6444.00    1.23781   1.31904    0.010
 6445.00    1.24751   1.31527    0.011
 6446.00    1.26111   1.31208    0.011
 6447.00    1.27146   1.30948    0.011
 6448.00    1.28036   1.30813    0.011
 6449.00    1.28381   1.30771    0.011
 6450.00    1.28516   1.30855    0.011
 6451.00    1.26432   1.31001    0.011
 6452.00    1.23618   1.31211    0.011
 6453.00    1.21746   1.31425    0.011
 6454.00    1.20134   1.31634    0.011
 6455.00    1.19438   1.31802    0.011
 6456.00    1.18950   1.31933    0.011
 6457.00    1.19102   1.32023    0.011
 6458.00    1.19371   1.32083    0.011
 6459.00    1.22326   1.32138    0.011
 6460.00    1.25655   1.32183    0.011
 6461.00    1.26458   1.32257    0.011
 6462.00    1.27009   1.32327    0.011
 6463.00    1.26080   1.32432    0.010
 6464.00    1.25058   1.32514    0.010
 6465.00    1.25249   1.32615    0.010
 6466.00    1.25475   1.32672    0.010
 6467.00    1.25528   1.32722    0.010
 6468.00    1.25598   1.32721    0.010
 6469.00    1.26140   1.32690    0.010
 6470.00    1.26847   1.32615    0.010
 6471.00    1.29894   1.32496    0.011
 6472.00    1.32622   1.32345    0.011
 6473.00    1.32396   1.32146    0.011
 6474.00    1.32397   1.31927    0.011
 6475.00    1.33926   1.31670    0.011
 6476.00    1.35314   1.31405    0.011
 6477.00    1.35953   1.31121    0.011
 6478.00    1.35647   1.30831    0.011
 6479.00    1.31349   1.30526    0.011
 6480.00    1.28135   1.30195    0.011
 6481.00    1.28698   1.29823    0.011
 6482.00    1.29362   1.29374    0.011
 6483.00    1.30319   1.28833    0.011
 6484.00    1.30957   1.28168    0.011
 6485.00    1.30802   1.27378    0.011
 6486.00    1.30953   1.26466    0.010
 6487.00    1.31765   1.25465    0.010
 6488.00    1.32465   1.24431    0.010
 6489.00    1.32959   1.23423    0.010
 6490.00    1.32499   1.22529    0.011
 6491.00    1.30479   1.21815    0.011
 6492.00    1.27292   1.21349    0.011
 6493.00    1.22432   1.21178    0.010
 6494.00    1.19137   1.21300    0.010
 6495.00    1.17813   1.21733    0.010
 6496.00    1.17247   1.22395    0.011
 6497.00    1.17523   1.23277    0.011
 6498.00    1.18170   1.24258    0.011
 6499.00    1.19180   1.25312    0.011
 6500.00    1.19796   1.26335    0.011
 6501.00    1.20073   1.27300    0.011
 6502.00    1.20746   1.28147    0.011
 6503.00    1.21722   1.28860    0.011
 6504.00    1.22395   1.29429    0.011
 6505.00    1.22864   1.29849    0.011
 6506.00    1.23010   1.30141    0.011
 6507.00    1.22966   1.30308    0.011
 6508.00    1.23543   1.30387    0.010
 6509.00    1.24436   1.30385    0.010
 6510.00    1.25681   1.30343    0.010
 6511.00    1.27081   1.30269    0.010
 6512.00    1.27027   1.30201    0.010
 6513.00    1.26421   1.30144    0.010
 6514.00    1.26669   1.30121    0.010
 6515.00    1.27193   1.30136    0.010
 6516.00    1.25816   1.30185    0.010
 6517.00    1.23926   1.30272    0.010
 6518.00    1.24425   1.30370    0.010
 6519.00    1.25454   1.30485    0.011
 6520.00    1.26341   1.30583    0.011
 6521.00    1.27203   1.30674    0.011
 6522.00    1.27057   1.30734    0.011
 6523.00    1.26776   1.30781    0.011
 6524.00    1.26940   1.30804    0.011
 6525.00    1.27146   1.30821    0.011
 6526.00    1.27035   1.30838    0.011
 6527.00    1.26906   1.30864    0.010
 6528.00    1.28155   1.30908    0.000
 6529.00    1.29435   1.30964    0.000
 6530.00    1.30324   1.31035    0.000
 6531.00    1.31119   1.31103    0.000
 6532.00    1.29550   1.31160    0.000
 6533.00    1.28041   1.31186    0.000
 6534.00    1.27332   1.31158    0.000
 6535.00    1.26757   1.31070    0.000
 6536.00    1.27379   1.30899    0.000
 6537.00    1.27954   1.30654    0.000
 6538.00    1.28219   1.30324    0.000
 6539.00    1.28143   1.29931    0.000
 6540.00    1.26325   1.29479    0.000
 6541.00    1.24943   1.28988    0.000
 6542.00    1.25359   1.28475    0.000
 6543.00    1.26537   1.27936    0.000
 6544.00    1.30316   1.27393    0.000
 6545.00    1.33827   1.26817    0.000
 6546.00    1.36564   1.26218    0.000
 6547.00    1.37401   1.25559    0.000
 6548.00    1.33562   1.24836    0.000
 6549.00    1.29626   1.24018    0.000
 6550.00    1.25485   1.23101    0.000
 6551.00    1.22767   1.22075    0.000
 6552.00    1.22670   1.20960    0.000
 6553.00    1.23049   1.19767    0.000
 6554.00    1.24193   1.18561    0.000
 6555.00    1.25457   1.17379    0.000
 6556.00    1.26890   1.16318    0.000
 6557.00    1.29343   1.15431    0.000
 6558.00    1.33061   1.14797    0.000
 6559.00    1.36763   1.14464    0.000
 6560.00    1.40448   1.14453    0.000
 6561.00    1.42509   1.14773    0.000
 6562.00    1.43001   1.15360    0.000
 6563.00    1.38549   1.16191    0.000
 6564.00    1.29885   1.17153    0.000
 6565.00    1.23001   1.18206    0.000
 6566.00    1.17452   1.19248    0.000
 6567.00    1.17170   1.20255    0.000
 6568.00    1.20360   1.21177    0.000
 6569.00    1.21313   1.22016    0.000
 6570.00    1.20975   1.22761    0.000
 6571.00    1.20609   1.23438    0.000
 6572.00    1.20229   1.24042    0.000
 6573.00    1.22054   1.24609    0.000
 6574.00    1.24839   1.25116    0.000
 6575.00    1.26983   1.25601    0.000
 6576.00    1.28887   1.26022    0.000
 6577.00    1.32541   1.26411    0.000
 6578.00    1.36750   1.26724    0.000
 6579.00    1.41249   1.26989    0.000
 6580.00    1.45824   1.27169    0.000
 6581.00    1.46252   1.27279    0.000
 6582.00    1.45783   1.27300    0.000
 6583.00    1.44086   1.27243    0.000
 6584.00    1.42178   1.27104    0.000
 6585.00    1.37516   1.26904    0.000
 6586.00    1.32496   1.26653    0.000
 6587.00    1.27322   1.26388    0.000
 6588.00    1.22133   1.26121    0.000
 6589.00    1.20486   1.25904    0.000
 6590.00    1.19034   1.25734    0.000
 6591.00    1.19494   1.25655    0.000
 6592.00    1.19994   1.25651    0.000
 6593.00    1.20467   1.25731    0.000
 6594.00    1.20865   1.25865    0.000
 6595.00    1.19577   1.26035    0.000
 6596.00    1.18661   1.26212    0.000
 6597.00    1.22466   1.26369    0.000
 6598.00    1.26284   1.26487    0.000
 6599.00    1.30216   1.26555    0.000
 6600.00    1.33328   1.26574    0.000
 6601.00    1.31219   1.26558    0.000
 6602.00    1.29450   1.26519    0.000
 6603.00    1.29372   1.26495    0.000
 6604.00    1.29144   1.26491    0.000
 6605.00    1.28311   1.26548    0.000
 6606.00    1.27541   1.26650    0.000
 6607.00    1.26984   1.26827    0.000
 6608.00    1.26454   1.27048    0.000
 6609.00    1.25998   1.27312    0.011
 6610.00    1.25873   1.27593    0.011
 6611.00    1.26551   1.27856    0.011
 6612.00    1.25913   1.28096    0.011
 6613.00    1.22531   1.28265    0.011
 6614.00    1.19749   1.28382    0.011
 6615.00    1.18054   1.28396    0.011
 6616.00    1.18263   1.28347    0.011
 6617.00    1.21491   1.28199    0.011
 6618.00    1.24326   1.27995    0.010
 6619.00    1.26616   1.27723    0.010
 6620.00    1.26925   1.27409    0.010
 6621.00    1.24805   1.27071    0.010
 6622.00    1.24128   1.26710    0.010
 6623.00    1.25007   1.26365    0.010
 6624.00    1.25661   1.26015    0.010
 6625.00    1.26102   1.25710    0.010
 6626.00    1.25185   1.25418    0.010
 6627.00    1.23127   1.25185    0.010
 6628.00    1.21899   1.24989    0.010
 6629.00    1.21283   1.24854    0.010
 6630.00    1.21086   1.24769    0.010
 6631.00    1.21160   1.24735    0.010
 6632.00    1.20860   1.24750    0.011
 6633.00    1.20348   1.24794    0.011
 6634.00    1.22162   1.24870    0.011
 6635.00    1.25128   1.24948    0.011
 6636.00    1.27832   1.25035    0.011
 6637.00    1.30424   1.25109    0.011
 6638.00    1.30838   1.25178    0.011
 6639.00    1.30453   1.25234    0.011
 6640.00    1.29541   1.25281    0.011
 6641.00    1.28466   1.25324    0.011
 6642.00    1.27737   1.25361    0.011
 6643.00    1.27098   1.25399    0.011
 6644.00    1.26332   1.25429    0.010
 6645.00    1.25539   1.25454    0.010
 6646.00    1.25374   1.25466    0.010
 6647.00    1.25313   1.25457    0.010
 6648.00    1.25190   1.25430    0.010
 6649.00    1.25060   1.25364    0.010
 6650.00    1.24717   1.25272    0.010
 6651.00    1.24354   1.25127    0.011
 6652.00    1.23175   1.24960    0.010
 6653.00    1.21953   1.24739    0.010
 6654.00    1.20992   1.24502    0.010
 6655.00    1.20070   1.24232    0.011
 6656.00    1.21647   1.23966    0.010
 6657.00    1.23222   1.23709    0.010
 6658.00    1.24739   1.23478    0.010
 6659.00    1.26067   1.23303    0.011
 6660.00    1.25101   1.23177    0.011
 6661.00    1.24197   1.23132    0.011
 6662.00    1.23805   1.23138    0.011
 6663.00    1.23466   1.23218    0.011
 6664.00    1.23458   1.23328    0.011
 6665.00    1.23245   1.23467    0.011
 6666.00    1.22033   1.23594    0.010
 6667.00    1.20944   1.23698    0.010
 6668.00    1.20337   1.23754    0.010
 6669.00    1.20496   1.23755    0.010
 6670.00    1.23173   1.23701    0.010
 6671.00    1.24960   1.23599    0.010
 6672.00    1.24277   1.23476    0.010
 6673.00    1.23378   1.23340    0.010
 6674.00    1.21963   1.23228    0.010
 6675.00    1.20304   1.23147    0.010
 6676.00    1.18145   1.23127    0.010
 6677.00    1.17185   1.23161    0.010
 6678.00    1.18369   1.23253    0.011
 6679.00    1.19490   1.23390    0.011
 6680.00    1.20515   1.23547    0.011
 6681.00    1.19828   1.23724    0.011
 6682.00    1.16795   1.23874    0.010
 6683.00    1.14680   1.24009    0.010
 6684.00    1.13674   1.24088    0.011
 6685.00    1.14206   1.24126    0.011
 6686.00    1.16374   1.24106    0.011
 6687.00    1.17635   1.24040    0.011
 6688.00    1.18046   1.23929    0.010
 6689.00    1.18278   1.23781    0.010
 6690.00    1.18362   1.23626    0.010
 6691.00    1.18762   1.23456    0.010
 6692.00    1.19392   1.23308    0.010
 6693.00    1.19061   1.23164    0.010
 6694.00    1.18115   1.23060    0.010
 6695.00    1.17949   1.22970    0.010
 6696.00    1.18218   1.22914    0.000
 6697.00    1.19937   1.22872    0.000
 6698.00    1.22362   1.22841    0.000
 6699.00    1.22173   1.22810    0.000
 6700.00    1.20883   1.22763    0.000
 6701.00    1.18727   1.22696    0.000
 6702.00    1.16259   1.22593    0.000
 6703.00    1.15680   1.22449    0.000
 6704.00    1.15676   1.22264    0.000
 6705.00    1.17901   1.22031    0.000
 6706.00    1.20691   1.21760    0.000
 6707.00    1.18241   1.21449    0.000
 6708.00    1.14712   1.21123    0.000
 6709.00    1.14407   1.20800    0.000
 6710.00    1.14625   1.20491    0.000
 6711.00    1.21882   1.20239    0.000
 6712.00    1.29991   1.20027    0.000
 6713.00    1.33301   1.19915    0.000
 6714.00    1.36214   1.19864    0.000
 6715.00    1.33448   1.19916    0.000
 6716.00    1.30413   1.20033    0.000
 6717.00    1.26701   1.20221    0.000
 6718.00    1.23024   1.20459    0.000
 6719.00    1.21834   1.20712    0.000
 6720.00    1.20636   1.20996    0.000
 6721.00    1.19295   1.21246    0.000
 6722.00    1.18401   1.21509    0.000
 6723.00    1.22624   1.21708    0.000
 6724.00    1.26894   1.21905    0.000
 6725.00    1.31527   1.22026    0.000
 6726.00    1.35252   1.22130    0.000
 6727.00    1.33520   1.22167    0.000
 6728.00    1.31652   1.22172    0.000
 6729.00    1.29142   1.22126    0.000
 6730.00    1.27109   1.22038    0.000
 6731.00    1.26921   1.21920    0.000
 6732.00    1.26941   1.21758    0.000
 6733.00    1.27636   1.21594    0.000
 6734.00    1.27271   1.21387    0.000
 6735.00    1.24018   1.21199    0.000
 6736.00    1.20992   1.20981    0.000
 6737.00    1.18499   1.20796    0.000
 6738.00    1.17335   1.20595    0.000
 6739.00    1.18856   1.20431    0.000
 6740.00    1.20038   1.20274    0.000
 6741.00    1.20623   1.20142    0.000
 6742.00    1.20208   1.20043    0.000
 6743.00    1.18254   1.19960    0.000
 6744.00    1.15702   1.19942    0.000
 6745.00    1.12340   1.19937    0.000
 6746.00    1.10702   1.20022    0.000
 6747.00    1.11115   1.20117    0.000
 6748.00    1.12663   1.20302    0.000
 6749.00    1.15401   1.20511    0.000
 6750.00    1.16617   1.20780    0.000
 6751.00    1.16423   1.21073    0.000
 6752.00    1.16458   1.21366    0.000
 6753.00    1.16681   1.21676    0.011
 6754.00    1.17559   1.21926    0.011
 6755.00    1.18908   1.22166    0.012
 6756.00    1.20223   1.22313    0.012
 6757.00    1.21516   1.22431    0.012
 6758.00    1.19923   1.22444    0.012
 6759.00    1.16740   1.22419    0.012
 6760.00    1.18918   1.22333    0.012
 6761.00    1.23665   1.22220    0.012
 6762.00    1.30078   1.22099    0.013
 6763.00    1.37180   1.21982    0.013
 6764.00    1.41797   1.21904    0.013
 6765.00    1.45535   1.21859    0.013
 6766.00    1.49730   1.21882    0.013
 6767.00    1.54062   1.21948    0.013
 6768.00    1.57335   1.22071    0.013
 6769.00    1.60345   1.22217    0.013
 6770.00    1.56913   1.22372    0.012
 6771.00    1.52188   1.22510    0.012
 6772.00    1.47481   1.22605    0.012
 6773.00    1.42777   1.22655    0.011
 6774.00    1.36515   1.22632    0.011
 6775.00    1.30072   1.22539    0.011
 6776.00    1.28143   1.22375    0.011
 6777.00    1.26571   1.22151    0.011
 6778.00    1.31824   1.21901    0.011
 6779.00    1.37375   1.21626    0.012
 6780.00    1.33461   1.21374    0.012
 6781.00    1.29408   1.21124    0.012
 6782.00    1.23494   1.20941    0.012
 6783.00    1.17913   1.20791    0.012
 6784.00    1.18382   1.20709    0.012
 6785.00    1.19039   1.20669    0.012
 6786.00    1.21753   1.20668    0.012
 6787.00    1.24003   1.20703    0.012
 6788.00    1.22687   1.20753    0.012
 6789.00    1.22151   1.20832    0.012
 6790.00    1.26158   1.20913    0.012
 6791.00    1.29680   1.21007    0.012
 6792.00    1.30963   1.21093    0.012
 6793.00    1.32099   1.21188    0.012
 6794.00    1.32686   1.21275    0.012
 6795.00    1.32427   1.21352    0.012
 6796.00    1.29493   1.21435    0.011
 6797.00    1.27049   1.21497    0.011
 6798.00    1.25915   1.21547    0.011
 6799.00    1.24580   1.21579    0.011
 6800.00    1.22783   1.21598    0.011
 6801.00    1.21685   1.21600    0.011
 6802.00    1.21978   1.21582    0.011
 6803.00    1.20151   1.21555    0.011
 6804.00    1.14653   1.21521    0.011
 6805.00    1.11167   1.21491    0.011
 6806.00    1.10732   1.21468    0.011
 6807.00    1.12317   1.21453    0.011
 6808.00    1.16594   1.21451    0.011
 6809.00    1.18521   1.21465    0.011
 6810.00    1.17690   1.21501    0.011
 6811.00    1.17400   1.21563    0.011
 6812.00    1.17670   1.21635    0.011
 6813.00    1.19905   1.21732    0.012
 6814.00    1.23934   1.21832    0.012
 6815.00    1.26439   1.21945    0.012
 6816.00    1.27718   1.22042    0.012
 6817.00    1.27006   1.22151    0.011
 6818.00    1.24884   1.22224    0.011
 6819.00    1.27246   1.22302    0.011
 6820.00    1.32393   1.22347    0.011
 6821.00    1.32902   1.22384    0.011
 6822.00    1.30894   1.22391    0.011
 6823.00    1.29937   1.22376    0.011
 6824.00    1.29475   1.22344    0.011
 6825.00    1.28781   1.22290    0.011
 6826.00    1.27992   1.22227    0.011
 6827.00    1.26525   1.22119    0.011
 6828.00    1.24822   1.22006    0.011
 6829.00    1.25907   1.21825    0.012
 6830.00    1.27808   1.21642    0.012
 6831.00    1.26539   1.21397    0.012
 6832.00    1.24503   1.21158    0.012
 6833.00    1.23141   1.20890    0.012
 6834.00    1.21910   1.20643    0.011
 6835.00    1.21893   1.20412    0.011
 6836.00    1.22060   1.20210    0.011
 6837.00    1.27507   1.20066    0.011
 6838.00    1.33546   1.19971    0.012
 6839.00    1.32213   1.19954    0.012
 6840.00    1.30329   1.19977    0.012
 6841.00    1.23714   1.20061    0.012
 6842.00    1.16912   1.20154    0.012
 6843.00    1.18024   1.20262    0.011
 6844.00    1.19398   1.20345    0.011
 6845.00    1.29002   1.20380    0.011
 6846.00    1.37506   1.20386    0.011
 6847.00    1.27450   1.20337    0.011
 6848.00    1.18125   1.20234    0.011
 6849.00    1.16452   1.20088    0.011
 6850.00    1.15596   1.19902    0.011
 6851.00    1.20817   1.19695    0.011
 6852.00    1.25388   1.19491    0.011
 6853.00    1.26274   1.19326    0.011
 6854.00    1.26371   1.19192    0.011
 6855.00    1.22907   1.19082    0.011
 6856.00    1.19528   1.19014    0.011
 6857.00    1.16465   1.18965    0.011
 6858.00    1.13739   1.18947    0.011
 6859.00    1.12054   1.18954    0.011
 6860.00    1.11796   1.18998    0.011
 6861.00    1.15289   1.19021    0.011
 6862.00    1.18513   1.19053    0.011
 6863.00    1.21129   1.19076    0.011
 6864.00    1.23727   1.19108    0.011
 6865.00    1.26288   1.19136    0.011
 6866.00    1.28943   1.19176    0.011
 6867.00    1.31756   1.19235    0.011
 6868.00    1.32131   1.19311    0.012
 6869.00    1.28865   1.19390    0.012
 6870.00    1.23960   1.19480    0.012
 6871.00    1.16903   1.19573    0.011
 6872.00    1.13242   1.19670    0.011
 6873.00    1.13510   1.19782    0.011
 6874.00    1.14676   1.19898    0.011
 6875.00    1.16756   1.20024    0.011
 6876.00    1.18074   1.20124    0.011
 6877.00    1.18706   1.20262    0.011
 6878.00    1.18927   1.20399    0.011
 6879.00    1.18823   1.20569    0.011
 6880.00    1.18840   1.20746    0.011
 6881.00    1.18943   1.20963    0.010
 6882.00    1.19075   1.21179    0.011
 6883.00    1.19225   1.21406    0.011
 6884.00    1.19279   1.21649    0.011
 6885.00    1.19282   1.21861    0.011
 6886.00    1.20078   1.22080    0.011
 6887.00    1.21243   1.22259    0.011
 6888.00    1.22063   1.22438    0.011
 6889.00    1.22745   1.22555    0.011
 6890.00    1.20322   1.22654    0.011
 6891.00    1.16840   1.22722    0.011
 6892.00    1.18037   1.22786    0.011
 6893.00    1.20577   1.22830    0.011
 6894.00    1.21733   1.22877    0.011
 6895.00    1.22562   1.22919    0.011
 6896.00    1.22479   1.22965    0.011
 6897.00    1.22223   1.23038    0.011
 6898.00    1.23706   1.23089    0.011
 6899.00    1.25447   1.23166    0.011
 6900.00    1.21123   1.23210    0.011
 6901.00    1.16144   1.23264    0.011
 6902.00    1.16261   1.23263    0.011
 6903.00    1.16738   1.23253    0.011
 6904.00    1.20131   1.23183    0.011
 6905.00    1.23628   1.23111    0.011
 6906.00    1.20970   1.23001    0.011
 6907.00    1.18211   1.22858    0.011
 6908.00    1.12673   1.22736    0.011
 6909.00    1.07619   1.22571    0.011
 6910.00    1.10238   1.22467    0.011
 6911.00    1.12630   1.22331    0.011
 6912.00    1.12754   1.22250    0.011
 6913.00    1.12892   1.22156    0.011
 6914.00    1.13138   1.22076    0.011
 6915.00    1.13754   1.22007    0.011
 6916.00    1.16414   1.21924    0.011
 6917.00    1.18658   1.21872    0.011
 6918.00    1.19064   1.21797    0.011
 6919.00    1.19487   1.21760    0.011
 6920.00    1.19970   1.21691    0.011
 6921.00    1.20068   1.21642    0.011
 6922.00    1.18994   1.21599    0.011
 6923.00    1.18337   1.21548    0.011
 6924.00    1.18758   1.21542    0.011
 6925.00    1.19005   1.21530    0.011
 6926.00    1.18865   1.21561    0.011
 6927.00    1.19141   1.21606    0.011
 6928.00    1.20217   1.21660    0.011
 6929.00    1.21421   1.21746    0.011
 6930.00    1.22840   1.21820    0.011
 6931.00    1.22360   1.21921    0.011
 6932.00    1.19084   1.21977    0.011
 6933.00    1.18856   1.22035    0.011
 6934.00    1.22576   1.22044    0.011
 6935.00    1.23757   1.22025    0.011
 6936.00    1.22039   1.21988    0.011
 6937.00    1.20392   1.21920    0.011
 6938.00    1.18815   1.21868    0.011
 6939.00    1.19698   1.21791    0.011
 6940.00    1.22765   1.21710    0.011
 6941.00    1.20436   1.21615    0.011
 6942.00    1.13888   1.21540    0.011
 6943.00    1.12719   1.21461    0.011
 6944.00    1.15251   1.21409    0.011
 6945.00    1.17391   1.21382    0.011
 6946.00    1.19296   1.21373    0.011
 6947.00    1.21254   1.21409    0.011
 6948.00    1.23240   1.21469    0.012
 6949.00    1.21889   1.21581    0.011
 6950.00    1.19015   1.21702    0.011
 6951.00    1.20475   1.21868    0.011
 6952.00    1.23637   1.22027    0.012
 6953.00    1.27039   1.22231    0.012
 6954.00    1.30521   1.22423    0.012
 6955.00    1.31568   1.22631    0.011
 6956.00    1.31932   1.22846    0.011
 6957.00    1.30019   1.23034    0.011
 6958.00    1.27578   1.23216    0.011
 6959.00    1.26696   1.23371    0.011
 6960.00    1.26103   1.23516    0.011
 6961.00    1.24593   1.23579    0.011
 6962.00    1.22951   1.23618    0.011
 6963.00    1.20457   1.23580    0.011
 6964.00    1.17874   1.23509    0.011
 6965.00    1.17653   1.23393    0.011
 6966.00    1.17590   1.23191    0.011
 6967.00    1.16743   1.22940    0.011
 6968.00    1.15871   1.22616    0.011
 6969.00    1.11640   1.22277    0.012
 6970.00    1.07680   1.21901    0.012
 6971.00    1.12048   1.21563    0.012
 6972.00    1.16367   1.21303    0.012
 6973.00    1.19949   1.21099    0.012
 6974.00    1.22362   1.20980    0.012
 6975.00    1.13546   1.20952    0.012
 6976.00    1.05908   1.21038    0.012
 6977.00    1.06468   1.21191    0.011
 6978.00    1.07675   1.21416    0.011
 6979.00    1.12356   1.21696    0.011
 6980.00    1.16719   1.22005    0.011
 6981.00    1.19716   1.22302    0.011
 6982.00    1.22303   1.22591    0.011
 6983.00    1.23430   1.22896    0.011
 6984.00    1.24294   1.23140    0.011
 6985.00    1.24372   1.23315    0.011
 6986.00    1.24538   1.23412    0.012
 6987.00    1.24925   1.23456    0.012
 6988.00    1.24183   1.23459    0.012
 6989.00    1.20974   1.23416    0.012
 6990.00    1.18971   1.23336    0.012
 6991.00    1.19259   1.23199    0.012
 6992.00    1.20124   1.23032    0.012
 6993.00    1.21944   1.22880    0.012
 6994.00    1.21614   1.22735    0.012
 6995.00    1.18163   1.22581    0.012
 6996.00    1.14421   1.22384    0.012
 6997.00    1.10305   1.22217    0.011
 6998.00    1.09447   1.22055    0.011
 6999.00    1.12253   1.21945    0.011
 7000.00    1.14641   1.21845    0.011
 7001.00    1.16616   1.21770    0.011
 7002.00    1.16677   1.21706    0.011
 7003.00    1.15066   1.21617    0.011
 7004.00    1.14666   1.21580    0.011
 7005.00    1.15200   1.21538    0.012
 7006.00    1.13857   1.21487    0.012
 7007.00    1.11242   1.21373    0.012
 7008.00    1.09321   1.21228    0.012
 7009.00    1.07813   1.21129    0.013
 7010.00    1.08462   1.21107    0.013
 7011.00    1.10227   1.21073    0.013
 7012.00    1.10664   1.21058    0.013
 7013.00    1.10506   1.21053    0.013
 7014.00    1.13044   1.21063    0.013
 7015.00    1.16623   1.21067    0.012
 7016.00    1.15558   1.21112    0.012
 7017.00    1.12969   1.21188    0.012
 7018.00    1.10199   1.21301    0.012
 7019.00    1.07378   1.21401    0.012
 7020.00    1.15162   1.21537    0.012
 7021.00    1.25343   1.21716    0.012
 7022.00    1.27810   1.21884    0.012
 7023.00    1.28882   1.22039    0.012
 7024.00    1.29404   1.22182    0.012
 7025.00    1.29849   1.22333    0.012
 7026.00    1.29040   1.22476    0.012
 7027.00    1.28106   1.22636    0.012
 7028.00    1.26233   1.22823    0.012
 7029.00    1.24301   1.23020    0.013
 7030.00    1.22475   1.23149    0.013
 7031.00    1.20665   1.23329    0.013
 7032.00    1.22070   1.23570    0.013
 7033.00    1.23309   1.23836    0.013
 7034.00    1.19994   1.24127    0.013
 7035.00    1.17243   1.24411    0.012
 7036.00    1.22423   1.24705    0.012
 7037.00    1.27045   1.24955    0.012
 7038.00    1.26531   1.25232    0.012
 7039.00    1.25381   1.25455    0.012
 7040.00    1.19945   1.25630    0.012
 7041.00    1.15515   1.25694    0.012
 7042.00    1.16345   1.25645    0.012
 7043.00    1.17928   1.25539    0.012
 7044.00    1.22677   1.25231    0.012
 7045.00    1.27228   1.24788    0.012
 7046.00    1.31090   1.24222    0.012
 7047.00    1.34878   1.23560    0.013
 7048.00    1.38451   1.22860    0.013
 7049.00    1.37651   1.22122    0.013
 7050.00    1.25934   1.21398   -2.000
 7051.00    1.18965   1.20626   -2.000
 7052.00    1.22207   1.19881   -2.000
 7053.00    1.23400   1.19178   -2.000
 7054.00    1.20768   1.18556   -2.000
 7055.00    1.21624   1.17997   -2.000
 7056.00    1.28172   1.17531   -2.000
 7057.00    1.32793   1.17162   -2.000
 7058.00    1.34658   1.16852   -2.000
 7059.00    1.35676   1.16628   -2.000
 7060.00    1.35629   1.16434   -2.000
 7061.00    1.33388   1.16329   -2.000
 7062.00    1.28716   1.16288   -2.000
 7063.00    1.26236   1.16338   -2.000
 7064.00    1.25900   1.16450   -2.000
 7065.00    1.26412   1.16637   -2.000
 7066.00    1.27655   1.16840   -2.000
 7067.00    1.28724   1.17054   -2.000
 7068.00    1.29661   1.17303   -2.000
 7069.00    1.26456   1.17497   -2.000
 7070.00    1.20485   1.17696   -2.000
 7071.00    1.25874   1.17821   -2.000
 7072.00    1.37906   1.17907   -2.000
 7073.00    1.39289   1.17922   -2.000
 7074.00    1.35243   1.17807   -2.000
 7075.00    1.35564   1.17564   -2.000
 7076.00    1.37813   1.17167   -2.000
 7077.00    1.34742   1.16696   -2.000
 7078.00    1.29653   1.16155   -2.000
 7079.00    1.23189   1.15544   -2.000
 7080.00    1.16281   1.14918   -2.000
 7081.00    1.18163   1.14269   -2.000
 7082.00    1.22412   1.13625   -2.000
 7083.00    1.25201   1.13013   -2.000
 7084.00    1.27668   1.12494   -2.000
 7085.00    1.28744   1.11994   -2.000
 7086.00    1.29575   1.11632   -2.000
 7087.00    1.28593   1.11315   -2.000
 7088.00    1.27369   1.11131   -2.000
 7089.00    1.29198   1.11064   -2.000
 7090.00    1.31318   1.11033   -2.000
 7091.00    1.25880   1.11119   -2.000
 7092.00    1.19999   1.11178   -2.000
 7093.00    1.18470   1.11376   -2.000
 7094.00    1.17116   1.11485   -2.000
 7095.00    1.24951   1.11689   -2.000
 7096.00    1.32300   1.11828   -2.000
 7097.00    1.27561   1.11986   -2.000
 7098.00    1.22842   1.12131   -2.000
 7099.00    1.18401   1.12217   -2.000
 7100.00    1.13852   1.12308   -2.000
 7101.00    1.08357   1.12331   -2.000
 7102.00    1.04940   1.12366   -2.000
 7103.00    1.15100   1.12354   -2.000
 7104.00    1.22974   1.12337   -2.000
 7105.00    1.19201   1.12302   -2.000
 7106.00    1.17079   1.12307   -2.000
 7107.00    1.21753   1.12312   -2.000
 7108.00    1.23120   1.12359   -2.000
 7109.00    1.13211   1.12355   -2.000
 7110.00    1.08463   1.12368   -2.000
 7111.00    1.18546   1.12376   -2.000
 7112.00    1.25260   1.12362   -2.000
 7113.00    1.23704   1.12349   -2.000
 7114.00    1.20960   1.12238   -2.000
 7115.00    1.15700   1.12168   -2.000
 7116.00    1.13464   1.12021   -2.000
 7117.00    1.16786   1.11850   -2.000
 7118.00    1.16742   1.11638   -2.000
 7119.00    1.11287   1.11355   -2.000
 7120.00    1.10809   1.11100   -2.000
 7121.00    1.17349   1.10786   -2.000
 7122.00    1.16883   1.10542   -2.000
 7123.00    1.07726   1.10264   -2.000
 7124.00    1.07336   1.10065   -2.000
 7125.00    1.16529   1.09884   -2.000
 7126.00    1.19643   1.09822   -2.000
 7127.00    1.16892   1.09826   -2.000
 7128.00    1.16145   1.09858   -2.000
 7129.00    1.17102   1.09974   -2.000
 7130.00    1.19467   1.10086   -2.000
 7131.00    1.22887   1.10289   -2.000
 7132.00    1.27287   1.10456   -2.000
 7133.00    1.32332   1.10639   -2.000
 7134.00    1.25459   1.10794   -2.000
 7135.00    1.11721   1.10994   -2.000
 7136.00    1.15822   1.11148   -2.000
 7137.00    1.28875   1.11229   -2.000
 7138.00    1.30071   1.11317   -2.000
 7139.00    1.26118   1.11333   -2.000
 7140.00    1.26866   1.11346   -2.000
 7141.00    1.29364   1.11368   -2.000
 7142.00    1.23611   1.11350   -2.000
 7143.00    1.15251   1.11406   -2.000
 7144.00    1.10275   1.11526   -2.000
 7145.00    1.06191   1.11654   -2.000
 7146.00    1.04568   1.11805   -2.000
 7147.00    1.03475   1.11989   -2.000
 7148.00    1.10265   1.12164   -2.000
 7149.00    1.18401   1.12342   -2.000
 7150.00    1.17744   1.12484   -2.000
 7151.00    1.15948   1.12666   -2.000
 7152.00    1.23980   1.12757   -2.000
 7153.00    1.32903   1.12827   -2.000
 7154.00    1.30202   1.12848   -2.000
 7155.00    1.26865   1.12768   -2.000
 7156.00    1.17526   1.12752   -2.000
 7157.00    1.08048   1.12555   -2.000
 7158.00    0.97287   1.12444   -2.000
 7159.00    0.88033   1.12261   -2.000
 7160.00    1.13002   1.12238   -2.000
 7161.00    1.36567   1.12222   -2.000
 7162.00    1.42450   1.12210   -2.000
 7163.00    1.47093   1.12278   -2.000
 7164.00    1.41163   1.12310   -2.000
 7165.00    1.34461   1.12454   -2.000
 7166.00    1.22869   1.12540   -2.000
 7167.00    1.14387   1.12658   -2.000
 7168.00    1.21343   1.12725   -2.000
 7169.00    1.27914   1.12803   -2.000
 7170.00    1.32935   1.12830   -2.000
 7171.00    1.35861   1.12803   -2.000
 7172.00    1.31781   1.12754   -2.000
 7173.00    1.26965   1.12612   -2.000
 7174.00    1.20069   1.12429   -2.000
 7175.00    1.16386   1.12240   -2.000
 7176.00    1.20454   1.12062   -2.000
 7177.00    1.23935   1.11918   -2.000
 7178.00    1.26194   1.11743   -2.000
 7179.00    1.26977   1.11532   -2.000
 7180.00    1.25087   1.11353   -2.000
 7181.00    1.21248   1.11148   -2.000
 7182.00    1.14324   1.10966   -2.000
 7183.00    1.09070   1.10846   -2.000
 7184.00    1.06134   1.10753   -2.000
 7185.00    1.04164   1.10758   -2.000
 7186.00    1.03375   1.10738   -2.000
 7187.00    1.10067   1.10745   -2.000
 7188.00    1.24824   1.10764   -2.000
 7189.00    1.31050   1.10841   -2.000
 7190.00    1.29165   1.10952   -2.000
 7191.00    1.26325   1.11003   -2.000
 7192.00    1.22684   1.11145   -2.000
 7193.00    1.16354   1.11269   -2.000
 7194.00    1.08040   1.11374   -2.000
 7195.00    1.03757   1.11456   -2.000
 7196.00    1.02086   1.11481   -2.000
 7197.00    0.97421   1.11544   -2.000
 7198.00    0.91057   1.11586   -2.000
 7199.00    0.96515   1.11574   -2.000
 7200.00    1.07812   1.11532   -2.000
 7201.00    1.26448   1.11412   -2.000
 7202.00    1.48216   1.11408   -2.000
 7203.00    1.40735   1.11447   -2.000
 7204.00    1.22550   1.11490   -2.000
 7205.00    1.06287   1.11630   -2.000
 7206.00    0.90619   1.11707   -2.000
 7207.00    0.98491   1.11845   -2.000
 7208.00    1.12439   1.11951   -2.000
 7209.00    1.09654   1.12130   -2.000
 7210.00    1.03348   1.12334   -2.000
 7211.00    1.06359   1.12568   -2.000
 7212.00    1.10918   1.12897   -2.000
 7213.00    1.12447   1.13110   -2.000
 7214.00    1.13598   1.13352   -2.000
 7215.00    1.14468   1.13547   -2.000
 7216.00    1.15314   1.13758   -2.000
 7217.00    1.15183   1.13982   -2.000
 7218.00    1.15002   1.14200   -2.000
