###################################################################
## OUTPUT of StarlightChains_v04.for    [Cid@UFSC - 01/Apr/2007] ##
###################################################################

## Some input info
KUG0210-078._23_40.txt                   [arq_obs]
Base.CB07.vall.4m                        [arq_base]
Masks.EmLines.NEW.gm                     [arq_masks]
StCv04.C11.config                        [arq_config]
   66                                    [N_base]
    0                                    [N_YAV_components = # of components with extra extinction!]
    0                                    [i_FitPowerLaw (1/0 = Yes/No)]
-9.99                                    [alpha_PowerLaw]
CCM                                      [red_law_option]
 1.458241                                [q_norm = A(l_norm)/A(V)]

## (Re)Sampling Parameters
 3741.00                                 [l_ini (A)]
 7218.00                                 [l_fin (A)]
    1.00                                 [dl    (A)]     (OBS: dl_cushion =    50.00 A)

## Normalization info
 4020.00                                 [l_norm (A) - for base]
 4010.00                                 [llow_norm (A) - window for f_obs]
 4060.00                                 [lupp_norm (A) - window for f_obs]
8.008553E-18                             [fobs_norm (in input units)]

## S/N
 3691.00                                 [llow_SN (A) - window for S/N]
 7268.00                                 [lupp_SN (A) - window for S/N]
   2.426                                 [S/N in S/N window]
   3.548                                 [S/N in norm. window]
   0.006                                 [S/N_err in S/N window]
   0.009                                 [S/N_err in norm. window]
  1.0000                                 [fscale_chi2]

## etc...
    -2007270                             [idum_orig]
  2349                                   [NOl_eff]
  2276                                   [Nl_eff]
    73    NSIGMA                         [Ntot_cliped & clip_method]
  1077300                                [Nglobal_steps]
   7                                     [N_chains]
  41                                     [NEX0s_base = N_base in EX0s-fits]
 0   0   1       73   2.0   2.981E+03    [Clip-Bug, RC-Crash & Burn-In warning-flags, n_censored_weights, wei_nsig_threshold & wei_limit]
    28     27.415     26.718      0.697  [idt_all, wdt_TotTime, wdt_UsrTime & wdt_SysTime (sec)]

## Synthesis Results - Best model ##

 2.10798E-05                             [chi2/Nl_eff]
    50.59403                             [adev (%)]

    92.18800                             [sum-of-x (%)]
 7.13289E-18                             [Flux_tot (units of input spectrum!)]
 1.38195E-13                             [Mini_tot (???)]
 7.01976E-14                             [Mcor_tot (???)]

 -95.65                                  [v0_min  (km/s)]
 434.57                                  [vd_min  (km/s)]
-0.0257                                  [AV_min  (mag)]
 0.0000                                  [YAV_min (mag)]

# j     x_j(%)      Mini_j(%)     Mcor_j(%)     age_j(yr)     Z_j      (L/M)_j    YAV?  Mstars   component_j        a/Fe...       SSP_chi2r SSP_adev(%)   SSP_AV   SSP_x(%)
  1      0.0000     0.0000E+00    0.0000E+00    1.000000E+06  0.00400  1.094E-02    0   1.0000   age020_m42            0.0000     2.1963E-05    52.4858   2.2121    80.9018
  2      0.0000     0.0000E+00    0.0000E+00    3.160000E+06  0.00400  4.007E-02    0   0.9999   age045_m42            0.0000     2.2364E-05    57.8925   1.2255    92.6699
  3      0.0000     0.0000E+00    0.0000E+00    5.010000E+06  0.00400  2.539E-02    0   0.9488   age055_m42            0.0000     2.2000E-05    55.5808   1.6520    88.0379
  4      0.0000     0.0000E+00    0.0000E+00    6.610000E+06  0.00400  2.620E-02    0   0.9220   age061_m42            0.0000     2.2526E-05    58.5720   1.1108    93.9907
  5      0.5490     2.3249E-03    4.0561E-03    1.000000E+07  0.00400  1.322E-02    0   0.8862   age070_m42            0.0000     2.2015E-05    55.7804   0.9559    93.2568
  6      0.0000     0.0000E+00    0.0000E+00    1.445000E+07  0.00400  7.883E-03    0   0.8571   age078_m42            0.0000     2.1815E-05    54.3663   1.3556    89.1446
  7      0.2495     2.6601E-03    4.2806E-03    2.512000E+07  0.00400  5.251E-03    0   0.8174   age090_m42            0.0000     2.2018E-05    55.6309   0.8341    93.6423
  8      0.0000     0.0000E+00    0.0000E+00    4.000000E+07  0.00400  3.649E-03    0   0.7851   age104_m42            0.0000     2.2285E-05    56.8053   0.5521    95.7780
  9      0.0000     0.0000E+00    0.0000E+00    5.500000E+07  0.00400  3.098E-03    0   0.7629   age110_m42            0.0000     2.2987E-05    59.4561   0.5783    98.5498
 10      0.0000     0.0000E+00    0.0000E+00    1.015200E+08  0.00400  2.228E-03    0   0.7207   age116_m42            0.0000     2.3752E-05    61.7128   0.4841   101.3238
 11      0.0000     0.0000E+00    0.0000E+00    2.861200E+08  0.00400  1.093E-03    0   0.6648   age125_m42            0.0000     2.4473E-05    62.9068  -0.1491   105.8218
 12      0.8008     6.7960E-02    8.5157E-02    5.088000E+08  0.00400  6.597E-04    0   0.6365   age130_m42            0.0000     2.5989E-05    66.2485  -0.3332   110.4857
 13      0.0000     0.0000E+00    0.0000E+00    1.434000E+09  0.00400  2.132E-04    0   0.5798   age139_m42            0.0000     2.6639E-05    62.5965  -1.0000   110.7732
 14      0.0000     0.0000E+00    0.0000E+00    4.250000E+09  0.00400  5.895E-05    0   0.5377   age158_m42            0.0000     2.5961E-05    58.2168  -1.0000   100.8516
 15      0.0000     0.0000E+00    0.0000E+00    7.500000E+09  0.00400  3.510E-05    0   0.5212   age171_m42            0.0000     2.7552E-05    58.7492  -1.0000    98.2217
 16      0.0000     0.0000E+00    0.0000E+00    1.300000E+10  0.00400  2.005E-05    0   0.5034   age193_m42            0.0000     2.9500E-05    60.3724  -1.0000    95.6324
 17      0.0000     0.0000E+00    0.0000E+00    1.800000E+10  0.00400  1.525E-05    0   0.4967   age213_m42            0.0000     2.9309E-05    60.3989  -1.0000    94.6834
 18      0.0000     0.0000E+00    0.0000E+00    1.000000E+06  0.00800  1.238E-02    0   1.0000   age020_m52            0.0000     2.1960E-05    52.4348   2.2121    80.9791
 19      0.0000     0.0000E+00    0.0000E+00    3.160000E+06  0.00800  3.074E-02    0   0.9966   age045_m52            0.0000     2.1924E-05    52.7814   2.1190    82.0570
 20      0.0000     0.0000E+00    0.0000E+00    5.010000E+06  0.00800  2.668E-02    0   0.9443   age055_m52            0.0000     2.1910E-05    54.6548   1.7791    86.2082
 21      0.0000     0.0000E+00    0.0000E+00    6.610000E+06  0.00800  2.136E-02    0   0.9177   age061_m52            0.0000     2.1685E-05    54.9641   0.4937    93.3741
 22      0.0000     0.0000E+00    0.0000E+00    1.000000E+07  0.00800  1.215E-02    0   0.8827   age070_m52            0.0000     2.1711E-05    54.0102   1.2209    91.0782
 23      0.0000     0.0000E+00    0.0000E+00    1.445000E+07  0.00800  8.717E-03    0   0.8552   age078_m52            0.0000     2.1834E-05    54.6832   1.3045    90.7744
 24      0.0000     0.0000E+00    0.0000E+00    2.512000E+07  0.00800  5.592E-03    0   0.8162   age090_m52            0.0000     2.2068E-05    55.6683   0.8966    94.8113
 25      0.0000     0.0000E+00    0.0000E+00    4.000000E+07  0.00800  3.896E-03    0   0.7841   age104_m52            0.0000     2.2473E-05    57.4337   0.7272    97.4095
 26      0.0000     0.0000E+00    0.0000E+00    1.015200E+08  0.00800  2.148E-03    0   0.7226   age116_m52            0.0000     2.3253E-05    60.4348   0.5166   100.6755
 27      0.0000     0.0000E+00    0.0000E+00    2.861200E+08  0.00800  9.925E-04    0   0.6683   age125_m52            0.0000     2.6161E-05    66.3033  -0.2729   111.5801
 28      0.0000     0.0000E+00    0.0000E+00    9.047900E+08  0.00800  3.141E-04    0   0.6138   age135_m52            0.0000     2.7617E-05    66.5354  -1.0000   117.4403
 29      0.0000     0.0000E+00    0.0000E+00    1.434000E+09  0.00800  1.719E-04    0   0.5853   age139_m52            0.0000     2.6886E-05    59.2251  -1.0000   107.6674
 30      0.0000     0.0000E+00    0.0000E+00    2.500000E+09  0.00800  7.872E-05    0   0.5600   age150_m52            0.0000     2.8840E-05    59.6094  -1.0000   101.9434
 31      0.0000     0.0000E+00    0.0000E+00    4.250000E+09  0.00800  4.336E-05    0   0.5426   age158_m52            0.0000     2.8769E-05    59.6233  -1.0000   100.7931
 32      0.0000     0.0000E+00    0.0000E+00    6.250000E+09  0.00800  3.159E-05    0   0.5319   age166_m52            0.0000     3.2273E-05    62.1001  -1.0000    98.2482
 33     20.3532     8.3729E+01    8.3620E+01    1.300000E+10  0.00800  1.361E-05    0   0.5073   age193_m52            0.0000     4.1205E-05    69.6544  -1.0000    88.5474
 34      0.0000     0.0000E+00    0.0000E+00    1.800000E+10  0.00800  9.886E-06    0   0.4990   age213_m52            0.0000     4.5576E-05    70.8102  -1.0000    85.4774
 35      0.0000     0.0000E+00    0.0000E+00    1.000000E+06  0.02000  1.544E-02    0   1.0000   age020_m62            0.0000     2.1951E-05    52.2792   2.2158    80.9514
 36     32.5263     4.8408E-02    9.3945E-02    3.160000E+06  0.02000  3.762E-02    0   0.9858   age045_m62            0.0000     2.1923E-05    52.5030   2.1450    81.9080
 37      0.0000     0.0000E+00    0.0000E+00    5.010000E+06  0.02000  3.296E-02    0   0.9342   age055_m62            0.0000     2.2226E-05    57.1488   1.5343    90.9729
 38     13.9073     6.7474E-02    1.1770E-01    8.710000E+06  0.02000  1.154E-02    0   0.8861   age067_m62            0.0000     2.1109E-05    48.1208   0.9604    86.7948
 39      0.0000     0.0000E+00    0.0000E+00    1.445000E+07  0.02000  7.663E-03    0   0.8472   age078_m62            0.0000     2.1467E-05    52.1881   0.9550    91.0482
 40      0.0000     0.0000E+00    0.0000E+00    2.512000E+07  0.02000  4.532E-03    0   0.8099   age090_m62            0.0000     2.1541E-05    52.6311   0.9231    91.4841
 41      0.5490     1.1246E-02    1.6815E-02    5.500000E+07  0.02000  2.733E-03    0   0.7595   age110_m62            0.0000     2.2400E-05    57.2180   0.7130    96.7165
 42      2.1585     8.8278E-02    1.2139E-01    1.609000E+08  0.02000  1.369E-03    0   0.6985   age120_m62            0.0000     2.4703E-05    63.3886   0.2425   106.5892
 43      4.5622     2.8340E-01    3.7459E-01    2.861200E+08  0.02000  9.013E-04    0   0.6714   age125_m62            0.0000     2.7056E-05    67.3293  -0.2121   114.1051
 44      0.0000     0.0000E+00    0.0000E+00    5.088000E+08  0.02000  5.028E-04    0   0.6449   age130_m62            0.0000     2.8750E-05    71.1071  -0.7919   120.7769
 45      0.0000     0.0000E+00    0.0000E+00    9.047900E+08  0.02000  2.428E-04    0   0.6179   age135_m62            0.0000     2.6811E-05    65.8181  -1.0000   115.8124
 46      0.0000     0.0000E+00    0.0000E+00    1.434000E+09  0.02000  1.263E-04    0   0.5908   age139_m62            0.0000     2.6793E-05    60.4744  -1.0000   108.8725
 47      0.1497     1.4007E-01    1.5643E-01    2.500000E+09  0.02000  5.985E-05    0   0.5673   age150_m62            0.0000     3.0225E-05    60.5234  -1.0000   103.5731
 48      0.0000     0.0000E+00    0.0000E+00    4.250000E+09  0.02000  3.271E-05    0   0.5468   age158_m62            0.0000     3.6866E-05    64.3866  -1.0000    98.2497
 49      0.0000     0.0000E+00    0.0000E+00    1.000000E+10  0.02000  1.360E-05    0   0.5167   age181_m62            0.0000     4.6307E-05    68.8206  -1.0000    89.9942
 50      1.6965     1.3333E+01    1.3158E+01    1.800000E+10  0.02000  7.124E-06    0   0.5013   age213_m62            0.0000     5.3065E-05    69.9798  -1.0000    83.5340
 51      4.0999     8.8560E-03    1.7431E-02    1.000000E+06  0.05000  2.592E-02    0   0.9998   age020_m72            0.0000     2.1977E-05    51.4268   2.2542    79.9153
 52      0.0000     0.0000E+00    0.0000E+00    3.160000E+06  0.05000  4.845E-02    0   0.9577   age045_m72            0.0000     2.1957E-05    54.3415   1.9380    85.1734
 53      0.0000     4.2074E-08    7.5764E-08    5.010000E+06  0.05000  3.072E-02    0   0.9147   age055_m72            0.0000     2.1608E-05    52.5066   1.5357    87.3154
 54     10.1095     3.8901E-02    6.7983E-02    6.610000E+06  0.05000  1.455E-02    0   0.8877   age061_m72            0.0000     2.1152E-05    48.0897   1.0843    85.2051
 55      0.1566     9.6629E-04    1.6215E-03    1.000000E+07  0.05000  9.074E-03    0   0.8524   age070_m72            0.0000     2.1688E-05    53.0960   1.7074    87.0587
 56      0.0000     0.0000E+00    0.0000E+00    2.512000E+07  0.05000  4.250E-03    0   0.7902   age090_m72            0.0000     2.1956E-05    55.1482   1.2912    91.8375
 57      0.0000     0.0000E+00    0.0000E+00    4.000000E+07  0.05000  3.087E-03    0   0.7618   age104_m72            0.0000     2.2213E-05    56.0784   1.0140    94.7587
 58      0.0000     0.0000E+00    0.0000E+00    1.015200E+08  0.05000  1.700E-03    0   0.7096   age116_m72            0.0000     2.3961E-05    61.4146   0.4864   103.8855
 59      0.0673     5.1059E-03    6.6673E-03    2.861200E+08  0.05000  7.384E-04    0   0.6633   age125_m72            0.0000     2.8153E-05    69.5036  -0.4612   117.8248
 60      0.0000     0.0000E+00    0.0000E+00    5.088000E+08  0.05000  3.819E-04    0   0.6372   age130_m72            0.0000     2.7648E-05    70.4098  -1.0000   120.6195
 61      0.0000     0.0000E+00    0.0000E+00    9.047900E+08  0.05000  1.676E-04    0   0.6110   age135_m72            0.0000     2.7824E-05    62.3773  -1.0000   112.0894
 62      0.0000     0.0000E+00    0.0000E+00    1.434000E+09  0.05000  8.837E-05    0   0.5874   age139_m72            0.0000     3.0620E-05    60.6426  -1.0000   105.2029
 63      0.0000     0.0000E+00    0.0000E+00    2.500000E+09  0.05000  4.233E-05    0   0.5598   age150_m72            0.0000     3.8093E-05    64.6264  -1.0000    99.2591
 64      0.0000     0.0000E+00    0.0000E+00    6.250000E+09  0.05000  1.435E-05    0   0.5249   age166_m72            0.0000     4.8374E-05    69.7905  -1.0000    87.2150
 65      0.2528     2.1729E+00    2.1542E+00    1.300000E+10  0.05000  6.513E-06    0   0.5036   age193_m72            0.0000     5.7352E-05    70.5008  -1.0000    79.9244
 66      0.0000     0.0000E+00    0.0000E+00    1.800000E+10  0.05000  4.527E-06    0   0.4945   age213_m72            0.0000     6.1952E-05    70.2356  -1.0000    74.9675


## Synthesis Results - Average & Chains ##

# j      x_j: min, <> & last-chain-values for 1 ...  7 chains
  1      0.0000      2.0331      1.0322      1.8795      4.0626      5.4632      1.2264      1.1559      1.3342
  2      0.0000      1.2166      3.1851      1.0025      0.0324      2.5364      0.2694      0.2295      1.0016
  3      0.0000      1.4430      3.0526      0.0417      0.0000      0.1366      0.0000      0.0918      0.0000
  4      0.0000      1.5744      0.6882      2.5212      6.8773      0.1850      1.7068      9.7466      1.7535
  5      0.5490      1.4500      0.9340      0.0000      0.0000      2.7367      7.3103      1.3089      1.8564
  6      0.0000      2.1811      1.0514      0.0348      0.1399      1.9833      3.8905      0.0000      0.0000
  7      0.2495      1.1227      0.2682      2.5931      1.2722      0.4989      0.0000      4.9205      4.2719
  8      0.0000      1.0392      0.0000      1.3022      0.0000      1.1592      0.7703      0.0000      2.0794
  9      0.0000      1.4462      0.8942      6.7434      1.2765      3.8330      0.0000      0.2969      6.8504
 10      0.0000      1.5854      0.2010      1.5381      0.1902      0.1557      1.7950      0.0000      0.0000
 11      0.0000      1.5293      0.0000      1.7983      1.7716      0.0000      1.7691      0.5234      2.0998
 12      0.8008      1.6971      4.6282      0.0000      0.2631      2.5154      0.0000      1.3541      1.9637
 13      0.0000      1.3663      0.0000      0.9366      0.0000      2.9178      6.4528      0.2163      0.0000
 14      0.0000      1.6153      7.1861      0.0000      1.0353      2.8816      0.0000      0.0000      0.0000
 15      0.0000      1.3514      0.0000      1.5296      0.0079      0.0000      0.6594      6.0757      8.8142
 16      0.0000      1.4697      0.0000      0.7404      0.0000      0.0000      1.3514      0.0031      2.1229
 17      0.0000      1.3469      2.6241      0.1336      0.0075      1.1750      0.0000      0.4965      0.0000
 18      0.0000      3.7933      0.0000      1.8680      8.1243      0.3159      0.2295      2.5277      2.6477
 19      0.0000      1.7220      0.0000      0.0000      1.9223      0.0000      3.0899      0.3146      1.2204
 20      0.0000      1.8034      2.2868      0.0000      0.0000      4.4186      0.0000      7.2677      0.5952
 21      0.0000      1.6175      9.6064      2.7594      6.7585      1.8254      0.0000      2.2851      1.5517
 22      0.0000      1.9711      0.0899      0.8840      0.0000      0.6791      5.1153      0.0090      1.8039
 23      0.0000      1.7014      0.2212      0.0000      3.2854      5.9048      1.7577      0.7807      0.0000
 24      0.0000      1.7463      1.1874      1.4565      0.8286      4.2163      0.0000      1.6073      0.0000
 25      0.0000      1.4707      0.0000      1.5202      0.6659      1.6539      0.0505      0.0000      2.6425
 26      0.0000      2.1962      0.0000      0.1116      3.4765      0.0823      5.1505      0.4712      3.2364
 27      0.0000      1.6410      1.4960      4.8835      1.1835      0.0000      3.4519      3.6875      0.7616
 28      0.0000      1.4659      0.9253      0.8978      0.0000      0.0000      0.0568      0.0000      0.0096
 29      0.0000      2.1658      1.2852      0.0000      1.1599      0.0000      0.0000      0.2913      0.0000
 30      0.0000      1.3314      0.0000      0.6256      0.0121      1.2968      8.1463      0.8458      0.3212
 31      0.0000      1.6819      0.1101      6.3322      6.8790      0.0079      5.8330      1.7302      0.9772
 32      0.0000      1.3152      0.7470      0.0000      0.0000      1.8921      4.0975      1.3343      0.0000
 33     20.3532      1.5692      0.0000      0.0000      0.0000      0.0000      1.2397      3.3673      1.2747
 34      0.0000      2.4873      3.8845      3.4341      1.9516      0.0000      2.8818      1.6343      2.0087
 35      0.0000      2.0256      6.9913      2.6408      0.8532      0.4173     11.6606      6.7345      3.1376
 36     32.5263      1.4870      3.0256      0.9134      1.1306      4.7064      0.2114      4.4435      0.0000
 37      0.0000      1.4342      0.0000      0.5437      4.0794      0.5752      3.2677      0.0081      3.8274
 38     13.9073      2.3844      1.0701      0.0000      0.0000      1.5899      0.4744      1.0704      4.5316
 39      0.0000      1.8049      1.1600      1.4512      9.7052      3.5418      2.4946      1.8689      3.7438
 40      0.0000      1.5113      2.8689      0.9326      0.0000      5.5613      1.3299      0.2707      0.0000
 41      0.5490      2.2519      2.2445      8.6945      0.6247      0.2516      1.6240      0.8416      2.8796
 42      2.1585      1.4213      3.9282      1.7355      0.1473      4.4622      1.7918      4.0058      1.7430
 43      4.5622      1.6091      2.8896      1.2639      6.8484      4.8555      0.0000      1.9677      1.7118
 44      0.0000      1.2358      0.0074      0.1265      1.4281      0.0000      0.2742      1.0243      0.0000
 45      0.0000      1.6855      0.0485      0.0416      0.7317      0.0920      2.8484      0.6588      0.0000
 46      0.0000      1.3507      4.5970      0.0000      0.3782      2.5951      0.3482      0.0000      7.6637
 47      0.1497      1.7593      0.0000      0.0000      7.1723      0.0000      0.2415      4.2529      0.0000
 48      0.0000      1.4502     11.1345      1.5183      2.0737      3.7954      0.4727      0.0000      0.0000
 49      0.0000      1.4408      0.0000      2.6677      3.5218      0.5955      0.1326      0.0000      1.6680
 50      1.6965      1.4896      0.0000      0.0000      0.2287      0.9204      0.3823      1.4419      0.0000
 51      4.0999      5.8402      0.3619      7.5590      0.4680      0.0112      2.2344      3.1915      0.0000
 52      0.0000      1.5760      8.5868      0.0000      2.4211      0.9657      0.0000      0.0000      1.0444
 53      0.0000      1.6030      0.0000      0.0000      0.0000      3.0513      1.1488      1.7712      4.7292
 54     10.1095      2.2766      2.7709      0.6743      0.0160     11.8602      0.5582      0.6211      0.0000
 55      0.1566      1.7842      1.7557      0.0000      4.2457      0.0000      1.3072      2.5533      1.6060
 56      0.0000      1.6858      1.1563      3.7653      2.2842      0.0000      4.0924      0.1757      6.7686
 57      0.0000      1.8524      0.1544      0.0000      0.0000      0.3484      0.0000      0.0000      3.7436
 58      0.0000      1.4781      2.0275      8.1221      1.1762      0.6351      0.0000      0.0000      1.1541
 59      0.0673      1.7320      0.3446      0.7158      0.0000      3.7386      0.0000      0.9306      0.0000
 60      0.0000      1.7783      1.5574      0.0000      0.0000      1.8813      3.6042      0.0000      0.7777
 61      0.0000      1.4570      6.1882      4.1618      1.0987      0.0000      0.0918      0.3323      1.0781
 62      0.0000      1.7563      0.0000      8.0795      2.8838      0.1035      0.0000      1.7991      8.7331
 63      0.0000      1.5533      0.0085      3.8425      0.0000      0.9303      0.0338      4.2404      0.1330
 64      0.0000      2.0280      0.0000      0.1352      1.0813      0.0000      0.2660      0.4041      0.7220
 65      0.2528      1.7724      1.8773      3.9564      0.1755      0.4153      4.3947      6.6831      0.0000
 66      0.0000      1.9761      0.0000      0.0000      0.0000      0.0000      0.9830      0.0000      0.0000

# j      m_j: min, <> & last-chain-values for 1 ...  7 chains
  1  0.0000E+00  1.7514E-02  1.2409E-02  1.9461E-02  6.7910E-02  1.4522E-01  1.1445E-02  9.3987E-03  2.2006E-02
  2  0.0000E+00  2.8609E-03  1.0453E-02  2.8339E-03  1.4768E-04  1.8405E-02  6.8620E-04  5.0934E-04  4.5097E-03
  3  0.0000E+00  5.0817E-03  1.5003E-02  1.7635E-04  0.0000E+00  1.4848E-03  0.0000E+00  3.0501E-04  0.0000E+00
  4  0.0000E+00  5.2214E-03  3.1851E-03  1.0050E-02  4.4258E-02  1.8933E-03  6.1320E-03  3.0509E-02  1.1134E-02
  5  4.0561E-03  9.1598E-03  8.2343E-03  0.0000E+00  0.0000E+00  5.3347E-02  5.0029E-02  7.8049E-03  2.2454E-02
  6  0.0000E+00  2.2349E-02  1.5034E-02  4.2884E-04  2.7826E-03  6.2706E-02  4.3186E-02  0.0000E+00  0.0000E+00
  7  4.2806E-03  1.6470E-02  5.4898E-03  4.5725E-02  3.6215E-02  2.2583E-02  0.0000E+00  6.8133E-02  1.1999E-01
  8  0.0000E+00  2.1071E-02  0.0000E+00  3.1738E-02  0.0000E+00  7.2524E-02  1.6919E-02  0.0000E+00  8.0728E-02
  9  0.0000E+00  3.3563E-02  2.8961E-02  1.8811E-01  5.7485E-02  2.7448E-01  0.0000E+00  6.5040E-03  3.0439E-01
 10  0.0000E+00  4.8330E-02  8.5507E-03  5.6360E-02  1.1251E-02  1.4644E-02  5.9279E-02  0.0000E+00  0.0000E+00
 11  0.0000E+00  8.7658E-02  0.0000E+00  1.2390E-01  1.9705E-01  0.0000E+00  1.0985E-01  2.8316E-02  2.3045E-01
 12  8.5157E-02  1.5431E-01  5.8727E-01  0.0000E+00  4.6413E-02  7.0574E-01  0.0000E+00  1.1621E-01  3.4186E-01
 13  0.0000E+00  3.5017E-01  0.0000E+00  2.8852E-01  0.0000E+00  2.3075E+00  1.7915E+00  5.2333E-02  0.0000E+00
 14  0.0000E+00  1.3884E+00  8.6204E+00  0.0000E+00  1.7269E+00  7.6431E+00  0.0000E+00  0.0000E+00  0.0000E+00
 15  0.0000E+00  1.8910E+00  0.0000E+00  2.5728E+00  2.1380E-02  0.0000E+00  9.9964E-01  8.0250E+00  2.3616E+01
 16  0.0000E+00  3.4774E+00  0.0000E+00  2.1058E+00  0.0000E+00  0.0000E+00  3.4640E+00  6.9913E-03  9.6173E+00
 17  0.0000E+00  4.1343E+00  1.1240E+01  4.9284E-01  4.4454E-02  1.1129E+01  0.0000E+00  1.4383E+00  0.0000E+00
 18  0.0000E+00  2.8876E-02  0.0000E+00  1.7092E-02  1.2001E-01  7.4196E-03  1.8926E-03  1.8161E-02  3.8590E-02
 19  0.0000E+00  5.2611E-03  0.0000E+00  0.0000E+00  1.1397E-02  0.0000E+00  1.0227E-02  9.0726E-04  7.1390E-03
 20  0.0000E+00  6.0151E-03  1.0645E-02  0.0000E+00  0.0000E+00  4.5477E-02  0.0000E+00  2.2881E-02  3.8014E-03
 21  0.0000E+00  6.5491E-03  5.4280E-02  1.3429E-02  5.3101E-02  2.2806E-02  0.0000E+00  8.7329E-03  1.2029E-02
 22  0.0000E+00  1.3495E-02  8.5929E-04  7.2748E-03  0.0000E+00  1.4346E-02  3.7940E-02  5.8437E-05  2.3647E-02
 23  0.0000E+00  1.5730E-02  2.8545E-03  0.0000E+00  5.8945E-02  1.6846E-01  1.7605E-02  6.8133E-03  0.0000E+00
 24  0.0000E+00  2.4020E-02  2.2792E-02  2.4082E-02  2.2118E-02  1.7895E-01  0.0000E+00  2.0868E-02  0.0000E+00
 25  0.0000E+00  2.7893E-02  0.0000E+00  3.4656E-02  2.4508E-02  9.6792E-02  1.0367E-03  0.0000E+00  9.5961E-02
 26  0.0000E+00  6.9625E-02  0.0000E+00  4.2526E-03  2.1387E-01  8.0533E-03  1.7689E-01  1.4100E-02  1.9645E-01
 27  0.0000E+00  1.0413E-01  1.3248E-01  3.7249E-01  1.4574E-01  0.0000E+00  2.3729E-01  2.2086E-01  9.2536E-02
 28  0.0000E+00  2.6996E-01  2.3781E-01  1.9875E-01  0.0000E+00  0.0000E+00  1.1334E-02  0.0000E+00  3.3918E-03
 29  0.0000E+00  6.9496E-01  5.7549E-01  0.0000E+00  7.2222E-01  0.0000E+00  0.0000E+00  8.8211E-02  0.0000E+00
 30  0.0000E+00  8.9256E-01  0.0000E+00  5.0411E-01  1.5768E-02  2.6827E+00  5.9163E+00  5.3518E-01  4.1229E-01
 31  0.0000E+00  1.9834E+00  1.8119E-01  8.9761E+00  1.5742E+01  2.8864E-02  7.4520E+00  1.9259E+00  2.2065E+00
 32  0.0000E+00  2.0868E+00  1.6543E+00  0.0000E+00  0.0000E+00  9.2644E+00  7.0435E+00  1.9984E+00  0.0000E+00
 33  8.3620E+01  5.5120E+00  0.0000E+00  0.0000E+00  0.0000E+00  0.0000E+00  4.7175E+00  1.1165E+01  8.5734E+00
 34  0.0000E+00  1.1832E+01  2.5786E+01  1.9635E+01  1.8015E+01  0.0000E+00  1.4850E+01  7.3375E+00  1.8295E+01
 35  0.0000E+00  1.2363E-02  5.9551E-02  1.9375E-02  1.0105E-02  7.8587E-03  7.7102E-02  3.8798E-02  3.6667E-02
 36  9.3945E-02  3.6722E-03  1.0427E-02  2.7113E-03  5.4180E-03  3.5862E-02  5.6555E-04  1.0357E-02  0.0000E+00
 37  0.0000E+00  3.8310E-03  0.0000E+00  1.7458E-03  2.1145E-02  4.7409E-03  9.4556E-03  2.0385E-05  1.9574E-02
 38  1.1770E-01  1.7254E-02  1.0806E-02  0.0000E+00  0.0000E+00  3.5500E-02  3.7188E-03  7.3110E-03  6.2784E-02
 39  0.0000E+00  1.8805E-02  1.6867E-02  1.8174E-02  1.9622E-01  1.1387E-01  2.8157E-02  1.8379E-02  7.4684E-02
 40  0.0000E+00  2.5452E-02  6.7428E-02  1.8879E-02  0.0000E+00  2.8900E-01  2.4263E-02  4.3033E-03  0.0000E+00
 41  1.6815E-02  5.8974E-02  8.2034E-02  2.7370E-01  3.1749E-02  2.0331E-02  4.6074E-02  2.0803E-02  1.4439E-01
 42  1.2139E-01  6.8340E-02  2.6359E-01  1.0031E-01  1.3747E-02  6.6205E-01  9.3335E-02  1.8180E-01  1.6047E-01
 43  3.7459E-01  1.1296E-01  2.8309E-01  1.0665E-01  9.3293E-01  1.0518E+00  0.0000E+00  1.3038E-01  2.3009E-01
 44  0.0000E+00  1.4937E-01  1.2525E-03  1.8383E-02  3.3497E-01  0.0000E+00  3.5899E-02  1.1686E-01  0.0000E+00
 45  0.0000E+00  4.0422E-01  1.6238E-02  1.1989E-02  3.4054E-01  6.8089E-02  7.4005E-01  1.4913E-01  0.0000E+00
 46  0.0000E+00  5.9543E-01  2.8280E+00  0.0000E+00  3.2350E-01  3.5300E+00  1.6629E-01  0.0000E+00  6.4685E+00
 47  1.5643E-01  1.5715E+00  0.0000E+00  0.0000E+00  1.2432E+01  0.0000E+00  2.3373E-01  3.5858E+00  0.0000E+00
 48  0.0000E+00  2.2846E+00  2.4479E+01  2.8750E+00  6.3394E+00  1.8450E+01  8.0665E-01  0.0000E+00  0.0000E+00
 49  0.0000E+00  5.1585E+00  0.0000E+00  1.1481E+01  2.4469E+01  6.5787E+00  5.1448E-01  0.0000E+00  1.1434E+01
 50  1.3158E+01  9.8784E+00  0.0000E+00  0.0000E+00  2.9425E+00  1.8833E+01  2.7463E+00  9.0251E+00  0.0000E+00
 51  1.7431E-02  2.1229E-02  1.8359E-03  3.3028E-02  3.3009E-03  1.2578E-04  8.7989E-03  1.0950E-02  0.0000E+00
 52  0.0000E+00  2.9358E-03  2.2322E-02  0.0000E+00  8.7517E-03  5.5509E-03  0.0000E+00  0.0000E+00  3.7250E-03
 53  7.5764E-08  4.4980E-03  0.0000E+00  0.0000E+00  0.0000E+00  2.6419E-02  3.4920E-03  4.6912E-03  2.5408E-02
 54  6.7983E-02  1.3089E-02  2.2233E-02  4.6603E-03  1.7869E-04  2.1042E-01  3.4767E-03  3.3705E-03  0.0000E+00
 55  1.6215E-03  1.5795E-02  2.1691E-02  0.0000E+00  7.2937E-02  0.0000E+00  1.2537E-02  2.1335E-02  2.7223E-02
 56  0.0000E+00  2.9538E-02  2.8275E-02  7.9303E-02  7.7668E-02  0.0000E+00  7.7680E-02  2.9057E-03  2.2708E-01
 57  0.0000E+00  4.3080E-02  5.0106E-03  0.0000E+00  0.0000E+00  2.5005E-02  0.0000E+00  0.0000E+00  1.6669E-01
 58  0.0000E+00  5.8144E-02  1.1130E-01  3.8404E-01  8.9784E-02  7.7090E-02  0.0000E+00  0.0000E+00  8.6919E-02
 59  6.6673E-03  1.4662E-01  4.0712E-02  7.2835E-02  0.0000E+00  9.7660E-01  0.0000E+00  7.4360E-02  0.0000E+00
 60  0.0000E+00  2.7962E-01  3.4175E-01  0.0000E+00  0.0000E+00  9.1279E-01  6.1393E-01  0.0000E+00  2.3413E-01
 61  0.0000E+00  5.0054E-01  2.9669E+00  1.7187E+00  7.3250E-01  0.0000E+00  3.4177E-02  1.0775E-01  7.0917E-01
 62  0.0000E+00  1.1002E+00  0.0000E+00  6.0835E+00  3.5055E+00  2.0007E-01  0.0000E+00  1.0637E+00  1.0474E+01
 63  0.0000E+00  1.9359E+00  1.4827E-02  5.7562E+00  0.0000E+00  3.5776E+00  4.5675E-02  4.9882E+00  3.1742E-01
 64  0.0000E+00  6.9907E+00  0.0000E+00  5.6011E-01  7.2329E+00  0.0000E+00  9.9338E-01  1.3149E+00  4.7653E+00
 65  2.1542E+00  1.2915E+01  1.9090E+01  3.4654E+01  2.4817E+00  9.3372E+00  3.4692E+01  4.5965E+01  0.0000E+00
 66  0.0000E+00  2.0342E+01  0.0000E+00  0.0000E+00  0.0000E+00  0.0000E+00  1.0962E+01  0.0000E+00  0.0000E+00

# AV, chi2 & Mass for <> & i_chain = 1 ...  7 solutions
AV      -0.0257      0.2466     -0.6087     -0.4930     -0.1097     -0.0009     -0.6167     -0.3494     -0.2419
chi2 2.1080E-05  3.0408E-05  2.4448E-05  2.3471E-05  2.3209E-05  2.3512E-05  2.4613E-05  2.2656E-05  2.5160E-05
Mass 7.0198E-14  1.1835E-13  2.6886E-14  3.6465E-14  3.7791E-14  2.7506E-14  3.4265E-14  5.6311E-14  3.2074E-14
 -95.65                                  [v0_min (km/s) before EX0s...]
 434.57                                  [vd_min (km/s) before EX0s...]


## Synthetic spectrum (Best Model) ##l_obs f_obs f_syn wei
 3478    [Nl_obs]
 3741.00    1.99933   0.78906    0.000
 3742.00    1.98688   0.78758    0.000
 3743.00    0.36513   0.78464    0.000
 3744.00    0.39066   0.78091    0.000
 3745.00    1.37595   0.77690   -1.000
 3746.00    2.11500   0.77352   -1.000
 3747.00    2.72902   0.77085   -1.000
 3748.00    1.89183   0.77031   -1.000
 3749.00    0.41650   0.77115   -1.000
 3750.00    0.60797   0.77423   -1.000
 3751.00    1.42871   0.77938   -1.000
 3752.00    1.33539   0.78660   -1.000
 3753.00    0.94913   0.79495   -1.000
 3754.00   -0.04668   0.80312    0.000
 3755.00   -1.20583   0.81122    0.000
 3756.00   -1.05114   0.81775    0.000
 3757.00   -0.60808   0.82314    0.000
 3758.00   -0.22030   0.82606    0.000
 3759.00    0.15781   0.82725   -1.000
 3760.00   -0.57074   0.82653    0.000
 3761.00   -1.44631   0.82395    0.000
 3762.00   -0.50934   0.82030    0.000
 3763.00    0.59796   0.81505   -1.000
 3764.00    0.48625   0.80939   -1.000
 3765.00    0.30421   0.80364   -1.000
 3766.00   -0.10294   0.79890    0.000
 3767.00   -0.51513   0.79509    0.000
 3768.00   -0.88992   0.79321    0.000
 3769.00   -1.17681   0.79383    0.000
 3770.00    0.67161   0.79702   -1.000
 3771.00    2.30192   0.80253   -1.000
 3772.00    1.07413   0.81081   -1.000
 3773.00   -0.08261   0.82166    0.000
 3774.00   -0.61572   0.83369    0.000
 3775.00   -0.99991   0.84598    0.000
 3776.00   -0.41856   0.85824    0.000
 3777.00    0.18548   0.86962   -1.000
 3778.00    0.90437   0.87963   -1.000
 3779.00    1.34785   0.88772   -1.000
 3780.00    0.66403   0.89364   -1.000
 3781.00    0.28875   0.89733   -1.000
 3782.00    0.95996   0.89815   -1.000
 3783.00    1.64445   0.89630   -1.000
 3784.00    2.36689   0.89183   -1.000
 3785.00    2.49708   0.88487   -1.000
 3786.00    1.18026   0.87549   -1.000
 3787.00    0.28544   0.86385   -1.000
 3788.00    0.28007   0.85091   -1.000
 3789.00    0.37623   0.83707   -1.000
 3790.00    0.65835   0.82284   -1.000
 3791.00    0.63863   0.80886   -1.000
 3792.00    0.13574   0.79576   -1.000
 3793.00    0.09986   0.78434   -1.000
 3794.00    0.71994   0.77499   -1.000
 3795.00    1.13848   0.76831   -1.000
 3796.00    1.30789   0.76464   -1.000
 3797.00    1.46612   0.76453   -1.000
 3798.00    1.61218   0.76766   -1.000
 3799.00    1.32098   0.77417   -1.000
 3800.00    0.60959   0.78425   -1.000
 3801.00   -0.22239   0.79647    0.000
 3802.00   -1.15653   0.80974    0.000
 3803.00   -0.83291   0.82291    0.000
 3804.00    0.42927   0.83594   -1.000
 3805.00    1.64204   0.84760   -1.000
 3806.00    2.82243   0.85787   -1.000
 3807.00    2.77007   0.86596   -1.000
 3808.00    2.01031   0.87228   -1.000
 3809.00    1.55680   0.87675   -1.000
 3810.00    1.25637   0.87882   -1.000
 3811.00    0.70602   0.87892   -1.000
 3812.00    0.04761   0.87700   -1.000
 3813.00    0.48831   0.87395   -1.000
 3814.00    1.33662   0.86918   -1.000
 3815.00    0.83788   0.86405   -1.000
 3816.00   -0.08432   0.85799    0.000
 3817.00   -0.29535   0.85192    0.000
 3818.00   -0.31983   0.84566    0.000
 3819.00    0.35793   0.83917   -1.000
 3820.00    1.18616   0.83187   -1.000
 3821.00    1.38002   0.82437   -1.000
 3822.00    1.46622   0.81797   -1.000
 3823.00    1.74171   0.81004   -1.000
 3824.00    2.04149   0.80098   -1.000
 3825.00    1.30643   0.79027   -1.000
 3826.00    0.47847   0.77878   -1.000
 3827.00    0.09562   0.76680   -1.000
 3828.00   -0.26330   0.75465    0.000
 3829.00   -0.04037   0.74295    0.000
 3830.00    0.18772   0.73183   -1.000
 3831.00   -0.13322   0.72259    0.000
 3832.00   -0.39197   0.71527    0.000
 3833.00    0.73117   0.71050   -1.000
 3834.00    1.72729   0.70906   -1.000
 3835.00    1.14414   0.71092   -1.000
 3836.00    0.69538   0.71628    0.497
 3837.00    1.38265   0.72537    0.048
 3838.00    1.86961   0.73762    0.027
 3839.00    1.09647   0.75118    0.026
 3840.00    0.40539   0.76624    0.026
 3841.00    0.11929   0.78167    0.026
 3842.00    0.03741   0.79657    0.026
 3843.00    0.77308   0.81114    0.027
 3844.00    1.31104   0.82419    0.027
 3845.00    1.19167   0.83560    0.027
 3846.00    0.98642   0.84528    0.027
 3847.00    0.54000   0.85308    0.000
 3848.00    0.18657   0.85928    0.000
 3849.00    0.05647   0.86394    0.000
 3850.00    0.00689   0.86704    0.000
 3851.00    0.12432   0.86893    0.000
 3852.00    0.18573   0.87006    0.000
 3853.00    0.14611   0.87096    0.000
 3854.00    0.33918   0.87100    0.000
 3855.00    0.89923   0.87048    0.000
 3856.00    1.23702   0.87001    0.000
 3857.00    1.26712   0.86898    0.000
 3858.00    1.16820   0.86871    0.000
 3859.00    0.91209   0.86784    0.000
 3860.00    0.58619   0.86706    0.000
 3861.00    0.18534   0.86629    0.000
 3862.00   -0.08189   0.86553    0.000
 3863.00   -0.22249   0.86473    0.000
 3864.00   -0.29337   0.86306    0.000
 3865.00   -0.30599   0.86163    0.000
 3866.00   -0.22717   0.85964    0.000
 3867.00   -0.08109   0.85777    0.000
 3868.00    0.40551   0.85493    0.000
 3869.00    1.11207   0.85199    0.000
 3870.00    1.00651   0.84893    0.000
 3871.00    0.44199   0.84497    0.000
 3872.00   -0.12593   0.84060    0.000
 3873.00   -0.69552   0.83519    0.000
 3874.00   -0.69357   0.82962    0.000
 3875.00   -0.44857   0.82331    0.000
 3876.00    0.06850   0.81598    0.000
 3877.00    0.68467   0.80677    0.000
 3878.00    0.74804   0.79674    0.000
 3879.00    0.64100   0.78589    0.000
 3880.00    0.67093   0.77421    0.000
 3881.00    0.73604   0.76246    0.024
 3882.00    0.83488   0.75124    0.024
 3883.00    0.94077   0.74081    0.024
 3884.00    0.89582   0.73226    0.024
 3885.00    0.82600   0.72561    0.025
 3886.00    1.42432   0.72089    0.025
 3887.00    2.10538   0.71838    0.025
 3888.00    1.19991   0.71934    0.025
 3889.00    0.15866   0.72348    0.024
 3890.00    1.15400   0.73000    0.025
 3891.00    2.25084   0.74042    0.025
 3892.00    2.37756   0.75260    0.025
 3893.00    2.46261   0.76604    0.024
 3894.00    0.88288   0.77947    0.024
 3895.00   -0.56493   0.79283    0.000
 3896.00    0.68572   0.80587    0.023
 3897.00    1.84458   0.81783    0.023
 3898.00    1.91795   0.82950    0.022
 3899.00    1.82362   0.83947    0.022
 3900.00    0.36309   0.84855    0.021
 3901.00   -0.86364   0.85670    0.000
 3902.00   -0.66235   0.86386    0.000
 3903.00   -0.35891   0.86985    0.000
 3904.00    0.43609   0.87445    0.020
 3905.00    1.01696   0.87890    0.020
 3906.00    0.75919   0.88213    0.020
 3907.00    0.42980   0.88475    0.020
 3908.00   -0.13307   0.88689    0.000
 3909.00   -0.40188   0.88824    0.000
 3910.00    0.14022   0.88849    0.021
 3911.00    0.42745   0.88757    0.021
 3912.00    0.11280   0.88575    0.022
 3913.00   -0.11744   0.88295    0.000
 3914.00   -0.17544   0.87984    0.000
 3915.00   -0.06559   0.87558    0.000
 3916.00    0.34238   0.87114    0.023
 3917.00    0.71709   0.86563    0.024
 3918.00    1.04015   0.85969    0.024
 3919.00    1.02307   0.85345    0.024
 3920.00    0.54189   0.84646    0.025
 3921.00    0.13864   0.83988    0.025
 3922.00   -0.17098   0.83324    0.000
 3923.00   -0.14542   0.82710    0.000
 3924.00    0.23511   0.82068    0.024
 3925.00    0.83661   0.81401    0.024
 3926.00    1.64451   0.80812    0.025
 3927.00    1.76434   0.80216    0.025
 3928.00    1.31747   0.79739    0.024
 3929.00    0.54449   0.79374    0.024
 3930.00   -0.46491   0.79090    0.000
 3931.00   -0.82413   0.78963    0.000
 3932.00   -0.76957   0.78908    0.000
 3933.00   -0.51975   0.78999    0.000
 3934.00   -0.16128   0.79184    0.000
 3935.00   -0.09787   0.79496    0.000
 3936.00   -0.17731   0.79946    0.000
 3937.00   -0.30938   0.80450    0.000
 3938.00   -0.46346   0.81025    0.000
 3939.00   -0.39106   0.81607    0.000
 3940.00   -0.23766   0.82208    0.000
 3941.00    0.06415   0.82785    0.022
 3942.00    0.41081   0.83316    0.022
 3943.00    0.57108   0.83822    0.022
 3944.00    0.68454   0.84261    0.022
 3945.00   -0.06618   0.84634    0.000
 3946.00   -0.99312   0.84930    0.000
 3947.00   -1.26054   0.85185    0.000
 3948.00   -1.42235   0.85296    0.000
 3949.00   -0.14385   0.85271    0.000
 3950.00    1.30662   0.85152    0.023
 3951.00    1.17035   0.84895    0.023
 3952.00    0.90487   0.84486    0.023
 3953.00    0.65953   0.83856    0.023
 3954.00    0.41511   0.83067    0.023
 3955.00    1.07038   0.82092    0.023
 3956.00    1.71422   0.80912    0.023
 3957.00    1.16214   0.79570    0.023
 3958.00    0.61168   0.78046    0.023
 3959.00    0.09191   0.76400    0.023
 3960.00   -0.34042   0.74642    0.000
 3961.00    0.21277   0.72782    0.000
 3962.00    0.64610   0.70910    0.000
 3963.00    0.13723   0.69137    0.000
 3964.00   -0.23878   0.67607    0.000
 3965.00    0.17358   0.66313    0.000
 3966.00    0.51480   0.65324    0.000
 3967.00    0.52199   0.64728    0.000
 3968.00    0.51497   0.64468    0.000
 3969.00    0.45345   0.64615    0.000
 3970.00    0.33618   0.65169    0.000
 3971.00    0.04065   0.66141    0.000
 3972.00   -0.05332   0.67534    0.000
 3973.00    0.39857   0.69187    0.000
 3974.00    0.50665   0.70980    0.000
 3975.00   -0.18358   0.72855    0.000
 3976.00   -0.47065   0.74749    0.000
 3977.00    0.05208   0.76598    0.000
 3978.00    0.70830   0.78364    0.000
 3979.00    1.59804   0.80059    0.000
 3980.00    2.07923   0.81584    0.000
 3981.00    1.93497   0.82921    0.023
 3982.00    1.36891   0.84107    0.023
 3983.00    0.23560   0.85081    0.022
 3984.00   -0.03727   0.85935    0.000
 3985.00    0.70882   0.86682    0.022
 3986.00    0.81682   0.87318    0.023
 3987.00    0.25851   0.87842    0.022
 3988.00   -0.10767   0.88225    0.000
 3989.00   -0.29689   0.88565    0.000
 3990.00    0.15069   0.88813    0.022
 3991.00    1.11527   0.88987    0.022
 3992.00    1.42518   0.89152    0.022
 3993.00    1.26733   0.89286    0.021
 3994.00    0.95191   0.89386    0.021
 3995.00    0.53770   0.89407    0.021
 3996.00    0.14999   0.89409    0.021
 3997.00   -0.22320   0.89416    0.000
 3998.00   -0.14487   0.89391    0.000
 3999.00    0.14853   0.89309    0.021
 4000.00    0.71963   0.89296    0.021
 4001.00    1.40488   0.89281    0.022
 4002.00    1.06780   0.89219    0.022
 4003.00    0.37166   0.89149    0.022
 4004.00    0.22818   0.89124    0.021
 4005.00    0.24845   0.89145    0.021
 4006.00    0.48058   0.89109    0.021
 4007.00    0.76476   0.89199    0.022
 4008.00    0.36618   0.89313    0.022
 4009.00   -0.16815   0.89431    0.000
 4010.00    0.38731   0.89533    0.022
 4011.00    1.11211   0.89628    0.022
 4012.00    1.50112   0.89767    0.022
 4013.00    1.85151   0.89807    0.023
 4014.00    1.39627   0.89849    0.023
 4015.00    0.87874   0.89819    0.023
 4016.00    0.87246   0.89715    0.023
 4017.00    0.88771   0.89554    0.022
 4018.00    0.98361   0.89264    0.023
 4019.00    1.07962   0.88960    0.023
 4020.00    1.14872   0.88613    0.023
 4021.00    1.22870   0.88335    0.023
 4022.00    1.50053   0.88062    0.022
 4023.00    1.71963   0.87780    0.022
 4024.00    1.37140   0.87513    0.022
 4025.00    1.01473   0.87243    0.022
 4026.00    0.59404   0.87105    0.021
 4027.00    0.22770   0.87011    0.021
 4028.00    0.17477   0.87119    0.021
 4029.00    0.33518   0.87294    0.022
 4030.00    1.47332   0.87469    0.022
 4031.00    2.24921   0.87658    0.022
 4032.00    1.66627   0.87808    0.021
 4033.00    1.10352   0.88050    0.021
 4034.00    0.60410   0.88243    0.020
 4035.00    0.20477   0.88454    0.020
 4036.00    0.07170   0.88683    0.020
 4037.00    0.27661   0.88821    0.020
 4038.00    1.25325   0.88886    0.020
 4039.00    1.67729   0.88833    0.020
 4040.00    1.00886   0.88776    0.021
 4041.00    0.52366   0.88782    0.021
 4042.00    0.35410   0.88725    0.021
 4043.00    0.54342   0.88704    0.020
 4044.00    1.27414   0.88651    0.020
 4045.00    1.47666   0.88553    0.020
 4046.00    0.97904   0.88462    0.020
 4047.00    1.00000   0.88397    0.020
 4048.00    1.62642   0.88438    0.021
 4049.00    2.03011   0.88419    0.021
 4050.00    2.20450   0.88376    0.021
 4051.00    1.90837   0.88288    0.021
 4052.00    1.18497   0.88166    0.021
 4053.00    0.83506   0.88042    0.021
 4054.00    0.78409   0.87895    0.021
 4055.00    0.73389   0.87760    0.021
 4056.00    0.68423   0.87537    0.021
 4057.00    0.66477   0.87276    0.021
 4058.00    0.66396   0.87025    0.021
 4059.00    0.79248   0.86827    0.021
 4060.00    0.99079   0.86635    0.021
 4061.00    0.75162   0.86396    0.021
 4062.00    0.30743   0.86203    0.021
 4063.00    0.66126   0.85971    0.021
 4064.00    1.33749   0.85722    0.021
 4065.00    1.06155   0.85492    0.022
 4066.00    0.45730   0.85340    0.022
 4067.00    0.41765   0.85286    0.021
 4068.00    0.54195   0.85137    0.021
 4069.00    0.59931   0.84995    0.021
 4070.00    0.64059   0.84864    0.021
 4071.00    0.51810   0.84745    0.021
 4072.00    0.36388   0.84703    0.021
 4073.00    0.75007   0.84683    0.021
 4074.00    1.21769   0.84816    0.021
 4075.00    0.26839   0.84926    0.021
 4076.00   -0.83763   0.84943    0.000
 4077.00   -0.63643   0.84989    0.000
 4078.00   -0.33951   0.85053    0.000
 4079.00    0.39598   0.85188    0.021
 4080.00    1.14826   0.85319    0.021
 4081.00    1.50112   0.85416    0.021
 4082.00    1.83488   0.85433    0.021
 4083.00    1.53228   0.85305    0.021
 4084.00    1.23869   0.85122    0.021
 4085.00    1.09378   0.84853    0.020
 4086.00    0.91706   0.84467    0.020
 4087.00    0.41295   0.83997    0.020
 4088.00    0.02865   0.83375    0.020
 4089.00    0.52356   0.82540    0.020
 4090.00    0.97151   0.81523    0.020
 4091.00    1.15608   0.80438    0.020
 4092.00    1.39016   0.79330    0.000
 4093.00    1.84581   0.78112    0.000
 4094.00    2.08811   0.76832    0.000
 4095.00    1.54681   0.75543    0.000
 4096.00    1.15517   0.74331    0.000
 4097.00    1.22379   0.73353    0.000
 4098.00    1.41510   0.72576    0.000
 4099.00    1.92707   0.72086    0.000
 4100.00    2.13557   0.71825    0.000
 4101.00    1.66253   0.71741    0.000
 4102.00    1.28332   0.71919    0.000
 4103.00    1.08670   0.72394    0.000
 4104.00    0.92718   0.73220    0.000
 4105.00    0.83063   0.74161    0.000
 4106.00    0.75009   0.75152    0.000
 4107.00    0.69336   0.76215    0.000
 4108.00    0.68376   0.77240    0.000
 4109.00    0.73575   0.78260    0.000
 4110.00    0.70030   0.79201    0.000
 4111.00    0.56419   0.80085    0.000
 4112.00    0.43051   0.80834    0.000
 4113.00    0.29928   0.81443    0.020
 4114.00    0.51051   0.81982    0.020
 4115.00    1.02837   0.82377    0.020
 4116.00    1.48288   0.82740    0.020
 4117.00    1.88743   0.82993    0.020
 4118.00    1.65437   0.83252    0.020
 4119.00    0.97883   0.83455    0.020
 4120.00    0.98827   0.83528    0.020
 4121.00    1.41453   0.83647    0.020
 4122.00    1.25131   0.83701    0.020
 4123.00    0.77491   0.83816    0.020
 4124.00    0.67304   0.83893    0.020
 4125.00    0.74385   0.83914    0.020
 4126.00    1.26561   0.83923    0.020
 4127.00    1.96643   0.83896    0.021
 4128.00    1.80941   0.83880    0.020
 4129.00    1.36206   0.83874    0.020
 4130.00    1.22357   0.83916    0.020
 4131.00    1.17296   0.83866    0.020
 4132.00    0.96229   0.83803    0.019
 4133.00    0.71405   0.83705    0.019
 4134.00    0.74265   0.83674    0.019
 4135.00    0.82351   0.83673    0.020
 4136.00    1.07554   0.83566    0.020
 4137.00    1.35257   0.83431    0.020
 4138.00    0.44201   0.83217    0.019
 4139.00   -0.59476   0.83097    0.000
 4140.00   -0.29079   0.83020    0.000
 4141.00    0.10593   0.82933    0.020
 4142.00    0.30962   0.82852    0.020
 4143.00    0.50665   0.82689    0.019
 4144.00    0.72546   0.82573    0.020
 4145.00    0.94270   0.82555    0.020
 4146.00    1.10672   0.82678    0.020
 4147.00    1.24708   0.82802    0.019
 4148.00    1.02151   0.82843    0.019
 4149.00    0.80780   0.82924    0.019
 4150.00    0.71111   0.82995    0.019
 4151.00    0.62171   0.83164    0.019
 4152.00    0.58412   0.83376    0.019
 4153.00    0.53173   0.83516    0.019
 4154.00    0.39858   0.83676    0.019
 4155.00    0.30142   0.83785    0.018
 4156.00    0.36158   0.83917    0.018
 4157.00    0.49180   0.84034    0.018
 4158.00    0.87398   0.84109    0.018
 4159.00    1.23094   0.84211    0.018
 4160.00    1.51180   0.84221    0.018
 4161.00    1.66567   0.84165    0.018
 4162.00    1.49344   0.84076    0.018
 4163.00    1.21643   0.83959    0.018
 4164.00    0.70797   0.83864    0.018
 4165.00    0.28777   0.83690    0.018
 4166.00    0.03664   0.83448    0.018
 4167.00    0.05119   0.83231    0.018
 4168.00    0.50978   0.82983    0.018
 4169.00    1.00187   0.82794    0.018
 4170.00    1.54306   0.82632    0.018
 4171.00    1.83983   0.82456    0.018
 4172.00    1.82182   0.82324    0.018
 4173.00    1.65333   0.82158    0.018
 4174.00    1.31407   0.82094    0.018
 4175.00    1.06476   0.82094    0.018
 4176.00    0.90547   0.82084    0.018
 4177.00    0.71659   0.82107    0.018
 4178.00    0.50160   0.82077    0.018
 4179.00    0.64264   0.82124    0.018
 4180.00    1.06059   0.82186    0.018
 4181.00    1.00179   0.82223    0.018
 4182.00    0.61695   0.82278    0.018
 4183.00    0.43416   0.82236    0.018
 4184.00    0.37249   0.82269    0.018
 4185.00    0.52911   0.82287    0.018
 4186.00    0.79992   0.82258    0.018
 4187.00    0.98894   0.82242    0.018
 4188.00    1.14087   0.82116    0.018
 4189.00    1.39394   0.82079    0.018
 4190.00    1.68647   0.82012    0.018
 4191.00    1.61298   0.81870    0.018
 4192.00    1.41792   0.81752    0.019
 4193.00    1.42410   0.81592    0.019
 4194.00    1.48638   0.81511    0.019
 4195.00    0.97727   0.81410    0.019
 4196.00    0.33707   0.81277    0.019
 4197.00    0.28013   0.81217    0.019
 4198.00    0.33038   0.81185    0.019
 4199.00    0.37546   0.81222    0.019
 4200.00    0.41980   0.81287    0.018
 4201.00    1.18696   0.81366    0.019
 4202.00    2.02783   0.81527    0.019
 4203.00    1.12518   0.81674    0.018
 4204.00    0.10894   0.81844    0.018
 4205.00    0.42831   0.82032    0.018
 4206.00    0.78794   0.82173    0.018
 4207.00    0.65369   0.82359    0.018
 4208.00    0.52953   0.82497    0.018
 4209.00    0.70161   0.82576    0.018
 4210.00    0.83282   0.82636    0.018
 4211.00    0.36895   0.82594    0.018
 4212.00    0.02123   0.82593    0.018
 4213.00    0.77184   0.82592    0.018
 4214.00    1.41643   0.82486    0.018
 4215.00    1.33223   0.82327    0.018
 4216.00    1.25901   0.82068    0.018
 4217.00    1.24412   0.81856    0.018
 4218.00    1.22661   0.81671    0.018
 4219.00    1.19792   0.81424    0.018
 4220.00    1.07628   0.81130    0.017
 4221.00    0.62714   0.80764    0.017
 4222.00    0.17167   0.80491    0.017
 4223.00   -0.30254   0.80265    0.000
 4224.00   -0.50985   0.80104    0.000
 4225.00   -0.04358   0.79984    0.000
 4226.00    0.20293   0.79821    0.017
 4227.00   -0.02806   0.79747    0.000
 4228.00    0.00385   0.79738    0.016
 4229.00    0.53156   0.79833    0.016
 4230.00    0.87780   0.80010    0.016
 4231.00    0.92528   0.80108    0.016
 4232.00    0.83914   0.80191    0.016
 4233.00    0.56013   0.80344    0.016
 4234.00    0.42388   0.80520    0.016
 4235.00    0.46889   0.80754    0.016
 4236.00    0.42127   0.80905    0.016
 4237.00    0.27002   0.80987    0.015
 4238.00    0.39184   0.81112    0.015
 4239.00    0.78312   0.81180    0.015
 4240.00    0.99895   0.81301    0.015
 4241.00    1.06208   0.81337    0.016
 4242.00    0.96711   0.81285    0.016
 4243.00    0.75093   0.81256    0.016
 4244.00    0.51187   0.81138    0.016
 4245.00    0.25737   0.81078    0.016
 4246.00    0.04477   0.80958    0.016
 4247.00   -0.14309   0.80772    0.000
 4248.00    0.16118   0.80659    0.016
 4249.00    0.71885   0.80441    0.017
 4250.00    0.80921   0.80295    0.017
 4251.00    0.69107   0.80199    0.017
 4252.00    0.36244   0.80074    0.017
 4253.00   -0.04689   0.80085    0.000
 4254.00    0.53767   0.79984    0.016
 4255.00    1.44615   0.79875    0.016
 4256.00    1.62164   0.79879    0.017
 4257.00    1.59704   0.79879    0.017
 4258.00    1.30367   0.79957    0.017
 4259.00    0.95006   0.79944    0.016
 4260.00    1.23232   0.79817    0.017
 4261.00    1.62831   0.79739    0.017
 4262.00    1.55424   0.79661    0.017
 4263.00    1.41585   0.79546    0.017
 4264.00    1.05679   0.79455    0.017
 4265.00    0.67617   0.79239    0.017
 4266.00    0.66767   0.78970    0.017
 4267.00    0.68192   0.78771    0.017
 4268.00    0.28313   0.78514    0.017
 4269.00   -0.12309   0.78417    0.000
 4270.00    0.19867   0.78284    0.016
 4271.00    0.51642   0.78040    0.017
 4272.00    0.72800   0.77978    0.016
 4273.00    0.92085   0.77894    0.016
 4274.00    0.85638   0.77940    0.017
 4275.00    0.77761   0.78000    0.017
 4276.00    0.56884   0.77869    0.017
 4277.00    0.37305   0.77935    0.017
 4278.00    0.26360   0.77988    0.017
 4279.00    0.24449   0.77996    0.017
 4280.00    0.69303   0.77998    0.017
 4281.00    1.01705   0.77801    0.017
 4282.00    0.82124   0.77746   -2.000
 4283.00    0.73605   0.77704   -2.000
 4284.00    1.03266   0.77557   -2.000
 4285.00    1.23080   0.77335   -2.000
 4286.00    1.14269   0.77050   -2.000
 4287.00    1.08272   0.76894   -2.000
 4288.00    1.09255   0.76711   -2.000
 4289.00    0.91210   0.76499   -2.000
 4290.00    0.32489   0.76120   -2.000
 4291.00   -0.01769   0.75765   -2.000
 4292.00    0.09395   0.75579   -2.000
 4293.00    0.23525   0.75243   -2.000
 4294.00    0.42464   0.74924   -2.000
 4295.00    0.59679   0.74478   -2.000
 4296.00    0.74441   0.74038   -2.000
 4297.00    0.70907   0.73818   -2.000
 4298.00    0.44474   0.73442    0.017
 4299.00    0.25373   0.73069    0.017
 4300.00    0.14362   0.72781    0.017
 4301.00    0.30175   0.72513    0.017
 4302.00    0.72086   0.72459    0.017
 4303.00    0.66655   0.72385    0.017
 4304.00    0.20605   0.72305    0.017
 4305.00    0.15449   0.72452    0.016
 4306.00    0.41198   0.72674    0.016
 4307.00    0.49666   0.73051    0.016
 4308.00    0.46658   0.73458    0.016
 4309.00    0.45977   0.73841    0.016
 4310.00    0.46649   0.74385    0.016
 4311.00    0.48501   0.74948    0.016
 4312.00    0.50952   0.75577    0.016
 4313.00    0.74662   0.76150    0.016
 4314.00    1.07700   0.76573    0.016
 4315.00    1.20878   0.77007    0.016
 4316.00    1.26575   0.77329    0.016
 4317.00    1.07891   0.77619    0.016
 4318.00    0.81412   0.77869    0.016
 4319.00    0.79239   0.77870    0.016
 4320.00    0.83561   0.77817    0.015
 4321.00    0.82252   0.77668    0.015
 4322.00    0.79710   0.77461    0.015
 4323.00    0.70414   0.77352    0.015
 4324.00    0.59943   0.77032    0.016
 4325.00    0.46933   0.76626    0.016
 4326.00    0.33586   0.76174    0.015
 4327.00    0.75064   0.75662    0.016
 4328.00    1.21665   0.75215    0.016
 4329.00    1.04221   0.74602    0.016
 4330.00    0.83113   0.73874    0.000
 4331.00    0.80754   0.73063    0.000
 4332.00    0.78954   0.72266    0.000
 4333.00    0.91479   0.71512    0.000
 4334.00    1.03091   0.70693    0.000
 4335.00    0.92805   0.69937    0.000
 4336.00    0.82667   0.69193    0.000
 4337.00    0.74451   0.68656    0.000
 4338.00    0.67331   0.68370    0.000
 4339.00    0.69793   0.68164    0.000
 4340.00    0.68689   0.68182    0.000
 4341.00    0.44548   0.68350    0.000
 4342.00    0.20228   0.68677    0.000
 4343.00   -0.04994   0.69275    0.000
 4344.00   -0.19001   0.69980    0.000
 4345.00    0.12769   0.70742    0.000
 4346.00    0.38164   0.71565    0.000
 4347.00    0.41991   0.72332    0.000
 4348.00    0.38600   0.73170    0.000
 4349.00    0.14613   0.74073    0.000
 4350.00    0.07877   0.74847    0.000
 4351.00    0.43205   0.75580    0.015
 4352.00    0.69737   0.76238    0.015
 4353.00    0.77770   0.76864    0.015
 4354.00    0.73810   0.77483    0.015
 4355.00    0.47922   0.77969    0.015
 4356.00    0.43663   0.78463    0.015
 4357.00    0.73961   0.78885    0.016
 4358.00    0.86142   0.79211    0.016
 4359.00    0.72926   0.79496    0.015
 4360.00    0.67184   0.79697    0.015
 4361.00    0.70666   0.79922    0.015
 4362.00    0.86114   0.80032    0.015
 4363.00    1.14574   0.80016    0.016
 4364.00    1.16036   0.80002    0.016
 4365.00    0.91598   0.79921    0.016
 4366.00    0.52965   0.79819    0.016
 4367.00    0.02325   0.79673    0.015
 4368.00   -0.05660   0.79465    0.000
 4369.00    0.18129   0.79258    0.015
 4370.00    0.59534   0.78982    0.015
 4371.00    1.12466   0.78687    0.015
 4372.00    1.08687   0.78474    0.015
 4373.00    0.72427   0.78216    0.016
 4374.00    0.60986   0.77859    0.016
 4375.00    0.61924   0.77479    0.016
 4376.00    0.56558   0.77154    0.016
 4377.00    0.48472   0.76970    0.016
 4378.00    0.58970   0.76653    0.015
 4379.00    0.76344   0.76195    0.015
 4380.00    0.77371   0.75893    0.015
 4381.00    0.73271   0.75694    0.015
 4382.00    0.53552   0.75639    0.016
 4383.00    0.29747   0.75485    0.016
 4384.00    0.41156   0.75254    0.015
 4385.00    0.60088   0.75318    0.015
 4386.00    0.60435   0.75393    0.015
 4387.00    0.57639   0.75571    0.016
 4388.00    0.59161   0.75830    0.016
 4389.00    0.61235   0.75976    0.015
 4390.00    0.55475   0.76272    0.015
 4391.00    0.49016   0.76466    0.015
 4392.00    0.36107   0.76709    0.015
 4393.00    0.22854   0.77144    0.015
 4394.00    0.87349   0.77316    0.016
 4395.00    1.51771   0.77404    0.016
 4396.00    0.86541   0.77455    0.016
 4397.00    0.25083   0.77546    0.015
 4398.00    0.46509   0.77809    0.015
 4399.00    0.66115   0.77784    0.015
 4400.00    0.63229   0.77590    0.016
 4401.00    0.60563   0.77563    0.016
 4402.00    0.59737   0.77623    0.016
 4403.00    0.57490   0.77708    0.016
 4404.00    0.46330   0.77652    0.016
 4405.00    0.40576   0.77516    0.016
 4406.00    0.61408   0.77597    0.016
 4407.00    0.72118   0.77741    0.015
 4408.00    0.42421   0.77801    0.015
 4409.00    0.24902   0.77916    0.015
 4410.00    0.47768   0.77938    0.015
 4411.00    0.61722   0.78000    0.015
 4412.00    0.50705   0.78215    0.015
 4413.00    0.41418   0.78270    0.015
 4414.00    0.36278   0.78413    0.015
 4415.00    0.32171   0.78574    0.015
 4416.00    0.30201   0.78597    0.015
 4417.00    0.26799   0.78761    0.016
 4418.00    0.20818   0.78758    0.015
 4419.00    0.19796   0.78811    0.015
 4420.00    0.26578   0.79012    0.015
 4421.00    0.31286   0.78960    0.015
 4422.00    0.33127   0.78990    0.015
 4423.00    0.39405   0.78970    0.015
 4424.00    0.51079   0.78938    0.015
 4425.00    0.47536   0.79034    0.015
 4426.00    0.27676   0.78839    0.015
 4427.00    0.20482   0.78788    0.015
 4428.00    0.25269   0.78854    0.015
 4429.00    0.32633   0.78761    0.015
 4430.00    0.42148   0.78749    0.015
 4431.00    0.42384   0.78597    0.015
 4432.00    0.35810   0.78572    0.015
 4433.00    0.43521   0.78704    0.016
 4434.00    0.60442   0.78665    0.016
 4435.00    0.63636   0.78712    0.016
 4436.00    0.59089   0.78764    0.015
 4437.00    0.44335   0.78775    0.015
 4438.00    0.24571   0.78830    0.015
 4439.00    0.22030   0.78863    0.015
 4440.00    0.26797   0.78950    0.015
 4441.00    0.46253   0.79088    0.015
 4442.00    0.71048   0.79122    0.016
 4443.00    0.69341   0.79023    0.015
 4444.00    0.59484   0.79049    0.015
 4445.00    0.21704   0.79074    0.016
 4446.00   -0.23224   0.78955    0.000
 4447.00   -0.25667   0.78894    0.000
 4448.00   -0.19255   0.78750    0.000
 4449.00   -0.13923   0.78610    0.000
 4450.00   -0.08767   0.78451    0.000
 4451.00    0.32791   0.78132    0.015
 4452.00    0.78838   0.77960    0.015
 4453.00    0.54256   0.77818    0.014
 4454.00    0.23666   0.77584    0.014
 4455.00    0.43006   0.77374    0.014
 4456.00    0.64809   0.77187    0.014
 4457.00    0.48868   0.77021    0.014
 4458.00    0.32788   0.76869    0.014
 4459.00    0.45725   0.76815    0.014
 4460.00    0.57305   0.76768    0.014
 4461.00    0.41401   0.76728    0.000
 4462.00    0.26510   0.76684    0.000
 4463.00    0.23530   0.76660    0.000
 4464.00    0.23988   0.76777    0.000
 4465.00    0.52329   0.76865    0.000
 4466.00    0.76185   0.76949    0.000
 4467.00    0.72754   0.77005    0.000
 4468.00    0.65586   0.77143    0.000
 4469.00    0.40490   0.77475    0.000
 4470.00    0.21611   0.77669    0.000
 4471.00    0.27006   0.77803    0.000
 4472.00    0.31122   0.77993    0.000
 4473.00    0.31076   0.78246    0.000
 4474.00    0.31704   0.78595    0.000
 4475.00    0.34186   0.78762    0.000
 4476.00    0.32495   0.78841    0.000
 4477.00    0.20973   0.79011    0.000
 4478.00    0.20927   0.79198    0.000
 4479.00    0.44255   0.79410    0.000
 4480.00    0.48669   0.79490    0.000
 4481.00    0.19553   0.79522    0.000
 4482.00   -0.01435   0.79633    0.000
 4483.00   -0.09817   0.79714    0.000
 4484.00   -0.06657   0.79736    0.000
 4485.00    0.12222   0.79707    0.014
 4486.00    0.20971   0.79739    0.014
 4487.00    0.17573   0.79835    0.013
 4488.00    0.14994   0.79907    0.013
 4489.00    0.13282   0.79907    0.014
 4490.00    0.22952   0.79860    0.014
 4491.00    0.43236   0.79955    0.014
 4492.00    0.47960   0.80073    0.014
 4493.00    0.39893   0.80190    0.013
 4494.00    0.30337   0.80360    0.013
 4495.00    0.19705   0.80483    0.013
 4496.00    0.33136   0.80699    0.013
 4497.00    0.61852   0.80835    0.014
 4498.00    0.69961   0.80979    0.013
 4499.00    0.66625   0.81297    0.013
 4500.00    0.49384   0.81477    0.013
 4501.00    0.25426   0.81650    0.013
 4502.00    0.17855   0.81780    0.013
 4503.00    0.17121   0.81820    0.013
 4504.00    0.41962   0.81985    0.013
 4505.00    0.75929   0.81985    0.014
 4506.00    0.88056   0.81947    0.013
 4507.00    0.93596   0.81976    0.013
 4508.00    0.93034   0.81820    0.013
 4509.00    0.90943   0.81731    0.013
 4510.00    0.81664   0.81546    0.013
 4511.00    0.70923   0.81288    0.013
 4512.00    0.58669   0.81244    0.013
 4513.00    0.46174   0.80975    0.013
 4514.00    0.52352   0.80679    0.013
 4515.00    0.60749   0.80498    0.013
 4516.00    0.62532   0.80152    0.013
 4517.00    0.63781   0.79991    0.013
 4518.00    0.60634   0.79679    0.013
 4519.00    0.57286   0.79231    0.013
 4520.00    0.55296   0.79097    0.013
 4521.00    0.53408   0.78743    0.013
 4522.00    0.55880   0.78377    0.013
 4523.00    0.58905   0.78120    0.013
 4524.00    0.72329   0.77708    0.013
 4525.00    0.84643   0.77575    0.013
 4526.00    0.84521   0.77363    0.013
 4527.00    0.84247   0.77038    0.013
 4528.00    0.82793   0.77027    0.013
 4529.00    0.79196   0.76876    0.013
 4530.00    0.62922   0.76811    0.013
 4531.00    0.51041   0.76855    0.013
 4532.00    0.59724   0.76789    0.013
 4533.00    0.67840   0.77018    0.013
 4534.00    0.73786   0.77135    0.013
 4535.00    0.74151   0.77160    0.013
 4536.00    0.56721   0.77358    0.013
 4537.00    0.42025   0.77361    0.013
 4538.00    0.34714   0.77536    0.013
 4539.00    0.36038   0.77765    0.013
 4540.00    0.57365   0.77698    0.013
 4541.00    0.66720   0.77806    0.013
 4542.00    0.52074   0.77857    0.013
 4543.00    0.32695   0.77829    0.013
 4544.00    0.05054   0.77963    0.013
 4545.00   -0.11078   0.77825    0.000
 4546.00   -0.09625   0.77818    0.000
 4547.00   -0.00524   0.78033    0.000
 4548.00    0.18843   0.77915    0.013
 4549.00    0.35978   0.77943    0.013
 4550.00    0.50476   0.78054    0.000
 4551.00    0.55961   0.78038    0.000
 4552.00    0.52051   0.78265    0.000
 4553.00    0.49767   0.78343    0.000
 4554.00    0.48980   0.78392    0.000
 4555.00    0.58239   0.78680    0.000
 4556.00    0.75640   0.78719    0.000
 4557.00    0.85895   0.78828    0.000
 4558.00    0.91052   0.79080    0.000
 4559.00    0.83146   0.79071    0.000
 4560.00    0.67064   0.79190    0.000
 4561.00    0.63426   0.79326    0.000
 4562.00    0.66592   0.79323    0.000
 4563.00    0.63663   0.79475    0.000
 4564.00    0.57836   0.79432    0.000
 4565.00    0.61047   0.79388    0.000
 4566.00    0.67965   0.79558    0.000
 4567.00    0.73936   0.79416    0.000
 4568.00    0.79574   0.79333    0.000
 4569.00    0.72481   0.79445    0.000
 4570.00    0.61626   0.79343    0.000
 4571.00    0.39628   0.79296    0.000
 4572.00    0.14902   0.79213    0.000
 4573.00    0.36609   0.79056    0.000
 4574.00    0.67518   0.79080    0.000
 4575.00    0.69479   0.78946    0.000
 4576.00    0.66959   0.78721    0.000
 4577.00    0.76651   0.78714    0.000
 4578.00    0.87740   0.78655    0.000
 4579.00    1.00489   0.78475    0.000
 4580.00    1.13364   0.78380    0.000
 4581.00    0.88409   0.78305    0.000
 4582.00    0.61878   0.78218    0.000
 4583.00    0.51231   0.78181    0.000
 4584.00    0.41058   0.78087    0.000
 4585.00    0.45348   0.78023    0.000
 4586.00    0.49555   0.78041    0.000
 4587.00    0.52339   0.77952    0.000
 4588.00    0.54035   0.77860    0.000
 4589.00    0.44085   0.77877    0.000
 4590.00    0.35359   0.77836    0.000
 4591.00    0.35888   0.77771    0.000
 4592.00    0.39051   0.77777    0.000
 4593.00    0.57362   0.77728    0.000
 4594.00    0.73757   0.77718    0.000
 4595.00    0.81401   0.77774    0.000
 4596.00    0.86751   0.77729    0.000
 4597.00    0.83517   0.77786    0.000
 4598.00    0.78161   0.77889    0.000
 4599.00    0.66167   0.77924    0.000
 4600.00    0.62394   0.78084    0.000
 4601.00    0.80446   0.78176    0.000
 4602.00    0.94698   0.78292    0.000
 4603.00    1.00292   0.78500    0.000
 4604.00    0.97526   0.78606    0.000
 4605.00    0.78267   0.78804    0.000
 4606.00    0.70712   0.78937    0.000
 4607.00    0.83281   0.79034    0.000
 4608.00    0.95466   0.79272    0.000
 4609.00    1.07072   0.79314    0.000
 4610.00    1.08475   0.79428    0.000
 4611.00    0.96377   0.79601    0.000
 4612.00    0.94909   0.79549    0.000
 4613.00    1.05828   0.79692    0.000
 4614.00    1.08417   0.79758    0.000
 4615.00    1.02445   0.79638    0.000
 4616.00    0.81527   0.79771    0.000
 4617.00    0.47060   0.79764    0.000
 4618.00    0.43288   0.79669    0.000
 4619.00    0.64040   0.79737    0.000
 4620.00    0.67340   0.79637    0.000
 4621.00    0.58373   0.79580    0.000
 4622.00    0.50495   0.79561    0.000
 4623.00    0.43288   0.79376    0.000
 4624.00    0.52584   0.79337    0.000
 4625.00    0.70766   0.79264    0.000
 4626.00    0.76318   0.79023    0.000
 4627.00    0.75964   0.78919    0.000
 4628.00    0.75030   0.78786    0.000
 4629.00    0.73864   0.78569    0.000
 4630.00    0.75180   0.78363    0.000
 4631.00    0.77350   0.78122    0.000
 4632.00    0.76060   0.77964    0.000
 4633.00    0.73768   0.77729    0.000
 4634.00    0.75739   0.77424    0.000
 4635.00    0.78730   0.77261    0.000
 4636.00    0.65426   0.77022    0.000
 4637.00    0.48974   0.76778    0.000
 4638.00    0.45876   0.76601    0.000
 4639.00    0.44783   0.76313    0.000
 4640.00    0.55921   0.76141    0.000
 4641.00    0.68406   0.76001    0.000
 4642.00    0.79188   0.75767    0.000
 4643.00    0.89846   0.75682    0.000
 4644.00    0.96592   0.75575    0.000
 4645.00    1.03191   0.75510    0.000
 4646.00    0.72208   0.75576    0.000
 4647.00    0.41786   0.75474    0.000
 4648.00    0.39192   0.75509    0.000
 4649.00    0.37279   0.75692    0.000
 4650.00    0.46486   0.75686    0.000
 4651.00    0.53982   0.75810    0.000
 4652.00    0.43978   0.75980    0.000
 4653.00    0.34893   0.76090    0.000
 4654.00    0.32528   0.76272    0.000
 4655.00    0.35690   0.76319    0.000
 4656.00    0.69741   0.76388    0.000
 4657.00    0.97181   0.76501    0.000
 4658.00    0.95126   0.76459    0.000
 4659.00    0.95047   0.76420    0.000
 4660.00    1.02210   0.76362    0.000
 4661.00    1.03978   0.76306    0.000
 4662.00    0.89194   0.76242    0.000
 4663.00    0.78175   0.76090    0.000
 4664.00    0.76976   0.76023    0.000
 4665.00    0.83160   0.75938    0.000
 4666.00    1.05892   0.75808    0.000
 4667.00    1.04818   0.75760    0.000
 4668.00    0.57509   0.75685    0.000
 4669.00    0.29042   0.75686    0.000
 4670.00    0.32487   0.75712    0.000
 4671.00    0.36142   0.75640    0.000
 4672.00    0.40108   0.75680    0.000
 4673.00    0.53473   0.75759    0.000
 4674.00    0.79097   0.75740    0.000
 4675.00    0.90076   0.75755    0.000
 4676.00    0.84230   0.75820    0.000
 4677.00    0.77953   0.75833    0.000
 4678.00    0.71242   0.75791    0.000
 4679.00    0.71376   0.75820    0.000
 4680.00    0.77628   0.75854    0.000
 4681.00    0.77481   0.75828    0.000
 4682.00    0.72293   0.75869    0.000
 4683.00    0.70349   0.75855    0.000
 4684.00    0.70652   0.75838    0.000
 4685.00    0.71896   0.75920    0.000
 4686.00    0.73713   0.75887    0.000
 4687.00    0.76686   0.75892    0.000
 4688.00    0.80271   0.75973    0.000
 4689.00    0.78644   0.75918    0.000
 4690.00    0.74618   0.75932    0.000
 4691.00    0.79093   0.75905    0.000
 4692.00    0.86935   0.75778    0.000
 4693.00    0.76499   0.75814    0.000
 4694.00    0.59891   0.75735    0.000
 4695.00    0.54711   0.75540    0.000
 4696.00    0.52775   0.75490    0.000
 4697.00    0.57162   0.75390    0.000
 4698.00    0.63029   0.75264    0.000
 4699.00    0.41608   0.75133    0.000
 4700.00    0.15053   0.74985    0.000
 4701.00    0.30200   0.74967    0.000
 4702.00    0.51413   0.74835    0.000
 4703.00    0.52072   0.74682    0.000
 4704.00    0.50558   0.74785    0.000
 4705.00    0.54045   0.74774    0.000
 4706.00    0.57875   0.74711    0.000
 4707.00    0.54851   0.74809    0.000
 4708.00    0.51593   0.74882    0.000
 4709.00    0.42735   0.75020    0.000
 4710.00    0.35147   0.75170    0.000
 4711.00    0.69179   0.75258    0.000
 4712.00    0.99760   0.75495    0.000
 4713.00    0.77418   0.75679    0.000
 4714.00    0.56823   0.75787    0.000
 4715.00    0.53357   0.76021    0.000
 4716.00    0.50954   0.76174    0.000
 4717.00    0.56067   0.76271    0.000
 4718.00    0.61053   0.76398    0.000
 4719.00    0.65351   0.76487    0.000
 4720.00    0.68284   0.76515    0.000
 4721.00    0.65269   0.76497    0.000
 4722.00    0.61871   0.76509    0.000
 4723.00    0.57100   0.76458    0.000
 4724.00    0.55904   0.76333    0.000
 4725.00    0.65469   0.76328    0.000
 4726.00    0.73356   0.76214    0.000
 4727.00    0.76946   0.76050    0.000
 4728.00    0.78943   0.76092    0.000
 4729.00    0.77426   0.75975    0.000
 4730.00    0.75749   0.75855    0.000
 4731.00    0.73766   0.75941    0.000
 4732.00    0.73819   0.75860    0.000
 4733.00    0.77266   0.75866    0.000
 4734.00    0.75549   0.75983    0.000
 4735.00    0.66281   0.75932    0.000
 4736.00    0.58822   0.76090    0.000
 4737.00    0.53691   0.76215    0.000
 4738.00    0.47657   0.76132    0.000
 4739.00    0.40602   0.76352    0.000
 4740.00    0.39309   0.76473    0.000
 4741.00    0.43773   0.76376    0.000
 4742.00    0.51893   0.76538    0.000
 4743.00    0.63235   0.76633    0.000
 4744.00    0.69885   0.76579    0.000
 4745.00    0.72893   0.76609    0.000
 4746.00    0.69836   0.76584    0.000
 4747.00    0.62639   0.76552    0.000
 4748.00    0.56423   0.76534    0.000
 4749.00    0.50795   0.76383    0.000
 4750.00    0.47968   0.76295    0.000
 4751.00    0.46602   0.76232    0.000
 4752.00    0.48939   0.76024    0.000
 4753.00    0.52950   0.75883    0.000
 4754.00    0.50209   0.75767    0.000
 4755.00    0.44839   0.75523    0.000
 4756.00    0.46683   0.75355    0.000
 4757.00    0.50918   0.75233    0.000
 4758.00    0.56891   0.75012    0.000
 4759.00    0.63348   0.74874    0.000
 4760.00    0.55657   0.74782    0.000
 4761.00    0.44731   0.74643    0.012
 4762.00    0.59828   0.74574    0.012
 4763.00    0.79692   0.74533    0.012
 4764.00    0.72318   0.74495    0.012
 4765.00    0.61107   0.74507    0.011
 4766.00    0.59590   0.74482    0.012
 4767.00    0.59056   0.74536    0.012
 4768.00    0.65112   0.74662    0.012
 4769.00    0.71594   0.74659    0.011
 4770.00    0.67173   0.74723    0.012
 4771.00    0.62436   0.74881    0.012
 4772.00    0.63948   0.74895    0.012
 4773.00    0.65384   0.74909    0.012
 4774.00    0.64639   0.75022    0.011
 4775.00    0.64753   0.75046    0.011
 4776.00    0.77293   0.74944    0.011
 4777.00    0.86073   0.74952    0.011
 4778.00    0.59483   0.75029    0.011
 4779.00    0.38650   0.74889    0.011
 4780.00    0.57233   0.74824    0.011
 4781.00    0.74048   0.74870    0.011
 4782.00    0.81489   0.74751    0.011
 4783.00    0.87202   0.74741    0.011
 4784.00    0.85556   0.74740    0.011
 4785.00    0.82673   0.74681    0.011
 4786.00    0.75440   0.74786    0.011
 4787.00    0.67234   0.74754    0.011
 4788.00    0.56153   0.74753    0.011
 4789.00    0.47774   0.74936    0.011
 4790.00    0.46198   0.74899    0.011
 4791.00    0.50017   0.74925    0.011
 4792.00    0.65536   0.75094    0.011
 4793.00    0.76514   0.75073    0.011
 4794.00    0.78945   0.75103    0.011
 4795.00    0.82983   0.75190    0.011
 4796.00    0.89661   0.75185    0.011
 4797.00    0.83811   0.75174    0.011
 4798.00    0.59913   0.75159    0.011
 4799.00    0.45294   0.75167    0.011
 4800.00    0.42435   0.75117    0.011
 4801.00    0.45575   0.75039    0.012
 4802.00    0.55415   0.75039    0.012
 4803.00    0.55226   0.74975    0.012
 4804.00    0.45160   0.74917    0.012
 4805.00    0.49632   0.74927    0.012
 4806.00    0.66732   0.74876    0.012
 4807.00    0.70107   0.74875    0.012
 4808.00    0.62980   0.74886    0.012
 4809.00    0.65395   0.74835    0.012
 4810.00    0.74229   0.74862    0.012
 4811.00    0.74317   0.74891    0.012
 4812.00    0.69252   0.74878    0.012
 4813.00    0.66292   0.74855    0.012
 4814.00    0.64415   0.74867    0.012
 4815.00    0.53876   0.74896    0.012
 4816.00    0.39481   0.74809    0.012
 4817.00    0.41420   0.74782    0.012
 4818.00    0.49608   0.74778    0.012
 4819.00    0.59655   0.74643    0.012
 4820.00    0.70306   0.74625    0.012
 4821.00    0.65751   0.74552    0.012
 4822.00    0.57056   0.74361    0.011
 4823.00    0.58001   0.74373    0.011
 4824.00    0.61099   0.74256    0.011
 4825.00    0.67026   0.74062    0.012
 4826.00    0.73458   0.74082    0.012
 4827.00    0.69084   0.73942    0.012
 4828.00    0.63238   0.73790    0.012
 4829.00    0.62161   0.73787    0.012
 4830.00    0.61548   0.73645    0.012
 4831.00    0.61116   0.73575    0.012
 4832.00    0.60696   0.73531    0.012
 4833.00    0.58625   0.73330    0.012
 4834.00    0.56457   0.73304    0.012
 4835.00    0.44939   0.73260    0.012
 4836.00    0.34479   0.73020    0.012
 4837.00    0.51619   0.72954    0.012
 4838.00    0.67101   0.72849    0.012
 4839.00    0.59960   0.72596    0.012
 4840.00    0.53429   0.72467    0.011
 4841.00    0.52418   0.72233    0.011
 4842.00    0.52712   0.71912    0.011
 4843.00    0.61672   0.71700    0.011
 4844.00    0.66241   0.71287    0.011
 4845.00    0.48151   0.70808    0.011
 4846.00    0.37471   0.70465    0.011
 4847.00    0.57643   0.69895    0.012
 4848.00    0.67956   0.69231    0.000
 4849.00    0.44323   0.68717    0.000
 4850.00    0.34237   0.68001    0.000
 4851.00    0.63440   0.67159    0.000
 4852.00    0.85638   0.66535    0.000
 4853.00    0.90504   0.65841    0.000
 4854.00    0.81773   0.65043    0.000
 4855.00    0.44038   0.64481    0.000
 4856.00    0.29506   0.63901    0.000
 4857.00    0.57972   0.63328    0.000
 4858.00    0.71391   0.63040    0.000
 4859.00    0.60455   0.62731    0.000
 4860.00    0.53831   0.62538    0.000
 4861.00    0.53331   0.62629    0.000
 4862.00    0.48692   0.62647    0.000
 4863.00    0.38882   0.62880    0.000
 4864.00    0.36824   0.63338    0.000
 4865.00    0.43300   0.63592    0.000
 4866.00    0.49013   0.64110    0.000
 4867.00    0.53984   0.64827    0.000
 4868.00    0.55582   0.65237    0.000
 4869.00    0.54291   0.65826    0.000
 4870.00    0.52433   0.66570    0.000
 4871.00    0.50146   0.67022    0.000
 4872.00    0.51529   0.67519    0.000
 4873.00    0.55347   0.68109    0.000
 4874.00    0.57314   0.68526    0.000
 4875.00    0.58207   0.68887    0.011
 4876.00    0.55035   0.69246    0.011
 4877.00    0.49806   0.69580    0.011
 4878.00    0.50897   0.69842    0.011
 4879.00    0.54755   0.70016    0.011
 4880.00    0.62823   0.70238    0.011
 4881.00    0.72472   0.70418    0.011
 4882.00    0.80565   0.70524    0.011
 4883.00    0.88161   0.70676    0.011
 4884.00    0.69098   0.70824    0.011
 4885.00    0.42929   0.70972    0.011
 4886.00    0.51463   0.71082    0.011
 4887.00    0.67568   0.71237    0.011
 4888.00    0.57735   0.71509    0.011
 4889.00    0.43406   0.71606    0.011
 4890.00    0.43475   0.71772    0.011
 4891.00    0.45441   0.72137    0.011
 4892.00    0.55019   0.72238    0.011
 4893.00    0.65305   0.72415    0.011
 4894.00    0.65479   0.72751    0.011
 4895.00    0.65080   0.72798    0.011
 4896.00    0.60082   0.72971    0.011
 4897.00    0.55043   0.73196    0.011
 4898.00    0.56959   0.73151    0.011
 4899.00    0.58971   0.73267    0.011
 4900.00    0.63292   0.73349    0.011
 4901.00    0.66619   0.73226    0.011
 4902.00    0.57095   0.73258    0.011
 4903.00    0.48736   0.73207    0.011
 4904.00    0.50510   0.73014    0.011
 4905.00    0.54823   0.72940    0.011
 4906.00    0.75475   0.72810    0.011
 4907.00    0.87940   0.72587    0.011
 4908.00    0.59237   0.72387    0.011
 4909.00    0.39057   0.72219    0.011
 4910.00    0.53569   0.72027    0.011
 4911.00    0.66148   0.71722    0.011
 4912.00    0.72204   0.71512    0.011
 4913.00    0.73269   0.71388    0.011
 4914.00    0.60124   0.71072    0.011
 4915.00    0.47493   0.70871    0.011
 4916.00    0.36115   0.70828    0.011
 4917.00    0.31035   0.70586    0.011
 4918.00    0.39175   0.70489    0.011
 4919.00    0.51924   0.70565    0.011
 4920.00    0.73083   0.70445    0.011
 4921.00    0.83645   0.70494    0.011
 4922.00    0.77307   0.70672    0.011
 4923.00    0.72028   0.70658    0.011
 4924.00    0.68229   0.70850    0.011
 4925.00    0.67479   0.71059    0.010
 4926.00    0.70484   0.71054    0.010
 4927.00    0.73497   0.71332    0.010
 4928.00    0.76518   0.71532    0.011
 4929.00    0.78223   0.71477    0.011
 4930.00    0.78670   0.71768    0.011
 4931.00    0.66901   0.71918    0.011
 4932.00    0.44819   0.71781    0.011
 4933.00    0.47472   0.72042    0.011
 4934.00    0.68517   0.72158    0.011
 4935.00    0.85900   0.72023    0.011
 4936.00    1.00891   0.72263    0.011
 4937.00    0.99852   0.72360    0.011
 4938.00    0.89649   0.72280    0.011
 4939.00    0.73847   0.72523    0.011
 4940.00    0.55259   0.72618    0.000
 4941.00    0.44320   0.72567    0.000
 4942.00    0.36674   0.72792    0.000
 4943.00    0.48891   0.72888    0.000
 4944.00    0.68443   0.72823    0.000
 4945.00    0.81047   0.72955    0.000
 4946.00    0.91479   0.72977    0.000
 4947.00    0.86773   0.72849    0.000
 4948.00    0.78119   0.72895    0.000
 4949.00    0.80157   0.72828    0.000
 4950.00    0.84471   0.72593    0.000
 4951.00    0.76270   0.72547    0.000
 4952.00    0.65960   0.72415    0.000
 4953.00    0.58534   0.72136    0.000
 4954.00    0.51476   0.72048    0.000
 4955.00    0.51294   0.71890    0.000
 4956.00    0.51722   0.71652    0.000
 4957.00    0.44391   0.71586    0.000
 4958.00    0.36651   0.71437    0.000
 4959.00    0.48902   0.71282    0.000
 4960.00    0.61249   0.71267    0.000
 4961.00    0.51076   0.71159    0.000
 4962.00    0.41785   0.71081    0.000
 4963.00    0.51659   0.71095    0.000
 4964.00    0.60850   0.71043    0.000
 4965.00    0.61643   0.71000    0.000
 4966.00    0.61867   0.70985    0.000
 4967.00    0.57324   0.70993    0.000
 4968.00    0.56672   0.70948    0.000
 4969.00    0.80314   0.70846    0.000
 4970.00    0.97284   0.70846    0.000
 4971.00    0.81543   0.70764    0.000
 4972.00    0.68726   0.70592    0.000
 4973.00    0.67552   0.70540    0.000
 4974.00    0.65493   0.70394    0.000
 4975.00    0.60505   0.70192    0.000
 4976.00    0.53284   0.70108    0.000
 4977.00    0.39825   0.69917    0.000
 4978.00    0.37431   0.69722    0.000
 4979.00    0.61500   0.69660    0.000
 4980.00    0.74848   0.69475    0.000
 4981.00    0.66051   0.69321    0.000
 4982.00    0.59379   0.69333    0.000
 4983.00    0.56525   0.69190    0.000
 4984.00    0.48563   0.69091    0.000
 4985.00    0.32573   0.69189    0.000
 4986.00    0.27626   0.69074    0.000
 4987.00    0.37912   0.69011    0.000
 4988.00    0.42886   0.69156    0.000
 4989.00    0.41409   0.69022    0.000
 4990.00    0.46639   0.68958    0.000
 4991.00    0.59047   0.69077    0.000
 4992.00    0.66395   0.68883    0.000
 4993.00    0.68965   0.68792    0.000
 4994.00    0.72242   0.68826    0.000
 4995.00    0.76108   0.68564    0.000
 4996.00    0.76362   0.68441    0.000
 4997.00    0.73969   0.68382    0.000
 4998.00    0.71877   0.68076    0.000
 4999.00    0.69978   0.67928    0.000
 5000.00    0.63043   0.67814    0.000
 5001.00    0.53273   0.67512    0.000
 5002.00    0.57360   0.67351    0.000
 5003.00    0.68238   0.67235    0.000
 5004.00    0.66381   0.66978    0.000
 5005.00    0.59133   0.66815    0.000
 5006.00    0.58575   0.66735    0.000
 5007.00    0.60443   0.66543    0.000
 5008.00    0.57317   0.66400    0.000
 5009.00    0.52658   0.66379    0.000
 5010.00    0.53880   0.66260    0.000
 5011.00    0.56604   0.66167    0.000
 5012.00    0.46348   0.66223    0.000
 5013.00    0.33395   0.66196    0.000
 5014.00    0.38544   0.66171    0.000
 5015.00    0.46656   0.66305    0.000
 5016.00    0.55563   0.66369    0.000
 5017.00    0.64568   0.66409    0.000
 5018.00    0.62994   0.66615    0.000
 5019.00    0.60526   0.66763    0.000
 5020.00    0.66333   0.66833    0.000
 5021.00    0.72544   0.67073    0.000
 5022.00    0.61036   0.67248    0.000
 5023.00    0.49689   0.67306    0.000
 5024.00    0.64874   0.67542    0.000
 5025.00    0.78806   0.67675    0.000
 5026.00    0.67607   0.67684    0.000
 5027.00    0.56189   0.67872    0.000
 5028.00    0.42215   0.67903    0.000
 5029.00    0.33727   0.67853    0.010
 5030.00    0.69526   0.67962    0.010
 5031.00    1.00434   0.67874    0.010
 5032.00    1.01683   0.67801    0.010
 5033.00    1.01704   0.67831    0.010
 5034.00    0.95850   0.67660    0.010
 5035.00    0.87698   0.67627    0.010
 5036.00    0.70595   0.67615    0.010
 5037.00    0.57390   0.67432    0.011
 5038.00    0.56831   0.67488    0.011
 5039.00    0.55029   0.67485    0.011
 5040.00    0.49817   0.67361    0.011
 5041.00    0.45067   0.67517    0.010
 5042.00    0.41402   0.67554    0.010
 5043.00    0.40296   0.67521    0.010
 5044.00    0.44389   0.67750    0.010
 5045.00    0.44965   0.67832    0.010
 5046.00    0.39316   0.67874    0.010
 5047.00    0.45140   0.68126    0.010
 5048.00    0.68725   0.68239    0.010
 5049.00    0.71196   0.68317    0.010
 5050.00    0.44963   0.68547    0.010
 5051.00    0.30839   0.68659    0.010
 5052.00    0.31208   0.68731    0.010
 5053.00    0.42924   0.68907    0.010
 5054.00    0.66615   0.68971    0.010
 5055.00    0.73661   0.68999    0.010
 5056.00    0.65213   0.69107    0.010
 5057.00    0.61983   0.69090    0.010
 5058.00    0.63034   0.69049    0.011
 5059.00    0.65242   0.69078    0.011
 5060.00    0.68286   0.68970    0.011
 5061.00    0.66276   0.68863    0.011
 5062.00    0.61062   0.68825    0.011
 5063.00    0.58011   0.68647    0.011
 5064.00    0.56158   0.68498    0.010
 5065.00    0.51065   0.68415    0.010
 5066.00    0.44410   0.68208    0.010
 5067.00    0.51266   0.68045    0.010
 5068.00    0.63747   0.67938    0.010
 5069.00    0.69665   0.67739    0.010
 5070.00    0.73245   0.67588    0.011
 5071.00    0.76887   0.67477    0.011
 5072.00    0.80547   0.67310    0.011
 5073.00    0.71557   0.67197    0.011
 5074.00    0.59407   0.67105    0.010
 5075.00    0.42384   0.66988    0.010
 5076.00    0.24375   0.66936    0.010
 5077.00    0.41270   0.66889    0.010
 5078.00    0.63713   0.66835    0.010
 5079.00    0.63653   0.66858    0.010
 5080.00    0.60932   0.66874    0.010
 5081.00    0.60424   0.66883    0.010
 5082.00    0.60095   0.66965    0.010
 5083.00    0.61684   0.67034    0.010
 5084.00    0.63360   0.67087    0.010
 5085.00    0.58826   0.67182    0.010
 5086.00    0.54504   0.67264    0.010
 5087.00    0.64469   0.67320    0.010
 5088.00    0.73741   0.67374    0.010
 5089.00    0.70138   0.67421    0.010
 5090.00    0.66539   0.67443    0.010
 5091.00    0.63000   0.67420    0.009
 5092.00    0.58977   0.67413    0.009
 5093.00    0.51185   0.67385    0.010
 5094.00    0.47228   0.67285    0.010
 5095.00    0.65867   0.67241    0.010
 5096.00    0.79473   0.67175    0.010
 5097.00    0.69591   0.67029    0.010
 5098.00    0.60461   0.66993    0.010
 5099.00    0.54199   0.66916    0.010
 5100.00    0.50085   0.66767    0.009
 5101.00    0.52799   0.66785    0.009
 5102.00    0.54135   0.66717    0.009
 5103.00    0.51758   0.66599    0.009
 5104.00    0.50272   0.66689    0.010
 5105.00    0.50847   0.66639    0.010
 5106.00    0.53015   0.66563    0.010
 5107.00    0.58373   0.66712    0.010
 5108.00    0.65886   0.66669    0.010
 5109.00    0.77153   0.66621    0.010
 5110.00    0.84605   0.66777    0.010
 5111.00    0.86235   0.66721    0.010
 5112.00    0.87755   0.66672    0.010
 5113.00    0.89125   0.66770    0.010
 5114.00    0.84703   0.66680    0.010
 5115.00    0.73446   0.66605    0.010
 5116.00    0.64311   0.66598    0.010
 5117.00    0.57382   0.66469    0.010
 5118.00    0.56781   0.66371    0.010
 5119.00    0.61986   0.66258    0.010
 5120.00    0.69645   0.66110    0.010
 5121.00    0.79287   0.66025    0.010
 5122.00    0.77492   0.65850    0.010
 5123.00    0.67554   0.65712    0.010
 5124.00    0.57928   0.65689    0.010
 5125.00    0.48498   0.65504    0.010
 5126.00    0.49719   0.65388    0.010
 5127.00    0.56753   0.65457    0.010
 5128.00    0.59278   0.65293    0.010
 5129.00    0.59663   0.65180    0.010
 5130.00    0.70887   0.65338    0.010
 5131.00    0.86547   0.65190    0.011
 5132.00    0.90354   0.65044    0.010
 5133.00    0.90018   0.65260    0.010
 5134.00    0.74217   0.65111    0.010
 5135.00    0.53857   0.64910    0.010
 5136.00    0.55647   0.65149    0.010
 5137.00    0.62849   0.64990    0.011
 5138.00    0.68158   0.64747    0.010
 5139.00    0.73094   0.64984    0.010
 5140.00    0.53577   0.64830    0.010
 5141.00    0.30290   0.64589    0.010
 5142.00    0.53628   0.64813    0.010
 5143.00    0.82276   0.64685    0.010
 5144.00    0.68181   0.64499    0.010
 5145.00    0.50825   0.64699    0.010
 5146.00    0.55351   0.64607    0.010
 5147.00    0.60777   0.64506    0.010
 5148.00    0.48753   0.64661    0.010
 5149.00    0.37215   0.64586    0.010
 5150.00    0.52197   0.64552    0.010
 5151.00    0.65857   0.64623    0.010
 5152.00    0.56609   0.64511    0.010
 5153.00    0.48464   0.64485    0.010
 5154.00    0.52054   0.64423    0.010
 5155.00    0.54583   0.64206    0.010
 5156.00    0.49123   0.64112    0.010
 5157.00    0.45726   0.63890    0.010
 5158.00    0.54135   0.63528    0.010
 5159.00    0.62437   0.63322    0.010
 5160.00    0.70251   0.62971    0.010
 5161.00    0.76330   0.62495    0.010
 5162.00    0.75934   0.62198    0.010
 5163.00    0.76207   0.61814    0.010
 5164.00    0.78564   0.61328    0.010
 5165.00    0.76689   0.61019    0.010
 5166.00    0.63606   0.60718    0.010
 5167.00    0.48885   0.60348    0.010
 5168.00    0.30438   0.60120    0.010
 5169.00    0.18377   0.59972    0.010
 5170.00    0.18893   0.59798    0.010
 5171.00    0.26477   0.59703    0.010
 5172.00    0.46192   0.59694    0.010
 5173.00    0.62979   0.59708    0.010
 5174.00    0.75366   0.59752    0.010
 5175.00    0.78322   0.59815    0.010
 5176.00    0.68823   0.59951    0.010
 5177.00    0.61994   0.60106    0.010
 5178.00    0.58274   0.60174    0.010
 5179.00    0.59146   0.60368    0.010
 5180.00    0.64731   0.60610    0.010
 5181.00    0.70082   0.60657    0.010
 5182.00    0.75221   0.60874    0.009
 5183.00    0.68969   0.61189    0.009
 5184.00    0.53631   0.61214    0.009
 5185.00    0.44293   0.61437    0.009
 5186.00    0.39165   0.61807    0.009
 5187.00    0.43694   0.61816    0.009
 5188.00    0.54165   0.62014    0.010
 5189.00    0.57054   0.62405    0.010
 5190.00    0.55867   0.62398    0.000
 5191.00    0.64597   0.62520    0.000
 5192.00    0.77956   0.62883    0.000
 5193.00    0.80372   0.62866    0.000
 5194.00    0.78387   0.62868    0.000
 5195.00    0.76041   0.63152    0.000
 5196.00    0.73572   0.63144    0.000
 5197.00    0.52680   0.63026    0.000
 5198.00    0.26465   0.63201    0.000
 5199.00    0.39804   0.63234    0.000
 5200.00    0.62589   0.63049    0.000
 5201.00    0.56221   0.63128    0.000
 5202.00    0.44242   0.63234    0.000
 5203.00    0.44355   0.63074    0.000
 5204.00    0.46277   0.63105    0.000
 5205.00    0.47703   0.63300    0.000
 5206.00    0.49075   0.63239    0.000
 5207.00    0.49458   0.63276    0.000
 5208.00    0.49770   0.63542    0.000
 5209.00    0.52421   0.63598    0.000
 5210.00    0.55159   0.63657    0.000
 5211.00    0.45995   0.63949    0.010
 5212.00    0.37355   0.64073    0.010
 5213.00    0.49803   0.64123    0.010
 5214.00    0.61781   0.64389    0.010
 5215.00    0.66140   0.64515    0.010
 5216.00    0.68940   0.64503    0.010
 5217.00    0.55859   0.64717    0.010
 5218.00    0.44946   0.64810    0.010
 5219.00    0.49804   0.64705    0.010
 5220.00    0.53223   0.64874    0.010
 5221.00    0.48631   0.64956    0.010
 5222.00    0.44714   0.64780    0.010
 5223.00    0.43806   0.64931    0.010
 5224.00    0.44773   0.65056    0.010
 5225.00    0.52595   0.64872    0.010
 5226.00    0.59347   0.65028    0.010
 5227.00    0.62827   0.65232    0.010
 5228.00    0.60324   0.65108    0.010
 5229.00    0.42254   0.65265    0.010
 5230.00    0.32102   0.65532    0.010
 5231.00    0.39662   0.65502    0.010
 5232.00    0.43802   0.65635    0.010
 5233.00    0.41312   0.65895    0.010
 5234.00    0.40701   0.65951    0.010
 5235.00    0.43264   0.66032    0.010
 5236.00    0.46082   0.66200    0.010
 5237.00    0.49277   0.66299    0.009
 5238.00    0.52058   0.66317    0.009
 5239.00    0.54298   0.66339    0.009
 5240.00    0.54402   0.66428    0.009
 5241.00    0.52055   0.66402    0.009
 5242.00    0.63355   0.66282    0.009
 5243.00    0.88457   0.66322    0.009
 5244.00    0.90379   0.66280    0.009
 5245.00    0.71620   0.66073    0.009
 5246.00    0.58554   0.66045    0.009
 5247.00    0.49964   0.66004    0.009
 5248.00    0.55063   0.65775    0.010
 5249.00    0.69628   0.65670    0.010
 5250.00    0.68880   0.65615    0.010
 5251.00    0.58849   0.65404    0.010
 5252.00    0.53955   0.65207    0.010
 5253.00    0.51780   0.65104    0.010
 5254.00    0.56208   0.64922    0.010
 5255.00    0.63669   0.64616    0.010
 5256.00    0.63594   0.64437    0.010
 5257.00    0.60539   0.64299    0.010
 5258.00    0.53349   0.63898    0.010
 5259.00    0.44764   0.63638    0.010
 5260.00    0.41177   0.63598    0.010
 5261.00    0.39004   0.63181    0.010
 5262.00    0.34338   0.62872    0.010
 5263.00    0.29089   0.62993    0.010
 5264.00    0.21985   0.62686    0.010
 5265.00    0.14535   0.62389    0.010
 5266.00    0.27489   0.62698    0.010
 5267.00    0.43400   0.62617    0.010
 5268.00    0.57936   0.62402    0.011
 5269.00    0.72329   0.62857    0.011
 5270.00    0.71065   0.63034    0.011
 5271.00    0.68733   0.62946    0.011
 5272.00    0.39560   0.63456    0.011
 5273.00    0.09486   0.63822    0.011
 5274.00    0.27996   0.63872    0.010
 5275.00    0.46369   0.64347    0.010
 5276.00    0.58651   0.64777    0.010
 5277.00    0.69991   0.64929    0.010
 5278.00    0.66977   0.65322    0.010
 5279.00    0.63463   0.65704    0.010
 5280.00    0.55071   0.65889    0.010
 5281.00    0.47458   0.66185    0.010
 5282.00    0.45326   0.66462    0.010
 5283.00    0.42892   0.66612    0.010
 5284.00    0.38824   0.66799    0.010
 5285.00    0.37647   0.66967    0.010
 5286.00    0.49034   0.67048    0.010
 5287.00    0.59865   0.67119    0.010
 5288.00    0.68709   0.67195    0.010
 5289.00    0.72873   0.67207    0.010
 5290.00    0.62986   0.67177    0.010
 5291.00    0.56224   0.67203    0.010
 5292.00    0.57452   0.67191    0.010
 5293.00    0.59226   0.67094    0.010
 5294.00    0.62204   0.67109    0.010
 5295.00    0.62745   0.67140    0.010
 5296.00    0.58637   0.67039    0.010
 5297.00    0.56178   0.67071    0.009
 5298.00    0.56464   0.67183    0.010
 5299.00    0.52501   0.67121    0.010
 5300.00    0.42334   0.67175    0.010
 5301.00    0.39903   0.67362    0.010
 5302.00    0.47397   0.67340    0.010
 5303.00    0.58924   0.67387    0.010
 5304.00    0.75011   0.67599    0.010
 5305.00    0.82037   0.67587    0.009
 5306.00    0.80027   0.67584    0.010
 5307.00    0.72022   0.67750    0.009
 5308.00    0.58744   0.67706    0.009
 5309.00    0.53044   0.67623    0.009
 5310.00    0.53217   0.67680    0.009
 5311.00    0.63103   0.67573    0.009
 5312.00    0.79607   0.67418    0.009
 5313.00    0.86902   0.67335    0.009
 5314.00    0.88698   0.67141    0.009
 5315.00    0.74566   0.66955    0.009
 5316.00    0.52136   0.66767    0.009
 5317.00    0.57687   0.66480    0.009
 5318.00    0.75877   0.66300    0.009
 5319.00    0.77998   0.66088    0.010
 5320.00    0.73877   0.65765    0.010
 5321.00    0.73489   0.65629    0.010
 5322.00    0.74335   0.65453    0.010
 5323.00    0.72068   0.65145    0.010
 5324.00    0.68937   0.65092    0.010
 5325.00    0.69535   0.65025    0.010
 5326.00    0.70983   0.64775    0.010
 5327.00    0.61136   0.64805    0.010
 5328.00    0.49228   0.64874    0.010
 5329.00    0.59339   0.64699    0.010
 5330.00    0.72539   0.64787    0.010
 5331.00    0.70486   0.64970    0.010
 5332.00    0.66895   0.64871    0.010
 5333.00    0.72827   0.64998    0.010
 5334.00    0.79371   0.65229    0.010
 5335.00    0.76019   0.65157    0.010
 5336.00    0.72361   0.65306    0.010
 5337.00    0.63630   0.65564    0.009
 5338.00    0.55752   0.65495    0.009
 5339.00    0.72253   0.65635    0.009
 5340.00    0.86414   0.65927    0.010
 5341.00    0.67021   0.65890    0.010
 5342.00    0.50241   0.65999    0.009
 5343.00    0.57909   0.66318    0.009
 5344.00    0.65202   0.66349    0.009
 5345.00    0.69934   0.66423    0.009
 5346.00    0.73974   0.66751    0.009
 5347.00    0.74357   0.66850    0.009
 5348.00    0.72983   0.66885    0.009
 5349.00    0.64152   0.67187    0.009
 5350.00    0.56902   0.67317    0.009
 5351.00    0.55190   0.67291    0.009
 5352.00    0.55446   0.67522    0.009
 5353.00    0.61501   0.67629    0.009
 5354.00    0.65330   0.67521    0.009
 5355.00    0.63565   0.67646    0.009
 5356.00    0.65278   0.67684    0.009
 5357.00    0.74519   0.67494    0.009
 5358.00    0.78544   0.67513    0.009
 5359.00    0.72773   0.67470    0.009
 5360.00    0.67983   0.67206    0.009
 5361.00    0.64800   0.67162    0.009
 5362.00    0.64669   0.67094    0.009
 5363.00    0.68925   0.66795    0.009
 5364.00    0.73385   0.66741    0.009
 5365.00    0.78103   0.66726    0.009
 5366.00    0.74990   0.66452    0.009
 5367.00    0.63150   0.66426    0.009
 5368.00    0.63762   0.66498   -2.000
 5369.00    0.76620   0.66277   -2.000
 5370.00    0.72745   0.66290   -2.000
 5371.00    0.54359   0.66461   -2.000
 5372.00    0.47114   0.66302   -2.000
 5373.00    0.48380   0.66317   -2.000
 5374.00    0.56567   0.66548   -2.000
 5375.00    0.69402   0.66432   -2.000
 5376.00    0.72628   0.66400   -2.000
 5377.00    0.70204   0.66628   -2.000
 5378.00    0.64175   0.66534   -2.000
 5379.00    0.56298   0.66410   -2.000
 5380.00    0.60911   0.66559   -2.000
 5381.00    0.71073   0.66479   -2.000
 5382.00    0.65995   0.66254   -2.000
 5383.00    0.55099   0.66268    0.010
 5384.00    0.54375   0.66218    0.010
 5385.00    0.56950   0.65934    0.010
 5386.00    0.60406   0.65774    0.010
 5387.00    0.64102   0.65763    0.009
 5388.00    0.55971   0.65499    0.009
 5389.00    0.45205   0.65159    0.009
 5390.00    0.49261   0.65156    0.009
 5391.00    0.55949   0.65018    0.009
 5392.00    0.55955   0.64596    0.009
 5393.00    0.55054   0.64528    0.009
 5394.00    0.50509   0.64513    0.009
 5395.00    0.45612   0.64124    0.009
 5396.00    0.49396   0.63986    0.009
 5397.00    0.53702   0.64049    0.009
 5398.00    0.55917   0.63763    0.009
 5399.00    0.58100   0.63613    0.009
 5400.00    0.63915   0.63763    0.009
 5401.00    0.69664   0.63618    0.009
 5402.00    0.73722   0.63454    0.009
 5403.00    0.76990   0.63645    0.009
 5404.00    0.69556   0.63684    0.009
 5405.00    0.62916   0.63604    0.009
 5406.00    0.63417   0.63789    0.009
 5407.00    0.63685   0.63932    0.009
 5408.00    0.62410   0.63972    0.009
 5409.00    0.62363   0.64156    0.009
 5410.00    0.68632   0.64343    0.009
 5411.00    0.75094   0.64474    0.009
 5412.00    0.82355   0.64615    0.009
 5413.00    0.86532   0.64775    0.009
 5414.00    0.80117   0.64973    0.009
 5415.00    0.74810   0.65053    0.009
 5416.00    0.72711   0.65114    0.009
 5417.00    0.71614   0.65308    0.009
 5418.00    0.72996   0.65316    0.009
 5419.00    0.70863   0.65304    0.009
 5420.00    0.61246   0.65468    0.009
 5421.00    0.60505   0.65349    0.009
 5422.00    0.76178   0.65251    0.009
 5423.00    0.81452   0.65430    0.009
 5424.00    0.69923   0.65277    0.009
 5425.00    0.62770   0.65098    0.009
 5426.00    0.61818   0.65254    0.009
 5427.00    0.54833   0.65165    0.009
 5428.00    0.40321   0.64974    0.009
 5429.00    0.42637   0.65093    0.009
 5430.00    0.63449   0.65119    0.009
 5431.00    0.70524   0.64969    0.009
 5432.00    0.64283   0.65044    0.009
 5433.00    0.63671   0.65159    0.009
 5434.00    0.67873   0.65071    0.009
 5435.00    0.71971   0.65087    0.009
 5436.00    0.75991   0.65221    0.009
 5437.00    0.65847   0.65198    0.009
 5438.00    0.46332   0.65129    0.009
 5439.00    0.43841   0.65187    0.009
 5440.00    0.51213   0.65226    0.009
 5441.00    0.58422   0.65119    0.009
 5442.00    0.65547   0.65068    0.009
 5443.00    0.72757   0.65111    0.009
 5444.00    0.80004   0.64989    0.009
 5445.00    0.71374   0.64862    0.009
 5446.00    0.56789   0.64886    0.009
 5447.00    0.52898   0.64755    0.009
 5448.00    0.52409   0.64587    0.009
 5449.00    0.59999   0.64608    0.009
 5450.00    0.69737   0.64536    0.009
 5451.00    0.74381   0.64375    0.009
 5452.00    0.77917   0.64356    0.009
 5453.00    0.76062   0.64378    0.009
 5454.00    0.73275   0.64276    0.009
 5455.00    0.66387   0.64169    0.009
 5456.00    0.58962   0.64245    0.009
 5457.00    0.68579   0.64254    0.009
 5458.00    0.79770   0.64082    0.009
 5459.00    0.72915   0.64124    0.009
 5460.00    0.65045   0.64244    0.009
 5461.00    0.65204   0.64090    0.009
 5462.00    0.65606   0.63989    0.009
 5463.00    0.72670   0.64135    0.009
 5464.00    0.79033   0.64097    0.009
 5465.00    0.68946   0.63838    0.009
 5466.00    0.59748   0.63899    0.009
 5467.00    0.61981   0.64024    0.009
 5468.00    0.63619   0.63702    0.009
 5469.00    0.60116   0.63599    0.009
 5470.00    0.59216   0.63845    0.009
 5471.00    0.75004   0.63627    0.009
 5472.00    0.86399   0.63373    0.009
 5473.00    0.75767   0.63590    0.009
 5474.00    0.65865   0.63607    0.009
 5475.00    0.58925   0.63344    0.009
 5476.00    0.51902   0.63409    0.009
 5477.00    0.44598   0.63617    0.009
 5478.00    0.41300   0.63479   -2.000
 5479.00    0.49380   0.63394   -2.000
 5480.00    0.54410   0.63683   -2.000
 5481.00    0.52033   0.63736   -2.000
 5482.00    0.43783   0.63530   -2.000
 5483.00    0.23233   0.63746   -2.000
 5484.00    0.04210   0.63993   -2.000
 5485.00   -0.12030   0.63783   -2.000
 5486.00   -0.27594   0.63822   -2.000
 5487.00   -0.42082   0.64161   -2.000
 5488.00   -0.44806   0.64044   -2.000
 5489.00   -0.31096   0.63872   -2.000
 5490.00    0.01244   0.64172   -2.000
 5491.00    0.56490   0.64224   -2.000
 5492.00    0.99690   0.63913   -2.000
 5493.00    1.29835   0.64033   -2.000
 5494.00    1.36928   0.64217   -2.000
 5495.00    1.21986   0.63928   -2.000
 5496.00    0.99644   0.63866   -2.000
 5497.00    0.71064   0.64060   -2.000
 5498.00    0.65256   0.63826   -2.000
 5499.00    0.76350   0.63682   -2.000
 5500.00    0.81721   0.63875   -2.000
 5501.00    0.83361   0.63689   -2.000
 5502.00    0.83409   0.63506   -1.000
 5503.00    0.82549   0.63692   -1.000
 5504.00    0.83321   0.63595    0.025
 5505.00    0.84905   0.63422    0.010
 5506.00    0.89568   0.63558    0.009
 5507.00    0.95553   0.63552    0.009
 5508.00    0.84267   0.63428    0.009
 5509.00    0.66618   0.63523    0.008
 5510.00    0.58749   0.63621    0.008
 5511.00    0.53932   0.63569    0.008
 5512.00    0.52510   0.63619    0.009
 5513.00    0.51971   0.63760    0.009
 5514.00    0.50942   0.63752    0.009
 5515.00    0.49810   0.63796    0.009
 5516.00    0.56584   0.63926    0.009
 5517.00    0.64686   0.63908    0.009
 5518.00    0.65030   0.63957    0.009
 5519.00    0.64391   0.64066    0.009
 5520.00    0.67959   0.64011    0.009
 5521.00    0.71897   0.64053    0.009
 5522.00    0.74001   0.64146    0.009
 5523.00    0.76009   0.64045    0.009
 5524.00    0.65072   0.64057    0.009
 5525.00    0.53926   0.64198    0.009
 5526.00    0.45313   0.64140    0.009
 5527.00    0.37931   0.64073    0.009
 5528.00    0.57045   0.64212    0.009
 5529.00    0.74467   0.64233    0.009
 5530.00    0.71258   0.64121    0.009
 5531.00    0.68008   0.64256    0.009
 5532.00    0.64420   0.64371    0.009
 5533.00    0.61595   0.64279    0.009
 5534.00    0.63516   0.64367    0.009
 5535.00    0.65263   0.64517    0.009
 5536.00    0.66159   0.64511    0.009
 5537.00    0.65455   0.64560    0.009
 5538.00    0.58402   0.64654    0.009
 5539.00    0.54408   0.64706    0.010
 5540.00    0.60510   0.64770    0.023
 5541.00    0.67379   0.64811   -1.000
 5542.00    0.76382   0.64855   -1.000
 5543.00    0.81633   0.64936   -1.000
 5544.00    0.77927   0.64954   -1.000
 5545.00    0.76281   0.64937   -1.000
 5546.00    0.78884   0.64987   -1.000
 5547.00    0.80786   0.65012    0.045
 5548.00    0.81432   0.64934    0.012
 5549.00    0.81031   0.64913    0.008
 5550.00    0.78989   0.64946    0.008
 5551.00    0.76669   0.64850    0.008
 5552.00    0.73968   0.64753    0.008
 5553.00    0.69324   0.64780    0.008
 5554.00    0.62325   0.64674    0.008
 5555.00    0.60511   0.64506    0.008
 5556.00    0.64237   0.64547    0.008
 5557.00    0.67502   0.64448    0.008
 5558.00    0.70333   0.64203    0.009
 5559.00    0.72637   0.64254    0.009
 5560.00    0.74505   0.64225    0.009
 5561.00    0.70766   0.63923    0.009
 5562.00    0.62928   0.63933    0.009
 5563.00    0.58808   0.64040    0.009
 5564.00    0.57077   0.63728    0.009
 5565.00    0.60546   0.63635    0.009
 5566.00    0.66936   0.63900    0.009
 5567.00    0.64824   0.63654    0.009
 5568.00    0.58554   0.63396    0.009
 5569.00    0.65047   0.63727    0.009
 5570.00    0.76931   0.63637    0.009
 5571.00    0.75023   0.63268    0.009
 5572.00    0.68126   0.63525    0.009
 5573.00    0.70566   0.63567    0.009
 5574.00    0.75863   0.63176    0.009
 5575.00    0.75048   0.63280    0.009
 5576.00    0.72678   0.63388    0.009
 5577.00    0.69814   0.63032    0.009
 5578.00    0.66847   0.62972    0.009
 5579.00    0.65938   0.63085    0.008
 5580.00    0.65364   0.62809    0.008
 5581.00    0.67419   0.62613    0.008
 5582.00    0.69795   0.62665    0.008
 5583.00    0.64965   0.62475    0.008
 5584.00    0.59528   0.62263    0.008
 5585.00    0.59154   0.62308    0.008
 5586.00    0.59025   0.62187    0.008
 5587.00    0.72155   0.62003    0.008
 5588.00    0.85132   0.62078    0.008
 5589.00    0.77215   0.62000    0.008
 5590.00    0.69398   0.61847    0.008
 5591.00    0.63547   0.62007    0.008
 5592.00    0.58681   0.62034    0.008
 5593.00    0.65250   0.61874    0.008
 5594.00    0.71235   0.62013    0.009
 5595.00    0.72540   0.62174    0.009
 5596.00    0.74066   0.62104    0.009
 5597.00    0.76926   0.62163    0.009
 5598.00    0.75390   0.62379    0.009
 5599.00    0.52893   0.62459    0.009
 5600.00    0.38335   0.62468    0.009
 5601.00    0.54612   0.62654    0.009
 5602.00    0.66434   0.62800    0.009
 5603.00    0.63844   0.62775    0.009
 5604.00    0.63726   0.62883    0.009
 5605.00    0.70376   0.63050    0.009
 5606.00    0.72146   0.63011    0.009
 5607.00    0.62465   0.62979    0.009
 5608.00    0.56874   0.63140    0.009
 5609.00    0.59582   0.63151    0.009
 5610.00    0.64234   0.62941    0.009
 5611.00    0.72322   0.63003    0.009
 5612.00    0.83293   0.63131    0.009
 5613.00    0.98717   0.62932    0.009
 5614.00    0.98319   0.62878    0.009
 5615.00    0.76448   0.62990    0.008
 5616.00    0.64532   0.62849    0.008
 5617.00    0.64510   0.62767    0.008
 5618.00    0.64688   0.62878    0.008
 5619.00    0.65078   0.62761    0.008
 5620.00    0.68557   0.62638    0.008
 5621.00    0.74906   0.62806    0.008
 5622.00    0.71446   0.62783    0.008
 5623.00    0.59950   0.62612    0.008
 5624.00    0.58969   0.62759    0.008
 5625.00    0.65568   0.62837    0.008
 5626.00    0.70605   0.62702    0.008
 5627.00    0.74654   0.62787    0.008
 5628.00    0.73785   0.62873    0.008
 5629.00    0.70194   0.62744    0.008
 5630.00    0.69864   0.62778    0.008
 5631.00    0.71102   0.62889    0.008
 5632.00    0.68366   0.62754    0.008
 5633.00    0.63978   0.62691    0.008
 5634.00    0.67416   0.62837    0.008
 5635.00    0.73634   0.62783    0.008
 5636.00    0.72868   0.62629    0.008
 5637.00    0.70007   0.62733    0.008
 5638.00    0.69736   0.62774    0.008
 5639.00    0.70111   0.62610    0.008
 5640.00    0.67042   0.62617    0.008
 5641.00    0.63277   0.62713    0.008
 5642.00    0.67921   0.62618    0.008
 5643.00    0.73897   0.62511    0.008
 5644.00    0.69208   0.62586    0.008
 5645.00    0.63265   0.62607    0.008
 5646.00    0.56214   0.62438    0.008
 5647.00    0.49074   0.62424    0.008
 5648.00    0.62003   0.62545    0.008
 5649.00    0.75826   0.62380    0.008
 5650.00    0.77723   0.62197    0.008
 5651.00    0.79587   0.62361    0.008
 5652.00    0.86441   0.62343    0.008
 5653.00    0.92694   0.61993    0.008
 5654.00    0.87892   0.62037    0.008
 5655.00    0.82786   0.62246    0.008
 5656.00    0.74334   0.61976    0.008
 5657.00    0.67870   0.61816    0.008
 5658.00    0.76825   0.62086    0.008
 5659.00    0.83336   0.62054    0.008
 5660.00    0.75502   0.61824    0.008
 5661.00    0.67818   0.62027    0.008
 5662.00    0.60839   0.62178    0.008
 5663.00    0.57111   0.61977    0.008
 5664.00    0.65739   0.62081    0.008
 5665.00    0.70148   0.62358    0.008
 5666.00    0.61174   0.62274    0.008
 5667.00    0.56931   0.62243    0.008
 5668.00    0.65415   0.62528    0.008
 5669.00    0.71499   0.62628    0.008
 5670.00    0.72045   0.62518    0.008
 5671.00    0.71155   0.62657    0.008
 5672.00    0.67400   0.62839    0.008
 5673.00    0.66495   0.62757    0.008
 5674.00    0.70551   0.62746    0.008
 5675.00    0.73738   0.62904    0.008
 5676.00    0.75603   0.62893    0.008
 5677.00    0.77435   0.62785    0.008
 5678.00    0.79224   0.62854    0.008
 5679.00    0.80535   0.62914    0.008
 5680.00    0.81282   0.62797    0.008
 5681.00    0.84758   0.62782    0.008
 5682.00    0.91067   0.62841    0.008
 5683.00    0.90536   0.62743    0.008
 5684.00    0.83739   0.62696    0.008
 5685.00    0.74977   0.62751    0.008
 5686.00    0.64629   0.62673    0.008
 5687.00    0.59316   0.62602    0.008
 5688.00    0.57581   0.62652    0.008
 5689.00    0.57550   0.62600    0.008
 5690.00    0.58583   0.62477    0.008
 5691.00    0.58773   0.62498    0.008
 5692.00    0.58506   0.62481    0.008
 5693.00    0.60786   0.62282    0.008
 5694.00    0.64272   0.62241    0.008
 5695.00    0.64922   0.62290    0.008
 5696.00    0.64415   0.62065    0.008
 5697.00    0.66828   0.61904    0.008
 5698.00    0.70259   0.62000    0.008
 5699.00    0.68870   0.61895    0.008
 5700.00    0.66063   0.61643    0.008
 5701.00    0.68545   0.61670    0.008
 5702.00    0.72316   0.61728    0.008
 5703.00    0.69176   0.61501    0.008
 5704.00    0.64676   0.61428    0.008
 5705.00    0.57808   0.61624    0.008
 5706.00    0.50576   0.61533    0.008
 5707.00    0.59980   0.61407    0.008
 5708.00    0.71269   0.61672    0.008
 5709.00    0.71303   0.61773    0.008
 5710.00    0.70484   0.61680    0.008
 5711.00    0.68281   0.61899    0.008
 5712.00    0.66022   0.62113    0.008
 5713.00    0.66502   0.62109    0.008
 5714.00    0.66990   0.62266    0.008
 5715.00    0.66867   0.62505    0.008
 5716.00    0.66389   0.62550    0.008
 5717.00    0.59814   0.62677    0.008
 5718.00    0.53537   0.62921    0.008
 5719.00    0.50405   0.62959    0.008
 5720.00    0.49199   0.63045    0.008
 5721.00    0.62436   0.63257    0.008
 5722.00    0.73904   0.63248    0.008
 5723.00    0.75273   0.63271    0.008
 5724.00    0.75469   0.63465    0.008
 5725.00    0.70339   0.63459    0.008
 5726.00    0.65805   0.63375    0.008
 5727.00    0.63487   0.63522    0.008
 5728.00    0.63676   0.63596    0.008
 5729.00    0.71666   0.63467    0.008
 5730.00    0.77241   0.63520    0.008
 5731.00    0.76434   0.63621    0.008
 5732.00    0.74942   0.63519    0.008
 5733.00    0.71896   0.63496    0.008
 5734.00    0.68889   0.63593    0.008
 5735.00    0.65960   0.63544    0.008
 5736.00    0.64017   0.63460    0.008
 5737.00    0.63762   0.63521    0.008
 5738.00    0.65594   0.63525    0.008
 5739.00    0.70559   0.63440    0.008
 5740.00    0.71810   0.63454    0.000
 5741.00    0.68165   0.63467    0.000
 5742.00    0.67304   0.63385    0.000
 5743.00    0.69677   0.63350    0.000
 5744.00    0.74788   0.63385    0.000
 5745.00    0.82703   0.63337    0.000
 5746.00    0.88575   0.63257    0.000
 5747.00    0.92601   0.63259    0.000
 5748.00    0.90828   0.63233    0.000
 5749.00    0.84438   0.63169    0.000
 5750.00    0.77486   0.63149    0.000
 5751.00    0.70140   0.63136    0.000
 5752.00    0.68384   0.63104    0.000
 5753.00    0.70063   0.63086    0.000
 5754.00    0.73133   0.63083    0.000
 5755.00    0.76951   0.63081    0.000
 5756.00    0.73141   0.63078    0.000
 5757.00    0.65777   0.63035    0.000
 5758.00    0.59882   0.63012    0.000
 5759.00    0.54577   0.63055    0.000
 5760.00    0.54905   0.63040    0.000
 5761.00    0.57162   0.63002    0.000
 5762.00    0.59204   0.63045    0.000
 5763.00    0.61185   0.63057    0.000
 5764.00    0.62702   0.63003    0.000
 5765.00    0.64109   0.62989    0.000
 5766.00    0.66156   0.62973    0.000
 5767.00    0.68325   0.62902    0.000
 5768.00    0.67361   0.62849    0.000
 5769.00    0.65931   0.62778    0.000
 5770.00    0.66571   0.62688    0.000
 5771.00    0.67437   0.62658    0.000
 5772.00    0.69427   0.62557    0.000
 5773.00    0.71498   0.62393    0.000
 5774.00    0.70757   0.62370    0.000
 5775.00    0.69912   0.62300    0.000
 5776.00    0.72331   0.62072    0.000
 5777.00    0.74663   0.62033    0.000
 5778.00    0.73361   0.62058    0.000
 5779.00    0.72213   0.61838    0.000
 5780.00    0.73540   0.61742    0.000
 5781.00    0.74853   0.61889    0.000
 5782.00    0.76011   0.61821    0.000
 5783.00    0.76526   0.61680    0.000
 5784.00    0.72375   0.61862    0.000
 5785.00    0.68803   0.61927    0.000
 5786.00    0.68446   0.61773    0.000
 5787.00    0.67959   0.61967    0.000
 5788.00    0.66892   0.62174    0.000
 5789.00    0.67041   0.62074    0.000
 5790.00    0.71621   0.62194    0.000
 5791.00    0.74629   0.62481   -2.000
 5792.00    0.72839   0.62462   -2.000
 5793.00    0.71035   0.62467   -2.000
 5794.00    0.69191   0.62775   -2.000
 5795.00    0.66936   0.62841   -2.000
 5796.00    0.63762   0.62731   -2.000
 5797.00    0.62068   0.62967   -2.000
 5798.00    0.63241   0.63152   -2.000
 5799.00    0.61905   0.63032   -2.000
 5800.00    0.56338   0.63096   -2.000
 5801.00    0.54227   0.63298   -2.000
 5802.00    0.57225   0.63240   -2.000
 5803.00    0.61342   0.63161   -2.000
 5804.00    0.66913   0.63294   -2.000
 5805.00    0.70127   0.63360   -2.000
 5806.00    0.70643   0.63289   -2.000
 5807.00    0.70147   0.63305   -2.000
 5808.00    0.68632   0.63390   -2.000
 5809.00    0.68625   0.63376   -2.000
 5810.00    0.69963   0.63334   -2.000
 5811.00    0.72357   0.63358    0.000
 5812.00    0.75578   0.63409    0.000
 5813.00    0.76593   0.63422    0.000
 5814.00    0.76087   0.63397    0.000
 5815.00    0.75771   0.63440    0.000
 5816.00    0.75570   0.63518    0.000
 5817.00    0.73201   0.63524    0.000
 5818.00    0.69686   0.63521    0.000
 5819.00    0.68762   0.63568    0.000
 5820.00    0.69025   0.63621    0.000
 5821.00    0.70193   0.63617    0.000
 5822.00    0.71716   0.63611    0.000
 5823.00    0.72258   0.63670    0.000
 5824.00    0.72470   0.63729    0.000
 5825.00    0.73311   0.63710    0.000
 5826.00    0.74330   0.63674    0.000
 5827.00    0.72526   0.63733    0.000
 5828.00    0.70065   0.63765    0.000
 5829.00    0.78477   0.63675    0.000
 5830.00    0.88920   0.63660    0.000
 5831.00    0.86961   0.63734    0.000
 5832.00    0.83213   0.63667    0.000
 5833.00    0.81569   0.63545    0.000
 5834.00    0.80144   0.63579    0.000
 5835.00    0.82965   0.63579    0.000
 5836.00    0.86073   0.63423    0.000
 5837.00    0.77559   0.63347    0.000
 5838.00    0.68660   0.63350    0.000
 5839.00    0.67105   0.63239    0.000
 5840.00    0.65661   0.63082    0.000
 5841.00    0.67619   0.62996    0.000
 5842.00    0.69519   0.62909    0.000
 5843.00    0.70553   0.62768    0.000
 5844.00    0.71723   0.62608    0.000
 5845.00    0.74213   0.62458    0.000
 5846.00    0.75607   0.62354    0.000
 5847.00    0.69317   0.62220    0.000
 5848.00    0.64103   0.62018    0.000
 5849.00    0.64699   0.61917    0.000
 5850.00    0.65947   0.61838    0.000
 5851.00    0.70022   0.61629    0.000
 5852.00    0.72159   0.61486    0.000
 5853.00    0.67381   0.61487    0.000
 5854.00    0.64583   0.61385    0.000
 5855.00    0.67716   0.61202    0.000
 5856.00    0.70803   0.61208    0.000
 5857.00    0.73772   0.61206    0.000
 5858.00    0.75136   0.61067    0.000
 5859.00    0.72976   0.61081    0.000
 5860.00    0.71088   0.61123    0.000
 5861.00    0.69719   0.61031    0.000
 5862.00    0.65850   0.60986    0.000
 5863.00    0.57824   0.61041    0.000
 5864.00    0.51306   0.60985    0.000
 5865.00    0.46985   0.60905    0.000
 5866.00    0.47716   0.60987    0.000
 5867.00    0.54921   0.60905    0.000
 5868.00    0.60754   0.60759    0.000
 5869.00    0.65038   0.60782    0.000
 5870.00    0.70553   0.60687    0.000
 5871.00    0.77294   0.60436    0.000
 5872.00    0.77356   0.60334    0.000
 5873.00    0.71556   0.60288    0.000
 5874.00    0.65498   0.59966    0.000
 5875.00    0.59243   0.59748    0.000
 5876.00    0.56753   0.59694    0.000
 5877.00    0.56824   0.59263    0.000
 5878.00    0.57455   0.58842    0.000
 5879.00    0.58420   0.58765    0.000
 5880.00    0.58030   0.58456    0.000
 5881.00    0.56934   0.57887    0.000
 5882.00    0.62448   0.57754    0.000
 5883.00    0.70943   0.57601    0.000
 5884.00    0.70453   0.56938    0.000
 5885.00    0.66479   0.56696    0.000
 5886.00    0.63204   0.56759    0.000
 5887.00    0.60161   0.56222    0.000
 5888.00    0.60873   0.55792    0.000
 5889.00    0.62625   0.56108    0.000
 5890.00    0.64123   0.56020    0.000
 5891.00    0.65563   0.55557    0.000
 5892.00    0.63227   0.55899    0.000
 5893.00    0.60204   0.56151    0.000
 5894.00    0.61813   0.55697    0.000
 5895.00    0.64070   0.55854    0.000
 5896.00    0.62845   0.56572    0.000
 5897.00    0.61271   0.56596    0.000
 5898.00    0.60062   0.56558    0.000
 5899.00    0.58876   0.57239    0.000
 5900.00    0.68531   0.57518    0.000
 5901.00    0.78466   0.57348    0.008
 5902.00    0.75555   0.57815    0.008
 5903.00    0.72634   0.58387    0.008
 5904.00    0.69426   0.58376    0.008
 5905.00    0.66792   0.58502    0.007
 5906.00    0.72334   0.58998    0.007
 5907.00    0.77917   0.59148    0.007
 5908.00    0.83881   0.59120    0.007
 5909.00    0.88503   0.59393    0.007
 5910.00    0.84010   0.59614    0.007
 5911.00    0.79508   0.59587    0.007
 5912.00    0.74953   0.59653    0.007
 5913.00    0.71743   0.59842    0.007
 5914.00    0.74230   0.59878    0.007
 5915.00    0.75942   0.59888    0.007
 5916.00    0.74946   0.59985    0.007
 5917.00    0.74437   0.60029    0.007
 5918.00    0.75360   0.60025    0.007
 5919.00    0.75130   0.60050    0.007
 5920.00    0.72008   0.60096    0.007
 5921.00    0.68673   0.60093    0.007
 5922.00    0.64879   0.60114    0.007
 5923.00    0.63080   0.60173    0.007
 5924.00    0.65021   0.60187    0.007
 5925.00    0.66545   0.60151    0.007
 5926.00    0.67386   0.60170    0.007
 5927.00    0.67293   0.60237    0.007
 5928.00    0.65859   0.60195    0.007
 5929.00    0.61281   0.60151    0.007
 5930.00    0.52733   0.60255    0.007
 5931.00    0.52438   0.60314    0.007
 5932.00    0.61328   0.60179    0.007
 5933.00    0.65373   0.60158    0.007
 5934.00    0.64662   0.60315    0.007
 5935.00    0.65328   0.60269    0.007
 5936.00    0.67184   0.60139    0.007
 5937.00    0.65313   0.60252    0.007
 5938.00    0.60598   0.60353    0.007
 5939.00    0.60812   0.60177    0.007
 5940.00    0.64328   0.60087    0.007
 5941.00    0.63645   0.60258    0.007
 5942.00    0.60499   0.60282    0.007
 5943.00    0.58402   0.60118    0.007
 5944.00    0.56844   0.60132    0.007
 5945.00    0.57266   0.60267    0.007
 5946.00    0.58565   0.60175    0.007
 5947.00    0.59514   0.60022    0.007
 5948.00    0.60331   0.60131    0.007
 5949.00    0.59419   0.60259    0.007
 5950.00    0.57948   0.60145    0.007
 5951.00    0.58116   0.60082    0.007
 5952.00    0.58728   0.60248    0.007
 5953.00    0.60631   0.60281    0.007
 5954.00    0.62822   0.60145    0.007
 5955.00    0.66680   0.60224    0.007
 5956.00    0.70835   0.60385    0.007
 5957.00    0.74352   0.60339    0.007
 5958.00    0.77784   0.60317    0.007
 5959.00    0.73056   0.60464    0.007
 5960.00    0.67545   0.60513    0.007
 5961.00    0.57875   0.60455    0.007
 5962.00    0.47957   0.60524    0.007
 5963.00    0.48898   0.60586    0.007
 5964.00    0.50108   0.60547    0.007
 5965.00    0.50088   0.60583    0.007
 5966.00    0.50203   0.60638    0.007
 5967.00    0.53765   0.60591    0.007
 5968.00    0.57212   0.60549    0.007
 5969.00    0.59121   0.60582    0.007
 5970.00    0.60855   0.60551    0.007
 5971.00    0.61026   0.60470    0.007
 5972.00    0.61333   0.60460    0.007
 5973.00    0.62541   0.60458    0.007
 5974.00    0.64241   0.60381    0.007
 5975.00    0.68464   0.60280    0.007
 5976.00    0.71543   0.60269    0.007
 5977.00    0.69890   0.60291    0.007
 5978.00    0.68085   0.60221    0.007
 5979.00    0.65756   0.60135    0.007
 5980.00    0.64483   0.60174    0.007
 5981.00    0.66263   0.60183    0.007
 5982.00    0.66822   0.60035    0.007
 5983.00    0.64374   0.60014    0.007
 5984.00    0.61717   0.60165    0.007
 5985.00    0.58618   0.60149    0.007
 5986.00    0.57600   0.60024    0.007
 5987.00    0.60427   0.60097    0.007
 5988.00    0.64154   0.60189    0.007
 5989.00    0.69332   0.60051    0.007
 5990.00    0.74059   0.59999    0.007
 5991.00    0.78148   0.60162    0.007
 5992.00    0.80830   0.60178    0.007
 5993.00    0.81760   0.60036    0.007
 5994.00    0.78444   0.60045    0.007
 5995.00    0.70468   0.60128    0.007
 5996.00    0.64671   0.60023    0.007
 5997.00    0.60982   0.59914    0.007
 5998.00    0.62782   0.59988    0.007
 5999.00    0.69265   0.59998    0.007
 6000.00    0.73814   0.59850    0.007
 6001.00    0.76909   0.59798    0.007
 6002.00    0.78229   0.59873    0.007
 6003.00    0.78375   0.59789    0.007
 6004.00    0.75495   0.59635    0.007
 6005.00    0.70865   0.59681    0.007
 6006.00    0.67382   0.59724    0.007
 6007.00    0.64477   0.59575    0.007
 6008.00    0.64223   0.59512    0.007
 6009.00    0.65126   0.59664    0.007
 6010.00    0.66308   0.59634    0.007
 6011.00    0.67593   0.59433    0.007
 6012.00    0.66123   0.59509    0.007
 6013.00    0.63779   0.59680    0.007
 6014.00    0.63857   0.59563    0.007
 6015.00    0.64577   0.59469    0.007
 6016.00    0.62502   0.59716    0.007
 6017.00    0.59821   0.59812    0.007
 6018.00    0.59424   0.59610    0.007
 6019.00    0.59421   0.59692    0.007
 6020.00    0.58585   0.59986    0.007
 6021.00    0.57641   0.59969    0.007
 6022.00    0.61779   0.59860    0.007
 6023.00    0.66384   0.60113    0.007
 6024.00    0.72668   0.60318    0.007
 6025.00    0.79046   0.60199    0.007
 6026.00    0.72854   0.60251    0.007
 6027.00    0.66470   0.60535    0.007
 6028.00    0.68269   0.60611    0.007
 6029.00    0.70100   0.60534    0.007
 6030.00    0.72702   0.60689    0.007
 6031.00    0.75356   0.60886    0.007
 6032.00    0.78667   0.60864    0.007
 6033.00    0.81416   0.60860    0.007
 6034.00    0.79314   0.61028    0.007
 6035.00    0.77043   0.61131    0.007
 6036.00    0.73695   0.61087    0.007
 6037.00    0.71481   0.61119    0.007
 6038.00    0.74937   0.61242    0.007
 6039.00    0.77593   0.61264    0.007
 6040.00    0.77013   0.61203    0.007
 6041.00    0.76013   0.61265    0.007
 6042.00    0.73601   0.61344    0.007
 6043.00    0.72019   0.61299    0.007
 6044.00    0.72785   0.61256    0.007
 6045.00    0.74610   0.61308    0.007
 6046.00    0.79002   0.61312    0.007
 6047.00    0.81645   0.61221    0.007
 6048.00    0.80631   0.61221    0.007
 6049.00    0.78589   0.61229    0.007
 6050.00    0.74675   0.61177    0.007
 6051.00    0.71919   0.61146    0.007
 6052.00    0.71005   0.61135    0.007
 6053.00    0.73034   0.61090    0.007
 6054.00    0.79169   0.61044    0.007
 6055.00    0.83652   0.61044    0.007
 6056.00    0.86107   0.60962    0.007
 6057.00    0.87046   0.60939    0.007
 6058.00    0.86345   0.61017    0.007
 6059.00    0.85829   0.60984    0.007
 6060.00    0.85489   0.60902    0.007
 6061.00    0.80467   0.60945    0.007
 6062.00    0.71504   0.60989    0.007
 6063.00    0.68744   0.60869    0.007
 6064.00    0.70581   0.60884    0.007
 6065.00    0.70974   0.61024    0.007
 6066.00    0.70429   0.60973    0.007
 6067.00    0.68340   0.60895    0.007
 6068.00    0.65372   0.60970    0.007
 6069.00    0.63868   0.60956    0.007
 6070.00    0.63089   0.60817    0.007
 6071.00    0.65687   0.60875    0.007
 6072.00    0.69733   0.60942    0.007
 6073.00    0.69101   0.60771    0.007
 6074.00    0.66749   0.60704    0.007
 6075.00    0.62932   0.60800    0.007
 6076.00    0.58660   0.60664    0.007
 6077.00    0.60974   0.60454    0.007
 6078.00    0.64997   0.60554    0.007
 6079.00    0.68711   0.60601    0.007
 6080.00    0.72360   0.60332    0.007
 6081.00    0.77251   0.60220    0.007
 6082.00    0.82350   0.60371    0.007
 6083.00    0.81409   0.60272    0.007
 6084.00    0.79707   0.60028    0.007
 6085.00    0.74040   0.60108    0.007
 6086.00    0.68025   0.60217    0.007
 6087.00    0.68494   0.60008    0.007
 6088.00    0.69298   0.59873    0.007
 6089.00    0.72738   0.60008    0.007
 6090.00    0.76137   0.60011    0.007
 6091.00    0.73029   0.59861    0.007
 6092.00    0.69922   0.59892    0.007
 6093.00    0.66833   0.59934    0.007
 6094.00    0.64258   0.59810    0.007
 6095.00    0.67919   0.59780    0.007
 6096.00    0.71553   0.59860    0.007
 6097.00    0.74965   0.59849    0.007
 6098.00    0.77771   0.59799    0.007
 6099.00    0.76820   0.59828    0.007
 6100.00    0.75317   0.59789    0.007
 6101.00    0.71124   0.59714    0.007
 6102.00    0.67828   0.59764    0.007
 6103.00    0.68084   0.59813    0.007
 6104.00    0.68268   0.59799    0.007
 6105.00    0.68221   0.59783    0.007
 6106.00    0.67562   0.59762    0.007
 6107.00    0.65203   0.59732    0.007
 6108.00    0.63512   0.59753    0.007
 6109.00    0.63410   0.59744    0.007
 6110.00    0.64733   0.59688    0.007
 6111.00    0.68988   0.59726    0.007
 6112.00    0.72733   0.59727    0.007
 6113.00    0.75566   0.59560    0.007
 6114.00    0.78650   0.59515    0.007
 6115.00    0.82129   0.59645    0.007
 6116.00    0.81102   0.59558    0.007
 6117.00    0.73883   0.59367    0.007
 6118.00    0.69918   0.59423    0.007
 6119.00    0.69890   0.59449    0.007
 6120.00    0.71706   0.59182    0.007
 6121.00    0.75488   0.59103    0.007
 6122.00    0.76592   0.59298    0.007
 6123.00    0.75176   0.59212    0.007
 6124.00    0.72755   0.58955    0.007
 6125.00    0.69501   0.58977    0.007
 6126.00    0.68039   0.59067    0.007
 6127.00    0.67886   0.58852    0.007
 6128.00    0.68073   0.58666    0.007
 6129.00    0.68479   0.58814    0.007
 6130.00    0.70073   0.58898    0.007
 6131.00    0.72333   0.58704    0.007
 6132.00    0.72092   0.58574    0.007
 6133.00    0.70630   0.58684    0.007
 6134.00    0.71467   0.58682    0.007
 6135.00    0.73273   0.58450    0.007
 6136.00    0.74833   0.58459    0.007
 6137.00    0.76305   0.58700    0.007
 6138.00    0.71321   0.58674    0.007
 6139.00    0.64367   0.58423    0.007
 6140.00    0.54485   0.58441    0.007
 6141.00    0.43860   0.58596    0.007
 6142.00    0.43195   0.58476    0.007
 6143.00    0.44586   0.58373    0.007
 6144.00    0.50917   0.58499    0.007
 6145.00    0.58051   0.58467    0.007
 6146.00    0.61258   0.58222    0.007
 6147.00    0.63988   0.58184    0.007
 6148.00    0.67820   0.58206    0.007
 6149.00    0.71744   0.57994    0.007
 6150.00    0.74732   0.57858    0.007
 6151.00    0.77676   0.57901    0.007
 6152.00    0.76082   0.57666    0.007
 6153.00    0.74459   0.57280    0.007
 6154.00    0.74999   0.57284    0.007
 6155.00    0.75578   0.57298    0.007
 6156.00    0.76933   0.56910    0.007
 6157.00    0.78310   0.56657    0.007
 6158.00    0.79932   0.56821    0.007
 6159.00    0.80706   0.56658    0.007
 6160.00    0.74691   0.56112    0.007
 6161.00    0.68988   0.56096    0.007
 6162.00    0.65166   0.56418    0.007
 6163.00    0.62657   0.56192    0.007
 6164.00    0.66385   0.55785    0.007
 6165.00    0.70065   0.56050    0.007
 6166.00    0.73556   0.56299    0.007
 6167.00    0.76693   0.55869    0.007
 6168.00    0.78691   0.55721    0.007
 6169.00    0.80942   0.56247    0.007
 6170.00    0.83883   0.56370    0.007
 6171.00    0.84590   0.55944    0.007
 6172.00    0.80066   0.56094    0.007
 6173.00    0.76455   0.56562    0.007
 6174.00    0.74692   0.56396    0.007
 6175.00    0.71487   0.56140    0.007
 6176.00    0.65740   0.56529    0.007
 6177.00    0.62353   0.56776    0.007
 6178.00    0.62604   0.56413    0.007
 6179.00    0.64828   0.56369    0.007
 6180.00    0.69725   0.56773    0.007
 6181.00    0.72143   0.56748    0.007
 6182.00    0.71607   0.56406    0.007
 6183.00    0.69448   0.56543    0.007
 6184.00    0.65584   0.56805    0.007
 6185.00    0.65439   0.56571    0.007
 6186.00    0.68744   0.56366    0.007
 6187.00    0.69577   0.56618    0.007
 6188.00    0.68390   0.56744    0.007
 6189.00    0.70058   0.56435    0.007
 6190.00    0.73782   0.56357    0.007
 6191.00    0.75580   0.56640    0.007
 6192.00    0.76162   0.56661    0.007
 6193.00    0.73538   0.56447    0.007
 6194.00    0.69144   0.56497    0.007
 6195.00    0.55505   0.56704    0.007
 6196.00    0.37428   0.56639   -2.000
 6197.00    0.21732   0.56482   -2.000
 6198.00    0.07024   0.56569   -2.000
 6199.00    0.01159   0.56702   -2.000
 6200.00   -0.01571   0.56621   -2.000
 6201.00    0.22627   0.56525   -2.000
 6202.00    0.54885   0.56580   -2.000
 6203.00    0.74731   0.56591   -2.000
 6204.00    0.91495   0.56469   -2.000
 6205.00    0.93643   0.56394   -2.000
 6206.00    0.92847   0.56388   -2.000
 6207.00    0.85220   0.56300   -2.000
 6208.00    0.76516   0.56178    0.007
 6209.00    0.69715   0.56118    0.007
 6210.00    0.63137   0.56030    0.007
 6211.00    0.64319   0.55874    0.007
 6212.00    0.66116   0.55786    0.007
 6213.00    0.68972   0.55708    0.007
 6214.00    0.71875   0.55554    0.006
 6215.00    0.70146   0.55485    0.006
 6216.00    0.68362   0.55469    0.006
 6217.00    0.66374   0.55301    0.007
 6218.00    0.64526   0.55124    0.007
 6219.00    0.65236   0.55146    0.007
 6220.00    0.65748   0.55134    0.007
 6221.00    0.64070   0.54968    0.007
 6222.00    0.62894   0.54881    0.007
 6223.00    0.65595   0.54931    0.007
 6224.00    0.68256   0.54848    0.007
 6225.00    0.70678   0.54718    0.007
 6226.00    0.72098   0.54761    0.007
 6227.00    0.68865   0.54773    0.007
 6228.00    0.66268   0.54631    0.007
 6229.00    0.66080   0.54556    0.007
 6230.00    0.66293   0.54594    0.007
 6231.00    0.67773   0.54557    0.007
 6232.00    0.69790   0.54529    0.007
 6233.00    0.73247   0.54521    0.007
 6234.00    0.74606   0.54457    0.007
 6235.00    0.71136   0.54423    0.007
 6236.00    0.67826   0.54427    0.007
 6237.00    0.64835   0.54345    0.007
 6238.00    0.63757   0.54263    0.007
 6239.00    0.65999   0.54336    0.006
 6240.00    0.67883   0.54330    0.006
 6241.00    0.69226   0.54154    0.006
 6242.00    0.69495   0.54169    0.006
 6243.00    0.68331   0.54270    0.006
 6244.00    0.67501   0.54142    0.006
 6245.00    0.67063   0.54011    0.006
 6246.00    0.68222   0.54140    0.007
 6247.00    0.71036   0.54214    0.007
 6248.00    0.73248   0.54042    0.007
 6249.00    0.74908   0.54005    0.007
 6250.00    0.71991   0.54154    0.007
 6251.00    0.65383   0.54157    0.007
 6252.00    0.60661   0.54001    0.007
 6253.00    0.57276   0.54117    0.007
 6254.00    0.57627   0.54343    0.007
 6255.00    0.60301   0.54260    0.007
 6256.00    0.63666   0.54117    0.007
 6257.00    0.67407   0.54332    0.007
 6258.00    0.59397   0.54601    0.007
 6259.00    0.45837   0.54475    0.007
 6260.00    0.35686   0.54452    0.007
 6261.00    0.26924   0.54769    0.008
 6262.00    0.30896   0.54903    0.008
 6263.00    0.39301   0.54726    0.009
 6264.00    0.49993   0.54837    0.008
 6265.00    0.61356   0.55188    0.008
 6266.00    0.68611   0.55209    0.008
 6267.00    0.74868   0.55061    0.007
 6268.00    0.75386   0.55224    0.007
 6269.00    0.74777   0.55475    0.007
 6270.00    0.74743   0.55442    0.007
 6271.00    0.74796   0.55407    0.006
 6272.00    0.75666   0.55561    0.006
 6273.00    0.76628   0.55673    0.006
 6274.00    0.75029   0.55619    0.006
 6275.00    0.73239   0.55645    0.007
 6276.00    0.68763   0.55785    0.007
 6277.00    0.64179   0.55828    0.007
 6278.00    0.64520   0.55772    0.007
 6279.00    0.64772   0.55798    0.007
 6280.00    0.59963   0.55883    0.000
 6281.00    0.55557   0.55926    0.000
 6282.00    0.58012   0.55951    0.000
 6283.00    0.60738   0.55928    0.000
 6284.00    0.66320   0.55918    0.000
 6285.00    0.71081   0.55964    0.000
 6286.00    0.69715   0.56020    0.000
 6287.00    0.68765   0.55997    0.000
 6288.00    0.70181   0.55938    0.000
 6289.00    0.70583   0.55956    0.000
 6290.00    0.66394   0.55985    0.000
 6291.00    0.62816   0.55921    0.000
 6292.00    0.61503   0.55900    0.000
 6293.00    0.60929   0.55973    0.000
 6294.00    0.62647   0.55947    0.000
 6295.00    0.64496   0.55821    0.000
 6296.00    0.66686   0.55830    0.000
 6297.00    0.69201   0.55940    0.000
 6298.00    0.72454   0.55908    0.000
 6299.00    0.74393   0.55789    0.000
 6300.00    0.73755   0.55824    0.000
 6301.00    0.72176   0.55900    0.000
 6302.00    0.68990   0.55841    0.000
 6303.00    0.67435   0.55828    0.000
 6304.00    0.68323   0.55909    0.000
 6305.00    0.69173   0.55881    0.000
 6306.00    0.69971   0.55821    0.000
 6307.00    0.70819   0.55928    0.000
 6308.00    0.71722   0.55987    0.000
 6309.00    0.71499   0.55858    0.000
 6310.00    0.70126   0.55868    0.000
 6311.00    0.68121   0.56067    0.000
 6312.00    0.65544   0.56028    0.000
 6313.00    0.64487   0.55866    0.000
 6314.00    0.64637   0.56020    0.000
 6315.00    0.63821   0.56213    0.000
 6316.00    0.62328   0.56065    0.000
 6317.00    0.60581   0.55984    0.000
 6318.00    0.58677   0.56227    0.000
 6319.00    0.60635   0.56338    0.000
 6320.00    0.64660   0.56195    0.000
 6321.00    0.69049   0.56215    0.006
 6322.00    0.73608   0.56414    0.006
 6323.00    0.77512   0.56432    0.006
 6324.00    0.81154   0.56367    0.006
 6325.00    0.79418   0.56436    0.006
 6326.00    0.75845   0.56525    0.006
 6327.00    0.72542   0.56542    0.006
 6328.00    0.69315   0.56546    0.006
 6329.00    0.67143   0.56550    0.006
 6330.00    0.65221   0.56544    0.007
 6331.00    0.67430   0.56617    0.007
 6332.00    0.70430   0.56680    0.007
 6333.00    0.71695   0.56556    0.007
 6334.00    0.72703   0.56475    0.007
 6335.00    0.74538   0.56626    0.007
 6336.00    0.76463   0.56697    0.007
 6337.00    0.82248   0.56501    0.007
 6338.00    0.88307   0.56455    0.007
 6339.00    0.83043   0.56640    0.007
 6340.00    0.77366   0.56635    0.007
 6341.00    0.72914   0.56391    0.007
 6342.00    0.68662   0.56365    0.006
 6343.00    0.71288   0.56586    0.006
 6344.00    0.73750   0.56508    0.006
 6345.00    0.73607   0.56225    0.006
 6346.00    0.73114   0.56267    0.006
 6347.00    0.69106   0.56481    0.006
 6348.00    0.65603   0.56316    0.006
 6349.00    0.65748   0.56047    0.006
 6350.00    0.66073   0.56162    0.006
 6351.00    0.67398   0.56323    0.006
 6352.00    0.68783   0.56072    0.007
 6353.00    0.70433   0.55831    0.006
 6354.00    0.72041   0.56038    0.006
 6355.00    0.73494   0.56175    0.007
 6356.00    0.73604   0.55895    0.007
 6357.00    0.69628   0.55754    0.007
 6358.00    0.66285   0.56008    0.007
 6359.00    0.64582   0.56095    0.007
 6360.00    0.63214   0.55873    0.007
 6361.00    0.62594   0.55866    0.007
 6362.00    0.63415   0.56124    0.007
 6363.00    0.67016   0.56176    0.007
 6364.00    0.69020   0.56025    0.007
 6365.00    0.68336   0.56115    0.007
 6366.00    0.67265   0.56378    0.007
 6367.00    0.65625   0.56407    0.007
 6368.00    0.66553   0.56289    0.007
 6369.00    0.70813   0.56406    0.007
 6370.00    0.71975   0.56644    0.006
 6371.00    0.69595   0.56657    0.006
 6372.00    0.66593   0.56560    0.006
 6373.00    0.62963   0.56670    0.006
 6374.00    0.63612   0.56854    0.006
 6375.00    0.68063   0.56807    0.007
 6376.00    0.71457   0.56703    0.007
 6377.00    0.74022   0.56825    0.006
 6378.00    0.72113   0.56941    0.006
 6379.00    0.67121   0.56797    0.007
 6380.00    0.64009   0.56724    0.007
 6381.00    0.62033   0.56891    0.006
 6382.00    0.63167   0.56906    0.006
 6383.00    0.65940   0.56676    0.007
 6384.00    0.67666   0.56678    0.007
 6385.00    0.68912   0.56892    0.007
 6386.00    0.69713   0.56792    0.007
 6387.00    0.70339   0.56506    0.007
 6388.00    0.69244   0.56617    0.007
 6389.00    0.67573   0.56854    0.007
 6390.00    0.64233   0.56637    0.006
 6391.00    0.60424   0.56378    0.006
 6392.00    0.61782   0.56628    0.006
 6393.00    0.64340   0.56797    0.006
 6394.00    0.67866   0.56456    0.007
 6395.00    0.71574   0.56378    0.007
 6396.00    0.71850   0.56768    0.007
 6397.00    0.71633   0.56745    0.007
 6398.00    0.69640   0.56302    0.007
 6399.00    0.67463   0.56427    0.007
 6400.00    0.61446   0.56856    0.007
 6401.00    0.55172   0.56680    0.007
 6402.00    0.57264   0.56326    0.007
 6403.00    0.59630   0.56571    0.006
 6404.00    0.64359   0.56852    0.007
 6405.00    0.68922   0.56563    0.007
 6406.00    0.68290   0.56378    0.007
 6407.00    0.67640   0.56699    0.007
 6408.00    0.66715   0.56807    0.007
 6409.00    0.66169   0.56484    0.007
 6410.00    0.69280   0.56459    0.007
 6411.00    0.71858   0.56732    0.007
 6412.00    0.70717   0.56720    0.007
 6413.00    0.69329   0.56521    0.007
 6414.00    0.66617   0.56551    0.007
 6415.00    0.64492   0.56686    0.007
 6416.00    0.64905   0.56669    0.007
 6417.00    0.65492   0.56604    0.006
 6418.00    0.66703   0.56607    0.006
 6419.00    0.68554   0.56654    0.006
 6420.00    0.72322   0.56681    0.006
 6421.00    0.74762   0.56674    0.006
 6422.00    0.73822   0.56655    0.006
 6423.00    0.73223   0.56724    0.006
 6424.00    0.73374   0.56761    0.006
 6425.00    0.73024   0.56679    0.006
 6426.00    0.71722   0.56696    0.006
 6427.00    0.70470   0.56862    0.006
 6428.00    0.69297   0.56834    0.007
 6429.00    0.69605   0.56640    0.007
 6430.00    0.72064   0.56753    0.007
 6431.00    0.72647   0.56994    0.007
 6432.00    0.70829   0.56874    0.007
 6433.00    0.71426   0.56646    0.007
 6434.00    0.74744   0.56863    0.007
 6435.00    0.77224   0.57082    0.007
 6436.00    0.78870   0.56849    0.007
 6437.00    0.78892   0.56674    0.007
 6438.00    0.77490   0.56948    0.007
 6439.00    0.77017   0.57052    0.007
 6440.00    0.77260   0.56784    0.007
 6441.00    0.75607   0.56753    0.007
 6442.00    0.72665   0.56993    0.006
 6443.00    0.68726   0.56943    0.006
 6444.00    0.64192   0.56693    0.006
 6445.00    0.60094   0.56760    0.006
 6446.00    0.56220   0.56938    0.006
 6447.00    0.55671   0.56828    0.006
 6448.00    0.56616   0.56626    0.007
 6449.00    0.55752   0.56693    0.007
 6450.00    0.54189   0.56804    0.007
 6451.00    0.53994   0.56786    0.007
 6452.00    0.54250   0.56692    0.007
 6453.00    0.56705   0.56649    0.007
 6454.00    0.59766   0.56694    0.006
 6455.00    0.59951   0.56776    0.006
 6456.00    0.59483   0.56712    0.007
 6457.00    0.62211   0.56618    0.007
 6458.00    0.65518   0.56724    0.007
 6459.00    0.66771   0.56836    0.007
 6460.00    0.67739   0.56698    0.007
 6461.00    0.64036   0.56571    0.007
 6462.00    0.59866   0.56757    0.007
 6463.00    0.58755   0.56882    0.007
 6464.00    0.57837   0.56717    0.006
 6465.00    0.60774   0.56573    0.006
 6466.00    0.63830   0.56738    0.006
 6467.00    0.69172   0.56855    0.006
 6468.00    0.74404   0.56672    0.006
 6469.00    0.76556   0.56496    0.006
 6470.00    0.78479   0.56623    0.006
 6471.00    0.77162   0.56728    0.006
 6472.00    0.75687   0.56498    0.006
 6473.00    0.72743   0.56302    0.007
 6474.00    0.69431   0.56419    0.007
 6475.00    0.63629   0.56465    0.007
 6476.00    0.59051   0.56157    0.007
 6477.00    0.60896   0.55962    0.007
 6478.00    0.62635   0.56084    0.007
 6479.00    0.63928   0.56053    0.007
 6480.00    0.64703   0.55678    0.007
 6481.00    0.63669   0.55490    0.007
 6482.00    0.63749   0.55609    0.007
 6483.00    0.67092   0.55520    0.007
 6484.00    0.69584   0.55138    0.007
 6485.00    0.69946   0.54981    0.006
 6486.00    0.69348   0.55089    0.006
 6487.00    0.66678   0.54966    0.007
 6488.00    0.64749   0.54623    0.007
 6489.00    0.64206   0.54522    0.007
 6490.00    0.63372   0.54637    0.006
 6491.00    0.62064   0.54543    0.006
 6492.00    0.60929   0.54320    0.006
 6493.00    0.60042   0.54288    0.006
 6494.00    0.58762   0.54399    0.006
 6495.00    0.56987   0.54384    0.006
 6496.00    0.56495   0.54345    0.006
 6497.00    0.57426   0.54390    0.006
 6498.00    0.56519   0.54486    0.006
 6499.00    0.53811   0.54555    0.007
 6500.00    0.52940   0.54641    0.006
 6501.00    0.53656   0.54736    0.006
 6502.00    0.57810   0.54801    0.006
 6503.00    0.64581   0.54916    0.006
 6504.00    0.67135   0.55073    0.006
 6505.00    0.66870   0.55152    0.007
 6506.00    0.64735   0.55186    0.006
 6507.00    0.61505   0.55335    0.006
 6508.00    0.64161   0.55481    0.006
 6509.00    0.69823   0.55485    0.007
 6510.00    0.74506   0.55518    0.007
 6511.00    0.78755   0.55704    0.007
 6512.00    0.77581   0.55775    0.006
 6513.00    0.74344   0.55691    0.006
 6514.00    0.73708   0.55758    0.006
 6515.00    0.73912   0.55949    0.006
 6516.00    0.74663   0.55931    0.006
 6517.00    0.75563   0.55805    0.006
 6518.00    0.74149   0.55919    0.006
 6519.00    0.72223   0.56094    0.006
 6520.00    0.71418   0.56008    0.006
 6521.00    0.70811   0.55881    0.006
 6522.00    0.71992   0.56016    0.006
 6523.00    0.73414   0.56148    0.006
 6524.00    0.76674   0.56030    0.006
 6525.00    0.80110   0.55936    0.006
 6526.00    0.79553   0.56060    0.006
 6527.00    0.78760   0.56116    0.006
 6528.00    0.76523   0.55986    0.000
 6529.00    0.74260   0.55940    0.000
 6530.00    0.73436   0.56026    0.000
 6531.00    0.72690   0.55987    0.000
 6532.00    0.73885   0.55830    0.000
 6533.00    0.74765   0.55795    0.000
 6534.00    0.71424   0.55843    0.000
 6535.00    0.68442   0.55741    0.000
 6536.00    0.68668   0.55525    0.000
 6537.00    0.69438   0.55416    0.000
 6538.00    0.73773   0.55410    0.000
 6539.00    0.76812   0.55288    0.000
 6540.00    0.73221   0.54998    0.000
 6541.00    0.69334   0.54756    0.000
 6542.00    0.64223   0.54684    0.000
 6543.00    0.62185   0.54578    0.000
 6544.00    0.70647   0.54209    0.000
 6545.00    0.78153   0.53808    0.000
 6546.00    0.82908   0.53695    0.000
 6547.00    0.85881   0.53638    0.000
 6548.00    0.84473   0.53179    0.000
 6549.00    0.82506   0.52623    0.000
 6550.00    0.79351   0.52559    0.000
 6551.00    0.75186   0.52599    0.000
 6552.00    0.69158   0.52011    0.000
 6553.00    0.66454   0.51370    0.000
 6554.00    0.69099   0.51521    0.000
 6555.00    0.73589   0.51697    0.000
 6556.00    0.80685   0.50959    0.000
 6557.00    0.87671   0.50339    0.000
 6558.00    0.94523   0.50820    0.000
 6559.00    1.01389   0.51129    0.000
 6560.00    1.08273   0.50381    0.000
 6561.00    1.11711   0.49980    0.000
 6562.00    1.11820   0.50677    0.000
 6563.00    1.10379   0.50987    0.000
 6564.00    1.07618   0.50444    0.000
 6565.00    1.00511   0.50425    0.000
 6566.00    0.90145   0.51144    0.000
 6567.00    0.82557   0.51328    0.000
 6568.00    0.76800   0.51022    0.000
 6569.00    0.74318   0.51305    0.000
 6570.00    0.73728   0.51960    0.000
 6571.00    0.68412   0.52048    0.000
 6572.00    0.60720   0.51923    0.000
 6573.00    0.55996   0.52335    0.000
 6574.00    0.52565   0.52847    0.000
 6575.00    0.50655   0.52852    0.000
 6576.00    0.49314   0.52829    0.000
 6577.00    0.50407   0.53250    0.000
 6578.00    0.52270   0.53587    0.000
 6579.00    0.58213   0.53524    0.000
 6580.00    0.65235   0.53539    0.000
 6581.00    0.71047   0.53898    0.000
 6582.00    0.76598   0.54082    0.000
 6583.00    0.79338   0.53957    0.000
 6584.00    0.81597   0.53991    0.000
 6585.00    0.82191   0.54289    0.000
 6586.00    0.82569   0.54353    0.000
 6587.00    0.78133   0.54152    0.000
 6588.00    0.73257   0.54197    0.000
 6589.00    0.71417   0.54471    0.000
 6590.00    0.69744   0.54482    0.000
 6591.00    0.68810   0.54254    0.000
 6592.00    0.67908   0.54291    0.000
 6593.00    0.68485   0.54526    0.000
 6594.00    0.69081   0.54530    0.000
 6595.00    0.70106   0.54334    0.000
 6596.00    0.70777   0.54371    0.000
 6597.00    0.66959   0.54574    0.000
 6598.00    0.63879   0.54566    0.000
 6599.00    0.67117   0.54384    0.000
 6600.00    0.70238   0.54441    0.000
 6601.00    0.72617   0.54664    0.000
 6602.00    0.74458   0.54645    0.000
 6603.00    0.73617   0.54438    0.000
 6604.00    0.73260   0.54508    0.000
 6605.00    0.74855   0.54778    0.000
 6606.00    0.75753   0.54756    0.000
 6607.00    0.74318   0.54526    0.000
 6608.00    0.71878   0.54592    0.000
 6609.00    0.66598   0.54875    0.007
 6610.00    0.63163   0.54845    0.007
 6611.00    0.64189   0.54620    0.007
 6612.00    0.64968   0.54684    0.007
 6613.00    0.65231   0.54926    0.006
 6614.00    0.66988   0.54867    0.006
 6615.00    0.71455   0.54668    0.006
 6616.00    0.73987   0.54740    0.006
 6617.00    0.73449   0.54909    0.006
 6618.00    0.71456   0.54801    0.006
 6619.00    0.67438   0.54627    0.006
 6620.00    0.65234   0.54710    0.006
 6621.00    0.65253   0.54812    0.006
 6622.00    0.65518   0.54675    0.006
 6623.00    0.66047   0.54530    0.006
 6624.00    0.65635   0.54600    0.006
 6625.00    0.64326   0.54647    0.006
 6626.00    0.66071   0.54514    0.006
 6627.00    0.70379   0.54413    0.006
 6628.00    0.72949   0.54464    0.007
 6629.00    0.74232   0.54456    0.007
 6630.00    0.71478   0.54342    0.007
 6631.00    0.66101   0.54324    0.007
 6632.00    0.59395   0.54377    0.006
 6633.00    0.51932   0.54288    0.006
 6634.00    0.51232   0.54179    0.006
 6635.00    0.53879   0.54271    0.006
 6636.00    0.59935   0.54340    0.007
 6637.00    0.67450   0.54162    0.007
 6638.00    0.69194   0.54056    0.007
 6639.00    0.68823   0.54234    0.007
 6640.00    0.70213   0.54305    0.007
 6641.00    0.72149   0.54080    0.007
 6642.00    0.72283   0.53989    0.006
 6643.00    0.71949   0.54192    0.006
 6644.00    0.71005   0.54239    0.006
 6645.00    0.69932   0.54005    0.006
 6646.00    0.68280   0.53936    0.006
 6647.00    0.66531   0.54120    0.006
 6648.00    0.66485   0.54133    0.006
 6649.00    0.66653   0.53913    0.006
 6650.00    0.73675   0.53864    0.007
 6651.00    0.81296   0.54018    0.007
 6652.00    0.77530   0.54001    0.007
 6653.00    0.73181   0.53787    0.007
 6654.00    0.69928   0.53757    0.007
 6655.00    0.66747   0.53901    0.007
 6656.00    0.67272   0.53852    0.007
 6657.00    0.67931   0.53633    0.007
 6658.00    0.71418   0.53634    0.007
 6659.00    0.74340   0.53774    0.007
 6660.00    0.70470   0.53689    0.007
 6661.00    0.66181   0.53500    0.006
 6662.00    0.58438   0.53541    0.006
 6663.00    0.51982   0.53635    0.006
 6664.00    0.53471   0.53510    0.006
 6665.00    0.55645   0.53399    0.006
 6666.00    0.61141   0.53492    0.006
 6667.00    0.65401   0.53498    0.006
 6668.00    0.64774   0.53320    0.006
 6669.00    0.64040   0.53314    0.006
 6670.00    0.62952   0.53471    0.006
 6671.00    0.62389   0.53372    0.006
 6672.00    0.63286   0.53147    0.006
 6673.00    0.65116   0.53237    0.006
 6674.00    0.69165   0.53428    0.007
 6675.00    0.70346   0.53281    0.007
 6676.00    0.65642   0.53081    0.007
 6677.00    0.62805   0.53214    0.007
 6678.00    0.63300   0.53366    0.007
 6679.00    0.64691   0.53222    0.007
 6680.00    0.67479   0.53097    0.007
 6681.00    0.67658   0.53229    0.007
 6682.00    0.64257   0.53310    0.007
 6683.00    0.63348   0.53204    0.007
 6684.00    0.65447   0.53164    0.007
 6685.00    0.67876   0.53260    0.007
 6686.00    0.70656   0.53269    0.007
 6687.00    0.68901   0.53212    0.007
 6688.00    0.62887   0.53233    0.006
 6689.00    0.59734   0.53274    0.006
 6690.00    0.58950   0.53229    0.006
 6691.00    0.62131   0.53214    0.006
 6692.00    0.68202   0.53254    0.006
 6693.00    0.71432   0.53242    0.006
 6694.00    0.72844   0.53182    0.006
 6695.00    0.72403   0.53184    0.007
 6696.00    0.70926   0.53206    0.000
 6697.00    0.71827   0.53161    0.000
 6698.00    0.73886   0.53102    0.000
 6699.00    0.70337   0.53093    0.000
 6700.00    0.64428   0.53074    0.000
 6701.00    0.62803   0.53033    0.000
 6702.00    0.62720   0.52997    0.000
 6703.00    0.68809   0.52943    0.000
 6704.00    0.76777   0.52873    0.000
 6705.00    0.76518   0.52866    0.000
 6706.00    0.74177   0.52860    0.000
 6707.00    0.70455   0.52744    0.000
 6708.00    0.66450   0.52639    0.000
 6709.00    0.65281   0.52692    0.000
 6710.00    0.64570   0.52714    0.000
 6711.00    0.67980   0.52546    0.000
 6712.00    0.71888   0.52428    0.000
 6713.00    0.72483   0.52545    0.000
 6714.00    0.72803   0.52595    0.000
 6715.00    0.70791   0.52411    0.000
 6716.00    0.68669   0.52304    0.000
 6717.00    0.70058   0.52454    0.000
 6718.00    0.71428   0.52524    0.000
 6719.00    0.68975   0.52361    0.000
 6720.00    0.66394   0.52279    0.000
 6721.00    0.61315   0.52427    0.000
 6722.00    0.57011   0.52505    0.000
 6723.00    0.61605   0.52384    0.000
 6724.00    0.65704   0.52319    0.000
 6725.00    0.65859   0.52432    0.000
 6726.00    0.66299   0.52509    0.000
 6727.00    0.68446   0.52437    0.000
 6728.00    0.71854   0.52366    0.000
 6729.00    0.81233   0.52417    0.000
 6730.00    0.88888   0.52495    0.000
 6731.00    0.89885   0.52468    0.000
 6732.00    0.87886   0.52376    0.000
 6733.00    0.76245   0.52365    0.000
 6734.00    0.66110   0.52443    0.000
 6735.00    0.60079   0.52444    0.000
 6736.00    0.57981   0.52334    0.000
 6737.00    0.65075   0.52295    0.000
 6738.00    0.70560   0.52374    0.000
 6739.00    0.72795   0.52377    0.000
 6740.00    0.72633   0.52269    0.000
 6741.00    0.68253   0.52242    0.000
 6742.00    0.67580   0.52318    0.000
 6743.00    0.72611   0.52311    0.000
 6744.00    0.74535   0.52233    0.000
 6745.00    0.72258   0.52236    0.000
 6746.00    0.71264   0.52306    0.000
 6747.00    0.71800   0.52302    0.000
 6748.00    0.70002   0.52262    0.000
 6749.00    0.65755   0.52286    0.000
 6750.00    0.59363   0.52349    0.000
 6751.00    0.50987   0.52366    0.000
 6752.00    0.49816   0.52353    0.000
 6753.00    0.54526   0.52370    0.007
 6754.00    0.54242   0.52429    0.007
 6755.00    0.50372   0.52482    0.007
 6756.00    0.47510   0.52478    0.007
 6757.00    0.45284   0.52457    0.007
 6758.00    0.48503   0.52513    0.007
 6759.00    0.54725   0.52607    0.007
 6760.00    0.57765   0.52594    0.008
 6761.00    0.59280   0.52529    0.008
 6762.00    0.65121   0.52585    0.008
 6763.00    0.72751   0.52699    0.008
 6764.00    0.81694   0.52666    0.008
 6765.00    0.91101   0.52575    0.008
 6766.00    0.85018   0.52634    0.008
 6767.00    0.74312   0.52742    0.008
 6768.00    0.72388   0.52684    0.008
 6769.00    0.72639   0.52589    0.008
 6770.00    0.75643   0.52648    0.008
 6771.00    0.79200   0.52727    0.008
 6772.00    0.79283   0.52648    0.007
 6773.00    0.78821   0.52567    0.007
 6774.00    0.74784   0.52622    0.007
 6775.00    0.70329   0.52656    0.007
 6776.00    0.58156   0.52563    0.007
 6777.00    0.45374   0.52509    0.007
 6778.00    0.50591   0.52561    0.007
 6779.00    0.56592   0.52551    0.007
 6780.00    0.64292   0.52450    0.007
 6781.00    0.71935   0.52428    0.007
 6782.00    0.76017   0.52480    0.007
 6783.00    0.79409   0.52446    0.007
 6784.00    0.70312   0.52351    0.007
 6785.00    0.61590   0.52355    0.007
 6786.00    0.56992   0.52413    0.007
 6787.00    0.52767   0.52381    0.007
 6788.00    0.51413   0.52301    0.007
 6789.00    0.50660   0.52320    0.008
 6790.00    0.53410   0.52386    0.008
 6791.00    0.54929   0.52377    0.008
 6792.00    0.50759   0.52312    0.008
 6793.00    0.48800   0.52326    0.007
 6794.00    0.55207   0.52403    0.007
 6795.00    0.62153   0.52429    0.007
 6796.00    0.70802   0.52370    0.007
 6797.00    0.75004   0.52361    0.007
 6798.00    0.67298   0.52445    0.007
 6799.00    0.61845   0.52507    0.007
 6800.00    0.61572   0.52448    0.007
 6801.00    0.59788   0.52404    0.007
 6802.00    0.55003   0.52487    0.007
 6803.00    0.50908   0.52580    0.007
 6804.00    0.48010   0.52522    0.007
 6805.00    0.48057   0.52446    0.007
 6806.00    0.52570   0.52518    0.007
 6807.00    0.55765   0.52631    0.007
 6808.00    0.57205   0.52585    0.007
 6809.00    0.54982   0.52487    0.007
 6810.00    0.48460   0.52533    0.007
 6811.00    0.45431   0.52655    0.007
 6812.00    0.46020   0.52639    0.008
 6813.00    0.54836   0.52535    0.008
 6814.00    0.71162   0.52540    0.008
 6815.00    0.75699   0.52655    0.008
 6816.00    0.70749   0.52680    0.008
 6817.00    0.69215   0.52584    0.008
 6818.00    0.70099   0.52540    0.007
 6819.00    0.66918   0.52632    0.007
 6820.00    0.61212   0.52694    0.007
 6821.00    0.56420   0.52617    0.007
 6822.00    0.52124   0.52528    0.007
 6823.00    0.54227   0.52581    0.007
 6824.00    0.59347   0.52664    0.007
 6825.00    0.60010   0.52609    0.007
 6826.00    0.58860   0.52494    0.007
 6827.00    0.54919   0.52505    0.007
 6828.00    0.50009   0.52581    0.007
 6829.00    0.55244   0.52547    0.007
 6830.00    0.63446   0.52434    0.008
 6831.00    0.68362   0.52412    0.008
 6832.00    0.72481   0.52456    0.008
 6833.00    0.72436   0.52436    0.008
 6834.00    0.71576   0.52356    0.008
 6835.00    0.60979   0.52317    0.008
 6836.00    0.48899   0.52314    0.008
 6837.00    0.48724   0.52298    0.008
 6838.00    0.49886   0.52270    0.008
 6839.00    0.62607   0.52231    0.008
 6840.00    0.76192   0.52178    0.008
 6841.00    0.72956   0.52160    0.008
 6842.00    0.69053   0.52185    0.008
 6843.00    0.67213   0.52156    0.007
 6844.00    0.65665   0.52061    0.007
 6845.00    0.75207   0.52040    0.007
 6846.00    0.83823   0.52104    0.007
 6847.00    0.76806   0.52082    0.007
 6848.00    0.70110   0.51965    0.007
 6849.00    0.66773   0.51946    0.007
 6850.00    0.63666   0.52024    0.007
 6851.00    0.62268   0.52004    0.007
 6852.00    0.60977   0.51890    0.007
 6853.00    0.60298   0.51881    0.007
 6854.00    0.60991   0.51953    0.007
 6855.00    0.67881   0.51933    0.007
 6856.00    0.70251   0.51849    0.007
 6857.00    0.55887   0.51852    0.007
 6858.00    0.48436   0.51902    0.007
 6859.00    0.62396   0.51890    0.008
 6860.00    0.69668   0.51853    0.008
 6861.00    0.59345   0.51866    0.008
 6862.00    0.52219   0.51888    0.007
 6863.00    0.52317   0.51892    0.007
 6864.00    0.51898   0.51905    0.007
 6865.00    0.50467   0.51921    0.007
 6866.00    0.50862   0.51921    0.007
 6867.00    0.54372   0.51946    0.008
 6868.00    0.55667   0.51994    0.008
 6869.00    0.53652   0.52011    0.008
 6870.00    0.53361   0.52006    0.008
 6871.00    0.55336   0.52045    0.008
 6872.00    0.59024   0.52104    0.007
 6873.00    0.64695   0.52127    0.007
 6874.00    0.65357   0.52135    0.007
 6875.00    0.60910   0.52178    0.007
 6876.00    0.58579   0.52227    0.007
 6877.00    0.58154   0.52263    0.007
 6878.00    0.55752   0.52293    0.007
 6879.00    0.51783   0.52329    0.007
 6880.00    0.53630   0.52366    0.007
 6881.00    0.59535   0.52416    0.007
 6882.00    0.67093   0.52457    0.008
 6883.00    0.75662   0.52485    0.008
 6884.00    0.78911   0.52522    0.008
 6885.00    0.79316   0.52582    0.008
 6886.00    0.74479   0.52610    0.008
 6887.00    0.67210   0.52629    0.007
 6888.00    0.66651   0.52687    0.007
 6889.00    0.68774   0.52750    0.007
 6890.00    0.71963   0.52742    0.007
 6891.00    0.75514   0.52752    0.007
 6892.00    0.68718   0.52841    0.007
 6893.00    0.58954   0.52902    0.007
 6894.00    0.60244   0.52850    0.007
 6895.00    0.64151   0.52845    0.007
 6896.00    0.61725   0.52958    0.008
 6897.00    0.58093   0.53017    0.008
 6898.00    0.58847   0.52932    0.008
 6899.00    0.60249   0.52906    0.008
 6900.00    0.58160   0.53021    0.008
 6901.00    0.55695   0.53079    0.008
 6902.00    0.61175   0.52981    0.008
 6903.00    0.67217   0.52932    0.008
 6904.00    0.62263   0.53025    0.008
 6905.00    0.56915   0.53082    0.008
 6906.00    0.67679   0.52991    0.008
 6907.00    0.77917   0.52922    0.008
 6908.00    0.68108   0.52983    0.008
 6909.00    0.58740   0.53038    0.008
 6910.00    0.56351   0.52963    0.008
 6911.00    0.54260   0.52881    0.008
 6912.00    0.55162   0.52918    0.008
 6913.00    0.54969   0.52974    0.008
 6914.00    0.46902   0.52911    0.008
 6915.00    0.41575   0.52823    0.007
 6916.00    0.51362   0.52855    0.008
 6917.00    0.59408   0.52920    0.008
 6918.00    0.59781   0.52861    0.008
 6919.00    0.61697   0.52768    0.008
 6920.00    0.69212   0.52812    0.008
 6921.00    0.73172   0.52895    0.008
 6922.00    0.66331   0.52834    0.008
 6923.00    0.61425   0.52734    0.008
 6924.00    0.61521   0.52794    0.008
 6925.00    0.63892   0.52899    0.008
 6926.00    0.71319   0.52836    0.008
 6927.00    0.73414   0.52727    0.008
 6928.00    0.65236   0.52798    0.008
 6929.00    0.62963   0.52919    0.008
 6930.00    0.70616   0.52858    0.008
 6931.00    0.70444   0.52743    0.008
 6932.00    0.58748   0.52815    0.008
 6933.00    0.52297   0.52940    0.008
 6934.00    0.52640   0.52885    0.008
 6935.00    0.55407   0.52772    0.008
 6936.00    0.60941   0.52835    0.008
 6937.00    0.58979   0.52953    0.008
 6938.00    0.49476   0.52910    0.008
 6939.00    0.50884   0.52809    0.008
 6940.00    0.61975   0.52858    0.008
 6941.00    0.65503   0.52964    0.008
 6942.00    0.63117   0.52941    0.008
 6943.00    0.61847   0.52859    0.008
 6944.00    0.61345   0.52890    0.008
 6945.00    0.66190   0.52985    0.008
 6946.00    0.74259   0.52993    0.008
 6947.00    0.69665   0.52934    0.008
 6948.00    0.58409   0.52943    0.008
 6949.00    0.54991   0.53030    0.008
 6950.00    0.55150   0.53077    0.008
 6951.00    0.58586   0.53038    0.008
 6952.00    0.63310   0.53016    0.008
 6953.00    0.66067   0.53095    0.008
 6954.00    0.68166   0.53182    0.008
 6955.00    0.65655   0.53155    0.008
 6956.00    0.61849   0.53089    0.008
 6957.00    0.51749   0.53154    0.008
 6958.00    0.40193   0.53278    0.008
 6959.00    0.41510   0.53254    0.008
 6960.00    0.45217   0.53133    0.008
 6961.00    0.51440   0.53172    0.008
 6962.00    0.58023   0.53324    0.008
 6963.00    0.60323   0.53302    0.008
 6964.00    0.62179   0.53124    0.008
 6965.00    0.51834   0.53127    0.008
 6966.00    0.40675   0.53301    0.008
 6967.00    0.41017   0.53290    0.008
 6968.00    0.41733   0.53070    0.008
 6969.00    0.61724   0.53034    0.008
 6970.00    0.80687   0.53224    0.009
 6971.00    0.68162   0.53237    0.008
 6972.00    0.56451   0.53004    0.008
 6973.00    0.56853   0.52941    0.008
 6974.00    0.56874   0.53135    0.008
 6975.00    0.53233   0.53180    0.008
 6976.00    0.50140   0.52969    0.008
 6977.00    0.50860   0.52896    0.008
 6978.00    0.50999   0.53079    0.008
 6979.00    0.48021   0.53150    0.008
 6980.00    0.46192   0.52983    0.008
 6981.00    0.49318   0.52913    0.008
 6982.00    0.50727   0.53069    0.008
 6983.00    0.46044   0.53150    0.008
 6984.00    0.45620   0.53031    0.008
 6985.00    0.57901   0.52963    0.008
 6986.00    0.65601   0.53076    0.008
 6987.00    0.61669   0.53157    0.008
 6988.00    0.59699   0.53079    0.008
 6989.00    0.62019   0.53000    0.008
 6990.00    0.60712   0.53061    0.008
 6991.00    0.52524   0.53145    0.008
 6992.00    0.49622   0.53101    0.008
 6993.00    0.55473   0.52994    0.008
 6994.00    0.59663   0.53002    0.008
 6995.00    0.61442   0.53102    0.008
 6996.00    0.59678   0.53094    0.008
 6997.00    0.53391   0.52949    0.008
 6998.00    0.47746   0.52904    0.008
 6999.00    0.42822   0.53035    0.008
 7000.00    0.44859   0.53072    0.008
 7001.00    0.53801   0.52888    0.008
 7002.00    0.56397   0.52792    0.008
 7003.00    0.53443   0.52961    0.008
 7004.00    0.56156   0.53052    0.008
 7005.00    0.63238   0.52840    0.008
 7006.00    0.58278   0.52697    0.008
 7007.00    0.45160   0.52899    0.008
 7008.00    0.42767   0.53049    0.008
 7009.00    0.46744   0.52827    0.008
 7010.00    0.50262   0.52641    0.008
 7011.00    0.53542   0.52858    0.008
 7012.00    0.54846   0.53066    0.008
 7013.00    0.55262   0.52862    0.008
 7014.00    0.58651   0.52648    0.008
 7015.00    0.63188   0.52852    0.008
 7016.00    0.63890   0.53101    0.008
 7017.00    0.63333   0.52947    0.008
 7018.00    0.61760   0.52734    0.008
 7019.00    0.59908   0.52898    0.008
 7020.00    0.54414   0.53152    0.008
 7021.00    0.48097   0.53071    0.008
 7022.00    0.49391   0.52898    0.008
 7023.00    0.52060   0.53005    0.008
 7024.00    0.49687   0.53224    0.008
 7025.00    0.46616   0.53220    0.008
 7026.00    0.51008   0.53122    0.008
 7027.00    0.56141   0.53170    0.008
 7028.00    0.58044   0.53313    0.008
 7029.00    0.59743   0.53369    0.008
 7030.00    0.54980   0.53367    0.009
 7031.00    0.50056   0.53370    0.009
 7032.00    0.50908   0.53410    0.009
 7033.00    0.51867   0.53486    0.008
 7034.00    0.55761   0.53565    0.008
 7035.00    0.59170   0.53538    0.008
 7036.00    0.55767   0.53478    0.008
 7037.00    0.53794   0.53532    0.008
 7038.00    0.65004   0.53648    0.008
 7039.00    0.74120   0.53597    0.008
 7040.00    0.69115   0.53455    0.008
 7041.00    0.63709   0.53455    0.008
 7042.00    0.56206   0.53554    0.008
 7043.00    0.51462   0.53480    0.008
 7044.00    0.58338   0.53284    0.008
 7045.00    0.61100   0.53215    0.008
 7046.00    0.49549   0.53261    0.008
 7047.00    0.43831   0.53171    0.008
 7048.00    0.55187   0.52956    0.008
 7049.00    0.62129   0.52823    0.008
 7050.00    0.58055   0.52805   -2.000
 7051.00    0.57677   0.52719   -2.000
 7052.00    0.65253   0.52527   -2.000
 7053.00    0.67240   0.52354   -2.000
 7054.00    0.58793   0.52283   -2.000
 7055.00    0.57373   0.52227   -2.000
 7056.00    0.67416   0.52084   -2.000
 7057.00    0.69832   0.51900   -2.000
 7058.00    0.61341   0.51809   -2.000
 7059.00    0.57338   0.51803   -2.000
 7060.00    0.58982   0.51724   -2.000
 7061.00    0.55812   0.51551   -2.000
 7062.00    0.47304   0.51454   -2.000
 7063.00    0.30346   0.51494   -2.000
 7064.00    0.05123   0.51479   -2.000
 7065.00    0.12108   0.51328   -2.000
 7066.00    0.46875   0.51225   -2.000
 7067.00    0.63678   0.51287   -2.000
 7068.00    0.66833   0.51316   -2.000
 7069.00    0.60215   0.51180   -2.000
 7070.00    0.47070   0.51055   -2.000
 7071.00    0.43478   0.51105   -2.000
 7072.00    0.45471   0.51152   -2.000
 7073.00    0.55987   0.51016   -2.000
 7074.00    0.70848   0.50852   -2.000
 7075.00    0.64702   0.50866   -2.000
 7076.00    0.49282   0.50919   -2.000
 7077.00    0.58717   0.50774   -2.000
 7078.00    0.77578   0.50563   -2.000
 7079.00    0.70866   0.50533   -2.000
 7080.00    0.55919   0.50585   -2.000
 7081.00    0.59688   0.50446   -2.000
 7082.00    0.68499   0.50213   -2.000
 7083.00    0.76214   0.50140   -2.000
 7084.00    0.83688   0.50186   -2.000
 7085.00    0.70564   0.50085   -2.000
 7086.00    0.53820   0.49874   -2.000
 7087.00    0.50064   0.49774   -2.000
 7088.00    0.48049   0.49808   -2.000
 7089.00    0.54166   0.49768   -2.000
 7090.00    0.61056   0.49625   -2.000
 7091.00    0.58325   0.49523   -2.000
 7092.00    0.55030   0.49528   -2.000
 7093.00    0.57833   0.49545   -2.000
 7094.00    0.60664   0.49505   -2.000
 7095.00    0.46926   0.49432   -2.000
 7096.00    0.33822   0.49390   -2.000
 7097.00    0.36493   0.49430   -2.000
 7098.00    0.39672   0.49489   -2.000
 7099.00    0.49605   0.49468   -2.000
 7100.00    0.57021   0.49385   -2.000
 7101.00    0.42126   0.49408   -2.000
 7102.00    0.29621   0.49518   -2.000
 7103.00    0.32730   0.49551   -2.000
 7104.00    0.36968   0.49448   -2.000
 7105.00    0.46961   0.49436   -2.000
 7106.00    0.56572   0.49550   -2.000
 7107.00    0.64612   0.49608   -2.000
 7108.00    0.68629   0.49501   -2.000
 7109.00    0.58936   0.49457   -2.000
 7110.00    0.51654   0.49551   -2.000
 7111.00    0.51302   0.49595   -2.000
 7112.00    0.49782   0.49479   -2.000
 7113.00    0.45399   0.49432   -2.000
 7114.00    0.44571   0.49514   -2.000
 7115.00    0.51266   0.49505   -2.000
 7116.00    0.56061   0.49352   -2.000
 7117.00    0.57364   0.49324   -2.000
 7118.00    0.56753   0.49428   -2.000
 7119.00    0.53070   0.49368   -2.000
 7120.00    0.55765   0.49154   -2.000
 7121.00    0.67453   0.49143   -2.000
 7122.00    0.62183   0.49302   -2.000
 7123.00    0.35880   0.49231   -2.000
 7124.00    0.33313   0.48956   -2.000
 7125.00    0.56699   0.48927   -2.000
 7126.00    0.53802   0.49149   -2.000
 7127.00    0.25558   0.49130   -2.000
 7128.00    0.22447   0.48828   -2.000
 7129.00    0.40709   0.48752   -2.000
 7130.00    0.51315   0.49010   -2.000
 7131.00    0.56188   0.49082   -2.000
 7132.00    0.52773   0.48813   -2.000
 7133.00    0.43905   0.48672   -2.000
 7134.00    0.52302   0.48912   -2.000
 7135.00    0.70644   0.49087   -2.000
 7136.00    0.68204   0.48900   -2.000
 7137.00    0.55335   0.48706   -2.000
 7138.00    0.59690   0.48885   -2.000
 7139.00    0.71523   0.49134   -2.000
 7140.00    0.61576   0.49045   -2.000
 7141.00    0.43516   0.48826   -2.000
 7142.00    0.38391   0.48926   -2.000
 7143.00    0.37352   0.49216   -2.000
 7144.00    0.42033   0.49213   -2.000
 7145.00    0.48224   0.48977   -2.000
 7146.00    0.37551   0.49003   -2.000
 7147.00    0.23245   0.49309   -2.000
 7148.00    0.43520   0.49384   -2.000
 7149.00    0.69707   0.49149   -2.000
 7150.00    0.76593   0.49098   -2.000
 7151.00    0.80982   0.49397   -2.000
 7152.00    0.72649   0.49542   -2.000
 7153.00    0.63161   0.49316   -2.000
 7154.00    0.41606   0.49191   -2.000
 7155.00    0.19390   0.49469   -2.000
 7156.00    0.42222   0.49667   -2.000
 7157.00    0.65393   0.49467   -2.000
 7158.00    0.33332   0.49299   -2.000
 7159.00    0.01813   0.49523   -2.000
 7160.00   -0.17416   0.49750   -2.000
 7161.00   -0.35102   0.49609   -2.000
 7162.00   -0.33372   0.49404   -2.000
 7163.00   -0.25389   0.49541   -2.000
 7164.00    0.35944   0.49787   -2.000
 7165.00    0.88212   0.49730   -2.000
 7166.00    0.83024   0.49509   -2.000
 7167.00    0.74729   0.49546   -2.000
 7168.00    0.51000   0.49780   -2.000
 7169.00    0.34635   0.49794   -2.000
 7170.00    0.47917   0.49582   -2.000
 7171.00    0.62608   0.49549   -2.000
 7172.00    0.82009   0.49752   -2.000
 7173.00    0.90868   0.49797   -2.000
 7174.00    0.69991   0.49602   -2.000
 7175.00    0.54254   0.49539   -2.000
 7176.00    0.50915   0.49717   -2.000
 7177.00    0.45639   0.49770   -2.000
 7178.00    0.36329   0.49566   -2.000
 7179.00    0.38086   0.49477   -2.000
 7180.00    0.59883   0.49662   -2.000
 7181.00    0.66108   0.49745   -2.000
 7182.00    0.47687   0.49529   -2.000
 7183.00    0.45330   0.49392   -2.000
 7184.00    0.65292   0.49576   -2.000
 7185.00    0.68868   0.49721   -2.000
 7186.00    0.52407   0.49536   -2.000
 7187.00    0.38409   0.49346   -2.000
 7188.00    0.27067   0.49482   -2.000
 7189.00    0.35937   0.49685   -2.000
 7190.00    0.64023   0.49574   -2.000
 7191.00    0.73785   0.49353   -2.000
 7192.00    0.68185   0.49425   -2.000
 7193.00    0.66724   0.49661   -2.000
 7194.00    0.68317   0.49635   -2.000
 7195.00    0.64600   0.49404   -2.000
 7196.00    0.57440   0.49393   -2.000
 7197.00    0.44643   0.49641   -2.000
 7198.00    0.28648   0.49718   -2.000
 7199.00    0.06275   0.49523   -2.000
 7200.00   -0.19249   0.49429   -2.000
 7201.00   -0.07187   0.49616   -2.000
 7202.00    0.20925   0.49781   -2.000
 7203.00    0.38117   0.49691   -2.000
 7204.00    0.51314   0.49552   -2.000
 7205.00    0.59787   0.49636   -2.000
 7206.00    0.66796   0.49839   -2.000
 7207.00    0.58465   0.49881   -2.000
 7208.00    0.46175   0.49766   -2.000
 7209.00    0.46957   0.49750   -2.000
 7210.00    0.50488   0.49926   -2.000
 7211.00    0.55480   0.50068   -2.000
 7212.00    0.60714   0.50040   -2.000
 7213.00    0.56093   0.49981   -2.000
 7214.00    0.50241   0.50084   -2.000
 7215.00    0.46472   0.50264   -2.000
 7216.00    0.42884   0.50331   -2.000
 7217.00    0.31945   0.50278   -2.000
 7218.00    0.20632   0.50311   -2.000
