###################################################################
## OUTPUT of StarlightChains_v04.for    [Cid@UFSC - 01/Apr/2007] ##
###################################################################

## Some input info
KUG0210-078._39_31.txt                   [arq_obs]
Base.CB07.vall.4m                        [arq_base]
Masks.EmLines.NEW.gm                     [arq_masks]
StCv04.C11.config                        [arq_config]
   66                                    [N_base]
    0                                    [N_YAV_components = # of components with extra extinction!]
    0                                    [i_FitPowerLaw (1/0 = Yes/No)]
-9.99                                    [alpha_PowerLaw]
CCM                                      [red_law_option]
 1.458241                                [q_norm = A(l_norm)/A(V)]

## (Re)Sampling Parameters
 3741.00                                 [l_ini (A)]
 7218.00                                 [l_fin (A)]
    1.00                                 [dl    (A)]     (OBS: dl_cushion =    50.00 A)

## Normalization info
 4020.00                                 [l_norm (A) - for base]
 4010.00                                 [llow_norm (A) - window for f_obs]
 4060.00                                 [lupp_norm (A) - window for f_obs]
1.284397E-17                             [fobs_norm (in input units)]

## S/N
 3691.00                                 [llow_SN (A) - window for S/N]
 7268.00                                 [lupp_SN (A) - window for S/N]
   5.060                                 [S/N in S/N window]
   4.659                                 [S/N in norm. window]
   0.018                                 [S/N_err in S/N window]
   0.017                                 [S/N_err in norm. window]
  1.0000                                 [fscale_chi2]

## etc...
    -2007688                             [idum_orig]
  2430                                   [NOl_eff]
  2416                                   [Nl_eff]
    14    NSIGMA                         [Ntot_cliped & clip_method]
  1006250                                [Nglobal_steps]
   7                                     [N_chains]
  43                                     [NEX0s_base = N_base in EX0s-fits]
 0   0   1       14   2.0   1.987E+03    [Clip-Bug, RC-Crash & Burn-In warning-flags, n_censored_weights, wei_nsig_threshold & wei_limit]
    31     30.696     30.041      0.656  [idt_all, wdt_TotTime, wdt_UsrTime & wdt_SysTime (sec)]

## Synthesis Results - Best model ##

 1.42505E-05                             [chi2/Nl_eff]
    18.08558                             [adev (%)]

   129.99998                             [sum-of-x (%)]
 8.29018E-18                             [Flux_tot (units of input spectrum!)]
 2.68150E-13                             [Mini_tot (???)]
 1.39458E-13                             [Mcor_tot (???)]

-268.86                                  [v0_min  (km/s)]
 292.76                                  [vd_min  (km/s)]
-0.5213                                  [AV_min  (mag)]
 0.0000                                  [YAV_min (mag)]

# j     x_j(%)      Mini_j(%)     Mcor_j(%)     age_j(yr)     Z_j      (L/M)_j    YAV?  Mstars   component_j        a/Fe...       SSP_chi2r SSP_adev(%)   SSP_AV   SSP_x(%)
  1      0.0000     0.0000E+00    0.0000E+00    1.000000E+06  0.00400  1.094E-02    0   1.0000   age020_m42            0.0000     2.2875E-05    23.4355   3.0097   104.5594
  2      0.0000     0.0000E+00    0.0000E+00    3.160000E+06  0.00400  4.007E-02    0   0.9999   age045_m42            0.0000     2.0197E-05    21.8278   2.2350   113.7600
  3      0.0000     0.0000E+00    0.0000E+00    5.010000E+06  0.00400  2.539E-02    0   0.9488   age055_m42            0.0000     2.1241E-05    22.7010   2.5794   110.0045
  4      0.0000     0.0000E+00    0.0000E+00    6.610000E+06  0.00400  2.620E-02    0   0.9220   age061_m42            0.0000     2.0266E-05    21.9188   2.1619   113.9767
  5      0.0000     0.0000E+00    0.0000E+00    1.000000E+07  0.00400  1.322E-02    0   0.8862   age070_m42            0.0000     2.1532E-05    23.4264   1.9312   114.4109
  6      0.0000     0.0000E+00    0.0000E+00    1.445000E+07  0.00400  7.883E-03    0   0.8571   age078_m42            0.0000     2.2019E-05    23.7459   2.2646   111.2393
  7      0.0000     0.0000E+00    0.0000E+00    2.512000E+07  0.00400  5.251E-03    0   0.8174   age090_m42            0.0000     2.1619E-05    23.6156   1.8065   114.8763
  8      0.0000     0.0000E+00    0.0000E+00    4.000000E+07  0.00400  3.649E-03    0   0.7851   age104_m42            0.0000     2.0942E-05    23.1177   1.5662   116.3897
  9      0.0000     0.0000E+00    0.0000E+00    5.500000E+07  0.00400  3.098E-03    0   0.7629   age110_m42            0.0000     2.0366E-05    22.0443   1.6873   117.7065
 10      0.0000     0.0000E+00    0.0000E+00    1.015200E+08  0.00400  2.228E-03    0   0.7207   age116_m42            0.0000     2.0144E-05    21.3209   1.6868   118.7755
 11      0.0000     0.0000E+00    0.0000E+00    2.861200E+08  0.00400  1.093E-03    0   0.6648   age125_m42            0.0000     2.0042E-05    21.4992   1.1213   122.0433
 12      0.0000     0.0000E+00    0.0000E+00    5.088000E+08  0.00400  6.597E-04    0   0.6365   age130_m42            0.0000     1.9483E-05    20.3214   1.0775   124.5206
 13      1.0535     1.1751E-01    1.3101E-01    1.434000E+09  0.00400  2.132E-04    0   0.5798   age139_m42            0.0000     1.6942E-05    19.1776   0.0849   127.9328
 14      3.1475     1.2698E+00    1.3128E+00    4.250000E+09  0.00400  5.895E-05    0   0.5377   age158_m42            0.0000     1.4637E-05    18.7207  -0.3719   123.5013
 15      0.0000     0.0000E+00    0.0000E+00    7.500000E+09  0.00400  3.510E-05    0   0.5212   age171_m42            0.0000     1.4168E-05    18.3644  -0.5747   123.2140
 16      0.0000     0.0000E+00    0.0000E+00    1.300000E+10  0.00400  2.005E-05    0   0.5034   age193_m42            0.0000     1.3912E-05    18.1422  -0.7527   122.9705
 17     10.6336     1.6583E+01    1.5837E+01    1.800000E+10  0.00400  1.525E-05    0   0.4967   age213_m42            0.0000     1.3975E-05    18.3111  -0.7697   122.1917
 18      0.0000     0.0000E+00    0.0000E+00    1.000000E+06  0.00800  1.238E-02    0   1.0000   age020_m52            0.0000     2.2924E-05    23.4379   3.0051   104.7913
 19      0.4615     3.5706E-04    6.8422E-04    3.160000E+06  0.00800  3.074E-02    0   0.9966   age045_m52            0.0000     2.2575E-05    23.3037   2.9224   105.9588
 20      0.0000     0.0000E+00    0.0000E+00    5.010000E+06  0.00800  2.668E-02    0   0.9443   age055_m52            0.0000     2.1631E-05    22.9401   2.6680   108.7786
 21      0.0000     0.0000E+00    0.0000E+00    6.610000E+06  0.00800  2.136E-02    0   0.9177   age061_m52            0.0000     2.0359E-05    23.2745   1.4352   115.5400
 22      0.0000     0.0000E+00    0.0000E+00    1.000000E+07  0.00800  1.215E-02    0   0.8827   age070_m52            0.0000     2.2367E-05    24.1789   2.1286   113.4093
 23      3.7853     1.0327E-02    1.6981E-02    1.445000E+07  0.00800  8.717E-03    0   0.8552   age078_m52            0.0000     2.1826E-05    23.6229   2.2268   112.9356
 24      0.0000     0.0000E+00    0.0000E+00    2.512000E+07  0.00800  5.592E-03    0   0.8162   age090_m52            0.0000     2.1595E-05    23.6268   1.8677   116.3443
 25      0.0000     0.0000E+00    0.0000E+00    4.000000E+07  0.00800  3.896E-03    0   0.7841   age104_m52            0.0000     2.0861E-05    22.9283   1.7613   118.0361
 26      0.0000     0.0000E+00    0.0000E+00    1.015200E+08  0.00800  2.148E-03    0   0.7226   age116_m52            0.0000     1.9989E-05    21.7795   1.6667   119.1917
 27      0.0000     0.0000E+00    0.0000E+00    2.861200E+08  0.00800  9.925E-04    0   0.6683   age125_m52            0.0000     1.9661E-05    20.2261   1.1414   125.7573
 28     10.5447     7.9838E-01    9.4226E-01    9.047900E+08  0.00800  3.141E-04    0   0.6138   age135_m52            0.0000     1.6688E-05    18.3869   0.2862   133.4663
 29      0.0000     0.0000E+00    0.0000E+00    1.434000E+09  0.00800  1.719E-04    0   0.5853   age139_m52            0.0000     1.5262E-05    18.6094  -0.2830   130.0677
 30      0.0000     0.0000E+00    0.0000E+00    2.500000E+09  0.00800  7.872E-05    0   0.5600   age150_m52            0.0000     1.4123E-05    17.7814  -0.5817   127.8256
 31     16.6861     9.1518E+00    9.5482E+00    4.250000E+09  0.00800  4.336E-05    0   0.5426   age158_m52            0.0000     1.3967E-05    17.8761  -0.5953   126.5337
 32      1.1109     8.3633E-01    8.5535E-01    6.250000E+09  0.00800  3.159E-05    0   0.5319   age166_m52            0.0000     1.3752E-05    17.3456  -0.8273   127.7011
 33      0.0000     0.0000E+00    0.0000E+00    1.300000E+10  0.00800  1.361E-05    0   0.5073   age193_m52            0.0000     1.6064E-05    18.8725  -1.0000   118.2751
 34      8.6573     2.0826E+01    1.9982E+01    1.800000E+10  0.00800  9.886E-06    0   0.4990   age213_m52            0.0000     1.8600E-05    19.9482  -1.0000   114.4088
 35      0.0000     0.0000E+00    0.0000E+00    1.000000E+06  0.02000  1.544E-02    0   1.0000   age020_m62            0.0000     2.3034E-05    23.4939   3.0015   105.0120
 36      0.9828     6.2126E-04    1.1776E-03    3.160000E+06  0.02000  3.762E-02    0   0.9858   age045_m62            0.0000     2.2908E-05    23.4818   2.9380   106.0389
 37      0.0000     0.0000E+00    0.0000E+00    5.010000E+06  0.02000  3.296E-02    0   0.9342   age055_m62            0.0000     2.0831E-05    22.2180   2.5210   112.1025
 38      0.0000     0.0000E+00    0.0000E+00    8.710000E+06  0.02000  1.154E-02    0   0.8861   age067_m62            0.0000     2.7433E-05    28.4382   1.6740   112.5595
 39      0.0000     0.0000E+00    0.0000E+00    1.445000E+07  0.02000  7.663E-03    0   0.8472   age078_m62            0.0000     2.3136E-05    25.3129   1.7997   114.8979
 40      0.0000     0.0000E+00    0.0000E+00    2.512000E+07  0.02000  4.532E-03    0   0.8099   age090_m62            0.0000     2.3344E-05    25.4690   1.7909   114.5961
 41      0.0000     0.0000E+00    0.0000E+00    5.500000E+07  0.02000  2.733E-03    0   0.7595   age110_m62            0.0000     2.0949E-05    23.1327   1.7480   116.9820
 42      0.0000     0.0000E+00    0.0000E+00    1.609000E+08  0.02000  1.369E-03    0   0.6985   age120_m62            0.0000     2.0414E-05    21.1801   1.5315   122.5662
 43      0.0000     0.0000E+00    0.0000E+00    2.861200E+08  0.02000  9.013E-04    0   0.6714   age125_m62            0.0000     2.0504E-05    19.8775   1.2483   127.5762
 44      1.6824     7.9573E-02    9.8672E-02    5.088000E+08  0.02000  5.028E-04    0   0.6449   age130_m62            0.0000     1.9033E-05    18.1521   0.8175   133.3289
 45     11.3460     1.1113E+00    1.3204E+00    9.047900E+08  0.02000  2.428E-04    0   0.6179   age135_m62            0.0000     1.5631E-05    17.6798   0.2128   133.2307
 46      6.3612     1.1978E+00    1.3607E+00    1.434000E+09  0.02000  1.263E-04    0   0.5908   age139_m62            0.0000     1.4467E-05    17.6031  -0.2327   131.2012
 47     12.8481     5.1053E+00    5.5689E+00    2.500000E+09  0.02000  5.985E-05    0   0.5673   age150_m62            0.0000     1.3894E-05    17.2198  -0.6276   130.5037
 48     22.9064     1.6654E+01    1.7510E+01    4.250000E+09  0.02000  3.271E-05    0   0.5468   age158_m62            0.0000     1.3889E-05    16.8204  -0.9749   131.0964
 49      0.0000     0.0000E+00    0.0000E+00    1.000000E+10  0.02000  1.360E-05    0   0.5167   age181_m62            0.0000     1.7525E-05    17.9956  -1.0000   120.9215
 50      0.0000     0.0000E+00    0.0000E+00    1.800000E+10  0.02000  7.124E-06    0   0.5013   age213_m62            0.0000     2.3336E-05    20.3791  -1.0000   113.0822
 51      0.0000     0.0000E+00    0.0000E+00    1.000000E+06  0.05000  2.592E-02    0   0.9998   age020_m72            0.0000     2.3407E-05    23.6927   2.9992   104.8142
 52      0.0000     0.0000E+00    0.0000E+00    3.160000E+06  0.05000  4.845E-02    0   0.9577   age045_m72            0.0000     2.1923E-05    22.9523   2.8019   108.2038
 53      0.0000     0.0000E+00    0.0000E+00    5.010000E+06  0.05000  3.072E-02    0   0.9147   age055_m72            0.0000     2.3069E-05    24.7736   2.3651   111.1509
 54      0.0000     0.0000E+00    0.0000E+00    6.610000E+06  0.05000  1.455E-02    0   0.8877   age061_m72            0.0000     3.1359E-05    30.8776   1.7348   112.1852
 55      5.1648     1.3536E-02    2.2186E-02    1.000000E+07  0.05000  9.074E-03    0   0.8524   age070_m72            0.0000     2.3773E-05    25.1746   2.5351   110.9394
 56      0.4905     2.7446E-03    4.1701E-03    2.512000E+07  0.05000  4.250E-03    0   0.7902   age090_m72            0.0000     2.2460E-05    24.3340   2.2226   113.8850
 57      0.0000     0.0000E+00    0.0000E+00    4.000000E+07  0.05000  3.087E-03    0   0.7618   age104_m72            0.0000     2.2459E-05    24.2932   1.9942   115.8880
 58      0.0000     0.0000E+00    0.0000E+00    1.015200E+08  0.05000  1.700E-03    0   0.7096   age116_m72            0.0000     2.1063E-05    21.9445   1.6918   121.2933
 59      0.6236     2.0086E-02    2.5617E-02    2.861200E+08  0.05000  7.384E-04    0   0.6633   age125_m72            0.0000     1.9866E-05    18.9171   1.0876   130.6067
 60      4.4077     2.7448E-01    3.3630E-01    5.088000E+08  0.05000  3.819E-04    0   0.6372   age130_m72            0.0000     1.7100E-05    17.6880   0.5527   134.6064
 61      0.0000     0.0000E+00    0.0000E+00    9.047900E+08  0.05000  1.676E-04    0   0.6110   age135_m72            0.0000     1.4498E-05    17.0393  -0.1801   133.6325
 62      0.0000     0.0000E+00    0.0000E+00    1.434000E+09  0.05000  8.837E-05    0   0.5874   age139_m72            0.0000     1.4000E-05    17.0393  -0.6436   133.1000
 63      0.0000     0.0000E+00    0.0000E+00    2.500000E+09  0.05000  4.233E-05    0   0.5598   age150_m72            0.0000     1.4017E-05    16.7792  -0.9969   133.1241
 64      0.0000     0.0000E+00    0.0000E+00    6.250000E+09  0.05000  1.435E-05    0   0.5249   age166_m72            0.0000     1.9530E-05    19.1418  -1.0000   117.2949
 65      7.1061     2.5947E+01    2.5125E+01    1.300000E+10  0.05000  6.513E-06    0   0.5036   age193_m72            0.0000     2.8879E-05    22.6299  -1.0000   108.7432
 66      0.0000     0.0000E+00    0.0000E+00    1.800000E+10  0.05000  4.527E-06    0   0.4945   age213_m72            0.0000     3.5887E-05    24.6591  -1.0000   102.7581


## Synthesis Results - Average & Chains ##

# j      x_j: min, <> & last-chain-values for 1 ...  7 chains
  1      0.0000      1.2119      0.3711      0.0000      2.2573      0.7395      1.1883      2.6644      0.0000
  2      0.0000      1.1115      0.3056      0.6093      0.3867      0.0000      3.7164      0.0000      4.1268
  3      0.0000      1.1068      0.6513      0.0000      0.1945      1.4161      3.5556      5.4877      4.1984
  4      0.0000      0.9568      1.7243      0.0000      0.0000      0.2562      0.0000      0.0000      0.9678
  5      0.0000      1.5222      1.1330      1.0392      3.0291      0.9690      0.0000      2.2235      2.1908
  6      0.0000      1.2313      0.0000      0.0455      3.1842      0.0000      1.6795      0.8696      0.2036
  7      0.0000      1.2813      6.7716      7.2968      3.8409      3.3237      0.0000      0.0000      0.0000
  8      0.0000      1.0564      3.8960      0.0000      3.2440      0.4805      0.5527      0.9709      2.2364
  9      0.0000      0.8755      1.0226      4.4633      0.3270      0.0828      1.5175      0.3517      0.0000
 10      0.0000      0.9024      0.3554      0.6686      1.3554      1.9402      3.5033      0.5423      0.6059
 11      0.0000      1.0579      0.8594      0.7998      3.0279      0.0000      1.6957      2.1955      0.0000
 12      0.0000      1.2500      0.0000      0.4202      0.0000      3.0913      1.5539      2.1930      3.5302
 13      1.0535      0.9690      0.0000      0.0000      0.0000      1.6420      1.7342      5.5028      2.5271
 14      3.1475      1.1865      4.7233      0.0000      1.0636      0.6400      0.0000      0.6991      1.4117
 15      0.0000      0.9307      1.3274      0.2331      1.0527      0.3727      3.1690      0.0000      1.0712
 16      0.0000      0.9009      0.0000      0.0289      0.3993      1.3700      0.5128      0.0516      0.8488
 17     10.6336      1.1946      0.0000      1.4975      0.0000      0.2130      0.0000      1.8348      0.1796
 18      0.0000      1.2750      0.8650      1.2414      0.0000      3.8547      5.7035      0.0000      4.5775
 19      0.4615      1.0694      2.5935      0.6408      0.0000      0.0000      0.0000      1.7781      4.1079
 20      0.0000      1.2199      0.0158      1.7923      5.4267      2.5942      2.5138      1.4970      3.8851
 21      0.0000      1.5451      2.9054      3.8310      1.0716      0.4380      1.5469      2.0107      1.5861
 22      0.0000      1.2857      0.8228      1.5664      0.8586      4.0736      4.8877      0.7729      1.1291
 23      3.7853      1.3494      4.0516      5.9779      4.4940      0.9764      0.0000      1.8763      0.5349
 24      0.0000      0.9518      0.2947      3.1667      0.8046      0.3608      2.1188      0.0000      2.9891
 25      0.0000      0.7853      1.8917      0.0000      1.5339      0.0000      0.3426      1.1025      0.0308
 26      0.0000      1.2846      1.2099      5.1162      1.1506      2.1889      6.2764      5.6732      3.6200
 27      0.0000      1.1536      0.6251      1.1468      1.2305      4.7996      1.6747      0.9113      2.1462
 28     10.5447      1.4930      1.6019      0.0000      0.1310      1.7975      1.2997      3.0158      3.2308
 29      0.0000      1.1765      0.2913      1.2816      0.5171      3.1088      0.0000      0.5545      2.1004
 30      0.0000      1.0230      0.0000      2.0026      2.8363      0.0000      0.0285      0.0000      2.3937
 31     16.6861      0.8673      0.0000      0.0000      1.9333      1.5081      0.2778      1.3359      0.2873
 32      1.1109      0.8172      1.5192      2.1323      3.6296      0.0000      4.1083      0.9793      0.1483
 33      0.0000      1.0759      0.4960      0.9826      0.0000      2.0433      0.4265      0.0000      1.1677
 34      8.6573      1.2067      1.7825      0.0000      2.5554      0.9777      0.1641      1.0925      0.9798
 35      0.0000      1.0935      0.0302      7.9924      0.6919      0.0000      0.4095      0.0000      4.0334
 36      0.9828      1.1179      4.4502      0.0000      0.5691      8.0692      1.9951      2.0671      0.5130
 37      0.0000      1.3386      0.0000      0.6905      0.9542      1.9762      0.0000      0.0000      0.5739
 38      0.0000      6.0540      4.6059      1.6990      5.9884      2.2414      5.9769      0.8753      4.8653
 39      0.0000      0.9661      0.1444      0.0000      0.6663      1.5539      3.1807      0.0000      0.0000
 40      0.0000      1.1560      0.0000      4.9725      1.0024      0.0000      3.2517      0.0000      2.0289
 41      0.0000      1.0724      0.1365      0.0000      0.7328      4.2813      1.3471      0.0000      2.7652
 42      0.0000      0.9623      1.8855      1.6376      0.4282      2.7020      1.2919      0.5125      0.0000
 43      0.0000      1.2511      0.0000      0.0000      1.7478      0.2994      2.7855      2.8566      0.4768
 44      1.6824      0.8789      0.0000      0.0000      4.3995      0.0000      3.3118      1.1339      2.3764
 45     11.3460      0.9069      0.0000      0.0000      0.7228      3.0724      0.5401      1.1699      4.4637
 46      6.3612      1.4644      0.0000      3.3007      3.1897      1.0302      0.0000      0.9015      0.2317
 47     12.8481      1.2799      2.3903      0.7453      2.2719      2.1737      0.0000      2.8694      2.2151
 48     22.9064      1.0813      1.9578      2.6572      0.0000      3.8765      0.5164      3.7299      0.0000
 49      0.0000      0.9219      1.1323      0.0000      0.0000      0.3033      2.1976      0.5160      0.0000
 50      0.0000      1.2519      0.0000      1.3558      0.0000      0.0000      0.1429      0.0000      0.0000
 51      0.0000      1.4466      2.1360      4.2997      1.9841      2.5076      0.0000      6.4788      3.4038
 52      0.0000      1.0979      2.8044      2.3632      0.0000      2.4862      0.0577      2.0578      0.9719
 53      0.0000      1.0338      0.0961      4.7798      0.8319      2.0318      2.7359      3.7111      0.5284
 54      0.0000     12.0024     13.2591      9.1128      3.0335      5.2144      2.5079     12.0114      2.8278
 55      5.1648      6.5347      5.7727      0.0000      3.0808      1.7009      3.5140      6.5101      7.8130
 56      0.4905      1.2111      2.1320      0.6724      0.0000      2.1952      2.9405      1.2454      0.9078
 57      0.0000      1.5623      6.5527      1.3381      9.6609     12.3627      2.6071      2.6181      3.9391
 58      0.0000      0.9383      1.8634      0.2654      3.0622      0.7741      1.0636      2.6082      1.5834
 59      0.6236      1.1317      3.5705      1.4193      0.0000      0.3445      2.9013      3.1817      0.0000
 60      4.4077      0.9589      0.5706      4.6687      2.0171      0.0000      4.0526      2.6116      0.0000
 61      0.0000      1.0547      1.0578      1.9636      0.0000      0.0000      0.9835      0.5144      0.0000
 62      0.0000      0.9504      0.0000      0.0191      1.5732      0.1461      1.1998      0.0000      0.1023
 63      0.0000      1.5660      1.8130      0.0000      3.5126      2.3511      0.0000      0.0000      0.0000
 64      0.0000      0.7120      0.0000      0.5569      0.0000      0.9895      0.0000      0.0000      0.0000
 65      7.1061      1.1793      0.3998      1.4580      1.3110      0.0000      0.0000      0.7074      4.7130
 66      0.0000     15.4248      6.1169      1.2213      5.1876      0.9648      1.7558      0.0000      5.4527

# j      m_j: min, <> & last-chain-values for 1 ...  7 chains
  1  0.0000E+00  4.9496E-03  3.2576E-03  0.0000E+00  1.9509E-02  1.3091E-02  2.1690E-02  6.5096E-02  0.0000E+00
  2  0.0000E+00  1.2392E-03  7.3239E-04  2.5314E-03  9.1231E-04  0.0000E+00  1.8519E-02  0.0000E+00  8.5595E-03
  3  0.0000E+00  1.8479E-03  2.3378E-03  0.0000E+00  6.8735E-04  1.0249E-02  2.6532E-02  5.4811E-02  1.3041E-02
  4  0.0000E+00  1.5044E-03  5.8278E-03  0.0000E+00  0.0000E+00  1.7465E-03  0.0000E+00  0.0000E+00  2.8307E-03
  5  0.0000E+00  4.5592E-03  7.2946E-03  1.1598E-02  1.9199E-02  1.2581E-02  0.0000E+00  3.9839E-02  1.2207E-02
  6  0.0000E+00  5.9816E-03  0.0000E+00  8.2313E-04  3.2734E-02  0.0000E+00  3.6465E-02  2.5270E-02  1.8401E-03
  7  0.0000E+00  8.9114E-03  1.0124E-01  1.8912E-01  5.6530E-02  1.0021E-01  0.0000E+00  0.0000E+00  0.0000E+00
  8  0.0000E+00  1.0155E-02  8.0509E-02  0.0000E+00  6.5990E-02  2.0022E-02  2.3746E-02  5.5836E-02  3.9995E-02
  9  0.0000E+00  9.6330E-03  2.4186E-02  1.8300E-01  7.6137E-03  3.9472E-03  7.4621E-02  2.3151E-02  0.0000E+00
 10  0.0000E+00  1.3042E-02  1.1043E-02  3.6010E-02  4.1452E-02  1.2155E-01  2.2629E-01  4.6889E-02  1.6292E-02
 11  0.0000E+00  2.8750E-02  5.0206E-02  8.0994E-02  1.7413E-01  0.0000E+00  2.0595E-01  3.5693E-01  0.0000E+00
 12  0.0000E+00  5.3887E-02  0.0000E+00  6.7499E-02  0.0000E+00  5.7766E-01  2.9939E-01  5.6553E-01  2.8311E-01
 13  1.3101E-01  1.1774E-01  0.0000E+00  0.0000E+00  0.0000E+00  8.6486E-01  9.4177E-01  3.9999E+00  5.7123E-01
 14  1.3128E+00  4.8352E-01  4.1379E+00  0.0000E+00  9.1721E-01  1.1305E+00  0.0000E+00  1.7044E+00  1.0702E+00
 15  0.0000E+00  6.1745E-01  1.8932E+00  5.7630E-01  1.4779E+00  1.0719E+00  9.3965E+00  0.0000E+00  1.3221E+00
 16  0.0000E+00  1.0106E+00  0.0000E+00  1.2094E-01  9.4793E-01  6.6620E+00  2.5709E+00  3.4644E-01  1.7713E+00
 17  1.5837E+01  1.7385E+00  0.0000E+00  8.1212E+00  0.0000E+00  1.3435E+00  0.0000E+00  1.5973E+01  4.8614E-01
 18  0.0000E+00  4.6014E-03  6.7104E-03  1.6696E-02  0.0000E+00  6.0305E-02  9.1997E-02  0.0000E+00  3.0733E-02
 19  6.8422E-04  1.5490E-03  8.0755E-03  3.4592E-03  0.0000E+00  0.0000E+00  0.0000E+00  1.5408E-02  1.1070E-02
 20  0.0000E+00  1.9291E-03  5.3755E-05  1.0562E-02  1.8160E-02  1.7783E-02  1.7766E-02  1.4162E-02  1.1429E-02
 21  0.0000E+00  2.9660E-03  1.1989E-02  2.7405E-02  4.3529E-03  3.6448E-03  1.3272E-02  2.3089E-02  5.6639E-03
 22  0.0000E+00  4.1733E-03  5.7412E-03  1.8948E-02  5.8978E-03  5.7319E-02  7.0907E-02  1.5009E-02  6.8180E-03
 23  1.6981E-02  5.9149E-03  3.8177E-02  9.7649E-02  4.1685E-02  1.8552E-02  0.0000E+00  4.9199E-02  4.3622E-03
 24  0.0000E+00  6.2068E-03  4.1309E-03  7.6958E-02  1.1104E-02  1.0200E-02  6.1754E-02  0.0000E+00  3.6263E-02
 25  0.0000E+00  7.0613E-03  3.6565E-02  0.0000E+00  2.9187E-02  0.0000E+00  1.3769E-02  5.9305E-02  5.1485E-04
 26  0.0000E+00  1.9309E-02  3.9092E-02  2.8657E-01  3.6596E-02  1.4261E-01  4.2162E-01  5.1011E-01  1.0122E-01
 27  0.0000E+00  3.4705E-02  4.0429E-02  1.2857E-01  7.8340E-02  6.2593E-01  2.2518E-01  1.6401E-01  1.2012E-01
 28  9.4226E-01  1.3036E-01  3.0066E-01  0.0000E+00  2.4201E-02  6.8033E-01  5.0716E-01  1.5752E+00  5.2476E-01
 29  0.0000E+00  1.7898E-01  9.5249E-02  7.2658E-01  1.6648E-01  2.0501E+00  0.0000E+00  5.0461E-01  5.9444E-01
 30  0.0000E+00  3.2514E-01  0.0000E+00  2.3720E+00  1.9077E+00  0.0000E+00  4.0427E-02  0.0000E+00  1.4154E+00
 31  9.5482E+00  4.8494E-01  0.0000E+00  0.0000E+00  2.2874E+00  3.6552E+00  6.9412E-01  4.4683E+00  2.9878E-01
 32  8.5535E-01  6.1476E-01  2.4569E+00  5.9779E+00  5.7782E+00  0.0000E+00  1.3813E+01  4.4073E+00  2.0754E-01
 33  0.0000E+00  1.7918E+00  1.7757E+00  6.0981E+00  0.0000E+00  1.4751E+01  3.1742E+00  0.0000E+00  3.6177E+00
 34  1.9982E+01  2.7214E+00  8.6413E+00  0.0000E+00  1.2195E+01  9.5580E+00  1.6543E+00  1.4739E+01  4.1109E+00
 35  0.0000E+00  3.1644E-03  1.8771E-04  8.6187E-02  4.2367E-03  0.0000E+00  5.2956E-03  0.0000E+00  2.1713E-02
 36  1.1776E-03  1.3088E-03  1.1200E-02  0.0000E+00  1.4100E-03  4.0952E-02  1.0440E-02  1.4478E-02  1.1174E-03
 37  0.0000E+00  1.6952E-03  0.0000E+00  3.2585E-03  2.5572E-03  1.0848E-02  0.0000E+00  0.0000E+00  1.3521E-03
 38  0.0000E+00  2.0770E-02  3.3968E-02  2.1721E-02  4.3475E-02  3.3333E-02  9.1643E-02  1.7964E-02  3.1051E-02
 39  0.0000E+00  4.7720E-03  1.5334E-03  0.0000E+00  6.9645E-03  3.3272E-02  7.0220E-02  0.0000E+00  0.0000E+00
 40  0.0000E+00  9.2304E-03  0.0000E+00  1.4795E-01  1.6937E-02  0.0000E+00  1.1604E-01  0.0000E+00  3.0137E-02
 41  0.0000E+00  1.3315E-02  3.6434E-03  0.0000E+00  1.9255E-02  2.3043E-01  7.4756E-02  0.0000E+00  6.3871E-02
 42  0.0000E+00  2.1937E-02  9.2399E-02  1.3912E-01  2.0656E-02  2.6701E-01  1.3163E-01  6.9886E-02  0.0000E+00
 43  0.0000E+00  4.1640E-02  0.0000E+00  0.0000E+00  1.2310E-01  4.3193E-02  4.1434E-01  5.6877E-01  2.9523E-02
 44  9.8672E-02  5.0368E-02  0.0000E+00  0.0000E+00  5.3352E-01  0.0000E+00  8.4823E-01  3.8872E-01  2.5334E-01
 45  1.3204E+00  1.0312E-01  0.0000E+00  0.0000E+00  1.7391E-01  1.5143E+00  2.7447E-01  7.9573E-01  9.4419E-01
 46  1.3607E+00  3.0606E-01  0.0000E+00  2.5707E+00  1.4107E+00  9.3337E-01  0.0000E+00  1.1272E+00  9.0091E-02
 47  5.5689E+00  5.4204E-01  2.1761E+00  1.1762E+00  2.0360E+00  3.9905E+00  0.0000E+00  7.2694E+00  1.7452E+00
 48  1.7510E+01  8.0758E-01  3.1434E+00  7.3958E+00  0.0000E+00  1.2551E+01  1.7239E+00  1.6665E+01  0.0000E+00
 49  0.0000E+00  1.5650E+00  4.1317E+00  0.0000E+00  0.0000E+00  2.2317E+00  1.6673E+01  5.2396E+00  0.0000E+00
 50  0.0000E+00  3.9358E+00  0.0000E+00  1.5885E+01  0.0000E+00  0.0000E+00  2.0082E+00  0.0000E+00  0.0000E+00
 51  0.0000E+00  2.4931E-03  7.9131E-03  2.7614E-02  7.2358E-03  1.8733E-02  0.0000E+00  6.6794E-02  1.0913E-02
 52  0.0000E+00  9.6961E-04  5.3241E-03  7.7777E-03  0.0000E+00  9.5182E-03  2.2770E-04  1.0872E-02  1.5968E-03
 53  0.0000E+00  1.3754E-03  2.7485E-04  2.3696E-02  2.3419E-03  1.1717E-02  1.6267E-02  2.9534E-02  1.3077E-03
 54  0.0000E+00  3.2717E-02  7.7695E-02  9.2569E-02  1.7499E-02  6.1614E-02  3.0553E-02  1.9587E-01  1.4340E-02
 55  2.2186E-02  2.7427E-02  5.2084E-02  0.0000E+00  2.7363E-02  3.0947E-02  6.5916E-02  1.6346E-01  6.1005E-02
 56  4.1701E-03  1.0061E-02  3.8073E-02  2.0816E-02  0.0000E+00  7.9051E-02  1.0917E-01  6.1889E-02  1.4029E-02
 57  0.0000E+00  1.7226E-02  1.5531E-01  5.4979E-02  2.2541E-01  5.9087E-01  1.2847E-01  1.7268E-01  8.0798E-02
 58  0.0000E+00  1.7499E-02  7.4705E-02  1.8448E-02  1.2085E-01  6.2584E-02  8.8652E-02  2.9098E-01  5.4934E-02
 59  2.5617E-02  4.5422E-02  3.0805E-01  2.1228E-01  0.0000E+00  5.9930E-02  5.2043E-01  7.6392E-01  0.0000E+00
 60  3.3630E-01  7.1482E-02  9.1435E-02  1.2970E+00  3.1820E-01  0.0000E+00  1.3503E+00  1.1647E+00  0.0000E+00
 61  0.0000E+00  1.7179E-01  3.7037E-01  1.1919E+00  0.0000E+00  0.0000E+00  7.1596E-01  5.0119E-01  0.0000E+00
 62  0.0000E+00  2.8225E-01  0.0000E+00  2.1130E-02  9.8869E-01  1.8807E-01  1.5926E+00  0.0000E+00  5.6496E-02
 63  0.0000E+00  9.2529E-01  2.3028E+00  0.0000E+00  4.3921E+00  6.0220E+00  0.0000E+00  0.0000E+00  0.0000E+00
 64  0.0000E+00  1.1637E+00  0.0000E+00  3.3920E+00  0.0000E+00  7.0100E+00  0.0000E+00  0.0000E+00  0.0000E+00
 65  2.5125E+01  4.0740E+00  2.9690E+00  1.8771E+01  9.5841E+00  0.0000E+00  0.0000E+00  1.4619E+01  3.0290E+01
 66  0.0000E+00  7.5280E+01  6.4174E+01  2.2212E+01  5.3577E+01  2.0410E+01  3.8298E+01  0.0000E+00  4.9506E+01

# AV, chi2 & Mass for <> & i_chain = 1 ...  7 solutions
AV      -0.5213      1.6898      1.4970      1.6445      1.3458      1.6974      1.5899      1.4666      1.5940
chi2 1.4251E-05  1.5698E-04  3.8319E-05  3.2231E-05  3.7254E-05  4.0327E-05  2.7241E-05  2.3926E-05  5.6674E-05
Mass 1.3946E-13  2.7811E-12  9.9868E-13  7.0231E-13  8.2800E-13  6.4823E-13  5.4414E-13  3.4450E-13  1.3145E-12
-268.86                                  [v0_min (km/s) before EX0s...]
 292.76                                  [vd_min (km/s) before EX0s...]


## Synthetic spectrum (Best Model) ##l_obs f_obs f_syn wei
 3478    [Nl_obs]
 3741.00    0.42075   0.67988    0.000
 3742.00    0.44687   0.66345    0.000
 3743.00    0.45608   0.64641    0.000
 3744.00    0.38249   0.63437    0.000
 3745.00    0.26066   0.63407    0.036
 3746.00    0.19617   0.64173    0.036
 3747.00    0.16080   0.65647    0.036
 3748.00    0.20879   0.68036    0.037
 3749.00    0.29345   0.70767    0.039
 3750.00    0.43991   0.73279    0.039
 3751.00    0.60970   0.75455    0.037
 3752.00    0.76243   0.77051    0.036
 3753.00    0.90970   0.77988    0.035
 3754.00    1.01959   0.78435    0.035
 3755.00    1.11946   0.78361    0.035
 3756.00    1.28153   0.78111    0.035
 3757.00    1.45724   0.78006    0.035
 3758.00    1.50396   0.77641    0.040
 3759.00    1.52816   0.77236    0.047
 3760.00    1.29015   0.77087    0.068
 3761.00    1.01731   0.76552    0.133
 3762.00    0.78362   0.75887    0.056
 3763.00    0.55360   0.75682    0.033
 3764.00    0.39709   0.75356    0.031
 3765.00    0.24482   0.75094    0.030
 3766.00    0.49843   0.75705    0.033
 3767.00    0.76035   0.76740    0.036
 3768.00    0.86293   0.77921    0.037
 3769.00    0.95565   0.79765    0.037
 3770.00    0.80908   0.82049    0.035
 3771.00    0.69345   0.84339    0.033
 3772.00    0.98337   0.86712    0.034
 3773.00    1.23310   0.89086    0.035
 3774.00    1.13014   0.91324    0.033
 3775.00    1.02707   0.93299    0.031
 3776.00    0.92326   0.94815    0.032
 3777.00    0.88514   0.95859    0.034
 3778.00    1.17944   0.96396    0.035
 3779.00    1.37474   0.96290    0.035
 3780.00    1.16481   0.95422    0.034
 3781.00    0.98820   0.93967    0.034
 3782.00    0.92458   0.92268    0.034
 3783.00    0.76580   0.90146    0.033
 3784.00    0.33487   0.87674    0.032
 3785.00    0.02857   0.85433    0.031
 3786.00    0.02674   0.83242    0.031
 3787.00    0.00716   0.80830    0.032
 3788.00   -0.04980   0.78566    0.000
 3789.00    0.07318   0.76427    0.033
 3790.00    0.52579   0.74242    0.033
 3791.00    0.83907   0.72347    0.033
 3792.00    0.92934   0.70901    0.034
 3793.00    0.90044   0.70021    0.034
 3794.00    0.70415   0.70092    0.033
 3795.00    0.56626   0.71060    0.032
 3796.00    0.50053   0.72729    0.031
 3797.00    0.44862   0.75230    0.031
 3798.00    0.41175   0.78232    0.032
 3799.00    0.45905   0.81163    0.033
 3800.00    0.58724   0.84056    0.033
 3801.00    0.62191   0.86706    0.033
 3802.00    0.57733   0.88748    0.033
 3803.00    0.64804   0.90426    0.034
 3804.00    0.80477   0.91609    0.035
 3805.00    0.86516   0.92131    0.034
 3806.00    0.86238   0.92356    0.032
 3807.00    0.81218   0.92030    0.031
 3808.00    0.73476   0.91066    0.031
 3809.00    0.61373   0.89995    0.031
 3810.00    0.47090   0.88606    0.030
 3811.00    0.37938   0.86879    0.030
 3812.00    0.31003   0.85408    0.030
 3813.00    0.52772   0.84008    0.030
 3814.00    0.85186   0.82500    0.031
 3815.00    0.84772   0.81201    0.030
 3816.00    0.74040   0.80032    0.030
 3817.00    0.62655   0.78790    0.033
 3818.00    0.51098   0.77434    0.038
 3819.00    0.59433   0.76041    0.035
 3820.00    0.72029   0.74652    0.032
 3821.00    0.66621   0.73070    0.032
 3822.00    0.58159   0.71365    0.031
 3823.00    0.50277   0.69671    0.031
 3824.00    0.42470   0.67855    0.030
 3825.00    0.34893   0.66022    0.030
 3826.00    0.27336   0.64128    0.030
 3827.00    0.53831   0.62147    0.035
 3828.00    0.82156   0.60472    0.043
 3829.00    0.61077   0.58958    0.036
 3830.00    0.39461   0.57657    0.032
 3831.00    0.56168   0.57183    0.032
 3832.00    0.71872   0.57274    0.032
 3833.00    0.65304   0.57914    0.032
 3834.00    0.59004   0.59598    0.032
 3835.00    0.56041   0.61830    0.031
 3836.00    0.52146   0.64507    0.031
 3837.00    0.40368   0.67864    0.031
 3838.00    0.34183   0.71236    0.030
 3839.00    0.63188   0.74589    0.031
 3840.00    0.91266   0.77967    0.032
 3841.00    1.14771   0.80752    0.031
 3842.00    1.29947   0.83164    0.031
 3843.00    1.11780   0.85311    0.032
 3844.00    0.91594   0.86702    0.032
 3845.00    0.64699   0.87689    0.032
 3846.00    0.43425   0.88614    0.032
 3847.00    0.37937   0.88964    0.000
 3848.00    0.36922   0.88872    0.000
 3849.00    0.46653   0.88929    0.000
 3850.00    0.61515   0.88623    0.000
 3851.00    0.87019   0.87865    0.000
 3852.00    0.91059   0.87471    0.000
 3853.00    0.56389   0.87085    0.000
 3854.00    0.33351   0.86546    0.000
 3855.00    0.28657   0.86613    0.000
 3856.00    0.36395   0.87030    0.000
 3857.00    0.61341   0.87488    0.000
 3858.00    0.75046   0.88304    0.000
 3859.00    0.75053   0.89248    0.000
 3860.00    0.82707   0.89978    0.000
 3861.00    0.98575   0.90512    0.000
 3862.00    1.05721   0.90761    0.000
 3863.00    1.04604   0.90640    0.000
 3864.00    0.88488   0.90180    0.000
 3865.00    0.59841   0.89497    0.000
 3866.00    0.49887   0.88739    0.000
 3867.00    0.53681   0.87863    0.000
 3868.00    0.72134   0.87083    0.000
 3869.00    1.00054   0.86532    0.000
 3870.00    0.99221   0.85870    0.000
 3871.00    0.82138   0.85339    0.000
 3872.00    0.73189   0.84950    0.000
 3873.00    0.68240   0.84128    0.000
 3874.00    0.55761   0.83316    0.000
 3875.00    0.40081   0.82604    0.000
 3876.00    0.73932   0.81335    0.000
 3877.00    1.25825   0.79859    0.000
 3878.00    1.26591   0.78517    0.000
 3879.00    1.11595   0.76971    0.000
 3880.00    0.88314   0.75069    0.000
 3881.00    0.62906   0.73308    0.029
 3882.00    0.56720   0.72111    0.028
 3883.00    0.54552   0.71056    0.027
 3884.00    0.65166   0.70406    0.029
 3885.00    0.77888   0.70906    0.031
 3886.00    0.88143   0.72037    0.031
 3887.00    0.98092   0.73510    0.030
 3888.00    1.16039   0.75724    0.030
 3889.00    1.34670   0.78256    0.030
 3890.00    1.18105   0.80569    0.030
 3891.00    0.99786   0.82880    0.030
 3892.00    0.83037   0.85117    0.029
 3893.00    0.66485   0.86885    0.028
 3894.00    0.61022   0.88315    0.028
 3895.00    0.54704   0.89610    0.027
 3896.00    0.30905   0.90772    0.027
 3897.00    0.10375   0.91493    0.026
 3898.00    0.28500   0.92048    0.026
 3899.00    0.46922   0.93021    0.026
 3900.00    0.67759   0.93694    0.026
 3901.00    0.87085   0.94290    0.026
 3902.00    0.97185   0.95605    0.026
 3903.00    1.06629   0.96866    0.026
 3904.00    1.12913   0.98065    0.025
 3905.00    1.16875   0.99559    0.025
 3906.00    1.11749   1.00895    0.025
 3907.00    1.04325   1.01952    0.025
 3908.00    0.89412   1.02544    0.025
 3909.00    0.81940   1.02746    0.026
 3910.00    0.94984   1.02653    0.027
 3911.00    1.05325   1.01864    0.028
 3912.00    1.09284   1.00755    0.028
 3913.00    1.09785   0.99587    0.028
 3914.00    1.03228   0.98006    0.028
 3915.00    0.97453   0.96306    0.028
 3916.00    0.93067   0.94711    0.029
 3917.00    0.89990   0.92936    0.030
 3918.00    0.88950   0.90952    0.030
 3919.00    0.88130   0.88889    0.030
 3920.00    0.87610   0.86396    0.030
 3921.00    0.81876   0.83367    0.030
 3922.00    0.69880   0.79969    0.029
 3923.00    0.52534   0.75926    0.029
 3924.00    0.29522   0.71497    0.029
 3925.00    0.20932   0.67028    0.029
 3926.00    0.25814   0.62584    0.029
 3927.00    0.28860   0.58687    0.029
 3928.00    0.30394   0.55647    0.029
 3929.00    0.44805   0.53700    0.029
 3930.00    0.68552   0.53106    0.029
 3931.00    0.62010   0.53846    0.029
 3932.00    0.36192   0.55858    0.028
 3933.00    0.40873   0.58893    0.028
 3934.00    0.62530   0.62685    0.029
 3935.00    0.65542   0.66862    0.029
 3936.00    0.59529   0.70960    0.029
 3937.00    0.59296   0.75021    0.029
 3938.00    0.61480   0.78810    0.029
 3939.00    0.57757   0.81960    0.028
 3940.00    0.51921   0.84950    0.027
 3941.00    0.64773   0.87732    0.028
 3942.00    0.83274   0.89878    0.028
 3943.00    0.87634   0.91941    0.028
 3944.00    0.88444   0.93948    0.029
 3945.00    1.00017   0.95392    0.028
 3946.00    1.13785   0.96578    0.028
 3947.00    1.09388   0.97491    0.028
 3948.00    1.02081   0.98002    0.028
 3949.00    0.95242   0.98315    0.029
 3950.00    0.88459   0.97979    0.029
 3951.00    0.72340   0.97074    0.029
 3952.00    0.55461   0.96069    0.029
 3953.00    0.57230   0.94328    0.029
 3954.00    0.59856   0.91754    0.028
 3955.00    1.02017   0.88813    0.029
 3956.00    1.42801   0.85179    0.030
 3957.00    0.85285   0.80937    0.029
 3958.00    0.29155   0.76319    0.028
 3959.00   -0.00710   0.71185    0.000
 3960.00   -0.24461   0.66048    0.000
 3961.00    0.20691   0.61282    0.000
 3962.00    0.62100   0.56899    0.000
 3963.00    0.74093   0.53358    0.000
 3964.00    0.84137   0.51027    0.000
 3965.00    0.82619   0.50035    0.000
 3966.00    0.81922   0.50523    0.000
 3967.00    0.85082   0.52523    0.000
 3968.00    0.82217   0.55827    0.000
 3969.00    0.56268   0.60196    0.000
 3970.00    0.37695   0.65375    0.000
 3971.00    0.42702   0.70845    0.000
 3972.00    0.51234   0.76368    0.000
 3973.00    0.69309   0.81810    0.000
 3974.00    0.83453   0.86712    0.000
 3975.00    0.88466   0.91070    0.000
 3976.00    0.95130   0.94877    0.000
 3977.00    1.05111   0.98017    0.000
 3978.00    1.02763   1.00732    0.000
 3979.00    0.78852   1.02921    0.000
 3980.00    0.60807   1.04771    0.000
 3981.00    0.51743   1.06490    0.029
 3982.00    0.66962   1.07935    0.029
 3983.00    1.14839   1.09431    0.030
 3984.00    1.39982   1.10685    0.030
 3985.00    1.38206   1.11661    0.029
 3986.00    1.18330   1.12822    0.029
 3987.00    0.79554   1.13569    0.029
 3988.00    0.62107   1.13999    0.029
 3989.00    0.64305   1.14517    0.028
 3990.00    0.80226   1.14797    0.028
 3991.00    1.07287   1.14995    0.028
 3992.00    1.26932   1.15199    0.028
 3993.00    1.41279   1.15425    0.028
 3994.00    1.43105   1.15845    0.028
 3995.00    1.37079   1.16216    0.028
 3996.00    1.23760   1.16506    0.028
 3997.00    1.06444   1.16937    0.027
 3998.00    1.04130   1.17235    0.027
 3999.00    1.08962   1.17205    0.027
 4000.00    1.18241   1.17144    0.028
 4001.00    1.29348   1.17290    0.028
 4002.00    1.30303   1.17453    0.028
 4003.00    1.27693   1.17582    0.028
 4004.00    1.22512   1.18098    0.028
 4005.00    1.16568   1.19015    0.028
 4006.00    1.19195   1.19932    0.028
 4007.00    1.23927   1.20773    0.028
 4008.00    1.19021   1.21775    0.028
 4009.00    1.12197   1.22704    0.028
 4010.00    1.10637   1.23374    0.028
 4011.00    1.09894   1.24056    0.027
 4012.00    1.22203   1.24512    0.028
 4013.00    1.36014   1.24861    0.029
 4014.00    0.99502   1.25237    0.029
 4015.00    0.59099   1.25248    0.028
 4016.00    0.88931   1.25219    0.029
 4017.00    1.21720   1.25285    0.029
 4018.00    1.07042   1.25105    0.029
 4019.00    0.92811   1.24755    0.028
 4020.00    1.17155   1.24372    0.028
 4021.00    1.38639   1.23995    0.028
 4022.00    1.09695   1.23325    0.028
 4023.00    0.82931   1.22416    0.028
 4024.00    0.79624   1.21619    0.028
 4025.00    0.80376   1.20557    0.028
 4026.00    1.11937   1.19480    0.028
 4027.00    1.37074   1.18805    0.029
 4028.00    1.25159   1.18148    0.029
 4029.00    1.14081   1.18031    0.029
 4030.00    1.06838   1.18611    0.029
 4031.00    1.00000   1.19363    0.028
 4032.00    0.94678   1.20498    0.027
 4033.00    0.92117   1.21666    0.027
 4034.00    0.98211   1.22537    0.027
 4035.00    0.95562   1.23080    0.027
 4036.00    0.69654   1.23023    0.027
 4037.00    0.54936   1.22559    0.027
 4038.00    0.65769   1.21597    0.027
 4039.00    0.86341   1.20327    0.027
 4040.00    1.26166   1.19380    0.028
 4041.00    1.40422   1.18579    0.028
 4042.00    1.10630   1.18070    0.028
 4043.00    0.96447   1.18042    0.027
 4044.00    1.05811   1.18351    0.027
 4045.00    1.04836   1.19190    0.027
 4046.00    0.90156   1.19996    0.028
 4047.00    0.80728   1.20337    0.028
 4048.00    0.77431   1.20670    0.027
 4049.00    0.97427   1.20779    0.027
 4050.00    1.41405   1.20315    0.028
 4051.00    1.55582   1.19790    0.028
 4052.00    1.42698   1.19142    0.028
 4053.00    1.21208   1.18246    0.028
 4054.00    0.92831   1.17645    0.027
 4055.00    0.84073   1.17036    0.027
 4056.00    0.89130   1.16183    0.027
 4057.00    0.93025   1.15637    0.027
 4058.00    0.96203   1.15289    0.027
 4059.00    1.00564   1.14938    0.026
 4060.00    1.05564   1.14783    0.027
 4061.00    1.03897   1.14627    0.027
 4062.00    0.99105   1.14777    0.027
 4063.00    1.13891   1.15415    0.027
 4064.00    1.36586   1.15671    0.028
 4065.00    1.38718   1.15732    0.028
 4066.00    1.33759   1.15969    0.027
 4067.00    1.11154   1.15922    0.027
 4068.00    0.83424   1.15640    0.027
 4069.00    0.83446   1.15043    0.027
 4070.00    0.90133   1.14402    0.027
 4071.00    1.05630   1.14197    0.027
 4072.00    1.22834   1.13912    0.027
 4073.00    1.31575   1.13765    0.027
 4074.00    1.39040   1.14154    0.027
 4075.00    1.35675   1.14683    0.027
 4076.00    1.31111   1.15551    0.026
 4077.00    1.00611   1.16715    0.026
 4078.00    0.68211   1.17808    0.026
 4079.00    0.91239   1.18980    0.026
 4080.00    1.16389   1.20053    0.027
 4081.00    1.04339   1.20901    0.027
 4082.00    0.92077   1.21645    0.026
 4083.00    0.79628   1.22179    0.026
 4084.00    0.68979   1.22435    0.026
 4085.00    0.88010   1.22296    0.026
 4086.00    1.06793   1.21799    0.026
 4087.00    1.23032   1.20814    0.027
 4088.00    1.37732   1.19162    0.027
 4089.00    1.41137   1.17123    0.026
 4090.00    1.43854   1.14538    0.026
 4091.00    1.42713   1.11535    0.026
 4092.00    1.38561   1.08516    0.000
 4093.00    1.20942   1.05225    0.000
 4094.00    1.09539   1.01973    0.000
 4095.00    1.20966   0.99360    0.000
 4096.00    1.28822   0.97327    0.000
 4097.00    1.25695   0.95982    0.000
 4098.00    1.20514   0.95604    0.000
 4099.00    1.09960   0.95991    0.000
 4100.00    1.00544   0.97218    0.000
 4101.00    0.93682   0.99286    0.000
 4102.00    0.85363   1.01538    0.000
 4103.00    0.74205   1.03943    0.000
 4104.00    0.73378   1.06504    0.000
 4105.00    0.90079   1.08766    0.000
 4106.00    1.08162   1.10867    0.000
 4107.00    1.28300   1.12751    0.000
 4108.00    1.28253   1.14278    0.000
 4109.00    1.01831   1.15687    0.000
 4110.00    0.92950   1.16856    0.000
 4111.00    1.04259   1.17664    0.000
 4112.00    1.13562   1.18267    0.000
 4113.00    1.20829   1.18691    0.025
 4114.00    1.31708   1.18906    0.025
 4115.00    1.45822   1.19012    0.026
 4116.00    1.55984   1.18925    0.026
 4117.00    1.63030   1.18842    0.025
 4118.00    1.52481   1.18947    0.036
 4119.00    1.29723   1.18870    0.132
 4120.00    1.10532   1.18666   -1.000
 4121.00    0.93510   1.18441   -1.000
 4122.00    0.84797   1.18119   -1.000
 4123.00    0.80497   1.17731   -1.000
 4124.00    0.90394   1.17141   -1.000
 4125.00    1.06838   1.16469   -1.000
 4126.00    1.21380   1.16056   -1.000
 4127.00    1.35166   1.15766   -1.000
 4128.00    1.24282   1.15778    0.067
 4129.00    1.05048   1.16181    0.029
 4130.00    1.06379   1.16572    0.025
 4131.00    1.13561   1.17396    0.025
 4132.00    1.16033   1.18282    0.025
 4133.00    1.17399   1.18914    0.024
 4134.00    1.14019   1.19562    0.025
 4135.00    1.09743   1.19612    0.025
 4136.00    1.18945   1.19270    0.025
 4137.00    1.30115   1.18914    0.025
 4138.00    1.49633   1.18365    0.025
 4139.00    1.70039   1.17749    0.025
 4140.00    1.59401   1.17201    0.025
 4141.00    1.46615   1.16775    0.025
 4142.00    1.41917   1.16589    0.025
 4143.00    1.37497   1.16705    0.026
 4144.00    1.41715   1.16818    0.026
 4145.00    1.44975   1.16847    0.025
 4146.00    1.16002   1.16975    0.025
 4147.00    0.89811   1.16911    0.025
 4148.00    1.06641   1.16876    0.025
 4149.00    1.21193   1.16947    0.025
 4150.00    1.13296   1.16984    0.025
 4151.00    1.07429   1.17327    0.025
 4152.00    1.15973   1.17787    0.025
 4153.00    1.22753   1.18434    0.025
 4154.00    1.19905   1.19208    0.025
 4155.00    1.18362   1.20053    0.025
 4156.00    1.22519   1.21014    0.025
 4157.00    1.22065   1.21688    0.025
 4158.00    1.05028   1.22232    0.024
 4159.00    0.96795   1.22515    0.024
 4160.00    1.15127   1.22375    0.024
 4161.00    1.27247   1.22092    0.024
 4162.00    1.23416   1.21483    0.024
 4163.00    1.23308   1.20586    0.025
 4164.00    1.31426   1.19524    0.025
 4165.00    1.30622   1.18102    0.025
 4166.00    1.12730   1.16777    0.025
 4167.00    1.11353   1.15721    0.024
 4168.00    1.37578   1.14624    0.025
 4169.00    1.43177   1.13725    0.025
 4170.00    1.18564   1.13028    0.025
 4171.00    1.08874   1.12654    0.025
 4172.00    1.18406   1.12782    0.025
 4173.00    1.22546   1.13104    0.025
 4174.00    1.20569   1.13478    0.025
 4175.00    1.15046   1.13954    0.025
 4176.00    1.05976   1.14604    0.024
 4177.00    1.10952   1.15272    0.024
 4178.00    1.28325   1.15937    0.024
 4179.00    1.34080   1.16409    0.024
 4180.00    1.30796   1.16621    0.024
 4181.00    1.26812   1.17107    0.024
 4182.00    1.22349   1.17579    0.024
 4183.00    1.14436   1.17868    0.024
 4184.00    1.04455   1.18127    0.024
 4185.00    1.03312   1.18309    0.024
 4186.00    1.06790   1.18663    0.024
 4187.00    1.13675   1.18845    0.024
 4188.00    1.22105   1.18634    0.024
 4189.00    1.21322   1.18243    0.024
 4190.00    1.16945   1.17730    0.024
 4191.00    1.12411   1.16995    0.024
 4192.00    1.07825   1.16058    0.024
 4193.00    1.00607   1.15179    0.024
 4194.00    0.92655   1.14328    0.024
 4195.00    0.93924   1.13737    0.024
 4196.00    0.97309   1.13564    0.024
 4197.00    1.09099   1.13633    0.024
 4198.00    1.22434   1.14128    0.025
 4199.00    1.19400   1.14963    0.024
 4200.00    1.14052   1.15920    0.024
 4201.00    1.08180   1.17161    0.024
 4202.00    1.02255   1.18346    0.024
 4203.00    1.00868   1.19280    0.024
 4204.00    0.99775   1.20268    0.024
 4205.00    1.10940   1.21022    0.024
 4206.00    1.22438   1.21418    0.023
 4207.00    1.05924   1.21637    0.024
 4208.00    0.90154   1.21552    0.024
 4209.00    0.96229   1.21478    0.024
 4210.00    1.02051   1.21565    0.024
 4211.00    1.04203   1.21428    0.024
 4212.00    1.05698   1.21309    0.024
 4213.00    1.00984   1.21215    0.024
 4214.00    0.98721   1.20968    0.024
 4215.00    1.13313   1.20557    0.023
 4216.00    1.24815   1.19729    0.023
 4217.00    1.19898   1.18459    0.023
 4218.00    1.13269   1.16865    0.023
 4219.00    0.99327   1.15065    0.024
 4220.00    0.93271   1.13229    0.024
 4221.00    1.14997   1.11832    0.024
 4222.00    1.26214   1.10892    0.023
 4223.00    1.06310   1.10360    0.023
 4224.00    0.93884   1.10598    0.023
 4225.00    1.00330   1.11320    0.023
 4226.00    1.08728   1.12396    0.024
 4227.00    1.21368   1.13720    0.023
 4228.00    1.30866   1.14780    0.023
 4229.00    1.34441   1.15651    0.023
 4230.00    1.33341   1.16498    0.022
 4231.00    1.24547   1.17025    0.022
 4232.00    1.18811   1.17533    0.022
 4233.00    1.17491   1.18113    0.022
 4234.00    1.16011   1.18632    0.022
 4235.00    1.14327   1.19366    0.022
 4236.00    1.16942   1.20109    0.022
 4237.00    1.24368   1.20891    0.022
 4238.00    1.30013   1.21531    0.022
 4239.00    1.33901   1.21907    0.022
 4240.00    1.29196   1.22081    0.022
 4241.00    1.17013   1.21836    0.022
 4242.00    1.20112   1.21429    0.022
 4243.00    1.34928   1.20706    0.022
 4244.00    1.33127   1.19822    0.023
 4245.00    1.20129   1.19099    0.023
 4246.00    1.17219   1.18273    0.023
 4247.00    1.20266   1.17659    0.023
 4248.00    1.26719   1.17301    0.024
 4249.00    1.34926   1.17085    0.024
 4250.00    1.32002   1.17140    0.024
 4251.00    1.24111   1.17091    0.024
 4252.00    1.17715   1.17146    0.024
 4253.00    1.11891   1.17474    0.023
 4254.00    1.08047   1.17824    0.023
 4255.00    1.04847   1.18358    0.022
 4256.00    0.98290   1.18867    0.022
 4257.00    0.90817   1.19445    0.022
 4258.00    0.93406   1.20193    0.023
 4259.00    0.98250   1.20820    0.023
 4260.00    1.06939   1.21211    0.023
 4261.00    1.16314   1.21216    0.023
 4262.00    1.34962   1.20716    0.023
 4263.00    1.54877   1.19758    0.023
 4264.00    1.28746   1.18482    0.023
 4265.00    0.98116   1.16909    0.023
 4266.00    1.17022   1.15403    0.023
 4267.00    1.38957   1.14015    0.023
 4268.00    1.39902   1.12971    0.023
 4269.00    1.40191   1.12636    0.023
 4270.00    1.22791   1.12680    0.022
 4271.00    1.05909   1.13233    0.022
 4272.00    1.02688   1.14146    0.022
 4273.00    0.98589   1.15047    0.022
 4274.00    0.82413   1.16146    0.022
 4275.00    0.70692   1.16986    0.022
 4276.00    0.99443   1.17319    0.023
 4277.00    1.25670   1.17502    0.023
 4278.00    1.35085   1.17195    0.023
 4279.00    1.37781   1.16663    0.023
 4280.00    1.05694   1.15931    0.023
 4281.00    0.81923   1.14805    0.022
 4282.00    0.92871   1.13727   -2.000
 4283.00    0.98196   1.12660   -2.000
 4284.00    0.84114   1.11733   -2.000
 4285.00    0.75452   1.10840   -2.000
 4286.00    0.82546   1.10075   -2.000
 4287.00    0.97027   1.09435   -2.000
 4288.00    1.29831   1.08857   -2.000
 4289.00    1.53778   1.08362   -2.000
 4290.00    1.58790   1.07412   -2.000
 4291.00    1.55453   1.06318   -2.000
 4292.00    1.36613   1.04973   -2.000
 4293.00    1.17420   1.03310   -2.000
 4294.00    0.97653   1.01685   -2.000
 4295.00    0.96921   0.99819   -2.000
 4296.00    1.23269   0.98053   -2.000
 4297.00    1.24435   0.96639   -2.000
 4298.00    0.94083   0.95337    0.023
 4299.00    0.86908   0.94411    0.023
 4300.00    1.05298   0.93864    0.023
 4301.00    1.21076   0.93539    0.023
 4302.00    1.34314   0.93779    0.023
 4303.00    1.31218   0.94348    0.023
 4304.00    1.14105   0.95319    0.023
 4305.00    1.03004   0.96919    0.023
 4306.00    0.96445   0.99009    0.023
 4307.00    0.98455   1.01796    0.023
 4308.00    1.06156   1.04931    0.023
 4309.00    1.05128   1.08286    0.023
 4310.00    0.99026   1.11671    0.023
 4311.00    0.92253   1.14852    0.023
 4312.00    0.85141   1.17766    0.022
 4313.00    0.93458   1.20040    0.022
 4314.00    1.08546   1.21435    0.022
 4315.00    1.12510   1.21951    0.023
 4316.00    1.12283   1.21584    0.023
 4317.00    1.04991   1.20609    0.023
 4318.00    0.95441   1.19518    0.023
 4319.00    1.12119   1.18141    0.023
 4320.00    1.35807   1.16932    0.023
 4321.00    1.42857   1.15945    0.023
 4322.00    1.46267   1.15411    0.023
 4323.00    1.21895   1.15676    0.023
 4324.00    0.92691   1.16200    0.023
 4325.00    0.84356   1.16945    0.023
 4326.00    0.78782   1.17486    0.023
 4327.00    0.90128   1.17638    0.023
 4328.00    1.03055   1.17288    0.024
 4329.00    1.33810   1.16283    0.024
 4330.00    1.65586   1.14722    0.000
 4331.00    1.50530   1.12498    0.000
 4332.00    1.34554   1.09979    0.000
 4333.00    1.38157   1.07360    0.000
 4334.00    1.41429   1.04944    0.000
 4335.00    1.36732   1.03081    0.000
 4336.00    1.31869   1.01926    0.000
 4337.00    1.24843   1.01763    0.000
 4338.00    1.18068   1.02526    0.000
 4339.00    1.13479   1.04008    0.000
 4340.00    1.11806   1.06049    0.000
 4341.00    1.28962   1.08329    0.000
 4342.00    1.41708   1.10417    0.000
 4343.00    1.32201   1.12359    0.000
 4344.00    1.27002   1.14165    0.000
 4345.00    1.39385   1.15624    0.000
 4346.00    1.45668   1.16672    0.000
 4347.00    1.31315   1.17349    0.000
 4348.00    1.22286   1.17986    0.000
 4349.00    1.28451   1.18772    0.000
 4350.00    1.35813   1.19624    0.000
 4351.00    1.46091   1.20678    0.023
 4352.00    1.48846   1.21922    0.023
 4353.00    1.35777   1.23200    0.023
 4354.00    1.28281   1.24429    0.029
 4355.00    1.30971   1.25641    0.076
 4356.00    1.30888   1.26909   -1.000
 4357.00    1.26373   1.28021   -1.000
 4358.00    1.24592   1.28835   -1.000
 4359.00    1.26645   1.29348   -1.000
 4360.00    1.37329   1.29672   -1.000
 4361.00    1.58661   1.29700   -1.000
 4362.00    1.54397   1.29375    0.093
 4363.00    1.22297   1.28765    0.030
 4364.00    1.08975   1.27931    0.023
 4365.00    1.13667   1.27016    0.023
 4366.00    1.28825   1.26016    0.023
 4367.00    1.52835   1.25133    0.024
 4368.00    1.44828   1.24379    0.023
 4369.00    1.12973   1.23612    0.023
 4370.00    1.04658   1.22862    0.023
 4371.00    1.11748   1.22174    0.023
 4372.00    1.20908   1.21633    0.023
 4373.00    1.31253   1.21043    0.023
 4374.00    1.34308   1.20129    0.023
 4375.00    1.33726   1.19033    0.023
 4376.00    1.45942   1.17789    0.023
 4377.00    1.63680   1.16554    0.023
 4378.00    1.52974   1.15270    0.023
 4379.00    1.31743   1.13953    0.023
 4380.00    1.23445   1.13137    0.023
 4381.00    1.19202   1.12881    0.023
 4382.00    1.17479   1.13238    0.023
 4383.00    1.16416   1.13964    0.023
 4384.00    1.12526   1.14902    0.022
 4385.00    1.08033   1.16092    0.022
 4386.00    1.10813   1.17312    0.022
 4387.00    1.14823   1.18677    0.022
 4388.00    1.19324   1.20096    0.022
 4389.00    1.23888   1.21253    0.022
 4390.00    1.24407   1.22146    0.022
 4391.00    1.24566   1.22734    0.023
 4392.00    1.25275   1.23260    0.022
 4393.00    1.26013   1.23670    0.021
 4394.00    1.28780   1.23612    0.022
 4395.00    1.31671   1.23252    0.023
 4396.00    1.41416   1.22591    0.022
 4397.00    1.50372   1.21945    0.022
 4398.00    1.41988   1.21462    0.022
 4399.00    1.32919   1.20915    0.022
 4400.00    1.15377   1.20388    0.022
 4401.00    1.01111   1.20201    0.022
 4402.00    1.14407   1.20537    0.022
 4403.00    1.26478   1.21095    0.023
 4404.00    1.30876   1.21773    0.022
 4405.00    1.34229   1.22664    0.022
 4406.00    1.32442   1.23623    0.022
 4407.00    1.27615   1.24510    0.022
 4408.00    1.10649   1.25281    0.022
 4409.00    0.98675   1.25943    0.022
 4410.00    1.03258   1.26321    0.022
 4411.00    1.07159   1.26438    0.022
 4412.00    1.09148   1.26785    0.022
 4413.00    1.09968   1.27155    0.022
 4414.00    1.07984   1.27500    0.022
 4415.00    1.10976   1.27948    0.022
 4416.00    1.24263   1.28222    0.022
 4417.00    1.29225   1.28405    0.022
 4418.00    1.19199   1.28413    0.022
 4419.00    1.18891   1.28407    0.022
 4420.00    1.33878   1.28525    0.022
 4421.00    1.44260   1.28379    0.022
 4422.00    1.48277   1.28196    0.022
 4423.00    1.44517   1.27938    0.022
 4424.00    1.31299   1.27601    0.022
 4425.00    1.29561   1.27348    0.022
 4426.00    1.40134   1.26880    0.022
 4427.00    1.45920   1.26655    0.022
 4428.00    1.47179   1.26614    0.022
 4429.00    1.52072   1.26465    0.022
 4430.00    1.59996   1.26445    0.022
 4431.00    1.63844   1.26464    0.022
 4432.00    1.64701   1.26756    0.022
 4433.00    1.64577   1.27265    0.022
 4434.00    1.63821   1.27732    0.022
 4435.00    1.58722   1.28247    0.022
 4436.00    1.51173   1.28549    0.022
 4437.00    1.37719   1.28779    0.023
 4438.00    1.21366   1.28999    0.023
 4439.00    1.25071   1.29259    0.023
 4440.00    1.37288   1.29698    0.022
 4441.00    1.40468   1.30151    0.023
 4442.00    1.40362   1.30486    0.023
 4443.00    1.51926   1.30458    0.023
 4444.00    1.67078   1.30309    0.023
 4445.00    1.65206   1.30032    0.023
 4446.00    1.58975   1.29310    0.023
 4447.00    1.48383   1.28472    0.023
 4448.00    1.36882   1.27448    0.022
 4449.00    1.33803   1.26196    0.022
 4450.00    1.32107   1.24800    0.022
 4451.00    1.46205   1.23401    0.022
 4452.00    1.62249   1.22483    0.022
 4453.00    1.52652   1.21762    0.022
 4454.00    1.40873   1.21254    0.022
 4455.00    1.29679   1.21022    0.022
 4456.00    1.18514   1.21122    0.022
 4457.00    1.11534   1.21450    0.022
 4458.00    1.04909   1.21867    0.021
 4459.00    1.16307   1.22786    0.021
 4460.00    1.27294   1.23694    0.021
 4461.00    1.29977   1.24516    0.000
 4462.00    1.32648   1.25438    0.000
 4463.00    1.35185   1.26358    0.000
 4464.00    1.37892   1.27360    0.000
 4465.00    1.41985   1.28270    0.000
 4466.00    1.46493   1.29405    0.000
 4467.00    1.53519   1.30579    0.000
 4468.00    1.56573   1.31622    0.000
 4469.00    1.40567   1.32597    0.000
 4470.00    1.28120   1.33369    0.000
 4471.00    1.29573   1.33860    0.000
 4472.00    1.33927   1.34127    0.000
 4473.00    1.47711   1.34266    0.000
 4474.00    1.54123   1.34155    0.000
 4475.00    1.40248   1.33808    0.000
 4476.00    1.27636   1.33344    0.000
 4477.00    1.18003   1.32982    0.000
 4478.00    1.16187   1.32755    0.000
 4479.00    1.30293   1.32790    0.000
 4480.00    1.43996   1.32938    0.000
 4481.00    1.56985   1.33025    0.000
 4482.00    1.58040   1.33057    0.021
 4483.00    1.40586   1.32920    0.022
 4484.00    1.34365   1.32703    0.022
 4485.00    1.43443   1.32433    0.022
 4486.00    1.51547   1.32238    0.022
 4487.00    1.58486   1.32174    0.022
 4488.00    1.60692   1.32097    0.022
 4489.00    1.57898   1.32146    0.022
 4490.00    1.55049   1.32171    0.022
 4491.00    1.52149   1.32505    0.022
 4492.00    1.46072   1.33157    0.022
 4493.00    1.37381   1.33982    0.022
 4494.00    1.33227   1.35076    0.022
 4495.00    1.32355   1.36129    0.022
 4496.00    1.38809   1.37271    0.022
 4497.00    1.49916   1.38303    0.022
 4498.00    1.50593   1.39366    0.022
 4499.00    1.45477   1.40504    0.021
 4500.00    1.43714   1.41334    0.022
 4501.00    1.43573   1.41901    0.022
 4502.00    1.38742   1.42195    0.022
 4503.00    1.31956   1.42232    0.022
 4504.00    1.31524   1.42069    0.022
 4505.00    1.33360   1.41753    0.021
 4506.00    1.48716   1.41326    0.021
 4507.00    1.68148   1.40724    0.022
 4508.00    1.55644   1.39990    0.022
 4509.00    1.35140   1.39238    0.022
 4510.00    1.33871   1.38562    0.022
 4511.00    1.36512   1.37896    0.022
 4512.00    1.36528   1.37330    0.022
 4513.00    1.36126   1.36795    0.021
 4514.00    1.58327   1.36122    0.022
 4515.00    1.83215   1.35525    0.022
 4516.00    1.64004   1.34720    0.022
 4517.00    1.41224   1.33823    0.022
 4518.00    1.40554   1.32709    0.022
 4519.00    1.40890   1.31392    0.022
 4520.00    1.40883   1.30108    0.022
 4521.00    1.40701   1.28674    0.022
 4522.00    1.31843   1.27313    0.021
 4523.00    1.23587   1.26093    0.021
 4524.00    1.26661   1.25161    0.021
 4525.00    1.29040   1.24470    0.021
 4526.00    1.23635   1.24240    0.021
 4527.00    1.20441   1.24242    0.021
 4528.00    1.34541   1.24633    0.021
 4529.00    1.46960   1.25218    0.021
 4530.00    1.49443   1.25983    0.021
 4531.00    1.51407   1.27071    0.021
 4532.00    1.50941   1.28155    0.022
 4533.00    1.53312   1.29413    0.022
 4534.00    1.66529   1.30386    0.022
 4535.00    1.67951   1.31149    0.022
 4536.00    1.31767   1.31707    0.021
 4537.00    1.09481   1.32016    0.021
 4538.00    1.24750   1.32188    0.021
 4539.00    1.36179   1.32131    0.021
 4540.00    1.38705   1.31920    0.021
 4541.00    1.37719   1.31477    0.021
 4542.00    1.29689   1.31037    0.021
 4543.00    1.23456   1.30523    0.021
 4544.00    1.20358   1.30100    0.021
 4545.00    1.20269   1.29771    0.021
 4546.00    1.24776   1.29561    0.021
 4547.00    1.29528   1.29637    0.021
 4548.00    1.34610   1.29740    0.022
 4549.00    1.35580   1.30105    0.022
 4550.00    1.31690   1.30630    0.000
 4551.00    1.28101   1.31341    0.000
 4552.00    1.24827   1.32145    0.000
 4553.00    1.28873   1.33023    0.000
 4554.00    1.39650   1.33861    0.000
 4555.00    1.37641   1.34524    0.000
 4556.00    1.25270   1.35074    0.000
 4557.00    1.31814   1.35416    0.000
 4558.00    1.51847   1.35645    0.000
 4559.00    1.57587   1.35737    0.000
 4560.00    1.54381   1.35813    0.000
 4561.00    1.37113   1.35925    0.000
 4562.00    1.12155   1.36017    0.000
 4563.00    1.16881   1.36164    0.000
 4564.00    1.35718   1.36300    0.000
 4565.00    1.41687   1.36332    0.000
 4566.00    1.42378   1.36377    0.000
 4567.00    1.38475   1.36397    0.000
 4568.00    1.32963   1.36332    0.000
 4569.00    1.44620   1.36284    0.000
 4570.00    1.61353   1.36066    0.000
 4571.00    1.64142   1.35670    0.000
 4572.00    1.63517   1.35163    0.000
 4573.00    1.41155   1.34518    0.000
 4574.00    1.14485   1.33823    0.000
 4575.00    1.31453   1.33095    0.000
 4576.00    1.55175   1.32519    0.000
 4577.00    1.56788   1.32024    0.000
 4578.00    1.55872   1.31665    0.000
 4579.00    1.42638   1.31517    0.000
 4580.00    1.28459   1.31456    0.000
 4581.00    1.26993   1.31636    0.000
 4582.00    1.26057   1.31843    0.000
 4583.00    1.32943   1.32137    0.000
 4584.00    1.39665   1.32390    0.000
 4585.00    1.36457   1.32540    0.000
 4586.00    1.33302   1.32590    0.000
 4587.00    1.31067   1.32520    0.000
 4588.00    1.29707   1.32415    0.000
 4589.00    1.37703   1.32235    0.000
 4590.00    1.44479   1.32084    0.000
 4591.00    1.42033   1.31951    0.000
 4592.00    1.40664   1.31831    0.000
 4593.00    1.45488   1.31866    0.000
 4594.00    1.46961   1.31864    0.000
 4595.00    1.33116   1.32032    0.000
 4596.00    1.21826   1.32316    0.000
 4597.00    1.20097   1.32656    0.000
 4598.00    1.19046   1.33193    0.000
 4599.00    1.20116   1.33716    0.000
 4600.00    1.27589   1.34427    0.000
 4601.00    1.52059   1.35133    0.000
 4602.00    1.65188   1.35940    0.000
 4603.00    1.52475   1.36708    0.000
 4604.00    1.42110   1.37367    0.000
 4605.00    1.36375   1.37929    0.000
 4606.00    1.33902   1.38351    0.000
 4607.00    1.37037   1.38636    0.000
 4608.00    1.36282   1.38818    0.000
 4609.00    1.29670   1.38985    0.000
 4610.00    1.29563   1.38976    0.000
 4611.00    1.38063   1.39049    0.000
 4612.00    1.45724   1.39033    0.000
 4613.00    1.52407   1.38992    0.000
 4614.00    1.55343   1.38996    0.000
 4615.00    1.54428   1.39048    0.000
 4616.00    1.49750   1.39066    0.000
 4617.00    1.41659   1.39089    0.000
 4618.00    1.38806   1.39109    0.000
 4619.00    1.40138   1.39025    0.000
 4620.00    1.48644   1.38927    0.000
 4621.00    1.62195   1.38797    0.000
 4622.00    1.65905   1.38601    0.000
 4623.00    1.63548   1.38316    0.000
 4624.00    1.49932   1.38025    0.000
 4625.00    1.30252   1.37709    0.000
 4626.00    1.24859   1.37303    0.000
 4627.00    1.26148   1.36795    0.000
 4628.00    1.27692   1.36281    0.000
 4629.00    1.29339   1.35713    0.000
 4630.00    1.33350   1.35161    0.000
 4631.00    1.38174   1.34565    0.000
 4632.00    1.53165   1.33962    0.000
 4633.00    1.71101   1.33443    0.000
 4634.00    1.54631   1.32890    0.000
 4635.00    1.29922   1.32471    0.000
 4636.00    1.23109   1.32019    0.000
 4637.00    1.19752   1.31555    0.000
 4638.00    1.24205   1.31091    0.000
 4639.00    1.29830   1.30643    0.000
 4640.00    1.39977   1.30167    0.000
 4641.00    1.50623   1.29791    0.000
 4642.00    1.41678   1.29577    0.000
 4643.00    1.31309   1.29511    0.000
 4644.00    1.18070   1.29628    0.000
 4645.00    1.04722   1.29883    0.000
 4646.00    1.14527   1.30228    0.000
 4647.00    1.24362   1.30743    0.000
 4648.00    1.30940   1.31218    0.000
 4649.00    1.36979   1.31768    0.000
 4650.00    1.34231   1.32364    0.000
 4651.00    1.31980   1.32928    0.000
 4652.00    1.34817   1.33525    0.000
 4653.00    1.34748   1.33946    0.000
 4654.00    1.13447   1.34192    0.000
 4655.00    0.98109   1.34113    0.000
 4656.00    1.16108   1.33791    0.000
 4657.00    1.31879   1.33182    0.000
 4658.00    1.37713   1.32379    0.000
 4659.00    1.39536   1.31457    0.000
 4660.00    1.26666   1.30375    0.000
 4661.00    1.18350   1.29321    0.000
 4662.00    1.24009   1.28495    0.000
 4663.00    1.28558   1.28007    0.000
 4664.00    1.30213   1.27777    0.000
 4665.00    1.26824   1.27864    0.000
 4666.00    1.12128   1.28172    0.000
 4667.00    1.06707   1.28639    0.000
 4668.00    1.19297   1.29262    0.000
 4669.00    1.26694   1.29872    0.000
 4670.00    1.25297   1.30484    0.000
 4671.00    1.24787   1.30930    0.000
 4672.00    1.25590   1.31210    0.000
 4673.00    1.26815   1.31361    0.000
 4674.00    1.28590   1.31416    0.000
 4675.00    1.30104   1.31414    0.000
 4676.00    1.31317   1.31370    0.000
 4677.00    1.31275   1.31389    0.000
 4678.00    1.29960   1.31421    0.000
 4679.00    1.30421   1.31460    0.000
 4680.00    1.32469   1.31559    0.000
 4681.00    1.36112   1.31651    0.000
 4682.00    1.41011   1.31763    0.000
 4683.00    1.39083   1.31884    0.000
 4684.00    1.32428   1.32004    0.000
 4685.00    1.35870   1.32082    0.000
 4686.00    1.45447   1.32170    0.000
 4687.00    1.50944   1.32239    0.000
 4688.00    1.54279   1.32231    0.000
 4689.00    1.45504   1.32174    0.000
 4690.00    1.31156   1.31985    0.000
 4691.00    1.27298   1.31678    0.000
 4692.00    1.27596   1.31239    0.000
 4693.00    1.38325   1.30695    0.000
 4694.00    1.52575   1.30156    0.000
 4695.00    1.53239   1.29524    0.000
 4696.00    1.50047   1.28958    0.000
 4697.00    1.35958   1.28397    0.000
 4698.00    1.19319   1.28017    0.000
 4699.00    1.26236   1.27716    0.000
 4700.00    1.37585   1.27543    0.000
 4701.00    1.38452   1.27479    0.000
 4702.00    1.37794   1.27549    0.000
 4703.00    1.32632   1.27803    0.000
 4704.00    1.26993   1.28122    0.000
 4705.00    1.14254   1.28626    0.000
 4706.00    1.01028   1.29126    0.000
 4707.00    0.98235   1.29742    0.000
 4708.00    0.95798   1.30420    0.000
 4709.00    1.13999   1.31180    0.000
 4710.00    1.31892   1.32022    0.000
 4711.00    1.38691   1.32867    0.000
 4712.00    1.44063   1.33691    0.000
 4713.00    1.27525   1.34464    0.000
 4714.00    1.13803   1.35130    0.000
 4715.00    1.27695   1.35637    0.000
 4716.00    1.40605   1.35964    0.000
 4717.00    1.46566   1.36060    0.000
 4718.00    1.49854   1.35939    0.000
 4719.00    1.38590   1.35539    0.000
 4720.00    1.31533   1.34952    0.000
 4721.00    1.42804   1.34197    0.000
 4722.00    1.50038   1.33387    0.000
 4723.00    1.42792   1.32583    0.000
 4724.00    1.37047   1.31878    0.000
 4725.00    1.35823   1.31316    0.000
 4726.00    1.37034   1.30911    0.000
 4727.00    1.44484   1.30756    0.000
 4728.00    1.49684   1.30711    0.000
 4729.00    1.49925   1.30876    0.000
 4730.00    1.45698   1.31178    0.000
 4731.00    1.32929   1.31558    0.000
 4732.00    1.23571   1.32002    0.000
 4733.00    1.19905   1.32457    0.000
 4734.00    1.15743   1.32936    0.000
 4735.00    1.10859   1.33404    0.000
 4736.00    1.11273   1.33859    0.000
 4737.00    1.18500   1.34263    0.000
 4738.00    1.24515   1.34669    0.000
 4739.00    1.29158   1.35017    0.000
 4740.00    1.34707   1.35305    0.000
 4741.00    1.41160   1.35537    0.000
 4742.00    1.47470   1.35664    0.000
 4743.00    1.53656   1.35726    0.000
 4744.00    1.54180   1.35630    0.000
 4745.00    1.50309   1.35466    0.000
 4746.00    1.48032   1.35144    0.000
 4747.00    1.46843   1.34804    0.000
 4748.00    1.42580   1.34351    0.000
 4749.00    1.36479   1.33894    0.000
 4750.00    1.31326   1.33390    0.000
 4751.00    1.26667   1.32881    0.000
 4752.00    1.28876   1.32379    0.000
 4753.00    1.34195   1.31814    0.000
 4754.00    1.39088   1.31221    0.000
 4755.00    1.43815   1.30632    0.000
 4756.00    1.51500   1.30053    0.000
 4757.00    1.60165   1.29489    0.000
 4758.00    1.47956   1.28985    0.000
 4759.00    1.29943   1.28636    0.000
 4760.00    1.35899   1.28426    0.000
 4761.00    1.47339   1.28404    0.021
 4762.00    1.24335   1.28581    0.021
 4763.00    0.95023   1.28879    0.021
 4764.00    1.01903   1.29366    0.021
 4765.00    1.13880   1.29973    0.021
 4766.00    1.31460   1.30695    0.021
 4767.00    1.49608   1.31418    0.021
 4768.00    1.38528   1.32090    0.021
 4769.00    1.25559   1.32738    0.021
 4770.00    1.25285   1.33250    0.021
 4771.00    1.25426   1.33628    0.021
 4772.00    1.41094   1.33832    0.021
 4773.00    1.55877   1.33896    0.021
 4774.00    1.45006   1.33778    0.021
 4775.00    1.34796   1.33507    0.021
 4776.00    1.34126   1.33128    0.021
 4777.00    1.33536   1.32712    0.021
 4778.00    1.33697   1.32214    0.021
 4779.00    1.33677   1.31770    0.021
 4780.00    1.32425   1.31412    0.020
 4781.00    1.33221   1.31133    0.020
 4782.00    1.44865   1.31022    0.020
 4783.00    1.52589   1.31076    0.020
 4784.00    1.43620   1.31292    0.020
 4785.00    1.36567   1.31658    0.020
 4786.00    1.36247   1.32139    0.020
 4787.00    1.33451   1.32675    0.020
 4788.00    1.23342   1.33192    0.020
 4789.00    1.18949   1.33672    0.020
 4790.00    1.28952   1.34050    0.021
 4791.00    1.38032   1.34318    0.021
 4792.00    1.45111   1.34468    0.021
 4793.00    1.47555   1.34503    0.021
 4794.00    1.41276   1.34447    0.021
 4795.00    1.36486   1.34271    0.021
 4796.00    1.34142   1.34081    0.021
 4797.00    1.34981   1.33798    0.021
 4798.00    1.40406   1.33563    0.021
 4799.00    1.39500   1.33293    0.021
 4800.00    1.30571   1.33073    0.021
 4801.00    1.27445   1.32875    0.021
 4802.00    1.30798   1.32744    0.021
 4803.00    1.33610   1.32675    0.021
 4804.00    1.35889   1.32688    0.021
 4805.00    1.37494   1.32795    0.021
 4806.00    1.38514   1.32982    0.021
 4807.00    1.33633   1.33258    0.021
 4808.00    1.24235   1.33563    0.021
 4809.00    1.27428   1.33914    0.021
 4810.00    1.39090   1.34219    0.021
 4811.00    1.30369   1.34492    0.020
 4812.00    1.09637   1.34662    0.020
 4813.00    1.14060   1.34692    0.020
 4814.00    1.31408   1.34610    0.020
 4815.00    1.41085   1.34400    0.021
 4816.00    1.47346   1.34095    0.021
 4817.00    1.41184   1.33687    0.021
 4818.00    1.30269   1.33234    0.021
 4819.00    1.35996   1.32748    0.021
 4820.00    1.47133   1.32303    0.021
 4821.00    1.47463   1.31876    0.021
 4822.00    1.44851   1.31495    0.021
 4823.00    1.41215   1.31196    0.021
 4824.00    1.37350   1.30944    0.021
 4825.00    1.36433   1.30753    0.021
 4826.00    1.36042   1.30563    0.021
 4827.00    1.40551   1.30437    0.021
 4828.00    1.45728   1.30277    0.020
 4829.00    1.36449   1.30129    0.021
 4830.00    1.25765   1.29945    0.021
 4831.00    1.31911   1.29759    0.021
 4832.00    1.39078   1.29547    0.020
 4833.00    1.44621   1.29291    0.020
 4834.00    1.49948   1.29046    0.021
 4835.00    1.24245   1.28793    0.021
 4836.00    0.99786   1.28552    0.021
 4837.00    1.07785   1.28308    0.020
 4838.00    1.16059   1.28067    0.020
 4839.00    1.28107   1.27819    0.020
 4840.00    1.38665   1.27556    0.020
 4841.00    1.35754   1.27226    0.020
 4842.00    1.32894   1.26793    0.019
 4843.00    1.30375   1.26229    0.019
 4844.00    1.29295   1.25493    0.019
 4845.00    1.35647   1.24551    0.019
 4846.00    1.40470   1.23393    0.019
 4847.00    1.38932   1.22005    0.019
 4848.00    1.37765   1.20362    0.000
 4849.00    1.37869   1.18489    0.000
 4850.00    1.36343   1.16442    0.000
 4851.00    1.30088   1.14300    0.000
 4852.00    1.26450   1.12165    0.000
 4853.00    1.29285   1.10175    0.000
 4854.00    1.29973   1.08399    0.000
 4855.00    1.26080   1.07014    0.000
 4856.00    1.23899   1.06052    0.000
 4857.00    1.24893   1.05644    0.000
 4858.00    1.27692   1.05703    0.000
 4859.00    1.33413   1.06256    0.000
 4860.00    1.35044   1.07169    0.000
 4861.00    1.30868   1.08378    0.000
 4862.00    1.26243   1.09734    0.000
 4863.00    1.21058   1.11142    0.000
 4864.00    1.16854   1.12532    0.000
 4865.00    1.13731   1.13851    0.000
 4866.00    1.18925   1.15085    0.000
 4867.00    1.32195   1.16269    0.000
 4868.00    1.37745   1.17390    0.000
 4869.00    1.36683   1.18480    0.000
 4870.00    1.33083   1.19527    0.000
 4871.00    1.27568   1.20549    0.000
 4872.00    1.25538   1.21475    0.000
 4873.00    1.25818   1.22291    0.000
 4874.00    1.23776   1.22951    0.000
 4875.00    1.20386   1.23430    0.020
 4876.00    1.18655   1.23719    0.019
 4877.00    1.17762   1.23800    0.019
 4878.00    1.14416   1.23733    0.019
 4879.00    1.09995   1.23518    0.019
 4880.00    1.11773   1.23297    0.019
 4881.00    1.15882   1.23066    0.019
 4882.00    1.22889   1.22964    0.019
 4883.00    1.30821   1.22996    0.019
 4884.00    1.27945   1.23272    0.019
 4885.00    1.22190   1.23768    0.020
 4886.00    1.24248   1.24520    0.020
 4887.00    1.28011   1.25477    0.020
 4888.00    1.26684   1.26571    0.020
 4889.00    1.24475   1.27753    0.020
 4890.00    1.24180   1.28891    0.020
 4891.00    1.24137   1.29951    0.020
 4892.00    1.23209   1.30821    0.020
 4893.00    1.22199   1.31498    0.020
 4894.00    1.25652   1.31940    0.020
 4895.00    1.29357   1.32172    0.020
 4896.00    1.32207   1.32216    0.020
 4897.00    1.35045   1.32114    0.021
 4898.00    1.38843   1.31911    0.021
 4899.00    1.42311   1.31631    0.021
 4900.00    1.37916   1.31304    0.021
 4901.00    1.33388   1.30951    0.021
 4902.00    1.27123   1.30574    0.021
 4903.00    1.20180   1.30188    0.021
 4904.00    1.07339   1.29775    0.021
 4905.00    0.98279   1.29357    0.021
 4906.00    1.13544   1.28899    0.021
 4907.00    1.26610   1.28408    0.021
 4908.00    1.28615   1.27850    0.020
 4909.00    1.30142   1.27213    0.020
 4910.00    1.29723   1.26493    0.021
 4911.00    1.32630   1.25698    0.021
 4912.00    1.46760   1.24885    0.021
 4913.00    1.52501   1.24087    0.021
 4914.00    1.34359   1.23416    0.021
 4915.00    1.21812   1.22915    0.021
 4916.00    1.22879   1.22688    0.021
 4917.00    1.23744   1.22747    0.020
 4918.00    1.24189   1.23124    0.020
 4919.00    1.24016   1.23775    0.020
 4920.00    1.22715   1.24634    0.020
 4921.00    1.22246   1.25616    0.020
 4922.00    1.23104   1.26597    0.020
 4923.00    1.23403   1.27499    0.020
 4924.00    1.22921   1.28214    0.020
 4925.00    1.18273   1.28708    0.020
 4926.00    1.08496   1.28933    0.020
 4927.00    1.13727   1.28930    0.020
 4928.00    1.35252   1.28718    0.021
 4929.00    1.32919   1.28391    0.021
 4930.00    1.07741   1.28009    0.020
 4931.00    1.05088   1.27684    0.020
 4932.00    1.21454   1.27464    0.020
 4933.00    1.26198   1.27432    0.020
 4934.00    1.22300   1.27591    0.020
 4935.00    1.31281   1.27972    0.020
 4936.00    1.48673   1.28528    0.020
 4937.00    1.46948   1.29231    0.021
 4938.00    1.34294   1.30007    0.021
 4939.00    1.26804   1.30802    0.020
 4940.00    1.21885   1.31544    0.000
 4941.00    1.22952   1.32178    0.000
 4942.00    1.26597   1.32652    0.000
 4943.00    1.35197   1.32924    0.000
 4944.00    1.45627   1.32983    0.000
 4945.00    1.34857   1.32798    0.000
 4946.00    1.17455   1.32407    0.000
 4947.00    1.11263   1.31804    0.000
 4948.00    1.07995   1.31068    0.000
 4949.00    1.11733   1.30231    0.000
 4950.00    1.16964   1.29382    0.000
 4951.00    1.17607   1.28591    0.000
 4952.00    1.17478   1.27907    0.000
 4953.00    1.19154   1.27391    0.000
 4954.00    1.21060   1.27029    0.000
 4955.00    1.15386   1.26850    0.000
 4956.00    1.09040   1.26787    0.000
 4957.00    1.11131   1.26828    0.000
 4958.00    1.13667   1.26907    0.000
 4959.00    1.16294   1.27010    0.000
 4960.00    1.18795   1.27109    0.000
 4961.00    1.11290   1.27200    0.000
 4962.00    1.04569   1.27297    0.000
 4963.00    1.14936   1.27399    0.000
 4964.00    1.25430   1.27524    0.000
 4965.00    1.37495   1.27648    0.000
 4966.00    1.46835   1.27762    0.000
 4967.00    1.33363   1.27820    0.000
 4968.00    1.21504   1.27783    0.000
 4969.00    1.19720   1.27607    0.000
 4970.00    1.18320   1.27255    0.000
 4971.00    1.18807   1.26720    0.000
 4972.00    1.20092   1.26000    0.000
 4973.00    1.24555   1.25144    0.000
 4974.00    1.29622   1.24197    0.000
 4975.00    1.36683   1.23244    0.000
 4976.00    1.40466   1.22362    0.000
 4977.00    1.35083   1.21629    0.000
 4978.00    1.30212   1.21103    0.000
 4979.00    1.26565   1.20818    0.000
 4980.00    1.25547   1.20785    0.000
 4981.00    1.29960   1.20974    0.000
 4982.00    1.29218   1.21345    0.000
 4983.00    1.19215   1.21831    0.000
 4984.00    1.09958   1.22372    0.000
 4985.00    1.01874   1.22898    0.000
 4986.00    0.94317   1.23356    0.000
 4987.00    0.87488   1.23706    0.000
 4988.00    0.92577   1.23912    0.000
 4989.00    1.12139   1.23962    0.000
 4990.00    1.24530   1.23843    0.000
 4991.00    1.29246   1.23566    0.000
 4992.00    1.27643   1.23138    0.000
 4993.00    1.20075   1.22587    0.000
 4994.00    1.17504   1.21939    0.000
 4995.00    1.19094   1.21236    0.000
 4996.00    1.19179   1.20514    0.000
 4997.00    1.18161   1.19817    0.000
 4998.00    1.22026   1.19168    0.000
 4999.00    1.29033   1.18601    0.000
 5000.00    1.20190   1.18112    0.000
 5001.00    1.02425   1.17709    0.000
 5002.00    1.01684   1.17364    0.000
 5003.00    1.09283   1.17066    0.000
 5004.00    1.11869   1.16782    0.000
 5005.00    1.12333   1.16506    0.000
 5006.00    1.24704   1.16222    0.000
 5007.00    1.41393   1.15944    0.000
 5008.00    1.35558   1.15687    0.000
 5009.00    1.22814   1.15476    0.000
 5010.00    1.21972   1.15344    0.000
 5011.00    1.24170   1.15308    0.000
 5012.00    1.11585   1.15394    0.000
 5013.00    0.95930   1.15598    0.000
 5014.00    1.05772   1.15926    0.000
 5015.00    1.19788   1.16355    0.000
 5016.00    1.22125   1.16877    0.000
 5017.00    1.23029   1.17460    0.000
 5018.00    1.10315   1.18092    0.000
 5019.00    0.96451   1.18747    0.000
 5020.00    0.96080   1.19410    0.000
 5021.00    0.96370   1.20061    0.000
 5022.00    1.16333   1.20674    0.000
 5023.00    1.36198   1.21230    0.000
 5024.00    1.31564   1.21689    0.000
 5025.00    1.27034   1.22025    0.000
 5026.00    1.24578   1.22200    0.000
 5027.00    1.22625   1.22190    0.000
 5028.00    1.26546   1.21984    0.000
 5029.00    1.31490   1.21589    0.020
 5030.00    1.44692   1.21039    0.020
 5031.00    1.54709   1.20381    0.020
 5032.00    1.45418   1.19696    0.020
 5033.00    1.36466   1.19055    0.020
 5034.00    1.29137   1.18542    0.020
 5035.00    1.24696   1.18211    0.019
 5036.00    1.31502   1.18103    0.020
 5037.00    1.33894   1.18213    0.020
 5038.00    1.21967   1.18521    0.020
 5039.00    1.16504   1.18975    0.019
 5040.00    1.28787   1.19515    0.020
 5041.00    1.35009   1.20078    0.020
 5042.00    1.26980   1.20627    0.019
 5043.00    1.20618   1.21130    0.019
 5044.00    1.17640   1.21595    0.019
 5045.00    1.18141   1.22028    0.019
 5046.00    1.24796   1.22463    0.019
 5047.00    1.27363   1.22918    0.019
 5048.00    1.23601   1.23410    0.019
 5049.00    1.19945   1.23930    0.019
 5050.00    1.16432   1.24464    0.019
 5051.00    1.15632   1.24968    0.019
 5052.00    1.18080   1.25407    0.019
 5053.00    1.26937   1.25731    0.019
 5054.00    1.42559   1.25908    0.019
 5055.00    1.45930   1.25913    0.019
 5056.00    1.37898   1.25742    0.019
 5057.00    1.29735   1.25409    0.019
 5058.00    1.21464   1.24943    0.019
 5059.00    1.18112   1.24387    0.019
 5060.00    1.18311   1.23783    0.019
 5061.00    1.19548   1.23179    0.019
 5062.00    1.21443   1.22607    0.019
 5063.00    1.26490   1.22090    0.019
 5064.00    1.33285   1.21630    0.019
 5065.00    1.32817   1.21225    0.018
 5066.00    1.28848   1.20851    0.018
 5067.00    1.22278   1.20491    0.018
 5068.00    1.14625   1.20115    0.019
 5069.00    1.13453   1.19715    0.019
 5070.00    1.14589   1.19281    0.019
 5071.00    1.07873   1.18830    0.019
 5072.00    0.98796   1.18377    0.019
 5073.00    1.07633   1.17971    0.019
 5074.00    1.20945   1.17639    0.019
 5075.00    1.22426   1.17437    0.019
 5076.00    1.21511   1.17383    0.019
 5077.00    1.21911   1.17508    0.019
 5078.00    1.22520   1.17807    0.019
 5079.00    1.25450   1.18267    0.019
 5080.00    1.28654   1.18850    0.019
 5081.00    1.15041   1.19514    0.019
 5082.00    1.00076   1.20204    0.018
 5083.00    1.03616   1.20863    0.018
 5084.00    1.07989   1.21441    0.018
 5085.00    1.18789   1.21894    0.019
 5086.00    1.29524   1.22189    0.019
 5087.00    1.33279   1.22313    0.019
 5088.00    1.37016   1.22257    0.019
 5089.00    1.40408   1.22050    0.019
 5090.00    1.43174   1.21704    0.019
 5091.00    1.38974   1.21277    0.019
 5092.00    1.32990   1.20795    0.019
 5093.00    1.13106   1.20322    0.019
 5094.00    0.96340   1.19872    0.019
 5095.00    0.97952   1.19490    0.020
 5096.00    0.99996   1.19170    0.020
 5097.00    1.04056   1.18927    0.020
 5098.00    1.09190   1.18745    0.020
 5099.00    1.18418   1.18624    0.019
 5100.00    1.25102   1.18557    0.019
 5101.00    1.23694   1.18546    0.019
 5102.00    1.20571   1.18602    0.019
 5103.00    1.12823   1.18729    0.019
 5104.00    1.08828   1.18944    0.019
 5105.00    1.13507   1.19242    0.019
 5106.00    1.17539   1.19615    0.019
 5107.00    1.20275   1.20039    0.020
 5108.00    1.20833   1.20475    0.020
 5109.00    1.17593   1.20880    0.020
 5110.00    1.12998   1.21198    0.020
 5111.00    1.06337   1.21388    0.019
 5112.00    1.04736   1.21404    0.019
 5113.00    1.09913   1.21236    0.020
 5114.00    1.19184   1.20871    0.020
 5115.00    1.33282   1.20341    0.020
 5116.00    1.35577   1.19673    0.020
 5117.00    1.25589   1.18931    0.020
 5118.00    1.17781   1.18170    0.020
 5119.00    1.11973   1.17454    0.020
 5120.00    1.11862   1.16837    0.019
 5121.00    1.16361   1.16354    0.019
 5122.00    1.16423   1.16036    0.019
 5123.00    1.13329   1.15870    0.019
 5124.00    1.14405   1.15856    0.018
 5125.00    1.18087   1.15944    0.018
 5126.00    1.18043   1.16108    0.018
 5127.00    1.15964   1.16289    0.019
 5128.00    1.15837   1.16451    0.019
 5129.00    1.16634   1.16557    0.019
 5130.00    1.13397   1.16575    0.018
 5131.00    1.08509   1.16509    0.018
 5132.00    1.10085   1.16346    0.018
 5133.00    1.13921   1.16118    0.018
 5134.00    1.17011   1.15831    0.018
 5135.00    1.19880   1.15526    0.018
 5136.00    1.11723   1.15219    0.018
 5137.00    1.00872   1.14935    0.018
 5138.00    1.00233   1.14693    0.018
 5139.00    1.01611   1.14495    0.018
 5140.00    1.11255   1.14357    0.018
 5141.00    1.22174   1.14272    0.018
 5142.00    1.22979   1.14255    0.018
 5143.00    1.22631   1.14293    0.018
 5144.00    1.02799   1.14409    0.018
 5145.00    0.81480   1.14588    0.018
 5146.00    0.87818   1.14846    0.018
 5147.00    0.95294   1.15161    0.018
 5148.00    1.06082   1.15528    0.018
 5149.00    1.16768   1.15907    0.018
 5150.00    1.21968   1.16254    0.018
 5151.00    1.26837   1.16512    0.018
 5152.00    1.25957   1.16609    0.019
 5153.00    1.25182   1.16484    0.019
 5154.00    1.25530   1.16065    0.019
 5155.00    1.24497   1.15326    0.019
 5156.00    1.13062   1.14228    0.019
 5157.00    1.04174   1.12814    0.019
 5158.00    1.09870   1.11104    0.019
 5159.00    1.16515   1.09216    0.019
 5160.00    1.27484   1.07223    0.019
 5161.00    1.34557   1.05285    0.019
 5162.00    1.27087   1.03498    0.019
 5163.00    1.19618   1.02005    0.019
 5164.00    1.12152   1.00876    0.019
 5165.00    1.05274   1.00180    0.019
 5166.00    0.99957   0.99924    0.019
 5167.00    0.94435   1.00081    0.019
 5168.00    0.88448   1.00581    0.019
 5169.00    0.84318   1.01324    0.019
 5170.00    0.83845   1.02192    0.019
 5171.00    0.86314   1.03074    0.019
 5172.00    0.93831   1.03863    0.019
 5173.00    0.98523   1.04493    0.020
 5174.00    0.98969   1.04939    0.020
 5175.00    1.00344   1.05206    0.020
 5176.00    1.02947   1.05360    0.020
 5177.00    1.06962   1.05447    0.019
 5178.00    1.12620   1.05575    0.019
 5179.00    1.07356   1.05777    0.019
 5180.00    0.90888   1.06125    0.019
 5181.00    0.92934   1.06611    0.019
 5182.00    1.11734   1.07229    0.019
 5183.00    1.14568   1.07947    0.019
 5184.00    1.04669   1.08703    0.019
 5185.00    1.05243   1.09479    0.019
 5186.00    1.13164   1.10214    0.019
 5187.00    1.08526   1.10912    0.018
 5188.00    0.96160   1.11542    0.018
 5189.00    1.03785   1.12109    0.018
 5190.00    1.22155   1.12611    0.000
 5191.00    1.26001   1.13021    0.000
 5192.00    1.23066   1.13352    0.000
 5193.00    1.20734   1.13539    0.000
 5194.00    1.18643   1.13614    0.000
 5195.00    1.11833   1.13508    0.000
 5196.00    1.03405   1.13282    0.000
 5197.00    1.08679   1.12902    0.000
 5198.00    1.17912   1.12464    0.000
 5199.00    1.16086   1.11983    0.000
 5200.00    1.11620   1.11561    0.000
 5201.00    1.14180   1.11246    0.000
 5202.00    1.18093   1.11098    0.000
 5203.00    1.11416   1.11170    0.000
 5204.00    1.03156   1.11442    0.000
 5205.00    1.01718   1.11945    0.000
 5206.00    1.01028   1.12589    0.000
 5207.00    1.07123   1.13381    0.000
 5208.00    1.13709   1.14203    0.000
 5209.00    1.11670   1.15040    0.000
 5210.00    1.09309   1.15797    0.000
 5211.00    1.11868   1.16445    0.018
 5212.00    1.14554   1.16938    0.018
 5213.00    1.21051   1.17244    0.018
 5214.00    1.26722   1.17362    0.018
 5215.00    1.19019   1.17285    0.018
 5216.00    1.12923   1.17036    0.018
 5217.00    1.23184   1.16657    0.018
 5218.00    1.32962   1.16184    0.018
 5219.00    1.39228   1.15697    0.019
 5220.00    1.42440   1.15238    0.019
 5221.00    1.28642   1.14889    0.019
 5222.00    1.15720   1.14674    0.019
 5223.00    1.06693   1.14647    0.018
 5224.00    1.00026   1.14796    0.018
 5225.00    1.01982   1.15137    0.019
 5226.00    1.04343   1.15625    0.019
 5227.00    1.07947   1.16253    0.019
 5228.00    1.12022   1.16958    0.019
 5229.00    1.17319   1.17725    0.019
 5230.00    1.17944   1.18494    0.019
 5231.00    1.08117   1.19248    0.019
 5232.00    1.07901   1.19942    0.019
 5233.00    1.26315   1.20545    0.019
 5234.00    1.31924   1.21038    0.019
 5235.00    1.15889   1.21381    0.019
 5236.00    1.04868   1.21580    0.019
 5237.00    1.01271   1.21611    0.019
 5238.00    1.01910   1.21495    0.019
 5239.00    1.08065   1.21238    0.019
 5240.00    1.08284   1.20878    0.019
 5241.00    1.01698   1.20454    0.019
 5242.00    1.02284   1.20006    0.019
 5243.00    1.10128   1.19584    0.019
 5244.00    1.10668   1.19211    0.019
 5245.00    1.04693   1.18936    0.019
 5246.00    1.02580   1.18735    0.019
 5247.00    1.03504   1.18636    0.019
 5248.00    1.07471   1.18574    0.019
 5249.00    1.13543   1.18533    0.018
 5250.00    1.11420   1.18437    0.018
 5251.00    1.04329   1.18223    0.018
 5252.00    1.02318   1.17866    0.018
 5253.00    1.02995   1.17268    0.019
 5254.00    1.08502   1.16474    0.019
 5255.00    1.16229   1.15415    0.018
 5256.00    1.17157   1.14215    0.018
 5257.00    1.15397   1.12848    0.019
 5258.00    1.19612   1.11484    0.018
 5259.00    1.25839   1.10142    0.018
 5260.00    1.26940   1.08965    0.018
 5261.00    1.26591   1.08008    0.018
 5262.00    1.28773   1.07351    0.019
 5263.00    1.31546   1.07039    0.019
 5264.00    1.24958   1.07086    0.019
 5265.00    1.16615   1.07482    0.018
 5266.00    1.15736   1.08185    0.018
 5267.00    1.15938   1.09137    0.019
 5268.00    1.13977   1.10287    0.019
 5269.00    1.11789   1.11533    0.019
 5270.00    1.09683   1.12847    0.019
 5271.00    1.07583   1.14105    0.019
 5272.00    1.13617   1.15348    0.019
 5273.00    1.19925   1.16453    0.019
 5274.00    1.26003   1.17494    0.019
 5275.00    1.31656   1.18390    0.019
 5276.00    1.23706   1.19247    0.018
 5277.00    1.16538   1.20012    0.018
 5278.00    1.21272   1.20762    0.019
 5279.00    1.24933   1.21465    0.019
 5280.00    1.18125   1.22141    0.018
 5281.00    1.12799   1.22768    0.018
 5282.00    1.17910   1.23306    0.018
 5283.00    1.22996   1.23741    0.018
 5284.00    1.27943   1.24003    0.019
 5285.00    1.30889   1.24106    0.019
 5286.00    1.25144   1.24007    0.019
 5287.00    1.21675   1.23742    0.019
 5288.00    1.26351   1.23327    0.019
 5289.00    1.28441   1.22816    0.019
 5290.00    1.22764   1.22260    0.019
 5291.00    1.20246   1.21736    0.019
 5292.00    1.25804   1.21306    0.019
 5293.00    1.27647   1.21032    0.019
 5294.00    1.21318   1.20925    0.019
 5295.00    1.16772   1.21032    0.019
 5296.00    1.15627   1.21304    0.019
 5297.00    1.16182   1.21767    0.019
 5298.00    1.19567   1.22334    0.019
 5299.00    1.25086   1.22989    0.019
 5300.00    1.33720   1.23640    0.019
 5301.00    1.36969   1.24267    0.019
 5302.00    1.33307   1.24803    0.019
 5303.00    1.33386   1.25234    0.019
 5304.00    1.37695   1.25530    0.019
 5305.00    1.35642   1.25673    0.019
 5306.00    1.27244   1.25675    0.018
 5307.00    1.19474   1.25555    0.018
 5308.00    1.12257   1.25299    0.018
 5309.00    1.11577   1.24942    0.018
 5310.00    1.15963   1.24475    0.018
 5311.00    1.23555   1.23929    0.018
 5312.00    1.33332   1.23289    0.018
 5313.00    1.37234   1.22556    0.018
 5314.00    1.37628   1.21776    0.018
 5315.00    1.32727   1.20899    0.018
 5316.00    1.25069   1.19993    0.018
 5317.00    1.25996   1.18983    0.017
 5318.00    1.30802   1.18065    0.018
 5319.00    1.30336   1.17132    0.017
 5320.00    1.27823   1.16384    0.017
 5321.00    1.25188   1.15738    0.017
 5322.00    1.22513   1.15327    0.017
 5323.00    1.16912   1.15121    0.017
 5324.00    1.10500   1.15147    0.017
 5325.00    1.11672   1.15407    0.017
 5326.00    1.14573   1.15812    0.018
 5327.00    1.12209   1.16379    0.018
 5328.00    1.08884   1.16954    0.017
 5329.00    1.14534   1.17567    0.017
 5330.00    1.21442   1.18092    0.017
 5331.00    1.20876   1.18556    0.017
 5332.00    1.19556   1.18897    0.017
 5333.00    1.14099   1.19184    0.017
 5334.00    1.08376   1.19354    0.017
 5335.00    1.04455   1.19483    0.017
 5336.00    1.00619   1.19571    0.017
 5337.00    1.09236   1.19655    0.017
 5338.00    1.17589   1.19793    0.018
 5339.00    1.18369   1.19956    0.018
 5340.00    1.19245   1.20205    0.018
 5341.00    1.21511   1.20525    0.018
 5342.00    1.23541   1.20963    0.018
 5343.00    1.23363   1.21464    0.018
 5344.00    1.22854   1.22044    0.018
 5345.00    1.20088   1.22684    0.018
 5346.00    1.17442   1.23378    0.018
 5347.00    1.15431   1.24057    0.018
 5348.00    1.14207   1.24718    0.018
 5349.00    1.16324   1.25289    0.018
 5350.00    1.16022   1.25766    0.018
 5351.00    1.07245   1.26075    0.018
 5352.00    1.05066   1.26215    0.018
 5353.00    1.22334   1.26144    0.018
 5354.00    1.32226   1.25898    0.018
 5355.00    1.23587   1.25474    0.018
 5356.00    1.18526   1.24854    0.018
 5357.00    1.21206   1.24163    0.018
 5358.00    1.26573   1.23335    0.018
 5359.00    1.36986   1.22518    0.018
 5360.00    1.41575   1.21662    0.018
 5361.00    1.36612   1.20875    0.018
 5362.00    1.32475   1.20177    0.018
 5363.00    1.29526   1.19655    0.018
 5364.00    1.25149   1.19360    0.018
 5365.00    1.18964   1.19206    0.018
 5366.00    1.14143   1.19305    0.017
 5367.00    1.10841   1.19507    0.017
 5368.00    1.13314   1.19890   -2.000
 5369.00    1.21465   1.20343   -2.000
 5370.00    1.25101   1.20858   -2.000
 5371.00    1.24822   1.21363   -2.000
 5372.00    1.32567   1.21813   -2.000
 5373.00    1.46442   1.22208   -2.000
 5374.00    1.46898   1.22462   -2.000
 5375.00    1.38345   1.22654   -2.000
 5376.00    1.33433   1.22708   -2.000
 5377.00    1.30662   1.22674   -2.000
 5378.00    1.33800   1.22533   -2.000
 5379.00    1.39969   1.22297   -2.000
 5380.00    1.39143   1.21974   -2.000
 5381.00    1.35210   1.21564   -2.000
 5382.00    1.27631   1.21103   -2.000
 5383.00    1.18661   1.20561    0.017
 5384.00    1.16444   1.20004    0.017
 5385.00    1.16417   1.19393    0.017
 5386.00    1.21181   1.18794    0.017
 5387.00    1.27245   1.18176    0.017
 5388.00    1.26795   1.17571    0.017
 5389.00    1.24894   1.17037    0.017
 5390.00    1.27485   1.16507    0.017
 5391.00    1.30874   1.16091    0.017
 5392.00    1.25369   1.15698    0.017
 5393.00    1.18656   1.15363    0.017
 5394.00    1.13217   1.15020    0.017
 5395.00    1.07901   1.14726    0.017
 5396.00    1.11487   1.14425    0.017
 5397.00    1.15610   1.14136    0.017
 5398.00    1.08418   1.13921    0.017
 5399.00    1.00994   1.13765    0.017
 5400.00    1.03777   1.13749    0.017
 5401.00    1.06637   1.13807    0.018
 5402.00    1.11474   1.14015    0.018
 5403.00    1.15708   1.14321    0.018
 5404.00    1.11772   1.14830    0.018
 5405.00    1.08715   1.15439    0.018
 5406.00    1.13566   1.16133    0.017
 5407.00    1.17755   1.16872    0.017
 5408.00    1.17567   1.17614    0.017
 5409.00    1.19006   1.18361    0.018
 5410.00    1.28809   1.19031    0.017
 5411.00    1.34487   1.19598    0.017
 5412.00    1.23043   1.20037    0.017
 5413.00    1.15669   1.20356    0.017
 5414.00    1.22276   1.20543    0.017
 5415.00    1.25217   1.20626    0.017
 5416.00    1.17554   1.20585    0.017
 5417.00    1.15752   1.20399    0.016
 5418.00    1.28424   1.20195    0.017
 5419.00    1.37836   1.19925    0.017
 5420.00    1.40308   1.19599    0.016
 5421.00    1.38672   1.19213    0.016
 5422.00    1.29436   1.18763    0.016
 5423.00    1.24018   1.18351    0.016
 5424.00    1.24767   1.18100    0.016
 5425.00    1.25734   1.17821    0.016
 5426.00    1.27008   1.17659    0.016
 5427.00    1.25810   1.17592    0.017
 5428.00    1.21527   1.17674    0.016
 5429.00    1.15425   1.17923    0.016
 5430.00    1.07323   1.18257    0.016
 5431.00    1.08884   1.18735    0.016
 5432.00    1.19814   1.19197    0.016
 5433.00    1.24814   1.19680    0.016
 5434.00    1.24743   1.20075    0.016
 5435.00    1.20852   1.20380    0.016
 5436.00    1.14084   1.20572    0.016
 5437.00    1.16418   1.20588    0.016
 5438.00    1.24774   1.20466    0.016
 5439.00    1.31505   1.20199    0.016
 5440.00    1.37296   1.19851    0.016
 5441.00    1.35687   1.19565    0.016
 5442.00    1.30344   1.19210    0.016
 5443.00    1.24300   1.18903    0.017
 5444.00    1.17949   1.18563    0.017
 5445.00    1.05608   1.18301    0.017
 5446.00    0.91019   1.18039    0.017
 5447.00    0.96194   1.17837    0.016
 5448.00    1.07657   1.17630    0.016
 5449.00    1.16702   1.17509    0.016
 5450.00    1.25103   1.17498    0.017
 5451.00    1.23836   1.17487    0.017
 5452.00    1.20465   1.17543    0.017
 5453.00    1.13155   1.17561    0.017
 5454.00    1.05164   1.17621    0.017
 5455.00    1.10235   1.17659    0.017
 5456.00    1.17018   1.17685    0.017
 5457.00    1.14903   1.17749    0.017
 5458.00    1.11965   1.17800    0.016
 5459.00    1.18034   1.17811    0.017
 5460.00    1.24608   1.17799    0.017
 5461.00    1.23657   1.17739    0.017
 5462.00    1.22563   1.17617    0.017
 5463.00    1.24241   1.17423    0.017
 5464.00    1.26550   1.17176    0.016
 5465.00    1.43669   1.16880    0.017
 5466.00    1.58562   1.16512    0.017
 5467.00    1.44868   1.16139    0.017
 5468.00    1.32461   1.15771    0.016
 5469.00    1.31188   1.15378    0.016
 5470.00    1.29839   1.15063    0.016
 5471.00    1.27995   1.14874    0.016
 5472.00    1.25252   1.14753    0.016
 5473.00    1.17999   1.14785    0.016
 5474.00    1.11174   1.14839    0.016
 5475.00    1.06082   1.15049    0.015
 5476.00    1.01984   1.15281    0.015
 5477.00    1.01231   1.15629    0.015
 5478.00    1.01711   1.16004   -2.000
 5479.00    1.05693   1.16373   -2.000
 5480.00    1.11680   1.16723   -2.000
 5481.00    1.22531   1.17016   -2.000
 5482.00    1.29952   1.17315   -2.000
 5483.00    1.30188   1.17522   -2.000
 5484.00    1.28814   1.17748   -2.000
 5485.00    1.24507   1.17891   -2.000
 5486.00    1.21305   1.17980   -2.000
 5487.00    1.19863   1.18046   -2.000
 5488.00    1.22013   1.18044   -2.000
 5489.00    1.29183   1.18026   -2.000
 5490.00    1.31493   1.17936   -2.000
 5491.00    1.27831   1.17856   -2.000
 5492.00    1.18837   1.17714   -2.000
 5493.00    1.04065   1.17560   -2.000
 5494.00    1.00540   1.17383   -2.000
 5495.00    1.07764   1.17163   -2.000
 5496.00    1.15480   1.16930   -2.000
 5497.00    1.23610   1.16684   -2.000
 5498.00    1.25445   1.16482   -2.000
 5499.00    1.22608   1.16240   -2.000
 5500.00    1.26794   1.16049   -2.000
 5501.00    1.35558   1.15864   -2.000
 5502.00    1.33895   1.15719    0.017
 5503.00    1.26283   1.15652    0.017
 5504.00    1.13226   1.15605    0.016
 5505.00    0.97465   1.15583    0.016
 5506.00    1.04693   1.15658    0.016
 5507.00    1.21800   1.15766    0.016
 5508.00    1.20696   1.15978    0.016
 5509.00    1.12885   1.16256    0.016
 5510.00    1.10158   1.16574    0.016
 5511.00    1.09017   1.16942    0.016
 5512.00    1.13725   1.17274    0.016
 5513.00    1.19956   1.17609    0.016
 5514.00    1.19750   1.17860    0.016
 5515.00    1.18177   1.18032    0.016
 5516.00    1.18907   1.18114    0.016
 5517.00    1.20022   1.18113    0.016
 5518.00    1.19056   1.18027    0.016
 5519.00    1.17826   1.17873    0.016
 5520.00    1.14042   1.17672    0.015
 5521.00    1.10032   1.17431    0.015
 5522.00    1.09849   1.17241    0.015
 5523.00    1.09866   1.17063    0.015
 5524.00    1.11663   1.16988    0.015
 5525.00    1.13479   1.17005    0.015
 5526.00    1.14285   1.17037    0.015
 5527.00    1.15341   1.17139    0.015
 5528.00    1.21769   1.17251    0.015
 5529.00    1.27370   1.17459    0.015
 5530.00    1.22876   1.17647    0.015
 5531.00    1.18974   1.17908    0.016
 5532.00    1.20013   1.18182    0.016
 5533.00    1.19628   1.18422    0.016
 5534.00    1.10391   1.18687    0.016
 5535.00    1.04920   1.18927    0.016
 5536.00    1.17863   1.19150    0.016
 5537.00    1.27746   1.19337    0.016
 5538.00    1.25485   1.19495    0.016
 5539.00    1.25480   1.19652    0.016
 5540.00    1.32923   1.19810    0.016
 5541.00    1.36591   1.19931    0.016
 5542.00    1.29729   1.20033    0.016
 5543.00    1.24949   1.20140    0.017
 5544.00    1.25138   1.20175    0.017
 5545.00    1.25149   1.20171    0.017
 5546.00    1.24792   1.20112    0.017
 5547.00    1.22307   1.20006    0.016
 5548.00    1.16007   1.19843    0.016
 5549.00    1.12868   1.19641    0.016
 5550.00    1.14686   1.19424    0.016
 5551.00    1.16714   1.19189    0.016
 5552.00    1.19030   1.18917    0.015
 5553.00    1.20809   1.18610    0.016
 5554.00    1.21938   1.18315    0.016
 5555.00    1.17271   1.17995    0.016
 5556.00    1.06411   1.17663    0.016
 5557.00    1.06047   1.17350    0.016
 5558.00    1.15576   1.17008    0.015
 5559.00    1.16786   1.16765    0.015
 5560.00    1.11085   1.16507    0.015
 5561.00    1.08096   1.16293    0.015
 5562.00    1.07091   1.16145    0.015
 5563.00    1.11448   1.16048    0.015
 5564.00    1.19249   1.15997    0.015
 5565.00    1.23349   1.15967    0.015
 5566.00    1.25370   1.16075    0.015
 5567.00    1.21666   1.16112    0.015
 5568.00    1.15162   1.16164    0.015
 5569.00    1.15958   1.16313    0.015
 5570.00    1.19839   1.16424    0.015
 5571.00    1.19195   1.16419    0.015
 5572.00    1.16913   1.16431    0.015
 5573.00    1.16561   1.16345    0.015
 5574.00    1.16801   1.16152    0.015
 5575.00    1.18382   1.15909    0.015
 5576.00    1.20304   1.15542    0.015
 5577.00    1.21169   1.15078    0.015
 5578.00    1.21815   1.14595    0.015
 5579.00    1.27839   1.14071    0.015
 5580.00    1.34740   1.13525    0.015
 5581.00    1.28391   1.13005    0.016
 5582.00    1.20424   1.12500    0.016
 5583.00    1.18510   1.12157    0.016
 5584.00    1.17105   1.11915    0.016
 5585.00    1.10299   1.11790    0.016
 5586.00    1.03232   1.11803    0.016
 5587.00    1.04475   1.11822    0.016
 5588.00    1.05824   1.11962    0.016
 5589.00    1.06036   1.12083    0.016
 5590.00    1.06519   1.12306    0.016
 5591.00    1.12401   1.12582    0.016
 5592.00    1.18553   1.12828    0.016
 5593.00    1.27851   1.13038    0.016
 5594.00    1.34939   1.13316    0.016
 5595.00    1.24260   1.13686    0.016
 5596.00    1.15058   1.14019    0.016
 5597.00    1.14773   1.14468    0.016
 5598.00    1.15149   1.14886    0.016
 5599.00    1.18671   1.15412    0.016
 5600.00    1.21450   1.15899    0.016
 5601.00    1.21341   1.16331    0.016
 5602.00    1.18924   1.16692    0.016
 5603.00    1.09042   1.16899    0.015
 5604.00    1.01985   1.17028    0.015
 5605.00    1.02667   1.17003    0.015
 5606.00    1.05919   1.16898    0.015
 5607.00    1.15204   1.16686    0.015
 5608.00    1.20996   1.16372    0.015
 5609.00    1.19705   1.16005    0.015
 5610.00    1.18937   1.15535    0.015
 5611.00    1.19096   1.15186    0.015
 5612.00    1.20276   1.14943    0.014
 5613.00    1.23035   1.14720    0.015
 5614.00    1.23538   1.14568    0.015
 5615.00    1.20983   1.14462    0.015
 5616.00    1.19432   1.14461    0.015
 5617.00    1.19081   1.14505    0.015
 5618.00    1.14904   1.14600    0.015
 5619.00    1.06696   1.14683    0.015
 5620.00    1.03530   1.14832    0.015
 5621.00    1.05048   1.15058    0.015
 5622.00    1.05255   1.15287    0.015
 5623.00    1.04386   1.15509    0.015
 5624.00    1.03489   1.15718    0.015
 5625.00    1.02572   1.15858    0.015
 5626.00    1.05703   1.15946    0.015
 5627.00    1.11397   1.15960    0.015
 5628.00    1.11057   1.15913    0.015
 5629.00    1.07377   1.15809    0.015
 5630.00    1.10980   1.15661    0.015
 5631.00    1.18086   1.15500    0.015
 5632.00    1.20066   1.15320    0.015
 5633.00    1.19917   1.15182    0.015
 5634.00    1.18609   1.15066    0.015
 5635.00    1.16890   1.14995    0.015
 5636.00    1.13975   1.14927    0.015
 5637.00    1.10700   1.14936    0.015
 5638.00    1.17053   1.14990    0.015
 5639.00    1.25805   1.15039    0.015
 5640.00    1.24722   1.15144    0.015
 5641.00    1.21653   1.15193    0.015
 5642.00    1.17128   1.15262    0.015
 5643.00    1.12372   1.15261    0.014
 5644.00    1.09319   1.15192    0.014
 5645.00    1.06466   1.15076    0.014
 5646.00    1.10856   1.14919    0.014
 5647.00    1.15825   1.14703    0.014
 5648.00    1.11738   1.14419    0.014
 5649.00    1.07248   1.14100    0.014
 5650.00    1.11481   1.13751    0.014
 5651.00    1.15812   1.13453    0.014
 5652.00    1.20094   1.13168    0.014
 5653.00    1.23873   1.12863    0.014
 5654.00    1.18358   1.12709    0.014
 5655.00    1.13041   1.12664    0.015
 5656.00    1.09909   1.12695    0.014
 5657.00    1.06846   1.12809    0.014
 5658.00    1.04309   1.13004    0.015
 5659.00    1.03291   1.13287    0.015
 5660.00    1.11184   1.13609    0.015
 5661.00    1.17544   1.13983    0.015
 5662.00    1.16771   1.14346    0.015
 5663.00    1.16386   1.14746    0.015
 5664.00    1.17474   1.15112    0.015
 5665.00    1.17680   1.15491    0.015
 5666.00    1.15087   1.15846    0.015
 5667.00    1.12131   1.16171    0.015
 5668.00    1.08198   1.16406    0.015
 5669.00    1.07277   1.16584    0.015
 5670.00    1.13311   1.16676    0.015
 5671.00    1.19706   1.16699    0.015
 5672.00    1.26823   1.16646    0.015
 5673.00    1.28182   1.16490    0.015
 5674.00    1.19531   1.16314    0.015
 5675.00    1.15253   1.16077    0.015
 5676.00    1.17633   1.15865    0.015
 5677.00    1.17468   1.15584    0.016
 5678.00    1.13897   1.15394    0.015
 5679.00    1.12277   1.15214    0.015
 5680.00    1.12952   1.15107    0.015
 5681.00    1.12097   1.15052    0.015
 5682.00    1.09652   1.15034    0.015
 5683.00    1.09240   1.15092    0.014
 5684.00    1.10689   1.15131    0.014
 5685.00    1.14603   1.15269    0.014
 5686.00    1.20508   1.15344    0.014
 5687.00    1.24572   1.15442    0.014
 5688.00    1.27327   1.15449    0.014
 5689.00    1.27766   1.15394    0.014
 5690.00    1.26761   1.15304    0.014
 5691.00    1.23505   1.15092    0.014
 5692.00    1.19024   1.14848    0.014
 5693.00    1.15197   1.14479    0.014
 5694.00    1.11681   1.14105    0.014
 5695.00    1.09453   1.13661    0.015
 5696.00    1.07751   1.13205    0.015
 5697.00    1.09381   1.12766    0.015
 5698.00    1.12172   1.12331    0.015
 5699.00    1.10409   1.11984    0.015
 5700.00    1.07306   1.11670    0.015
 5701.00    1.11508   1.11435    0.015
 5702.00    1.17489   1.11281    0.015
 5703.00    1.16096   1.11230    0.015
 5704.00    1.13251   1.11270    0.015
 5705.00    1.09080   1.11501    0.015
 5706.00    1.04706   1.11815    0.015
 5707.00    1.08075   1.12250    0.015
 5708.00    1.12320   1.12836    0.015
 5709.00    1.17462   1.13421    0.015
 5710.00    1.22671   1.14089    0.015
 5711.00    1.19580   1.14741    0.015
 5712.00    1.16150   1.15344    0.015
 5713.00    1.09583   1.15891    0.015
 5714.00    1.03160   1.16416    0.014
 5715.00    1.03696   1.16827    0.015
 5716.00    1.04695   1.17194    0.015
 5717.00    1.13647   1.17469    0.015
 5718.00    1.22525   1.17647    0.015
 5719.00    1.30627   1.17760    0.015
 5720.00    1.37694   1.17801    0.015
 5721.00    1.37006   1.17809    0.015
 5722.00    1.35082   1.17743    0.015
 5723.00    1.26106   1.17720    0.014
 5724.00    1.18265   1.17657    0.014
 5725.00    1.15579   1.17636    0.014
 5726.00    1.13821   1.17616    0.014
 5727.00    1.15515   1.17592    0.014
 5728.00    1.16326   1.17594    0.014
 5729.00    1.14387   1.17588    0.014
 5730.00    1.12336   1.17641    0.014
 5731.00    1.09991   1.17647    0.014
 5732.00    1.10135   1.17661    0.014
 5733.00    1.15928   1.17656    0.014
 5734.00    1.20364   1.17629    0.014
 5735.00    1.22135   1.17599    0.014
 5736.00    1.22029   1.17532    0.014
 5737.00    1.18708   1.17475    0.014
 5738.00    1.15058   1.17382    0.014
 5739.00    1.10913   1.17287    0.015
 5740.00    1.07088   1.17141    0.000
 5741.00    1.03685   1.16993    0.000
 5742.00    1.00500   1.16825    0.000
 5743.00    0.97569   1.16643    0.000
 5744.00    0.96665   1.16493    0.000
 5745.00    0.97838   1.16316    0.000
 5746.00    1.05468   1.16204    0.000
 5747.00    1.18932   1.16070    0.000
 5748.00    1.25074   1.15943    0.000
 5749.00    1.25387   1.15796    0.000
 5750.00    1.24732   1.15718    0.000
 5751.00    1.23398   1.15679    0.000
 5752.00    1.25552   1.15725    0.000
 5753.00    1.29847   1.15805    0.000
 5754.00    1.32860   1.15851    0.000
 5755.00    1.35185   1.15922    0.000
 5756.00    1.27612   1.15986    0.000
 5757.00    1.15429   1.16072    0.000
 5758.00    1.06190   1.16159    0.000
 5759.00    0.98133   1.16326    0.000
 5760.00    0.95668   1.16449    0.000
 5761.00    0.95119   1.16635    0.000
 5762.00    1.03588   1.16753    0.000
 5763.00    1.14656   1.16791    0.000
 5764.00    1.20222   1.16796    0.000
 5765.00    1.24478   1.16729    0.000
 5766.00    1.23356   1.16613    0.000
 5767.00    1.21202   1.16394    0.000
 5768.00    1.17263   1.16142    0.000
 5769.00    1.13058   1.15763    0.000
 5770.00    1.11421   1.15385    0.000
 5771.00    1.10064   1.14975    0.000
 5772.00    1.15378   1.14514    0.000
 5773.00    1.21171   1.14048    0.000
 5774.00    1.18075   1.13611    0.000
 5775.00    1.14652   1.13222    0.000
 5776.00    1.17435   1.12835    0.000
 5777.00    1.20359   1.12578    0.000
 5778.00    1.27376   1.12352    0.000
 5779.00    1.33426   1.12280    0.000
 5780.00    1.23937   1.12349    0.000
 5781.00    1.15283   1.12500    0.000
 5782.00    1.15088   1.12744    0.000
 5783.00    1.15548   1.13053    0.000
 5784.00    1.20751   1.13482    0.000
 5785.00    1.24608   1.13832    0.000
 5786.00    1.20994   1.14210    0.000
 5787.00    1.17459   1.14651    0.000
 5788.00    1.14276   1.15026    0.000
 5789.00    1.12095   1.15448    0.000
 5790.00    1.13566   1.15833    0.000
 5791.00    1.15003   1.16154   -2.000
 5792.00    1.16334   1.16409   -2.000
 5793.00    1.16490   1.16612   -2.000
 5794.00    1.13596   1.16779   -2.000
 5795.00    1.12863   1.16905   -2.000
 5796.00    1.16951   1.17056   -2.000
 5797.00    1.21562   1.17169   -2.000
 5798.00    1.27182   1.17209   -2.000
 5799.00    1.30461   1.17221   -2.000
 5800.00    1.29791   1.17201   -2.000
 5801.00    1.26258   1.17140   -2.000
 5802.00    1.18494   1.17101   -2.000
 5803.00    1.12031   1.17077   -2.000
 5804.00    1.07258   1.17044   -2.000
 5805.00    1.07212   1.17035   -2.000
 5806.00    1.12578   1.17045   -2.000
 5807.00    1.16164   1.17057   -2.000
 5808.00    1.17953   1.17101   -2.000
 5809.00    1.18476   1.17137   -2.000
 5810.00    1.17872   1.17201   -2.000
 5811.00    1.18303   1.17274    0.000
 5812.00    1.19548   1.17359    0.000
 5813.00    1.19356   1.17491    0.000
 5814.00    1.18172   1.17625    0.000
 5815.00    1.18183   1.17824    0.000
 5816.00    1.18917   1.17957    0.000
 5817.00    1.21816   1.18085    0.000
 5818.00    1.25859   1.18197    0.000
 5819.00    1.26461   1.18262    0.000
 5820.00    1.25485   1.18343    0.000
 5821.00    1.24677   1.18374    0.000
 5822.00    1.23934   1.18426    0.000
 5823.00    1.25768   1.18413    0.000
 5824.00    1.28468   1.18407    0.000
 5825.00    1.24357   1.18377    0.000
 5826.00    1.18323   1.18326    0.000
 5827.00    1.12694   1.18291    0.000
 5828.00    1.07160   1.18219    0.000
 5829.00    1.08340   1.18178    0.000
 5830.00    1.10775   1.18131    0.000
 5831.00    1.17906   1.18086    0.000
 5832.00    1.25715   1.18019    0.000
 5833.00    1.27649   1.17972    0.000
 5834.00    1.28969   1.17900    0.000
 5835.00    1.25214   1.17760    0.000
 5836.00    1.21116   1.17624    0.000
 5837.00    1.17903   1.17466    0.000
 5838.00    1.14720   1.17260    0.000
 5839.00    1.15361   1.16989    0.000
 5840.00    1.16097   1.16673    0.000
 5841.00    1.19713   1.16285    0.000
 5842.00    1.22731   1.15864    0.000
 5843.00    1.16691   1.15413    0.000
 5844.00    1.11541   1.14956    0.000
 5845.00    1.15016   1.14489    0.000
 5846.00    1.18313   1.14046    0.000
 5847.00    1.20359   1.13612    0.000
 5848.00    1.21656   1.13193    0.000
 5849.00    1.18912   1.12875    0.000
 5850.00    1.16089   1.12548    0.000
 5851.00    1.12931   1.12378    0.000
 5852.00    1.10853   1.12263    0.000
 5853.00    1.12634   1.12213    0.000
 5854.00    1.13703   1.12188    0.000
 5855.00    1.12635   1.12236    0.000
 5856.00    1.11897   1.12448    0.000
 5857.00    1.11999   1.12618    0.000
 5858.00    1.12242   1.12895    0.000
 5859.00    1.12792   1.13106    0.000
 5860.00    1.12468   1.13341    0.000
 5861.00    1.10483   1.13573    0.000
 5862.00    1.07112   1.13777    0.000
 5863.00    1.01438   1.13941    0.000
 5864.00    0.98791   1.14046    0.000
 5865.00    1.00554   1.14185    0.000
 5866.00    1.02453   1.14215    0.000
 5867.00    1.04526   1.14186    0.000
 5868.00    1.07353   1.14059    0.000
 5869.00    1.11030   1.13870    0.000
 5870.00    1.15490   1.13568    0.000
 5871.00    1.20730   1.13206    0.000
 5872.00    1.23384   1.12789    0.000
 5873.00    1.23767   1.12216    0.000
 5874.00    1.21107   1.11562    0.000
 5875.00    1.16092   1.10799    0.000
 5876.00    1.13546   1.09923    0.000
 5877.00    1.12679   1.08857    0.000
 5878.00    1.10987   1.07683    0.000
 5879.00    1.08803   1.06449    0.000
 5880.00    1.07632   1.05100    0.000
 5881.00    1.06988   1.03903    0.000
 5882.00    1.03539   1.02791    0.000
 5883.00    0.98826   1.01666    0.000
 5884.00    0.97427   1.00645    0.000
 5885.00    0.97312   0.99684    0.000
 5886.00    0.99501   0.98864    0.000
 5887.00    1.02451   0.98427    0.000
 5888.00    1.05961   0.98580    0.000
 5889.00    1.09627   0.99010    0.000
 5890.00    1.05913   0.99466    0.000
 5891.00    1.00521   1.00155    0.000
 5892.00    0.99744   1.00892    0.000
 5893.00    0.99806   1.01670    0.000
 5894.00    1.01456   1.02886    0.000
 5895.00    1.03327   1.04193    0.000
 5896.00    1.04557   1.05330    0.000
 5897.00    1.05723   1.06389    0.000
 5898.00    1.06024   1.07384    0.000
 5899.00    1.06269   1.08212    0.000
 5900.00    1.05794   1.08896    0.000
 5901.00    1.05298   1.09554    0.013
 5902.00    1.04721   1.10056    0.013
 5903.00    1.04236   1.10399    0.013
 5904.00    1.06372   1.10627    0.013
 5905.00    1.08605   1.10842    0.013
 5906.00    1.12229   1.10937    0.013
 5907.00    1.15610   1.11007    0.014
 5908.00    1.16744   1.11090    0.013
 5909.00    1.17762   1.11111    0.013
 5910.00    1.18002   1.11147    0.014
 5911.00    1.18404   1.11106    0.014
 5912.00    1.19664   1.11171    0.014
 5913.00    1.20603   1.11239    0.014
 5914.00    1.20179   1.11347    0.014
 5915.00    1.18936   1.11465    0.014
 5916.00    1.14832   1.11538    0.014
 5917.00    1.11632   1.11619    0.014
 5918.00    1.11093   1.11638    0.014
 5919.00    1.10872   1.11654    0.014
 5920.00    1.11443   1.11652    0.014
 5921.00    1.11174   1.11725    0.014
 5922.00    1.09091   1.11754    0.014
 5923.00    1.08069   1.11761    0.014
 5924.00    1.09039   1.11718    0.014
 5925.00    1.09587   1.11647    0.014
 5926.00    1.09444   1.11669    0.014
 5927.00    1.10110   1.11636    0.014
 5928.00    1.11939   1.11703    0.013
 5929.00    1.12065   1.11788    0.013
 5930.00    1.10041   1.11795    0.013
 5931.00    1.08695   1.11741    0.013
 5932.00    1.08102   1.11709    0.013
 5933.00    1.07576   1.11791    0.013
 5934.00    1.07114   1.11824    0.013
 5935.00    1.06012   1.11835    0.013
 5936.00    1.04354   1.11849    0.013
 5937.00    1.03330   1.11807    0.013
 5938.00    1.02790   1.11670    0.013
 5939.00    1.05439   1.11569    0.013
 5940.00    1.10226   1.11558    0.013
 5941.00    1.14027   1.11529    0.013
 5942.00    1.17250   1.11445    0.013
 5943.00    1.17397   1.11338    0.013
 5944.00    1.15970   1.11288    0.014
 5945.00    1.16340   1.11209    0.014
 5946.00    1.17508   1.11115    0.014
 5947.00    1.16667   1.11129    0.014
 5948.00    1.15061   1.11194    0.014
 5949.00    1.10764   1.11225    0.014
 5950.00    1.05596   1.11283    0.014
 5951.00    1.05905   1.11436    0.014
 5952.00    1.07698   1.11618    0.014
 5953.00    1.08915   1.11730    0.014
 5954.00    1.10003   1.11893    0.014
 5955.00    1.08139   1.12087    0.014
 5956.00    1.05752   1.12247    0.014
 5957.00    1.09189   1.12469    0.014
 5958.00    1.13413   1.12634    0.014
 5959.00    1.15524   1.12798    0.013
 5960.00    1.17432   1.12886    0.013
 5961.00    1.18867   1.12959    0.013
 5962.00    1.20274   1.13006    0.013
 5963.00    1.19182   1.12984    0.013
 5964.00    1.18007   1.13007    0.013
 5965.00    1.13876   1.12928    0.013
 5966.00    1.09945   1.12796    0.013
 5967.00    1.11119   1.12636    0.013
 5968.00    1.12255   1.12463    0.013
 5969.00    1.12884   1.12272    0.013
 5970.00    1.13307   1.12085    0.013
 5971.00    1.11888   1.11894    0.013
 5972.00    1.11280   1.11676    0.013
 5973.00    1.16007   1.11427    0.013
 5974.00    1.20298   1.11183    0.013
 5975.00    1.22358   1.11043    0.013
 5976.00    1.23148   1.10954    0.013
 5977.00    1.18680   1.10901    0.013
 5978.00    1.15128   1.10872    0.013
 5979.00    1.14717   1.10846    0.014
 5980.00    1.15034   1.10839    0.014
 5981.00    1.17453   1.10803    0.014
 5982.00    1.19210   1.10873    0.014
 5983.00    1.19336   1.11050    0.014
 5984.00    1.19699   1.11164    0.014
 5985.00    1.20564   1.11270    0.014
 5986.00    1.19377   1.11349    0.014
 5987.00    1.14399   1.11382    0.014
 5988.00    1.11036   1.11364    0.013
 5989.00    1.10277   1.11358    0.013
 5990.00    1.09827   1.11395    0.013
 5991.00    1.09814   1.11370    0.013
 5992.00    1.09136   1.11253    0.013
 5993.00    1.07630   1.11093    0.013
 5994.00    1.07943   1.10956    0.013
 5995.00    1.10251   1.10784    0.013
 5996.00    1.10875   1.10650    0.013
 5997.00    1.09869   1.10507    0.013
 5998.00    1.10093   1.10308    0.013
 5999.00    1.11367   1.10155    0.013
 6000.00    1.12184   1.09990    0.013
 6001.00    1.12657   1.09919    0.013
 6002.00    1.12176   1.09832    0.013
 6003.00    1.11065   1.09686    0.013
 6004.00    1.10805   1.09600    0.013
 6005.00    1.11038   1.09471    0.013
 6006.00    1.09634   1.09419    0.013
 6007.00    1.07406   1.09428    0.013
 6008.00    1.05867   1.09423    0.013
 6009.00    1.04629   1.09360    0.013
 6010.00    1.04169   1.09272    0.014
 6011.00    1.04000   1.09265    0.014
 6012.00    1.02256   1.09294    0.014
 6013.00    1.00012   1.09348    0.014
 6014.00    0.99615   1.09404    0.014
 6015.00    0.99708   1.09582    0.014
 6016.00    1.02627   1.09710    0.014
 6017.00    1.06158   1.09826    0.014
 6018.00    1.10287   1.10090    0.014
 6019.00    1.14518   1.10344    0.014
 6020.00    1.14697   1.10662    0.014
 6021.00    1.14347   1.10920    0.013
 6022.00    1.13073   1.11253    0.013
 6023.00    1.11714   1.11593    0.013
 6024.00    1.09776   1.11815    0.013
 6025.00    1.07806   1.12120    0.013
 6026.00    1.09768   1.12382    0.013
 6027.00    1.11796   1.12597    0.013
 6028.00    1.11714   1.12781    0.013
 6029.00    1.11422   1.12934    0.012
 6030.00    1.06283   1.13085    0.013
 6031.00    1.01699   1.13170    0.013
 6032.00    1.04202   1.13230    0.013
 6033.00    1.07049   1.13330    0.013
 6034.00    1.12859   1.13375    0.013
 6035.00    1.17736   1.13439    0.013
 6036.00    1.16656   1.13485    0.013
 6037.00    1.15794   1.13504    0.013
 6038.00    1.16024   1.13546    0.013
 6039.00    1.16106   1.13531    0.014
 6040.00    1.15595   1.13568    0.013
 6041.00    1.14806   1.13561    0.013
 6042.00    1.13084   1.13530    0.013
 6043.00    1.11290   1.13466    0.013
 6044.00    1.09292   1.13379    0.013
 6045.00    1.07716   1.13280    0.014
 6046.00    1.07161   1.13124    0.014
 6047.00    1.07971   1.13015    0.014
 6048.00    1.11634   1.12853    0.014
 6049.00    1.14505   1.12713    0.014
 6050.00    1.15934   1.12528    0.013
 6051.00    1.17008   1.12392    0.013
 6052.00    1.17517   1.12292    0.013
 6053.00    1.17546   1.12141    0.013
 6054.00    1.16907   1.12079    0.013
 6055.00    1.16011   1.11966    0.013
 6056.00    1.14802   1.11963    0.013
 6057.00    1.14760   1.11967    0.013
 6058.00    1.15983   1.12006    0.013
 6059.00    1.15571   1.12139    0.013
 6060.00    1.13598   1.12201    0.013
 6061.00    1.11135   1.12333    0.013
 6062.00    1.08261   1.12401    0.013
 6063.00    1.06434   1.12517    0.013
 6064.00    1.05382   1.12708    0.013
 6065.00    1.05870   1.12808    0.013
 6066.00    1.07360   1.12853    0.013
 6067.00    1.08797   1.12822    0.013
 6068.00    1.10205   1.12729    0.013
 6069.00    1.11857   1.12608    0.013
 6070.00    1.13630   1.12435    0.013
 6071.00    1.12526   1.12232    0.013
 6072.00    1.10189   1.12028    0.013
 6073.00    1.08114   1.11759    0.013
 6074.00    1.06135   1.11477    0.013
 6075.00    1.07216   1.11173    0.013
 6076.00    1.09248   1.10931    0.013
 6077.00    1.10580   1.10755    0.013
 6078.00    1.11729   1.10569    0.013
 6079.00    1.11821   1.10405    0.013
 6080.00    1.11688   1.10299    0.013
 6081.00    1.14314   1.10228    0.013
 6082.00    1.17402   1.10107    0.013
 6083.00    1.17889   1.10065    0.013
 6084.00    1.18049   1.10096    0.013
 6085.00    1.11212   1.10126    0.013
 6086.00    1.03763   1.10128    0.013
 6087.00    1.00551   1.10054    0.012
 6088.00    0.97559   1.10016    0.012
 6089.00    0.97308   1.10019    0.012
 6090.00    0.97168   1.09988    0.012
 6091.00    1.01477   1.09993    0.013
 6092.00    1.05857   1.09923    0.013
 6093.00    1.11734   1.09801    0.013
 6094.00    1.16943   1.09658    0.013
 6095.00    1.14052   1.09532    0.013
 6096.00    1.11058   1.09608    0.013
 6097.00    1.07215   1.09624    0.013
 6098.00    1.04204   1.09631    0.013
 6099.00    1.06348   1.09592    0.013
 6100.00    1.08204   1.09547    0.013
 6101.00    1.08660   1.09741    0.013
 6102.00    1.08662   1.09911    0.013
 6103.00    1.06864   1.10039    0.013
 6104.00    1.05935   1.10133    0.013
 6105.00    1.07868   1.10188    0.014
 6106.00    1.08884   1.10239    0.014
 6107.00    1.07346   1.10231    0.013
 6108.00    1.05988   1.10182    0.013
 6109.00    1.05057   1.10117    0.013
 6110.00    1.05745   1.10048    0.013
 6111.00    1.09763   1.09883    0.013
 6112.00    1.11769   1.09646    0.013
 6113.00    1.10172   1.09419    0.013
 6114.00    1.08728   1.09163    0.013
 6115.00    1.07523   1.09048    0.013
 6116.00    1.08083   1.08962    0.013
 6117.00    1.11069   1.08781    0.012
 6118.00    1.13885   1.08662    0.012
 6119.00    1.16495   1.08474    0.012
 6120.00    1.16313   1.08417    0.013
 6121.00    1.13153   1.08414    0.013
 6122.00    1.09342   1.08302    0.013
 6123.00    1.04919   1.08242    0.013
 6124.00    1.03841   1.08079    0.013
 6125.00    1.05538   1.07957    0.013
 6126.00    1.08090   1.07782    0.013
 6127.00    1.11265   1.07554    0.013
 6128.00    1.12437   1.07377    0.013
 6129.00    1.12325   1.07089    0.013
 6130.00    1.10574   1.07036    0.013
 6131.00    1.07904   1.07058    0.013
 6132.00    1.08198   1.07009    0.013
 6133.00    1.09937   1.06934    0.013
 6134.00    1.15307   1.06828    0.013
 6135.00    1.22208   1.07056    0.013
 6136.00    1.22320   1.07377    0.013
 6137.00    1.19981   1.07603    0.013
 6138.00    1.12460   1.07774    0.013
 6139.00    1.03356   1.07853    0.013
 6140.00    1.02380   1.08007    0.013
 6141.00    1.03467   1.08126    0.013
 6142.00    1.07822   1.08171    0.013
 6143.00    1.12851   1.08222    0.013
 6144.00    1.12918   1.08127    0.013
 6145.00    1.12179   1.07944    0.013
 6146.00    1.10761   1.07636    0.013
 6147.00    1.09260   1.07255    0.013
 6148.00    1.09335   1.06914    0.013
 6149.00    1.09542   1.06456    0.013
 6150.00    1.11661   1.05976    0.013
 6151.00    1.13872   1.05430    0.012
 6152.00    1.12727   1.04842    0.013
 6153.00    1.11426   1.04194    0.013
 6154.00    1.03986   1.03551    0.013
 6155.00    0.97090   1.03090    0.013
 6156.00    1.00921   1.02709    0.013
 6157.00    1.04568   1.02401    0.013
 6158.00    1.06082   1.02043    0.014
 6159.00    1.07084   1.01815    0.014
 6160.00    1.03990   1.01764    0.014
 6161.00    1.01095   1.01717    0.014
 6162.00    0.99389   1.01829    0.014
 6163.00    0.97756   1.02094    0.014
 6164.00    0.96467   1.02421    0.013
 6165.00    0.96078   1.02684    0.013
 6166.00    0.99175   1.02923    0.013
 6167.00    1.01182   1.03255    0.013
 6168.00    0.99668   1.03680    0.013
 6169.00    0.99054   1.04080    0.013
 6170.00    1.00897   1.04425    0.013
 6171.00    1.03566   1.04731    0.012
 6172.00    1.08166   1.04935    0.012
 6173.00    1.11142   1.05127    0.012
 6174.00    1.10832   1.05296    0.012
 6175.00    1.09893   1.05416    0.012
 6176.00    1.07844   1.05452    0.012
 6177.00    1.05954   1.05403    0.012
 6178.00    1.04308   1.05249    0.012
 6179.00    1.02853   1.05107    0.012
 6180.00    1.01656   1.04995    0.012
 6181.00    1.00803   1.04830    0.012
 6182.00    1.00359   1.04704    0.012
 6183.00    1.01106   1.04403    0.013
 6184.00    1.03103   1.04232    0.013
 6185.00    1.06803   1.04290    0.013
 6186.00    1.12082   1.04253    0.014
 6187.00    1.14335   1.04286    0.014
 6188.00    1.14115   1.04280    0.013
 6189.00    1.10320   1.04386    0.013
 6190.00    1.03953   1.04624    0.013
 6191.00    1.01096   1.04717    0.013
 6192.00    1.00456   1.04876    0.013
 6193.00    0.97699   1.05099    0.013
 6194.00    0.93773   1.05318    0.013
 6195.00    0.90275   1.05497    0.013
 6196.00    0.86983   1.05560   -2.000
 6197.00    0.87963   1.05624   -2.000
 6198.00    0.90713   1.05698   -2.000
 6199.00    0.97836   1.05716   -2.000
 6200.00    1.06510   1.05633   -2.000
 6201.00    1.00154   1.05485   -2.000
 6202.00    0.89301   1.05280   -2.000
 6203.00    0.88310   1.05022   -2.000
 6204.00    0.89769   1.04783   -2.000
 6205.00    0.96063   1.04413   -2.000
 6206.00    1.03330   1.04001   -2.000
 6207.00    1.02813   1.03645   -2.000
 6208.00    1.01068   1.03275    0.013
 6209.00    0.96779   1.03044    0.013
 6210.00    0.92192   1.02771    0.013
 6211.00    0.94199   1.02401    0.013
 6212.00    0.96728   1.02167    0.013
 6213.00    1.01981   1.01997    0.013
 6214.00    1.07354   1.01949    0.013
 6215.00    1.10381   1.01918    0.013
 6216.00    1.13360   1.01751    0.013
 6217.00    1.15273   1.01656    0.013
 6218.00    1.17108   1.01596    0.013
 6219.00    1.17506   1.01592    0.013
 6220.00    1.17631   1.01608    0.013
 6221.00    1.14761   1.01553    0.013
 6222.00    1.11910   1.01425    0.013
 6223.00    1.09208   1.01323    0.013
 6224.00    1.06902   1.01338    0.013
 6225.00    1.06912   1.01302    0.012
 6226.00    1.06717   1.01334    0.012
 6227.00    1.05572   1.01271    0.012
 6228.00    1.04796   1.01201    0.013
 6229.00    1.05420   1.01203    0.012
 6230.00    1.06281   1.01077    0.012
 6231.00    1.07888   1.01095    0.013
 6232.00    1.08857   1.00999    0.013
 6233.00    1.08110   1.00918    0.013
 6234.00    1.06391   1.00879    0.013
 6235.00    1.02431   1.00663    0.013
 6236.00    0.99111   1.00610    0.012
 6237.00    0.97062   1.00503    0.013
 6238.00    0.96301   1.00365    0.013
 6239.00    0.97773   1.00278    0.013
 6240.00    0.98356   1.00141    0.013
 6241.00    0.97588   1.00071    0.013
 6242.00    0.96550   0.99999    0.013
 6243.00    0.95153   0.99853    0.013
 6244.00    0.96497   0.99684    0.013
 6245.00    1.01063   0.99556    0.013
 6246.00    1.04952   0.99459    0.013
 6247.00    1.08138   0.99458    0.013
 6248.00    1.08116   0.99363    0.013
 6249.00    1.05161   0.99281    0.012
 6250.00    1.03584   0.99285    0.012
 6251.00    1.03119   0.99317    0.012
 6252.00    1.02566   0.99519    0.012
 6253.00    1.01951   0.99666    0.012
 6254.00    0.99416   0.99915    0.012
 6255.00    0.95685   1.00212    0.012
 6256.00    0.91956   1.00449    0.012
 6257.00    0.88226   1.00767    0.012
 6258.00    0.90588   1.01072    0.013
 6259.00    0.95828   1.01464    0.013
 6260.00    1.02971   1.01804    0.014
 6261.00    1.10890   1.02028    0.015
 6262.00    1.13452   1.02243    0.016
 6263.00    1.14150   1.02454    0.017
 6264.00    1.08411   1.02684    0.016
 6265.00    1.00785   1.02870    0.016
 6266.00    0.97194   1.02971    0.015
 6267.00    0.94584   1.03012    0.014
 6268.00    0.94976   1.03085    0.013
 6269.00    0.95956   1.03158    0.013
 6270.00    0.97178   1.03232    0.013
 6271.00    0.98436   1.03304    0.013
 6272.00    1.03734   1.03256    0.013
 6273.00    1.09488   1.03307    0.013
 6274.00    1.10571   1.03382    0.012
 6275.00    1.11303   1.03460    0.012
 6276.00    1.07715   1.03620    0.012
 6277.00    1.03953   1.03606    0.013
 6278.00    1.02733   1.03681    0.012
 6279.00    1.01537   1.03781    0.012
 6280.00    1.00550   1.03830    0.000
 6281.00    0.99511   1.03986    0.000
 6282.00    0.97575   1.03948    0.000
 6283.00    0.95888   1.03879    0.000
 6284.00    0.96821   1.03819    0.000
 6285.00    0.97687   1.03697    0.000
 6286.00    0.98051   1.03683    0.000
 6287.00    0.98267   1.03534    0.000
 6288.00    0.97639   1.03282    0.000
 6289.00    0.96984   1.03077    0.000
 6290.00    0.96209   1.02891    0.000
 6291.00    0.95785   1.02826    0.000
 6292.00    0.96662   1.02718    0.000
 6293.00    0.97510   1.02541    0.000
 6294.00    0.98268   1.02457    0.000
 6295.00    0.99807   1.02444    0.000
 6296.00    1.03410   1.02513    0.000
 6297.00    1.06850   1.02554    0.000
 6298.00    1.09920   1.02574    0.000
 6299.00    1.11565   1.02644    0.000
 6300.00    1.10413   1.02730    0.000
 6301.00    1.11074   1.02816    0.000
 6302.00    1.14833   1.02823    0.000
 6303.00    1.17366   1.02837    0.000
 6304.00    1.18061   1.02819    0.000
 6305.00    1.18825   1.02767    0.000
 6306.00    1.19680   1.02728    0.000
 6307.00    1.22836   1.02603    0.000
 6308.00    1.28658   1.02566    0.000
 6309.00    1.30493   1.02488    0.000
 6310.00    1.28254   1.02396    0.000
 6311.00    1.24037   1.02434    0.000
 6312.00    1.18037   1.02416    0.000
 6313.00    1.12746   1.02533    0.000
 6314.00    1.08019   1.02626    0.000
 6315.00    1.03177   1.02721    0.000
 6316.00    0.98255   1.02959    0.000
 6317.00    0.96463   1.03089    0.000
 6318.00    0.96589   1.03320    0.000
 6319.00    0.97127   1.03487    0.000
 6320.00    0.97886   1.03636    0.000
 6321.00    1.01631   1.03837    0.013
 6322.00    1.06764   1.03844    0.013
 6323.00    1.09187   1.03919    0.013
 6324.00    1.10524   1.03932    0.012
 6325.00    1.08204   1.03920    0.012
 6326.00    1.04634   1.03913    0.012
 6327.00    1.02109   1.03763    0.012
 6328.00    0.99884   1.03655    0.012
 6329.00    1.00007   1.03566    0.012
 6330.00    1.00687   1.03490    0.012
 6331.00    0.98602   1.03398    0.012
 6332.00    0.95987   1.03324    0.012
 6333.00    0.92700   1.03253    0.012
 6334.00    0.89314   1.03228    0.012
 6335.00    0.88923   1.03255    0.012
 6336.00    0.88858   1.03211    0.012
 6337.00    0.90318   1.03266    0.012
 6338.00    0.91888   1.03305    0.012
 6339.00    0.93629   1.03323    0.012
 6340.00    0.95377   1.03390    0.012
 6341.00    0.94748   1.03339    0.012
 6342.00    0.94174   1.03324    0.013
 6343.00    0.95825   1.03310    0.013
 6344.00    0.97335   1.03215    0.013
 6345.00    0.96596   1.03115    0.012
 6346.00    0.96330   1.02921    0.012
 6347.00    1.00809   1.02693    0.012
 6348.00    1.05093   1.02502    0.013
 6349.00    1.07961   1.02269    0.012
 6350.00    1.09991   1.02017    0.012
 6351.00    1.07380   1.01764    0.012
 6352.00    1.05428   1.01534    0.012
 6353.00    1.06389   1.01378    0.012
 6354.00    1.07464   1.01278    0.012
 6355.00    1.08954   1.01222    0.012
 6356.00    1.09351   1.01221    0.012
 6357.00    1.06420   1.01312    0.012
 6358.00    1.04017   1.01462    0.012
 6359.00    1.02980   1.01680    0.012
 6360.00    1.02460   1.01959    0.012
 6361.00    1.03090   1.02243    0.012
 6362.00    1.01985   1.02565    0.012
 6363.00    0.97532   1.02874    0.012
 6364.00    0.93575   1.03192    0.013
 6365.00    0.90453   1.03504    0.013
 6366.00    0.89651   1.03763    0.013
 6367.00    0.92272   1.03979    0.012
 6368.00    0.95004   1.04135    0.012
 6369.00    0.97881   1.04295    0.013
 6370.00    0.98572   1.04396    0.013
 6371.00    0.96766   1.04455    0.013
 6372.00    0.95911   1.04475    0.013
 6373.00    0.96014   1.04443    0.013
 6374.00    0.96301   1.04460    0.012
 6375.00    0.96750   1.04418    0.012
 6376.00    0.97292   1.04356    0.012
 6377.00    0.97908   1.04284    0.012
 6378.00    0.96895   1.04192    0.012
 6379.00    0.94760   1.04150    0.012
 6380.00    0.97187   1.04046    0.012
 6381.00    1.02368   1.03932    0.012
 6382.00    1.06471   1.03799    0.012
 6383.00    1.10005   1.03687    0.012
 6384.00    1.07839   1.03606    0.012
 6385.00    1.03066   1.03468    0.012
 6386.00    1.00965   1.03345    0.012
 6387.00    0.99917   1.03197    0.012
 6388.00    0.99817   1.03133    0.012
 6389.00    1.00034   1.03085    0.012
 6390.00    1.00267   1.03039    0.012
 6391.00    1.00504   1.03025    0.012
 6392.00    0.99898   1.02933    0.013
 6393.00    0.99096   1.03000    0.013
 6394.00    0.96880   1.03040    0.013
 6395.00    0.94401   1.03073    0.013
 6396.00    0.94700   1.03175    0.013
 6397.00    0.95399   1.03115    0.013
 6398.00    0.93373   1.03199    0.013
 6399.00    0.91063   1.03262    0.012
 6400.00    0.89881   1.03215    0.012
 6401.00    0.88775   1.03284    0.013
 6402.00    0.88677   1.03243    0.012
 6403.00    0.88611   1.03215    0.012
 6404.00    0.90122   1.03218    0.012
 6405.00    0.91564   1.03126    0.012
 6406.00    0.90849   1.03120    0.012
 6407.00    0.90019   1.03136    0.012
 6408.00    0.87463   1.03074    0.012
 6409.00    0.85176   1.03040    0.012
 6410.00    0.85496   1.03041    0.012
 6411.00    0.86321   1.03072    0.012
 6412.00    0.90674   1.03144    0.012
 6413.00    0.94768   1.03151    0.012
 6414.00    0.97478   1.03152    0.012
 6415.00    0.99895   1.03250    0.012
 6416.00    1.01054   1.03362    0.012
 6417.00    1.01481   1.03440    0.013
 6418.00    0.99306   1.03468    0.012
 6419.00    0.96700   1.03491    0.012
 6420.00    0.92806   1.03561    0.012
 6421.00    0.90762   1.03668    0.012
 6422.00    0.93429   1.03669    0.012
 6423.00    0.96002   1.03618    0.012
 6424.00    0.98368   1.03650    0.012
 6425.00    1.00407   1.03655    0.012
 6426.00    1.01826   1.03720    0.012
 6427.00    1.03982   1.03714    0.012
 6428.00    1.07363   1.03634    0.012
 6429.00    1.09952   1.03749    0.012
 6430.00    1.11392   1.03817    0.013
 6431.00    1.12430   1.03855    0.012
 6432.00    1.12956   1.03928    0.012
 6433.00    1.12205   1.03888    0.012
 6434.00    1.10017   1.03985    0.012
 6435.00    1.07868   1.04096    0.012
 6436.00    1.05760   1.04033    0.012
 6437.00    1.05349   1.04039    0.012
 6438.00    1.06425   1.03955    0.012
 6439.00    1.05624   1.03834    0.013
 6440.00    1.03374   1.03850    0.013
 6441.00    1.02741   1.03684    0.013
 6442.00    1.03205   1.03530    0.013
 6443.00    1.03194   1.03429    0.013
 6444.00    1.02899   1.03221    0.013
 6445.00    1.01441   1.03204    0.013
 6446.00    0.99380   1.03116    0.013
 6447.00    0.97808   1.02983    0.013
 6448.00    0.96457   1.03016    0.013
 6449.00    0.94467   1.02958    0.013
 6450.00    0.92229   1.02996    0.012
 6451.00    0.90942   1.03013    0.012
 6452.00    0.89969   1.02981    0.012
 6453.00    0.91656   1.03108    0.012
 6454.00    0.94078   1.03130    0.012
 6455.00    0.96650   1.03161    0.012
 6456.00    0.99257   1.03202    0.012
 6457.00    0.99421   1.03222    0.012
 6458.00    0.99143   1.03337    0.012
 6459.00    0.96380   1.03350    0.012
 6460.00    0.93270   1.03345    0.012
 6461.00    0.92981   1.03395    0.012
 6462.00    0.92973   1.03453    0.012
 6463.00    0.94868   1.03482    0.012
 6464.00    0.96884   1.03450    0.012
 6465.00    0.99785   1.03415    0.012
 6466.00    1.02718   1.03392    0.012
 6467.00    1.07404   1.03394    0.012
 6468.00    1.11852   1.03319    0.012
 6469.00    1.09706   1.03211    0.012
 6470.00    1.07463   1.03110    0.012
 6471.00    1.03842   1.02974    0.012
 6472.00    1.00251   1.02860    0.012
 6473.00    0.96936   1.02702    0.012
 6474.00    0.93868   1.02515    0.012
 6475.00    0.92477   1.02307    0.012
 6476.00    0.92268   1.02069    0.012
 6477.00    0.98263   1.01837    0.012
 6478.00    1.03366   1.01518    0.012
 6479.00    1.04704   1.01169    0.012
 6480.00    1.05255   1.00797    0.012
 6481.00    1.03062   1.00407    0.012
 6482.00    1.01952   1.00018    0.012
 6483.00    1.04017   0.99449    0.012
 6484.00    1.06240   0.98957    0.012
 6485.00    1.08855   0.98538    0.012
 6486.00    1.09916   0.98090    0.012
 6487.00    1.07628   0.97783    0.012
 6488.00    1.05140   0.97333    0.012
 6489.00    1.02280   0.97103    0.012
 6490.00    0.99611   0.97110    0.012
 6491.00    0.97255   0.97030    0.012
 6492.00    0.93962   0.97199    0.012
 6493.00    0.89327   0.97345    0.012
 6494.00    0.87822   0.97637    0.012
 6495.00    0.90260   0.98155    0.012
 6496.00    0.91621   0.98494    0.012
 6497.00    0.91786   0.98945    0.012
 6498.00    0.90640   0.99407    0.012
 6499.00    0.88209   0.99827    0.012
 6500.00    0.88094   1.00300    0.012
 6501.00    0.89979   1.00602    0.012
 6502.00    0.92515   1.00857    0.012
 6503.00    0.95545   1.01114    0.012
 6504.00    0.97005   1.01289    0.012
 6505.00    0.97414   1.01412    0.012
 6506.00    0.98794   1.01480    0.012
 6507.00    1.00742   1.01479    0.012
 6508.00    1.01807   1.01496    0.012
 6509.00    1.02420   1.01534    0.012
 6510.00    1.04635   1.01492    0.012
 6511.00    1.07559   1.01473    0.012
 6512.00    1.08296   1.01450    0.012
 6513.00    1.08201   1.01437    0.012
 6514.00    1.08158   1.01526    0.012
 6515.00    1.08132   1.01505    0.012
 6516.00    1.05794   1.01475    0.012
 6517.00    1.02831   1.01533    0.012
 6518.00    1.02261   1.01565    0.012
 6519.00    1.02221   1.01655    0.012
 6520.00    1.00918   1.01657    0.012
 6521.00    0.99392   1.01597    0.012
 6522.00    0.98597   1.01649    0.012
 6523.00    0.97900   1.01688    0.012
 6524.00    1.00536   1.01723    0.012
 6525.00    1.03491   1.01721    0.012
 6526.00    1.06493   1.01648    0.012
 6527.00    1.09497   1.01634    0.012
 6528.00    1.06624   1.01653    0.000
 6529.00    1.03607   1.01623    0.000
 6530.00    1.01015   1.01525    0.000
 6531.00    0.98606   1.01403    0.000
 6532.00    1.00801   1.01276    0.000
 6533.00    1.02935   1.01170    0.000
 6534.00    1.04259   1.00986    0.000
 6535.00    1.05005   1.00648    0.000
 6536.00    1.00599   1.00390    0.000
 6537.00    0.96874   1.00133    0.000
 6538.00    0.97616   0.99787    0.000
 6539.00    0.98317   0.99395    0.000
 6540.00    0.98809   0.98856    0.000
 6541.00    0.99346   0.98406    0.000
 6542.00    1.00064   0.97972    0.000
 6543.00    1.00979   0.97334    0.000
 6544.00    1.02570   0.96682    0.000
 6545.00    1.04277   0.95992    0.000
 6546.00    1.06319   0.95225    0.000
 6547.00    1.07808   0.94455    0.000
 6548.00    1.07935   0.93597    0.000
 6549.00    1.06972   0.92745    0.000
 6550.00    1.03698   0.91971    0.000
 6551.00    1.01255   0.90898    0.000
 6552.00    1.00344   0.89877    0.000
 6553.00    1.00829   0.89395    0.000
 6554.00    1.03563   0.88919    0.000
 6555.00    1.04463   0.88461    0.000
 6556.00    1.02772   0.87989    0.000
 6557.00    1.01113   0.87616    0.000
 6558.00    0.99493   0.87933    0.000
 6559.00    1.00846   0.88296    0.000
 6560.00    1.05454   0.88582    0.000
 6561.00    1.10228   0.89127    0.000
 6562.00    1.15161   0.89704    0.000
 6563.00    1.17619   0.90483    0.000
 6564.00    1.17967   0.91264    0.000
 6565.00    1.16287   0.91982    0.000
 6566.00    1.13084   0.92819    0.000
 6567.00    1.09034   0.93587    0.000
 6568.00    1.04427   0.94284    0.000
 6569.00    1.02473   0.94883    0.000
 6570.00    1.02053   0.95436    0.000
 6571.00    1.00473   0.96034    0.000
 6572.00    0.98310   0.96519    0.000
 6573.00    0.94967   0.96935    0.000
 6574.00    0.91110   0.97274    0.000
 6575.00    0.90527   0.97498    0.000
 6576.00    0.91167   0.97785    0.000
 6577.00    0.91198   0.98003    0.000
 6578.00    0.91035   0.98115    0.000
 6579.00    0.94283   0.98240    0.000
 6580.00    0.98433   0.98269    0.000
 6581.00    1.03589   0.98270    0.000
 6582.00    1.08964   0.98229    0.000
 6583.00    1.10014   0.98173    0.000
 6584.00    1.10323   0.98214    0.000
 6585.00    1.07691   0.98192    0.000
 6586.00    1.04676   0.98101    0.000
 6587.00    0.98900   0.97975    0.000
 6588.00    0.92873   0.97955    0.000
 6589.00    0.89805   0.98079    0.000
 6590.00    0.86901   0.98098    0.000
 6591.00    0.88461   0.98103    0.000
 6592.00    0.90127   0.98133    0.000
 6593.00    0.92750   0.98163    0.000
 6594.00    0.95303   0.98286    0.000
 6595.00    0.96240   0.98341    0.000
 6596.00    0.97424   0.98389    0.000
 6597.00    1.01739   0.98481    0.000
 6598.00    1.05710   0.98468    0.000
 6599.00    1.06743   0.98524    0.000
 6600.00    1.06798   0.98618    0.000
 6601.00    1.00630   0.98671    0.000
 6602.00    0.95154   0.98732    0.000
 6603.00    0.93129   0.98729    0.000
 6604.00    0.91997   0.98850    0.000
 6605.00    0.94469   0.99026    0.000
 6606.00    0.96008   0.99085    0.000
 6607.00    0.94425   0.99155    0.000
 6608.00    0.92773   0.99224    0.000
 6609.00    0.90922   0.99366    0.012
 6610.00    0.90063   0.99479    0.012
 6611.00    0.91601   0.99457    0.012
 6612.00    0.92400   0.99486    0.012
 6613.00    0.91655   0.99486    0.011
 6614.00    0.91053   0.99438    0.011
 6615.00    0.90712   0.99406    0.012
 6616.00    0.90959   0.99280    0.012
 6617.00    0.92139   0.99172    0.012
 6618.00    0.94035   0.99038    0.012
 6619.00    0.96928   0.98825    0.011
 6620.00    0.99120   0.98717    0.011
 6621.00    1.00452   0.98575    0.012
 6622.00    0.99988   0.98380    0.012
 6623.00    0.97587   0.98238    0.012
 6624.00    0.96679   0.98086    0.012
 6625.00    0.97196   0.97994    0.012
 6626.00    0.96320   0.97923    0.012
 6627.00    0.94275   0.97792    0.012
 6628.00    0.91552   0.97706    0.012
 6629.00    0.88326   0.97683    0.012
 6630.00    0.86290   0.97704    0.012
 6631.00    0.85028   0.97724    0.012
 6632.00    0.84908   0.97672    0.012
 6633.00    0.85437   0.97650    0.012
 6634.00    0.86006   0.97688    0.012
 6635.00    0.86595   0.97763    0.012
 6636.00    0.89153   0.97809    0.012
 6637.00    0.92554   0.97732    0.012
 6638.00    0.92815   0.97738    0.012
 6639.00    0.91926   0.97845    0.012
 6640.00    0.91655   0.97862    0.012
 6641.00    0.91576   0.97833    0.012
 6642.00    0.91354   0.97802    0.012
 6643.00    0.91095   0.97822    0.011
 6644.00    0.93629   0.97850    0.012
 6645.00    0.96753   0.97778    0.012
 6646.00    0.97473   0.97705    0.012
 6647.00    0.97792   0.97674    0.012
 6648.00    0.95891   0.97618    0.012
 6649.00    0.93711   0.97519    0.012
 6650.00    0.96640   0.97408    0.012
 6651.00    1.00013   0.97310    0.012
 6652.00    1.02832   0.97190    0.012
 6653.00    1.05623   0.97088    0.012
 6654.00    1.02452   0.96977    0.012
 6655.00    0.99191   0.96878    0.012
 6656.00    0.97040   0.96829    0.011
 6657.00    0.95062   0.96686    0.011
 6658.00    0.96715   0.96623    0.011
 6659.00    0.98137   0.96663    0.011
 6660.00    0.96769   0.96626    0.011
 6661.00    0.95460   0.96612    0.011
 6662.00    0.94650   0.96599    0.011
 6663.00    0.94067   0.96589    0.011
 6664.00    0.94885   0.96616    0.012
 6665.00    0.95356   0.96624    0.012
 6666.00    0.94142   0.96582    0.012
 6667.00    0.93050   0.96528    0.012
 6668.00    0.92439   0.96521    0.012
 6669.00    0.92291   0.96503    0.012
 6670.00    0.93668   0.96493    0.012
 6671.00    0.94393   0.96419    0.012
 6672.00    0.93308   0.96272    0.012
 6673.00    0.93362   0.96341    0.012
 6674.00    0.96121   0.96427    0.012
 6675.00    0.97832   0.96382    0.012
 6676.00    0.97389   0.96399    0.012
 6677.00    0.96708   0.96414    0.012
 6678.00    0.95600   0.96493    0.012
 6679.00    0.95212   0.96559    0.012
 6680.00    0.95947   0.96552    0.012
 6681.00    0.96282   0.96597    0.012
 6682.00    0.96068   0.96616    0.012
 6683.00    0.96588   0.96643    0.011
 6684.00    0.97995   0.96639    0.012
 6685.00    0.99759   0.96575    0.012
 6686.00    1.01906   0.96567    0.012
 6687.00    1.03131   0.96520    0.012
 6688.00    1.03491   0.96481    0.012
 6689.00    1.02178   0.96436    0.012
 6690.00    0.99482   0.96291    0.012
 6691.00    0.95869   0.96256    0.012
 6692.00    0.91587   0.96238    0.012
 6693.00    0.89606   0.96141    0.012
 6694.00    0.89097   0.96118    0.012
 6695.00    0.87159   0.96054    0.012
 6696.00    0.84421   0.95972    0.000
 6697.00    0.82873   0.95925    0.000
 6698.00    0.81906   0.95799    0.000
 6699.00    0.87489   0.95700    0.000
 6700.00    0.95830   0.95657    0.000
 6701.00    1.01226   0.95530    0.000
 6702.00    1.05563   0.95387    0.000
 6703.00    1.04529   0.95247    0.000
 6704.00    1.01860   0.95047    0.000
 6705.00    1.01459   0.94945    0.000
 6706.00    1.01631   0.94816    0.000
 6707.00    0.99261   0.94611    0.000
 6708.00    0.96369   0.94507    0.000
 6709.00    0.94454   0.94409    0.000
 6710.00    0.92699   0.94339    0.000
 6711.00    0.90433   0.94247    0.000
 6712.00    0.88105   0.94157    0.000
 6713.00    0.88614   0.94261    0.000
 6714.00    0.89358   0.94338    0.000
 6715.00    0.94045   0.94341    0.000
 6716.00    0.98919   0.94400    0.000
 6717.00    0.99852   0.94505    0.000
 6718.00    1.00731   0.94662    0.000
 6719.00    1.01753   0.94747    0.000
 6720.00    1.02426   0.94779    0.000
 6721.00    0.96324   0.94902    0.000
 6722.00    0.90531   0.95026    0.000
 6723.00    0.88268   0.95067    0.000
 6724.00    0.86394   0.95081    0.000
 6725.00    0.87611   0.95096    0.000
 6726.00    0.88884   0.95111    0.000
 6727.00    0.90495   0.95100    0.000
 6728.00    0.92709   0.95026    0.000
 6729.00    0.97777   0.94950    0.000
 6730.00    1.02024   0.94927    0.000
 6731.00    1.03101   0.94845    0.000
 6732.00    1.04224   0.94715    0.000
 6733.00    1.05491   0.94604    0.000
 6734.00    1.04820   0.94508    0.000
 6735.00    0.98865   0.94456    0.000
 6736.00    0.93588   0.94333    0.000
 6737.00    0.89900   0.94209    0.000
 6738.00    0.87073   0.94178    0.000
 6739.00    0.85985   0.94106    0.000
 6740.00    0.85479   0.94073    0.000
 6741.00    0.85996   0.94035    0.000
 6742.00    0.86985   0.94008    0.000
 6743.00    0.88699   0.94077    0.000
 6744.00    0.89209   0.94064    0.000
 6745.00    0.88090   0.94138    0.000
 6746.00    0.87839   0.94264    0.000
 6747.00    0.88620   0.94288    0.000
 6748.00    0.88536   0.94429    0.000
 6749.00    0.87544   0.94549    0.000
 6750.00    0.87680   0.94631    0.000
 6751.00    0.88860   0.94780    0.000
 6752.00    0.87503   0.94847    0.000
 6753.00    0.84076   0.94903    0.013
 6754.00    0.83856   0.94997    0.013
 6755.00    0.85941   0.95043    0.014
 6756.00    0.89375   0.95052    0.014
 6757.00    0.93661   0.95059    0.014
 6758.00    0.91852   0.95056    0.014
 6759.00    0.86683   0.95057    0.014
 6760.00    0.87670   0.95062    0.014
 6761.00    0.91608   0.95008    0.014
 6762.00    1.01487   0.94987    0.014
 6763.00    1.13822   0.95042    0.014
 6764.00    1.15225   0.95045    0.014
 6765.00    1.12761   0.95037    0.014
 6766.00    1.11992   0.95060    0.014
 6767.00    1.11729   0.95095    0.014
 6768.00    1.09058   0.95133    0.013
 6769.00    1.05790   0.95120    0.013
 6770.00    1.05682   0.95102    0.013
 6771.00    1.06209   0.95102    0.013
 6772.00    1.02326   0.95057    0.013
 6773.00    0.97750   0.95007    0.013
 6774.00    0.92523   0.94946    0.013
 6775.00    0.87220   0.94849    0.013
 6776.00    0.88123   0.94757    0.013
 6777.00    0.89516   0.94650    0.013
 6778.00    0.95242   0.94546    0.013
 6779.00    1.01156   0.94473    0.013
 6780.00    0.99859   0.94386    0.013
 6781.00    0.98521   0.94319    0.013
 6782.00    0.98741   0.94296    0.013
 6783.00    0.98894   0.94267    0.013
 6784.00    0.97836   0.94216    0.013
 6785.00    0.96627   0.94217    0.013
 6786.00    0.93766   0.94256    0.013
 6787.00    0.91505   0.94243    0.012
 6788.00    0.93849   0.94278    0.012
 6789.00    0.97137   0.94321    0.012
 6790.00    1.05929   0.94317    0.013
 6791.00    1.12332   0.94407    0.013
 6792.00    1.07689   0.94417    0.013
 6793.00    1.02828   0.94401    0.013
 6794.00    0.97139   0.94500    0.013
 6795.00    0.91755   0.94475    0.013
 6796.00    0.87336   0.94491    0.013
 6797.00    0.84281   0.94541    0.013
 6798.00    0.84883   0.94459    0.013
 6799.00    0.86819   0.94531    0.013
 6800.00    0.91821   0.94540    0.013
 6801.00    0.94238   0.94431    0.013
 6802.00    0.91512   0.94510    0.013
 6803.00    0.89510   0.94497    0.013
 6804.00    0.88762   0.94453    0.013
 6805.00    0.87041   0.94501    0.013
 6806.00    0.83845   0.94435    0.012
 6807.00    0.81440   0.94486    0.012
 6808.00    0.80092   0.94546    0.012
 6809.00    0.79143   0.94477    0.012
 6810.00    0.78664   0.94551    0.012
 6811.00    0.80119   0.94597    0.012
 6812.00    0.83574   0.94606    0.013
 6813.00    0.86625   0.94670    0.013
 6814.00    0.89305   0.94645    0.013
 6815.00    0.89956   0.94685    0.013
 6816.00    0.88974   0.94752    0.013
 6817.00    0.91929   0.94746    0.013
 6818.00    0.97671   0.94760    0.013
 6819.00    0.99558   0.94729    0.013
 6820.00    0.99053   0.94726    0.013
 6821.00    0.96406   0.94733    0.013
 6822.00    0.92598   0.94645    0.012
 6823.00    0.94327   0.94589    0.012
 6824.00    0.98667   0.94543    0.012
 6825.00    0.99445   0.94472    0.012
 6826.00    0.98775   0.94389    0.012
 6827.00    0.98961   0.94238    0.012
 6828.00    0.99444   0.94139    0.012
 6829.00    1.05124   0.94061    0.012
 6830.00    1.12324   0.93911    0.012
 6831.00    1.14642   0.93806    0.012
 6832.00    1.15777   0.93693    0.012
 6833.00    1.10223   0.93583    0.012
 6834.00    1.03361   0.93533    0.012
 6835.00    1.02530   0.93435    0.013
 6836.00    1.02618   0.93395    0.013
 6837.00    1.00286   0.93385    0.013
 6838.00    0.97683   0.93332    0.014
 6839.00    0.92256   0.93370    0.014
 6840.00    0.86618   0.93350    0.014
 6841.00    0.85835   0.93291    0.014
 6842.00    0.85244   0.93334    0.014
 6843.00    0.83841   0.93300    0.013
 6844.00    0.82680   0.93263    0.012
 6845.00    0.91376   0.93248    0.012
 6846.00    0.99066   0.93146    0.012
 6847.00    0.89754   0.93133    0.012
 6848.00    0.81217   0.93086    0.012
 6849.00    0.80787   0.92934    0.012
 6850.00    0.80811   0.92924    0.012
 6851.00    0.84208   0.92887    0.012
 6852.00    0.87861   0.92776    0.012
 6853.00    0.92958   0.92765    0.012
 6854.00    0.96352   0.92733    0.013
 6855.00    0.92054   0.92700    0.012
 6856.00    0.88421   0.92702    0.012
 6857.00    0.87252   0.92689    0.013
 6858.00    0.86821   0.92710    0.013
 6859.00    0.88679   0.92717    0.013
 6860.00    0.89852   0.92720    0.013
 6861.00    0.89225   0.92763    0.013
 6862.00    0.91470   0.92781    0.013
 6863.00    1.00205   0.92789    0.013
 6864.00    1.05366   0.92842    0.013
 6865.00    1.03529   0.92900    0.013
 6866.00    1.00034   0.92908    0.013
 6867.00    0.93711   0.92940    0.013
 6868.00    0.90592   0.93020    0.012
 6869.00    0.92264   0.93059    0.013
 6870.00    0.93591   0.93097    0.013
 6871.00    0.94464   0.93165    0.012
 6872.00    0.93941   0.93230    0.012
 6873.00    0.91804   0.93293    0.012
 6874.00    0.90153   0.93336    0.012
 6875.00    0.88997   0.93418    0.012
 6876.00    0.89655   0.93520    0.012
 6877.00    0.91945   0.93561    0.012
 6878.00    0.90812   0.93662    0.013
 6879.00    0.86965   0.93798    0.013
 6880.00    0.83686   0.93857    0.013
 6881.00    0.80804   0.93950    0.013
 6882.00    0.82563   0.94081    0.013
 6883.00    0.87161   0.94155    0.013
 6884.00    0.88261   0.94237    0.013
 6885.00    0.87490   0.94339    0.012
 6886.00    0.90531   0.94410    0.012
 6887.00    0.95341   0.94483    0.012
 6888.00    0.94761   0.94541    0.012
 6889.00    0.92027   0.94592    0.012
 6890.00    0.90602   0.94671    0.012
 6891.00    0.89622   0.94682    0.012
 6892.00    0.89337   0.94708    0.012
 6893.00    0.89252   0.94797    0.012
 6894.00    0.89911   0.94791    0.012
 6895.00    0.90746   0.94799    0.012
 6896.00    0.83022   0.94843    0.012
 6897.00    0.73667   0.94826    0.012
 6898.00    0.84355   0.94857    0.013
 6899.00    0.98005   0.94833    0.013
 6900.00    0.97837   0.94783    0.013
 6901.00    0.96179   0.94819    0.013
 6902.00    0.94125   0.94732    0.013
 6903.00    0.92044   0.94664    0.013
 6904.00    0.90739   0.94660    0.013
 6905.00    0.89462   0.94518    0.013
 6906.00    0.86250   0.94475    0.013
 6907.00    0.83183   0.94438    0.012
 6908.00    0.85337   0.94278    0.013
 6909.00    0.87124   0.94265    0.013
 6910.00    0.83085   0.94222    0.012
 6911.00    0.79462   0.94120    0.012
 6912.00    0.80005   0.94115    0.012
 6913.00    0.81024   0.94048    0.012
 6914.00    0.85467   0.94014    0.012
 6915.00    0.89475   0.94009    0.012
 6916.00    0.91088   0.93921    0.012
 6917.00    0.92323   0.93923    0.013
 6918.00    0.91894   0.93962    0.013
 6919.00    0.91027   0.93927    0.013
 6920.00    0.88576   0.93929    0.013
 6921.00    0.87959   0.93950    0.013
 6922.00    0.92914   0.93967    0.013
 6923.00    0.95625   0.93993    0.013
 6924.00    0.92532   0.93966    0.013
 6925.00    0.89144   0.93987    0.013
 6926.00    0.85100   0.94068    0.013
 6927.00    0.82733   0.94045    0.013
 6928.00    0.83598   0.94032    0.013
 6929.00    0.85211   0.94097    0.013
 6930.00    0.88082   0.94098    0.013
 6931.00    0.88631   0.94088    0.013
 6932.00    0.85760   0.94093    0.013
 6933.00    0.84035   0.94053    0.012
 6934.00    0.83793   0.94050    0.012
 6935.00    0.85320   0.94029    0.012
 6936.00    0.88867   0.93923    0.013
 6937.00    0.91621   0.93935    0.013
 6938.00    0.93577   0.93962    0.013
 6939.00    0.94265   0.93856    0.013
 6940.00    0.93829   0.93868    0.013
 6941.00    0.91968   0.93899    0.013
 6942.00    0.88991   0.93819    0.013
 6943.00    0.87964   0.93855    0.013
 6944.00    0.88278   0.93893    0.013
 6945.00    0.88716   0.93874    0.013
 6946.00    0.89229   0.93954    0.013
 6947.00    0.83825   0.94018    0.013
 6948.00    0.75309   0.94067    0.013
 6949.00    0.76540   0.94174    0.013
 6950.00    0.82221   0.94246    0.013
 6951.00    0.83112   0.94313    0.013
 6952.00    0.82122   0.94437    0.013
 6953.00    0.82840   0.94506    0.012
 6954.00    0.84128   0.94546    0.012
 6955.00    0.88379   0.94668    0.012
 6956.00    0.93461   0.94721    0.013
 6957.00    0.88898   0.94701    0.013
 6958.00    0.82104   0.94758    0.013
 6959.00    0.79128   0.94768    0.013
 6960.00    0.76861   0.94718    0.013
 6961.00    0.80388   0.94681    0.013
 6962.00    0.84743   0.94563    0.013
 6963.00    0.83239   0.94478    0.013
 6964.00    0.81127   0.94418    0.014
 6965.00    0.81274   0.94256    0.013
 6966.00    0.81572   0.94100    0.013
 6967.00    0.82359   0.93992    0.013
 6968.00    0.83161   0.93889    0.013
 6969.00    0.78371   0.93717    0.013
 6970.00    0.73859   0.93578    0.013
 6971.00    0.77897   0.93616    0.013
 6972.00    0.81824   0.93602    0.012
 6973.00    0.84094   0.93550    0.012
 6974.00    0.86083   0.93618    0.012
 6975.00    0.85362   0.93685    0.013
 6976.00    0.85166   0.93772    0.013
 6977.00    0.88628   0.93850    0.013
 6978.00    0.90760   0.93934    0.013
 6979.00    0.85751   0.94095    0.013
 6980.00    0.82567   0.94164    0.013
 6981.00    0.87243   0.94227    0.013
 6982.00    0.91425   0.94366    0.013
 6983.00    0.93854   0.94441    0.013
 6984.00    0.94664   0.94472    0.013
 6985.00    0.90650   0.94478    0.013
 6986.00    0.88464   0.94479    0.013
 6987.00    0.90925   0.94468    0.013
 6988.00    0.90730   0.94404    0.013
 6989.00    0.84726   0.94372    0.013
 6990.00    0.81008   0.94300    0.013
 6991.00    0.81627   0.94170    0.013
 6992.00    0.83768   0.94115    0.013
 6993.00    0.88431   0.94065    0.013
 6994.00    0.90696   0.93970    0.013
 6995.00    0.89479   0.93865    0.013
 6996.00    0.88582   0.93761    0.013
 6997.00    0.88093   0.93711    0.013
 6998.00    0.89471   0.93651    0.013
 6999.00    0.92949   0.93550    0.013
 7000.00    0.95580   0.93526    0.013
 7001.00    0.97369   0.93495    0.014
 7002.00    0.96700   0.93400    0.014
 7003.00    0.93878   0.93357    0.014
 7004.00    0.91285   0.93316    0.014
 7005.00    0.88867   0.93296    0.014
 7006.00    0.87621   0.93284    0.014
 7007.00    0.87169   0.93147    0.013
 7008.00    0.86370   0.93128    0.013
 7009.00    0.85365   0.93232    0.013
 7010.00    0.84002   0.93174    0.013
 7011.00    0.82455   0.93154    0.013
 7012.00    0.80540   0.93217    0.013
 7013.00    0.78461   0.93226    0.013
 7014.00    0.77838   0.93248    0.013
 7015.00    0.77777   0.93241    0.013
 7016.00    0.83441   0.93309    0.013
 7017.00    0.90984   0.93447    0.013
 7018.00    0.90427   0.93446    0.013
 7019.00    0.87641   0.93500    0.013
 7020.00    0.82434   0.93648    0.014
 7021.00    0.76680   0.93723    0.014
 7022.00    0.80555   0.93805    0.014
 7023.00    0.86169   0.93875    0.014
 7024.00    0.83177   0.93991    0.014
 7025.00    0.78993   0.94127    0.014
 7026.00    0.77760   0.94148    0.014
 7027.00    0.76820   0.94300    0.013
 7028.00    0.78788   0.94521    0.014
 7029.00    0.80937   0.94533    0.014
 7030.00    0.80912   0.94656    0.014
 7031.00    0.80830   0.94905    0.013
 7032.00    0.82170   0.94992    0.013
 7033.00    0.83503   0.95104    0.013
 7034.00    0.84640   0.95259    0.013
 7035.00    0.85669   0.95329    0.013
 7036.00    0.85171   0.95410    0.013
 7037.00    0.84721   0.95434    0.014
 7038.00    0.84715   0.95415    0.014
 7039.00    0.84315   0.95447    0.014
 7040.00    0.81258   0.95314    0.014
 7041.00    0.79874   0.95106    0.014
 7042.00    0.87234   0.95005    0.014
 7043.00    0.92642   0.94743    0.014
 7044.00    0.89831   0.94399    0.014
 7045.00    0.87467   0.94137    0.014
 7046.00    0.86658   0.93785    0.014
 7047.00    0.86278   0.93420    0.014
 7048.00    0.87151   0.93070    0.014
 7049.00    0.87127   0.92713    0.014
 7050.00    0.84862   0.92402   -2.000
 7051.00    0.83248   0.92024   -2.000
 7052.00    0.83035   0.91726   -2.000
 7053.00    0.85680   0.91518   -2.000
 7054.00    0.93661   0.91215   -2.000
 7055.00    0.98949   0.91042   -2.000
 7056.00    0.99843   0.90907   -2.000
 7057.00    1.02358   0.90718   -2.000
 7058.00    1.07193   0.90696   -2.000
 7059.00    1.08661   0.90619   -2.000
 7060.00    1.05895   0.90542   -2.000
 7061.00    1.04388   0.90626   -2.000
 7062.00    1.04275   0.90607   -2.000
 7063.00    0.98649   0.90614   -2.000
 7064.00    0.87630   0.90707   -2.000
 7065.00    0.86851   0.90701   -2.000
 7066.00    0.94905   0.90750   -2.000
 7067.00    0.94137   0.90768   -2.000
 7068.00    0.86666   0.90713   -2.000
 7069.00    0.88384   0.90719   -2.000
 7070.00    0.96237   0.90621   -2.000
 7071.00    0.99088   0.90484   -2.000
 7072.00    0.99014   0.90343   -2.000
 7073.00    0.99697   0.90112   -2.000
 7074.00    1.00765   0.89917   -2.000
 7075.00    0.99161   0.89598   -2.000
 7076.00    0.96378   0.89246   -2.000
 7077.00    0.96064   0.89027   -2.000
 7078.00    0.96687   0.88633   -2.000
 7079.00    0.92715   0.88269   -2.000
 7080.00    0.87264   0.88044   -2.000
 7081.00    0.87921   0.87663   -2.000
 7082.00    0.90224   0.87409   -2.000
 7083.00    0.88518   0.87218   -2.000
 7084.00    0.85926   0.86944   -2.000
 7085.00    0.89544   0.86846   -2.000
 7086.00    0.94253   0.86718   -2.000
 7087.00    0.90042   0.86616   -2.000
 7088.00    0.84636   0.86647   -2.000
 7089.00    0.81749   0.86615   -2.000
 7090.00    0.79102   0.86660   -2.000
 7091.00    0.83720   0.86737   -2.000
 7092.00    0.88763   0.86780   -2.000
 7093.00    0.93962   0.86906   -2.000
 7094.00    0.99150   0.86992   -2.000
 7095.00    1.02252   0.87064   -2.000
 7096.00    1.05225   0.87186   -2.000
 7097.00    1.04989   0.87262   -2.000
 7098.00    1.04202   0.87342   -2.000
 7099.00    0.96088   0.87392   -2.000
 7100.00    0.87733   0.87440   -2.000
 7101.00    0.77234   0.87532   -2.000
 7102.00    0.68584   0.87539   -2.000
 7103.00    0.72015   0.87549   -2.000
 7104.00    0.75340   0.87614   -2.000
 7105.00    0.78121   0.87614   -2.000
 7106.00    0.81190   0.87605   -2.000
 7107.00    0.85443   0.87619   -2.000
 7108.00    0.89455   0.87615   -2.000
 7109.00    0.92642   0.87608   -2.000
 7110.00    0.94615   0.87525   -2.000
 7111.00    0.93102   0.87493   -2.000
 7112.00    0.89290   0.87508   -2.000
 7113.00    0.79838   0.87359   -2.000
 7114.00    0.73666   0.87259   -2.000
 7115.00    0.74435   0.87224   -2.000
 7116.00    0.77866   0.87077   -2.000
 7117.00    0.86192   0.86984   -2.000
 7118.00    0.90301   0.86853   -2.000
 7119.00    0.87634   0.86700   -2.000
 7120.00    0.82499   0.86676   -2.000
 7121.00    0.73885   0.86524   -2.000
 7122.00    0.73619   0.86430   -2.000
 7123.00    0.83706   0.86469   -2.000
 7124.00    0.85537   0.86336   -2.000
 7125.00    0.78343   0.86332   -2.000
 7126.00    0.72425   0.86419   -2.000
 7127.00    0.67735   0.86332   -2.000
 7128.00    0.71307   0.86396   -2.000
 7129.00    0.81906   0.86501   -2.000
 7130.00    0.88406   0.86457   -2.000
 7131.00    0.91837   0.86571   -2.000
 7132.00    0.90746   0.86658   -2.000
 7133.00    0.86679   0.86600   -2.000
 7134.00    0.81150   0.86739   -2.000
 7135.00    0.74777   0.86804   -2.000
 7136.00    0.73716   0.86711   -2.000
 7137.00    0.75321   0.86845   -2.000
 7138.00    0.79893   0.86907   -2.000
 7139.00    0.85754   0.86833   -2.000
 7140.00    0.86620   0.86960   -2.000
 7141.00    0.85625   0.87016   -2.000
 7142.00    0.82924   0.87006   -2.000
 7143.00    0.79685   0.87107   -2.000
 7144.00    0.78958   0.87136   -2.000
 7145.00    0.78893   0.87220   -2.000
 7146.00    0.83040   0.87310   -2.000
 7147.00    0.88095   0.87294   -2.000
 7148.00    0.90594   0.87379   -2.000
 7149.00    0.92656   0.87443   -2.000
 7150.00    0.91490   0.87428   -2.000
 7151.00    0.89907   0.87476   -2.000
 7152.00    0.87141   0.87479   -2.000
 7153.00    0.84268   0.87457   -2.000
 7154.00    0.88940   0.87473   -2.000
 7155.00    0.94024   0.87461   -2.000
 7156.00    0.86836   0.87481   -2.000
 7157.00    0.79343   0.87474   -2.000
 7158.00    0.67532   0.87432   -2.000
 7159.00    0.57161   0.87490   -2.000
 7160.00    0.79483   0.87522   -2.000
 7161.00    0.99692   0.87492   -2.000
 7162.00    0.93295   0.87556   -2.000
 7163.00    0.88556   0.87597   -2.000
 7164.00    0.97961   0.87559   -2.000
 7165.00    1.02911   0.87619   -2.000
 7166.00    0.79622   0.87643   -2.000
 7167.00    0.64573   0.87579   -2.000
 7168.00    0.90430   0.87601   -2.000
 7169.00    1.09798   0.87549   -2.000
 7170.00    1.03041   0.87471   -2.000
 7171.00    0.98340   0.87485   -2.000
 7172.00    1.00511   0.87340   -2.000
 7173.00    0.99465   0.87237   -2.000
 7174.00    0.89342   0.87233   -2.000
 7175.00    0.82229   0.87036   -2.000
 7176.00    0.82374   0.86950   -2.000
 7177.00    0.81816   0.86935   -2.000
 7178.00    0.79795   0.86752   -2.000
 7179.00    0.82279   0.86723   -2.000
 7180.00    0.92919   0.86710   -2.000
 7181.00    0.98352   0.86582   -2.000
 7182.00    0.95546   0.86595   -2.000
 7183.00    0.89408   0.86586   -2.000
 7184.00    0.78642   0.86537   -2.000
 7185.00    0.74493   0.86595   -2.000
 7186.00    0.78436   0.86599   -2.000
 7187.00    0.84662   0.86603   -2.000
 7188.00    0.93350   0.86676   -2.000
 7189.00    0.92371   0.86673   -2.000
 7190.00    0.82200   0.86698   -2.000
 7191.00    0.74017   0.86772   -2.000
 7192.00    0.67503   0.86755   -2.000
 7193.00    0.67624   0.86796   -2.000
 7194.00    0.72644   0.86857   -2.000
 7195.00    0.72051   0.86792   -2.000
 7196.00    0.67821   0.86833   -2.000
 7197.00    0.69132   0.86889   -2.000
 7198.00    0.73585   0.86837   -2.000
 7199.00    0.74897   0.86905   -2.000
 7200.00    0.74657   0.86935   -2.000
 7201.00    0.78200   0.86912   -2.000
 7202.00    0.83358   0.87032   -2.000
 7203.00    0.89688   0.87072   -2.000
 7204.00    0.96447   0.87104   -2.000
 7205.00    0.92879   0.87248   -2.000
 7206.00    0.86111   0.87311   -2.000
 7207.00    0.84029   0.87429   -2.000
 7208.00    0.83156   0.87570   -2.000
 7209.00    0.73155   0.87633   -2.000
 7210.00    0.61234   0.87806   -2.000
 7211.00    0.62333   0.87952   -2.000
 7212.00    0.65594   0.88061   -2.000
 7213.00    0.75023   0.88249   -2.000
 7214.00    0.85223   0.88372   -2.000
 7215.00    0.89164   0.88505   -2.000
 7216.00    0.92562   0.88676   -2.000
 7217.00    0.88747   0.88797   -2.000
 7218.00    0.84565   0.88952   -2.000
