###################################################################
## OUTPUT of StarlightChains_v04.for    [Cid@UFSC - 01/Apr/2007] ##
###################################################################

## Some input info
KUG0210-078._21_21.txt                   [arq_obs]
Base.CB07.vall.4m                        [arq_base]
Masks.EmLines.NEW.gm                     [arq_masks]
StCv04.C11.config                        [arq_config]
   66                                    [N_base]
    0                                    [N_YAV_components = # of components with extra extinction!]
    0                                    [i_FitPowerLaw (1/0 = Yes/No)]
-9.99                                    [alpha_PowerLaw]
CCM                                      [red_law_option]
 1.458241                                [q_norm = A(l_norm)/A(V)]

## (Re)Sampling Parameters
 3741.00                                 [l_ini (A)]
 7218.00                                 [l_fin (A)]
    1.00                                 [dl    (A)]     (OBS: dl_cushion =    50.00 A)

## Normalization info
 4020.00                                 [l_norm (A) - for base]
 4010.00                                 [llow_norm (A) - window for f_obs]
 4060.00                                 [lupp_norm (A) - window for f_obs]
1.064097E-17                             [fobs_norm (in input units)]

## S/N
 3691.00                                 [llow_SN (A) - window for S/N]
 7268.00                                 [lupp_SN (A) - window for S/N]
   2.698                                 [S/N in S/N window]
   4.732                                 [S/N in norm. window]
   0.008                                 [S/N_err in S/N window]
   0.014                                 [S/N_err in norm. window]
  1.0000                                 [fscale_chi2]

## etc...
    -2007223                             [idum_orig]
  2419                                   [NOl_eff]
  2402                                   [Nl_eff]
    17    NSIGMA                         [Ntot_cliped & clip_method]
   902300                                [Nglobal_steps]
   7                                     [N_chains]
  32                                     [NEX0s_base = N_base in EX0s-fits]
 0   0   1       17   2.0   1.824E+03    [Clip-Bug, RC-Crash & Burn-In warning-flags, n_censored_weights, wei_nsig_threshold & wei_limit]
    23     22.587     22.097      0.490  [idt_all, wdt_TotTime, wdt_UsrTime & wdt_SysTime (sec)]

## Synthesis Results - Best model ##

 2.29683E-05                             [chi2/Nl_eff]
    47.53860                             [adev (%)]

   100.03039                             [sum-of-x (%)]
 8.50895E-18                             [Flux_tot (units of input spectrum!)]
 3.31290E-14                             [Mini_tot (???)]
 1.77906E-14                             [Mcor_tot (???)]

 160.04                                  [v0_min  (km/s)]
   0.03                                  [vd_min  (km/s)]
-0.1667                                  [AV_min  (mag)]
 0.0000                                  [YAV_min (mag)]

# j     x_j(%)      Mini_j(%)     Mcor_j(%)     age_j(yr)     Z_j      (L/M)_j    YAV?  Mstars   component_j        a/Fe...       SSP_chi2r SSP_adev(%)   SSP_AV   SSP_x(%)
  1      0.0000     0.0000E+00    0.0000E+00    1.000000E+06  0.00400  1.094E-02    0   1.0000   age020_m42            0.0000     2.7559E-05    64.1521   1.3031    95.7959
  2      0.0000     0.0000E+00    0.0000E+00    3.160000E+06  0.00400  4.007E-02    0   0.9999   age045_m42            0.0000     2.4372E-05    56.7551   0.6267    98.5895
  3      0.0000     0.0000E+00    0.0000E+00    5.010000E+06  0.00400  2.539E-02    0   0.9488   age055_m42            0.0000     2.5928E-05    59.4118   0.9336    97.6484
  4      0.0000     0.0000E+00    0.0000E+00    6.610000E+06  0.00400  2.620E-02    0   0.9220   age061_m42            0.0000     2.4544E-05    55.7793   0.5631    98.5785
  5      1.0871     2.1113E-02    3.4842E-02    1.000000E+07  0.00400  1.322E-02    0   0.8862   age070_m42            0.0000     2.4397E-05    54.7875   0.4019    98.4017
  6      0.0000     0.0000E+00    0.0000E+00    1.445000E+07  0.00400  7.883E-03    0   0.8571   age078_m42            0.0000     2.5625E-05    57.1009   0.6888    97.5898
  7      0.0000     0.0000E+00    0.0000E+00    2.512000E+07  0.00400  5.251E-03    0   0.8174   age090_m42            0.0000     2.4490E-05    54.2158   0.2901    98.5537
  8      1.6974     1.1944E-01    1.7461E-01    4.000000E+07  0.00400  3.649E-03    0   0.7851   age104_m42            0.0000     2.4199E-05    53.4477  -0.0001    99.0377
  9      2.8095     2.3285E-01    3.3080E-01    5.500000E+07  0.00400  3.098E-03    0   0.7629   age110_m42            0.0000     2.3776E-05    52.2323   0.1730    99.1757
 10      0.0000     0.0000E+00    0.0000E+00    1.015200E+08  0.00400  2.228E-03    0   0.7207   age116_m42            0.0000     2.3386E-05    51.1671   0.1721    99.4812
 11     23.0665     5.4187E+00    6.7082E+00    2.861200E+08  0.00400  1.093E-03    0   0.6648   age125_m42            0.0000     2.2746E-05    48.9363  -0.3430   100.5808
 12      0.0000     0.0000E+00    0.0000E+00    5.088000E+08  0.00400  6.597E-04    0   0.6365   age130_m42            0.0000     2.2806E-05    47.7713  -0.3901   101.5386
 13      0.0000     0.0000E+00    0.0000E+00    1.434000E+09  0.00400  2.132E-04    0   0.5798   age139_m42            0.0000     2.4625E-05    46.2154  -1.0000   100.9733
 14      0.0000     0.0000E+00    0.0000E+00    4.250000E+09  0.00400  5.895E-05    0   0.5377   age158_m42            0.0000     3.1253E-05    57.6730  -1.0000    97.7239
 15      0.0000     0.0000E+00    0.0000E+00    7.500000E+09  0.00400  3.510E-05    0   0.5212   age171_m42            0.0000     3.5495E-05    63.4292  -1.0000    95.9780
 16      0.0000     0.0000E+00    0.0000E+00    1.300000E+10  0.00400  2.005E-05    0   0.5034   age193_m42            0.0000     4.0141E-05    69.7127  -1.0000    94.3193
 17      0.0000     0.0000E+00    0.0000E+00    1.800000E+10  0.00400  1.525E-05    0   0.4967   age213_m42            0.0000     4.0998E-05    71.2949  -1.0000    94.0036
 18      2.6910     5.5813E-02    1.0393E-01    1.000000E+06  0.00800  1.238E-02    0   1.0000   age020_m52            0.0000     2.7502E-05    64.0116   1.3054    95.8348
 19      0.0000     0.0000E+00    0.0000E+00    3.160000E+06  0.00800  3.074E-02    0   0.9966   age045_m52            0.0000     2.7417E-05    62.9874   1.2314    96.3440
 20      0.2292     2.2054E-03    3.8781E-03    5.010000E+06  0.00800  2.668E-02    0   0.9443   age055_m52            0.0000     2.6535E-05    60.0568   1.0159    97.1145
 21      0.0000     0.0000E+00    0.0000E+00    6.610000E+06  0.00800  2.136E-02    0   0.9177   age061_m52            0.0000     2.5168E-05    55.6382  -0.0930    99.2141
 22      0.1334     2.8189E-03    4.6335E-03    1.000000E+07  0.00800  1.215E-02    0   0.8827   age070_m52            0.0000     2.5061E-05    55.4605   0.6043    98.0619
 23      0.1076     3.1680E-03    5.0451E-03    1.445000E+07  0.00800  8.717E-03    0   0.8552   age078_m52            0.0000     2.5286E-05    56.0744   0.6718    98.0934
 24      0.0000     0.0000E+00    0.0000E+00    2.512000E+07  0.00800  5.592E-03    0   0.8162   age090_m52            0.0000     2.4433E-05    53.4095   0.3729    98.9702
 25      0.0000     0.0000E+00    0.0000E+00    4.000000E+07  0.00800  3.896E-03    0   0.7841   age104_m52            0.0000     2.4239E-05    52.3005   0.2704    99.5015
 26      1.1675     1.3956E-01    1.8780E-01    1.015200E+08  0.00800  2.148E-03    0   0.7226   age116_m52            0.0000     2.3924E-05    51.1438   0.1604    99.9055
 27      0.0000     0.0000E+00    0.0000E+00    2.861200E+08  0.00800  9.925E-04    0   0.6683   age125_m52            0.0000     2.2803E-05    46.8018  -0.2886   101.2972
 28      0.0000     0.0000E+00    0.0000E+00    9.047900E+08  0.00800  3.141E-04    0   0.6138   age135_m52            0.0000     2.5177E-05    45.1208  -1.0000   103.9137
 29      0.0000     0.0000E+00    0.0000E+00    1.434000E+09  0.00800  1.719E-04    0   0.5853   age139_m52            0.0000     2.8966E-05    50.6091  -1.0000   100.2180
 30      0.0000     0.0000E+00    0.0000E+00    2.500000E+09  0.00800  7.872E-05    0   0.5600   age150_m52            0.0000     3.4797E-05    60.1621  -1.0000    97.5527
 31      0.0000     0.0000E+00    0.0000E+00    4.250000E+09  0.00800  4.336E-05    0   0.5426   age158_m52            0.0000     3.6483E-05    62.3981  -1.0000    97.4308
 32      0.0000     0.0000E+00    0.0000E+00    6.250000E+09  0.00800  3.159E-05    0   0.5319   age166_m52            0.0000     4.2524E-05    69.3778  -1.0000    95.9601
 33      0.0000     0.0000E+00    0.0000E+00    1.300000E+10  0.00800  1.361E-05    0   0.5073   age193_m52            0.0000     5.8362E-05    85.7722  -1.0000    89.3782
 34      0.0000     0.0000E+00    0.0000E+00    1.800000E+10  0.00800  9.886E-06    0   0.4990   age213_m52            0.0000     6.4920E-05    90.0587  -1.0000    87.7193
 35      0.0000     0.0000E+00    0.0000E+00    1.000000E+06  0.02000  1.544E-02    0   1.0000   age020_m62            0.0000     2.7455E-05    63.9065   1.3054    95.8723
 36      0.1750     1.1946E-03    2.1929E-03    3.160000E+06  0.02000  3.762E-02    0   0.9858   age045_m62            0.0000     2.7621E-05    63.1241   1.2542    96.3085
 37      3.4483     2.6863E-02    4.6732E-02    5.010000E+06  0.02000  3.296E-02    0   0.9342   age055_m62            0.0000     2.5268E-05    57.5657   0.9022    97.9673
 38      0.0000     0.0000E+00    0.0000E+00    8.710000E+06  0.02000  1.154E-02    0   0.8861   age067_m62            0.0000     2.5705E-05    55.7545   0.2448    97.6822
 39      0.0000     0.0000E+00    0.0000E+00    1.445000E+07  0.02000  7.663E-03    0   0.8472   age078_m62            0.0000     2.5193E-05    54.8947   0.3244    98.5390
 40      0.0000     0.0000E+00    0.0000E+00    2.512000E+07  0.02000  4.532E-03    0   0.8099   age090_m62            0.0000     2.5134E-05    54.2191   0.3186    98.3429
 41      0.0000     0.0000E+00    0.0000E+00    5.500000E+07  0.02000  2.733E-03    0   0.7595   age110_m62            0.0000     2.4278E-05    52.5700   0.2503    99.0920
 42     12.2810     2.3034E+00    2.9961E+00    1.609000E+08  0.02000  1.369E-03    0   0.6985   age120_m62            0.0000     2.3041E-05    48.9568  -0.0000   100.5996
 43      9.0857     2.5884E+00    3.2361E+00    2.861200E+08  0.02000  9.013E-04    0   0.6714   age125_m62            0.0000     2.2912E-05    45.7159  -0.1629   101.7067
 44      5.9859     3.0568E+00    3.6709E+00    5.088000E+08  0.02000  5.028E-04    0   0.6449   age130_m62            0.0000     2.4418E-05    44.5067  -0.5690   103.6270
 45      0.1867     1.9744E-01    2.2718E-01    9.047900E+08  0.02000  2.428E-04    0   0.6179   age135_m62            0.0000     2.6585E-05    45.7716  -1.0000   103.4683
 46      0.0000     0.0000E+00    0.0000E+00    1.434000E+09  0.02000  1.263E-04    0   0.5908   age139_m62            0.0000     3.0231E-05    50.3397  -1.0000   101.1271
 47      0.0000     0.0000E+00    0.0000E+00    2.500000E+09  0.02000  5.985E-05    0   0.5673   age150_m62            0.0000     3.6671E-05    59.9941  -1.0000    98.0829
 48      0.0000     0.0000E+00    0.0000E+00    4.250000E+09  0.02000  3.271E-05    0   0.5468   age158_m62            0.0000     4.6110E-05    70.5838  -1.0000    95.0890
 49      0.0000     0.0000E+00    0.0000E+00    1.000000E+10  0.02000  1.360E-05    0   0.5167   age181_m62            0.0000     6.0249E-05    82.9029  -1.0000    90.3968
 50      0.0000     0.0000E+00    0.0000E+00    1.800000E+10  0.02000  7.124E-06    0   0.5013   age213_m62            0.0000     7.1145E-05    90.4673  -1.0000    86.6854
 51      0.0000     0.0000E+00    0.0000E+00    1.000000E+06  0.05000  2.592E-02    0   0.9998   age020_m72            0.0000     2.7671E-05    64.1703   1.3040    95.9191
 52      0.0000     0.0000E+00    0.0000E+00    3.160000E+06  0.05000  4.845E-02    0   0.9577   age045_m72            0.0000     2.6980E-05    60.8756   1.1346    96.9345
 53      0.0445     3.7171E-04    6.3313E-04    5.010000E+06  0.05000  3.072E-02    0   0.9147   age055_m72            0.0000     2.6208E-05    57.9001   0.8121    97.4950
 54      0.0000     0.0000E+00    0.0000E+00    6.610000E+06  0.05000  1.455E-02    0   0.8877   age061_m72            0.0000     2.6060E-05    55.9981   0.3489    97.2470
 55      0.0000     0.0000E+00    0.0000E+00    1.000000E+07  0.05000  9.074E-03    0   0.8524   age070_m72            0.0000     2.6286E-05    58.3802   0.9815    97.3875
 56      0.0000     0.0000E+00    0.0000E+00    2.512000E+07  0.05000  4.250E-03    0   0.7902   age090_m72            0.0000     2.5158E-05    54.8815   0.7006    98.1232
 57      0.1037     8.6238E-03    1.2234E-02    4.000000E+07  0.05000  3.087E-03    0   0.7618   age104_m72            0.0000     2.4410E-05    52.9083   0.5061    98.5694
 58     10.9073     1.6474E+00    2.1769E+00    1.015200E+08  0.05000  1.700E-03    0   0.7096   age116_m72            0.0000     2.2884E-05    48.9203   0.2351   100.0639
 59     23.4832     8.1658E+00    1.0086E+01    2.861200E+08  0.05000  7.384E-04    0   0.6633   age125_m72            0.0000     2.3337E-05    45.1404  -0.3246   103.2046
 60      0.0000     0.0000E+00    0.0000E+00    5.088000E+08  0.05000  3.819E-04    0   0.6372   age130_m72            0.0000     2.5715E-05    45.6456  -0.8603   105.0589
 61      0.0000     0.0000E+00    0.0000E+00    9.047900E+08  0.05000  1.676E-04    0   0.6110   age135_m72            0.0000     3.1281E-05    49.3995  -1.0000   102.7654
 62      0.0000     0.0000E+00    0.0000E+00    1.434000E+09  0.05000  8.837E-05    0   0.5874   age139_m72            0.0000     3.8263E-05    59.3449  -1.0000    99.3926
 63      0.0000     0.0000E+00    0.0000E+00    2.500000E+09  0.05000  4.233E-05    0   0.5598   age150_m72            0.0000     4.7379E-05    70.5129  -1.0000    95.8169
 64      0.0000     0.0000E+00    0.0000E+00    6.250000E+09  0.05000  1.435E-05    0   0.5249   age166_m72            0.0000     6.5054E-05    87.2503  -1.0000    88.9170
 65      0.0000     0.0000E+00    0.0000E+00    1.300000E+10  0.05000  6.513E-06    0   0.5036   age193_m72            0.0000     8.1475E-05    96.7305  -1.0000    85.0549
 66      1.3401     7.6008E+01    6.9991E+01    1.800000E+10  0.05000  4.527E-06    0   0.4945   age213_m72            0.0000     9.1425E-05   101.8774  -1.0000    81.8179


## Synthesis Results - Average & Chains ##

# j      x_j: min, <> & last-chain-values for 1 ...  7 chains
  1      0.0000      1.1803      0.2379      0.9648      6.9278      0.8622      0.3450      0.0000      0.5739
  2      0.0000      1.4861      0.2221      0.7503      2.3035      0.3528      0.0000      0.8462      0.3203
  3      0.0000      1.2003      0.6586      0.4238      3.2237      0.0000      0.0000      3.5135      0.2890
  4      0.0000      1.6319      3.0795      0.0000      0.0447      0.3218      3.0493      0.0000      0.5466
  5      1.0871      1.2944      0.0000      0.7531      1.2607      0.0000      2.3820      0.8429      0.0000
  6      0.0000      1.9376      0.9090      0.4656      0.0000      0.1536      0.5970      0.4164      0.0000
  7      0.0000      1.2945      0.8524      0.4494      2.3829      0.8199      0.0000      0.7375      0.0000
  8      1.6974      1.5075      1.3680      0.2416      0.0000      0.0114     10.7968      0.2684      1.0556
  9      2.8095      1.1292      0.0000      0.2953      0.3038      0.0000      1.3331      1.1121      0.0000
 10      0.0000      1.1819      0.0000      0.7152      3.4404      0.5163      0.0000      0.0000      0.0000
 11     23.0665      1.3505      0.0674      0.0000      1.8132      0.2856      1.8032      0.0000      0.5284
 12      0.0000      1.1033      0.0000      0.4899      1.4245      1.2792      0.1074      0.6673      1.3084
 13      0.0000      1.8365      1.4499      0.0000      0.9335      0.0467      0.0000      3.3462      0.0000
 14      0.0000      1.1423      0.0323      0.5428      2.3184      0.4424      0.0623      0.0000      0.7657
 15      0.0000      1.5647      0.0000      0.0000      2.0897      0.2518      0.0000      0.8273      0.2502
 16      0.0000      1.3326      0.0000      0.2292      0.8259      0.3205      0.0000      0.2211      0.7075
 17      0.0000      1.5107      0.0000      0.0000      0.0000      0.0127      3.2368      1.2192      0.0002
 18      2.6910      1.6798      0.1075      0.4660      2.2929      0.4283      0.5956      0.0000      2.7646
 19      0.0000      1.2438      0.7142      0.0000      8.9759      0.1405      5.5198      0.3940      0.0000
 20      0.2292      1.4193      0.0000      2.3709      5.5482      0.3833      2.8301      0.0000      0.3741
 21      0.0000      1.1971      1.1566      0.5865      1.4913      0.0414      0.0999      2.1322      0.1893
 22      0.1334      1.2903      0.0000      0.0000      0.2092      0.0000      2.8355      0.0000      0.0000
 23      0.1076      1.5882      2.4350      0.0000      0.7679      0.0000      2.2952      0.0000      0.4875
 24      0.0000      1.3533      2.8220      0.0000      2.8163      1.9012      4.4246      0.0000      0.5880
 25      0.0000      1.8452      0.3273      0.3339      2.7588      0.1922      0.1962      1.0666      0.0000
 26      1.1675      1.3778      1.3365      0.0000      0.5507      0.2824      1.3781      1.5764      0.0000
 27      0.0000      1.5158      1.4303      2.4096      0.1381      0.5820      0.0000      0.0000      1.4592
 28      0.0000      1.5824      0.0000      0.0000      1.6702      0.8390      0.0000      4.3110      0.5949
 29      0.0000      1.4569      0.0000      0.1967      0.4871      0.0433      0.2358      0.0000      0.0000
 30      0.0000      1.0792      0.6541      0.2962      1.6684      0.0000      0.0000      0.0000      0.3007
 31      0.0000      1.3231      0.0000      0.0000      0.9501      0.1358      0.0000      1.6313      0.4108
 32      0.0000      1.1716      0.6733      0.3143      0.0000      0.0000      0.0000      0.0000      0.3477
 33      0.0000      1.4475      0.0000      0.8261      1.4437      0.3778      1.5368      1.9141      0.0000
 34      0.0000      1.2479      0.0000      0.2460      0.0000      0.0697      0.0564      0.0000      0.6530
 35      0.0000      0.8385      0.0000      0.8049      2.4809      0.4090      0.1819      0.0000      0.0000
 36      0.1750      1.4394      0.6233      0.1705      0.6581      0.4034      1.5735      2.5752      0.0174
 37      3.4483      1.6491      0.0000      0.1192      1.8185      0.1641      0.4319      1.9939      1.2917
 38      0.0000      1.7920      0.0098      0.2610      1.6245      0.0000      7.5470      2.4896      0.5207
 39      0.0000      1.2328      0.0000      0.8475      0.6736      0.0589      0.0000      0.1179      0.3459
 40      0.0000      3.6447      9.3346     11.6343      1.2133     12.4211      4.2492      8.0064     11.3098
 41      0.0000      1.4280      0.2775      0.2098      1.1540      0.7153      0.0128      2.7869      1.0179
 42     12.2810      1.4759      2.5516      1.1720      1.2078      0.2940      1.1335      2.3379      0.8298
 43      9.0857      1.3871      0.8652      1.6552      0.6477      0.5701      5.9291      2.0634      0.7151
 44      5.9859      1.1888      0.0000      0.9314      1.0938      0.8853      1.9025      0.0000      0.0521
 45      0.1867      1.1688      2.6183      0.3998      0.3878      0.0625      0.6893      0.6361      1.8008
 46      0.0000      1.1909      0.3710      1.1621      0.0000      0.3703      0.2511      0.0000      1.0280
 47      0.0000      1.0324      0.0000      0.5444      4.0493      0.1639      0.0000      0.2633      0.2807
 48      0.0000      1.3878      1.2493      0.0000      1.5525      0.1597      0.0000      1.9905      0.2626
 49      0.0000      1.7430      0.0000      0.0000      0.8985      0.0000      2.1012      0.0103      0.2578
 50      0.0000      1.1328      0.3609      0.8533      1.2235      0.9941      0.0000      0.2703      0.0000
 51      0.0000      1.5793      1.4199      0.6960      1.7057      0.0000      2.7318      0.5787      0.0000
 52      0.0000      1.5267      2.6595      0.5111      1.0245      0.2088      0.5596      2.1289      0.6182
 53      0.0445      1.2472      0.0000      0.0547      3.6947      0.4054      6.9256      0.7568      0.2915
 54      0.0000      1.5304      0.1630      0.6744      0.0000      0.1937      0.0000      0.1485      0.0898
 55      0.0000     12.7261     48.4794     56.3929      0.0000     65.6799      1.8816     37.9526     57.6326
 56      0.0000      3.3429      9.9542     11.3811      2.4524     11.1830      0.0000      6.7535     11.2609
 57      0.1037      1.5417      1.4895      0.0131      3.3441      0.0222      2.4497      2.3024      0.0766
 58     10.9073      1.1925      1.6080      0.0000      0.9709      0.3668      0.9607      0.3869      0.8407
 59     23.4832      2.4652      0.3993      0.2799      6.2489      0.3408      9.6691      0.1202      0.0000
 60      0.0000      1.4396      0.1562      0.1842      0.0000      0.0000      0.1233      0.0000      0.0000
 61      0.0000      1.3629      0.0000      1.9860      2.3177      0.0303      0.0000      0.0000      0.0194
 62      0.0000      1.6791      3.1184      0.1938      1.6268      0.0945      0.0000      0.6025      1.7156
 63      0.0000      1.2540      0.0000      0.0000      0.0000      0.8843      0.0000      0.2643      0.0000
 64      0.0000      1.2819      0.0000      0.8512      0.0000      0.0000      0.0000      0.2995      1.4472
 65      0.0000      1.1523      0.0557      0.0000      0.1601      0.0124      0.0000      0.1050      0.2086
 66      1.3401      0.9492      0.0587      0.2245      0.0557      0.0068      1.0574      0.0000      0.0000

# j      m_j: min, <> & last-chain-values for 1 ...  7 chains
  1  0.0000E+00  1.4037E-02  1.7946E-02  4.1177E-02  1.5863E-01  5.5014E-02  8.0745E-03  0.0000E+00  2.6612E-02
  2  0.0000E+00  4.8248E-03  4.5733E-03  8.7414E-03  1.4399E-02  6.1459E-03  0.0000E+00  8.0166E-03  4.0546E-03
  3  0.0000E+00  5.8357E-03  2.0308E-02  7.3936E-03  3.0177E-02  0.0000E+00  0.0000E+00  4.9844E-02  5.4791E-03
  4  0.0000E+00  7.4714E-03  8.9427E-02  0.0000E+00  3.9367E-04  7.9042E-03  2.7475E-02  0.0000E+00  9.7594E-03
  5  3.4842E-02  1.1289E-02  0.0000E+00  2.3571E-02  2.1170E-02  0.0000E+00  4.0884E-02  2.1450E-02  0.0000E+00
  6  0.0000E+00  2.7409E-02  8.1553E-02  2.3636E-02  0.0000E+00  1.1659E-02  1.6620E-02  1.7189E-02  0.0000E+00
  7  0.0000E+00  2.6217E-02  1.0950E-01  3.2660E-02  9.2921E-02  8.9093E-02  0.0000E+00  4.3582E-02  0.0000E+00
  8  1.7461E-01  4.2198E-02  2.4288E-01  2.4265E-02  0.0000E+00  1.7128E-03  5.9479E-01  2.1926E-02  1.1523E-01
  9  3.3080E-01  3.6180E-02  0.0000E+00  3.3952E-02  1.8744E-02  0.0000E+00  8.4057E-02  1.0396E-01  0.0000E+00
 10  0.0000E+00  4.9740E-02  0.0000E+00  1.0801E-01  2.7878E-01  1.1658E-01  0.0000E+00  0.0000E+00  0.0000E+00
 11  6.7082E+00  1.0687E-01  3.3806E-02  0.0000E+00  2.7626E-01  1.2128E-01  2.8083E-01  0.0000E+00  1.6307E-01
 12  0.0000E+00  1.3849E-01  0.0000E+00  2.2067E-01  3.4430E-01  8.6156E-01  2.6537E-02  2.4441E-01  6.4047E-01
 13  0.0000E+00  6.4978E-01  3.2536E+00  0.0000E+00  6.3597E-01  8.8566E-02  0.0000E+00  3.4546E+00  0.0000E+00
 14  0.0000E+00  1.3556E+00  2.4310E-01  2.3114E+00  5.2973E+00  2.8166E+00  1.4546E-01  0.0000E+00  3.5435E+00
 15  0.0000E+00  3.0229E+00  0.0000E+00  0.0000E+00  7.7730E+00  2.6102E+00  0.0000E+00  4.6633E+00  1.8846E+00
 16  0.0000E+00  4.3530E+00  0.0000E+00  2.6870E+00  5.1946E+00  5.6165E+00  0.0000E+00  2.1077E+00  9.0117E+00
 17  0.0000E+00  6.4017E+00  0.0000E+00  0.0000E+00  0.0000E+00  2.8830E-01  2.6994E+01  1.5075E+01  3.6396E-03
 18  1.0393E-01  1.7653E-02  7.1677E-03  1.7574E-02  4.6395E-02  2.4151E-02  1.2319E-02  0.0000E+00  1.1330E-01
 19  0.0000E+00  5.2464E-03  1.9108E-02  0.0000E+00  7.2897E-02  3.1805E-03  4.5820E-02  4.8494E-03  0.0000E+00
 20  3.8781E-03  6.5354E-03  0.0000E+00  3.9180E-02  4.9191E-02  9.4696E-03  2.5647E-02  0.0000E+00  6.7171E-03
 21  0.0000E+00  6.6915E-03  4.1003E-02  1.1766E-02  1.6050E-02  1.2426E-03  1.0987E-03  3.4777E-02  4.1262E-03
 22  4.6335E-03  1.2196E-02  0.0000E+00  0.0000E+00  3.8069E-03  0.0000E+00  5.2745E-02  0.0000E+00  0.0000E+00
 23  5.0451E-03  2.0272E-02  1.9713E-01  0.0000E+00  1.8872E-02  0.0000E+00  5.7654E-02  0.0000E+00  2.4266E-02
 24  0.0000E+00  2.5698E-02  3.3989E-01  0.0000E+00  1.0297E-01  1.9371E-01  1.6536E-01  0.0000E+00  4.3541E-02
 25  0.0000E+00  4.8315E-02  5.4351E-02  3.1379E-02  1.3909E-01  2.7005E-02  1.0108E-02  8.1495E-02  0.0000E+00
 26  1.8780E-01  6.0305E-02  3.7100E-01  0.0000E+00  4.6407E-02  6.6315E-02  1.1871E-01  2.0133E-01  0.0000E+00
 27  0.0000E+00  1.3279E-01  7.9474E-01  7.5755E-01  2.3292E-02  2.7357E-01  0.0000E+00  0.0000E+00  4.9850E-01
 28  0.0000E+00  4.0231E-01  0.0000E+00  0.0000E+00  8.1761E-01  1.1446E+00  0.0000E+00  3.1981E+00  5.8978E-01
 29  0.0000E+00  6.4540E-01  0.0000E+00  3.1266E-01  4.1550E-01  1.0300E-01  2.0560E-01  0.0000E+00  0.0000E+00
 30  0.0000E+00  9.9886E-01  3.8395E+00  9.8372E-01  2.9732E+00  0.0000E+00  0.0000E+00  0.0000E+00  1.0852E+00
 31  0.0000E+00  2.1541E+00  0.0000E+00  0.0000E+00  2.9782E+00  1.1864E+00  0.0000E+00  7.7499E+00  2.6084E+00
 32  0.0000E+00  2.5666E+00  9.3551E+00  2.4709E+00  0.0000E+00  0.0000E+00  0.0000E+00  0.0000E+00  2.9702E+00
 33  0.0000E+00  7.0194E+00  0.0000E+00  1.4377E+01  1.3481E+01  9.8309E+00  1.4667E+01  2.7086E+01  0.0000E+00
 34  0.0000E+00  8.1951E+00  0.0000E+00  5.7978E+00  0.0000E+00  2.4560E+00  7.2939E-01  0.0000E+00  1.6721E+01
 35  0.0000E+00  7.0657E-03  0.0000E+00  2.4339E-02  4.0250E-02  1.8493E-02  3.0160E-03  0.0000E+00  0.0000E+00
 36  2.1929E-03  4.9072E-03  1.3477E-02  2.0856E-03  4.3201E-03  7.3789E-03  1.0557E-02  2.5618E-02  2.3100E-04
 37  4.6732E-02  6.0812E-03  0.0000E+00  1.5776E-03  1.2911E-02  3.2472E-03  3.1344E-03  2.1454E-02  1.8575E-02
 38  0.0000E+00  1.7902E-02  6.2144E-04  9.3555E-03  3.1248E-02  0.0000E+00  1.4838E-01  7.2572E-02  2.0286E-02
 39  0.0000E+00  1.7733E-02  0.0000E+00  4.3746E-02  1.8656E-02  4.5479E-03  0.0000E+00  4.9486E-03  1.9400E-02
 40  0.0000E+00  8.4742E-02  1.3765E+00  9.7074E-01  5.4314E-02  1.5495E+00  1.9443E-01  5.4318E-01  1.0254E+00
 41  0.0000E+00  5.1631E-02  6.3627E-02  2.7215E-02  8.0339E-02  1.3877E-01  9.0935E-04  2.9402E-01  1.4351E-01
 42  2.9961E+00  9.7973E-02  1.0743E+00  2.7920E-01  1.5438E-01  1.0470E-01  1.4808E-01  4.5284E-01  2.1479E-01
 43  3.2361E+00  1.3443E-01  5.3183E-01  5.7569E-01  1.2086E-01  2.9647E-01  1.1309E+00  5.8351E-01  2.7026E-01
 44  3.6709E+00  1.9837E-01  0.0000E+00  5.5774E-01  3.5144E-01  7.9266E-01  6.2478E-01  0.0000E+00  3.3924E-02
 45  2.2718E-01  3.8700E-01  5.4984E+00  4.7508E-01  2.4719E-01  1.1111E-01  4.4917E-01  6.1454E-01  2.3251E+00
 46  0.0000E+00  7.2476E-01  1.4320E+00  2.5380E+00  0.0000E+00  1.2093E+00  3.0070E-01  0.0000E+00  2.4396E+00
 47  0.0000E+00  1.2732E+00  0.0000E+00  2.4094E+00  9.6148E+00  1.0846E+00  0.0000E+00  9.4729E-01  1.3500E+00
 48  0.0000E+00  3.0183E+00  1.7233E+01  0.0000E+00  6.5011E+00  1.8635E+00  0.0000E+00  1.2632E+01  2.2269E+00
 49  0.0000E+00  8.6154E+00  0.0000E+00  0.0000E+00  8.5512E+00  0.0000E+00  2.0440E+01  1.4857E-01  4.9691E+00
 50  0.0000E+00  1.0371E+01  2.0957E+01  2.8034E+01  2.1567E+01  4.8834E+01  0.0000E+00  7.2216E+00  0.0000E+00
 51  0.0000E+00  7.9255E-03  4.5196E-02  1.2535E-02  1.6481E-02  0.0000E+00  2.6980E-02  8.4747E-03  0.0000E+00
 52  0.0000E+00  3.9262E-03  4.3379E-02  4.7169E-03  5.0732E-03  2.8813E-03  2.8323E-03  1.5976E-02  6.2000E-03
 53  6.3313E-04  4.8317E-03  0.0000E+00  7.6012E-04  2.7558E-02  8.4260E-03  5.2800E-02  8.5542E-03  4.4032E-03
 54  0.0000E+00  1.2148E-02  8.2061E-03  1.9210E-02  0.0000E+00  8.2476E-03  0.0000E+00  3.4401E-03  2.7793E-03
 55  0.0000E+00  1.5554E-01  3.7580E+00  2.4734E+00  0.0000E+00  4.3070E+00  4.5256E-02  1.3535E+00  2.7467E+00
 56  0.0000E+00  8.0864E-02  1.5272E+00  9.8799E-01  1.1422E-01  1.4515E+00  0.0000E+00  4.7670E-01  1.0622E+00
 57  1.2234E-02  4.9500E-02  3.0333E-01  1.5083E-03  2.0673E-01  3.8294E-03  1.5478E-01  2.1570E-01  9.5903E-03
 58  2.1769E+00  6.4761E-02  5.5386E-01  0.0000E+00  1.0152E-01  1.0687E-01  1.0268E-01  6.1307E-02  1.7804E-01
 59  1.0086E+01  2.8811E-01  2.9595E-01  1.1741E-01  1.4062E+00  2.1371E-01  2.2239E+00  4.0992E-02  0.0000E+00
 60  0.0000E+00  3.1249E-01  2.1511E-01  1.4352E-01  0.0000E+00  0.0000E+00  5.2686E-02  0.0000E+00  0.0000E+00
 61  0.0000E+00  6.4641E-01  0.0000E+00  3.3804E+00  2.1166E+00  7.7136E-02  0.0000E+00  0.0000E+00  3.5910E-02
 62  0.0000E+00  1.4521E+00  1.7104E+01  6.0147E-01  2.7088E+00  4.3859E-01  0.0000E+00  1.5202E+00  5.7857E+00
 63  0.0000E+00  2.1576E+00  0.0000E+00  0.0000E+00  0.0000E+00  8.1639E+00  0.0000E+00  1.3269E+00  0.0000E+00
 64  0.0000E+00  6.1004E+00  0.0000E+00  1.4538E+01  0.0000E+00  0.0000E+00  0.0000E+00  4.1582E+00  2.6856E+01
 65  0.0000E+00  1.1593E+01  3.5569E+00  0.0000E+00  3.1018E+00  6.6802E-01  0.0000E+00  3.0809E+00  8.1817E+00
 66  6.9991E+01  1.3490E+01  5.2915E+00  1.1449E+01  1.5247E+00  5.2068E-01  2.9575E+01  0.0000E+00  0.0000E+00

# AV, chi2 & Mass for <> & i_chain = 1 ...  7 solutions
AV      -0.1667      0.3756      0.2896      0.2484     -0.0067      0.3554      0.0841      0.1890      0.2152
chi2 2.2968E-05  4.1001E-05  2.9319E-05  2.9676E-05  2.7090E-05  2.9751E-05  2.4303E-05  2.6877E-05  2.9580E-05
Mass 1.7791E-14  1.3544E-13  1.9027E-14  3.1818E-14  4.2095E-14  2.4567E-14  4.6526E-14  3.6128E-14  2.8003E-14
 160.04                                  [v0_min (km/s) before EX0s...]
   0.03                                  [vd_min (km/s) before EX0s...]


## Synthetic spectrum (Best Model) ##l_obs f_obs f_syn wei
 3478    [Nl_obs]
 3741.00   -0.06443   0.62419    0.000
 3742.00    0.02979   0.67224    0.000
 3743.00   -0.04749   0.69297    0.000
 3744.00   -0.16577   0.68580    0.000
 3745.00   -0.30792   0.66760    0.000
 3746.00   -0.16217   0.65007    0.000
 3747.00    0.12978   0.61691    0.030
 3748.00   -0.02573   0.57194    0.000
 3749.00   -0.37799   0.52676    0.000
 3750.00    0.00238   0.46085    0.034
 3751.00    0.65933   0.39062    0.032
 3752.00    0.35114   0.36771    0.031
 3753.00   -0.26638   0.40916    0.000
 3754.00   -0.30538   0.47790    0.000
 3755.00   -0.18935   0.54231    0.000
 3756.00   -0.05767   0.60466    0.000
 3757.00    0.07745   0.65652    0.028
 3758.00   -0.08202   0.69216    0.000
 3759.00   -0.29292   0.69916    0.000
 3760.00   -0.14784   0.69064    0.000
 3761.00    0.04452   0.69851    0.050
 3762.00    0.01522   0.71648    0.036
 3763.00   -0.03492   0.72665    0.000
 3764.00    0.30368   0.73382    0.027
 3765.00    0.66470   0.72673    0.027
 3766.00    0.93360   0.70075    0.029
 3767.00    1.19753   0.67497    0.033
 3768.00    1.12528   0.62971    0.032
 3769.00    1.04204   0.56944    0.031
 3770.00    0.69185   0.51613    0.028
 3771.00    0.36315   0.45946    0.025
 3772.00    0.31609   0.40157    0.025
 3773.00    0.29813   0.39104    0.024
 3774.00    0.53561   0.44377    0.025
 3775.00    0.74568   0.51889    0.025
 3776.00    0.77802   0.58342    0.025
 3777.00    0.76095   0.63275    0.026
 3778.00    0.49380   0.67657    0.025
 3779.00    0.23799   0.72508    0.024
 3780.00    0.02865   0.76542    0.025
 3781.00   -0.10376   0.80047    0.000
 3782.00    0.02471   0.83098    0.026
 3783.00    0.19024   0.84911    0.026
 3784.00    0.46177   0.85861    0.027
 3785.00    0.55926   0.86634    0.027
 3786.00    0.23153   0.87578    0.027
 3787.00    0.04940   0.87015    0.027
 3788.00    0.17414   0.84208    0.027
 3789.00    0.28822   0.81572    0.027
 3790.00    0.38274   0.79514    0.027
 3791.00    0.46020   0.77690    0.026
 3792.00    0.51034   0.75560    0.026
 3793.00    0.53551   0.72994    0.026
 3794.00    0.52562   0.69708    0.026
 3795.00    0.80187   0.64721    0.026
 3796.00    1.43178   0.57975    0.026
 3797.00    1.51091   0.51409    0.026
 3798.00    0.98998   0.45379    0.026
 3799.00    0.59414   0.39293    0.025
 3800.00    0.31851   0.36247    0.025
 3801.00    0.27408   0.39149    0.025
 3802.00    0.42556   0.46637    0.026
 3803.00    0.57788   0.54318    0.026
 3804.00    0.73084   0.60664    0.027
 3805.00    0.88325   0.66899    0.026
 3806.00    1.03529   0.71769    0.026
 3807.00    0.90107   0.74820    0.025
 3808.00    0.60257   0.76907    0.024
 3809.00    0.39194   0.79445    0.024
 3810.00    0.22522   0.82861    0.024
 3811.00    0.25682   0.86441    0.025
 3812.00    0.37417   0.89404    0.028
 3813.00    0.61335   0.90641    0.027
 3814.00    0.89770   0.89860    0.025
 3815.00    0.83988   0.88059    0.024
 3816.00    0.67450   0.86957    0.024
 3817.00    0.69992   0.87081    0.026
 3818.00    0.77540   0.88203    0.028
 3819.00    0.67341   0.89810    0.027
 3820.00    0.53338   0.89713    0.024
 3821.00    0.54822   0.86727    0.024
 3822.00    0.58935   0.84113    0.025
 3823.00    0.37557   0.84745    0.025
 3824.00    0.12908   0.86600    0.024
 3825.00    0.07632   0.86555    0.024
 3826.00    0.04095   0.83361    0.024
 3827.00    0.06681   0.79674    0.025
 3828.00    0.09597   0.77276    0.025
 3829.00    0.51655   0.74526    0.026
 3830.00    0.94004   0.71147    0.028
 3831.00    0.94650   0.67664    0.027
 3832.00    0.96582   0.64220    0.026
 3833.00    1.27102   0.59533    0.026
 3834.00    1.53202   0.52664    0.027
 3835.00    1.24337   0.45646    0.027
 3836.00    0.96291   0.39377    0.026
 3837.00    0.75167   0.35016    0.027
 3838.00    0.58120   0.35733    0.027
 3839.00    0.66713   0.40516    0.026
 3840.00    0.70254   0.46659    0.025
 3841.00    0.48865   0.52908    0.024
 3842.00    0.30063   0.58293    0.024
 3843.00    0.21623   0.63583    0.024
 3844.00    0.13467   0.69165    0.024
 3845.00    0.06254   0.74303    0.024
 3846.00    0.04442   0.78213    0.025
 3847.00    0.17794   0.80704    0.000
 3848.00    0.36465   0.83025    0.000
 3849.00    0.67911   0.85518    0.000
 3850.00    0.90961   0.87615    0.000
 3851.00    0.96599   0.88258    0.000
 3852.00    0.90220   0.88913    0.000
 3853.00    0.62168   0.91082    0.000
 3854.00    0.39665   0.92886    0.000
 3855.00    0.25913   0.93508    0.000
 3856.00    0.44174   0.93287    0.000
 3857.00    1.06754   0.92376    0.000
 3858.00    1.38192   0.91375    0.000
 3859.00    1.31683   0.92590    0.000
 3860.00    1.15339   0.94056    0.000
 3861.00    0.88433   0.93496    0.000
 3862.00    0.78892   0.92948    0.000
 3863.00    0.85806   0.94336    0.000
 3864.00    0.77625   0.95200    0.000
 3865.00    0.56833   0.95097    0.000
 3866.00    0.53398   0.95581    0.000
 3867.00    0.62727   0.95393    0.000
 3868.00    0.79089   0.94604    0.000
 3869.00    0.99994   0.94609    0.000
 3870.00    0.90711   0.95366    0.000
 3871.00    0.64369   0.95769    0.000
 3872.00    0.68243   0.94834    0.000
 3873.00    0.86979   0.92432    0.000
 3874.00    0.70632   0.89751    0.000
 3875.00    0.39366   0.88433    0.000
 3876.00    0.25032   0.88709    0.000
 3877.00    0.16867   0.89387    0.000
 3878.00    0.36645   0.88681    0.000
 3879.00    0.65037   0.85543    0.000
 3880.00    0.80043   0.81102    0.000
 3881.00    0.91613   0.78502    0.026
 3882.00    0.79445   0.77836    0.025
 3883.00    0.62314   0.75877    0.024
 3884.00    0.52190   0.71701    0.024
 3885.00    0.43221   0.67615    0.024
 3886.00    0.43946   0.63971    0.024
 3887.00    0.45872   0.58383    0.024
 3888.00    0.59072   0.51325    0.024
 3889.00    0.73236   0.44517    0.023
 3890.00    0.66336   0.38257    0.023
 3891.00    0.58387   0.35087    0.023
 3892.00    0.64832   0.37982    0.024
 3893.00    0.71180   0.44992    0.024
 3894.00    0.56062   0.52215    0.023
 3895.00    0.42229   0.57980    0.023
 3896.00    0.54674   0.62678    0.023
 3897.00    0.68256   0.66495    0.023
 3898.00    0.95292   0.70291    0.022
 3899.00    1.14184   0.74526    0.022
 3900.00    0.66731   0.77392    0.022
 3901.00    0.25106   0.78797    0.021
 3902.00    0.19086   0.80498    0.021
 3903.00    0.17087   0.83456    0.020
 3904.00    0.34440   0.86010    0.020
 3905.00    0.50209   0.87349    0.020
 3906.00    0.59772   0.88645    0.020
 3907.00    0.66470   0.88727    0.020
 3908.00    0.63826   0.88562    0.020
 3909.00    0.66129   0.90577    0.020
 3910.00    0.82078   0.93776    0.021
 3911.00    0.94414   0.96055    0.022
 3912.00    0.98222   0.97283    0.022
 3913.00    1.07261   0.97906    0.023
 3914.00    1.26978   0.97715    0.024
 3915.00    1.32846   0.96361    0.024
 3916.00    1.14117   0.95460    0.024
 3917.00    1.18240   0.96288    0.025
 3918.00    1.57869   0.96629    0.025
 3919.00    1.76829   0.96418    0.026
 3920.00    1.67587   0.95977    0.026
 3921.00    1.47805   0.95118    0.025
 3922.00    1.15364   0.94235    0.025
 3923.00    0.90496   0.94373    0.024
 3924.00    0.73650   0.95556    0.024
 3925.00    0.58586   0.96183    0.024
 3926.00    0.45188   0.96481    0.024
 3927.00    0.45400   0.96207    0.024
 3928.00    0.56820   0.94570    0.024
 3929.00    0.65160   0.93155    0.024
 3930.00    0.71265   0.92223    0.024
 3931.00    0.62859   0.90428    0.024
 3932.00    0.45218   0.88422    0.024
 3933.00    0.48798   0.85866    0.024
 3934.00    0.64188   0.80467    0.023
 3935.00    0.82407   0.72946    0.024
 3936.00    1.01994   0.70367    0.024
 3937.00    1.23923   0.75505    0.024
 3938.00    1.46831   0.83041    0.024
 3939.00    1.21291   0.88001    0.024
 3940.00    0.78421   0.90260    0.023
 3941.00    0.76123   0.91572    0.023
 3942.00    0.86089   0.93152    0.023
 3943.00    1.05435   0.94127    0.023
 3944.00    1.27136   0.93842    0.023
 3945.00    1.19295   0.92595    0.023
 3946.00    1.05428   0.91714    0.024
 3947.00    0.95512   0.92597    0.024
 3948.00    0.86229   0.94082    0.024
 3949.00    0.91566   0.94058    0.024
 3950.00    0.98648   0.93123    0.023
 3951.00    1.18070   0.92544    0.024
 3952.00    1.38496   0.92538    0.024
 3953.00    1.39426   0.92136    0.024
 3954.00    1.39459   0.90968    0.024
 3955.00    1.10183   0.90017    0.024
 3956.00    0.81180   0.90154    0.024
 3957.00    0.85898   0.89440    0.024
 3958.00    0.90438   0.86782    0.024
 3959.00    0.91614   0.84197    0.024
 3960.00    0.92974   0.83019    0.000
 3961.00    0.96405   0.82238    0.000
 3962.00    0.99664   0.79774    0.000
 3963.00    1.01576   0.75067    0.000
 3964.00    1.02573   0.70824    0.000
 3965.00    0.98139   0.67617    0.000
 3966.00    0.83947   0.63803    0.000
 3967.00    0.23942   0.58990    0.000
 3968.00   -0.19634   0.52964    0.000
 3969.00   -0.00249   0.45566    0.000
 3970.00    0.14691   0.37934    0.000
 3971.00    0.15419   0.32022    0.000
 3972.00    0.15061   0.30118    0.000
 3973.00    0.11764   0.33462    0.000
 3974.00    0.08449   0.39890    0.000
 3975.00    0.05096   0.46673    0.000
 3976.00    0.17929   0.52996    0.000
 3977.00    0.63275   0.58984    0.000
 3978.00    0.89880   0.64097    0.000
 3979.00    0.83706   0.68391    0.000
 3980.00    0.73420   0.72450    0.000
 3981.00    0.56838   0.76092    0.024
 3982.00    0.65296   0.79321    0.024
 3983.00    1.07428   0.81508    0.024
 3984.00    1.15783   0.82595    0.024
 3985.00    0.84141   0.83841    0.024
 3986.00    0.71797   0.85769    0.024
 3987.00    0.79605   0.87713    0.023
 3988.00    0.83288   0.89089    0.023
 3989.00    0.83173   0.90452    0.023
 3990.00    0.85104   0.92111    0.023
 3991.00    0.88696   0.92925    0.023
 3992.00    0.88816   0.92974    0.023
 3993.00    0.86456   0.93654    0.022
 3994.00    0.80258   0.95035    0.022
 3995.00    0.71652   0.96210    0.022
 3996.00    0.77604   0.96376    0.022
 3997.00    0.91535   0.96065    0.023
 3998.00    1.04550   0.95324    0.023
 3999.00    1.17128   0.94274    0.022
 4000.00    1.03747   0.94111    0.022
 4001.00    0.79695   0.95604    0.022
 4002.00    0.79698   0.97375    0.022
 4003.00    0.88149   0.97761    0.022
 4004.00    0.80233   0.97184    0.022
 4005.00    0.67467   0.96892    0.022
 4006.00    0.67377   0.96034    0.022
 4007.00    0.70402   0.94077    0.022
 4008.00    1.00945   0.93508    0.039
 4009.00    1.36960   0.95246    0.329
 4010.00    1.12660   0.97010   -1.000
 4011.00    0.78987   0.97389   -1.000
 4012.00    0.84445   0.97353   -1.000
 4013.00    0.94403   0.97758   -1.000
 4014.00    1.09533   0.97658   -1.000
 4015.00    1.25063   0.97418   -1.000
 4016.00    1.13062   0.97699   -1.000
 4017.00    0.99900   0.98313   -1.000
 4018.00    1.09455   0.98494   -1.000
 4019.00    1.18751   0.98035   -1.000
 4020.00    1.07668   0.98098   -1.000
 4021.00    0.97325   0.99259    0.852
 4022.00    1.00043   0.99946    0.043
 4023.00    1.05219   0.99230    0.023
 4024.00    1.36839   0.98259    0.024
 4025.00    1.63176   0.97379    0.024
 4026.00    1.49397   0.95435    0.024
 4027.00    1.37179   0.93175    0.024
 4028.00    1.33960   0.92801    0.024
 4029.00    1.24054   0.94638    0.024
 4030.00    0.83498   0.96528    0.024
 4031.00    0.65678   0.96829    0.023
 4032.00    1.33144   0.95474    0.023
 4033.00    1.74776   0.94081    0.023
 4034.00    1.35416   0.93784    0.023
 4035.00    0.98197   0.94135    0.023
 4036.00    0.66673   0.94893    0.022
 4037.00    0.48374   0.96019    0.022
 4038.00    0.60271   0.97487    0.022
 4039.00    0.76929   0.99087    0.022
 4040.00    1.02995   0.99871    0.022
 4041.00    1.13242   0.99443    0.023
 4042.00    0.96235   0.98759    0.023
 4043.00    0.90507   0.98422    0.023
 4044.00    1.01796   0.98562    0.023
 4045.00    1.00000   0.98349    0.023
 4046.00    0.80858   0.96151    0.022
 4047.00    0.78736   0.92743    0.022
 4048.00    0.96485   0.91363    0.022
 4049.00    1.12725   0.93555    0.022
 4050.00    1.27410   0.96274    0.022
 4051.00    1.22265   0.97049    0.022
 4052.00    0.99113   0.97297    0.022
 4053.00    0.90701   0.97544    0.022
 4054.00    0.94088   0.97019    0.022
 4055.00    0.93182   0.96061    0.022
 4056.00    0.89252   0.95049    0.022
 4057.00    0.85741   0.94657    0.022
 4058.00    0.82488   0.94884    0.022
 4059.00    0.92239   0.94711    0.022
 4060.00    1.09008   0.94357    0.022
 4061.00    1.16386   0.94928    0.022
 4062.00    1.19362   0.96109    0.022
 4063.00    1.00614   0.96242    0.022
 4064.00    0.73087   0.94462    0.022
 4065.00    0.64931   0.91586    0.022
 4066.00    0.63453   0.90364    0.022
 4067.00    0.72655   0.92028    0.022
 4068.00    0.84958   0.93125    0.022
 4069.00    0.84538   0.92327    0.022
 4070.00    0.81062   0.92724    0.022
 4071.00    0.82455   0.94448    0.022
 4072.00    0.84790   0.94095    0.022
 4073.00    0.96879   0.91461    0.022
 4074.00    1.10439   0.90093    0.022
 4075.00    0.92576   0.91492    0.022
 4076.00    0.71237   0.92876    0.022
 4077.00    0.95193   0.91904    0.022
 4078.00    1.22466   0.89241    0.022
 4079.00    1.32753   0.86768    0.022
 4080.00    1.42391   0.86338    0.022
 4081.00    1.36194   0.88059    0.023
 4082.00    1.29756   0.90174    0.023
 4083.00    1.17510   0.91378    0.023
 4084.00    1.04551   0.90941    0.022
 4085.00    0.79818   0.89396    0.022
 4086.00    0.55985   0.87685    0.022
 4087.00    0.41414   0.86274    0.022
 4088.00    0.33947   0.85672    0.022
 4089.00    0.78609   0.85878    0.022
 4090.00    1.14744   0.85776    0.022
 4091.00    1.03040   0.84538    0.022
 4092.00    0.96445   0.82637    0.000
 4093.00    1.12718   0.80563    0.000
 4094.00    1.22760   0.78076    0.000
 4095.00    1.09920   0.75611    0.000
 4096.00    1.04420   0.73267    0.000
 4097.00    1.21494   0.69848    0.000
 4098.00    1.27780   0.65417    0.000
 4099.00    1.05871   0.60996    0.000
 4100.00    0.89531   0.56624    0.000
 4101.00    0.85697   0.51767    0.000
 4102.00    0.83210   0.45719    0.000
 4103.00    0.83344   0.39113    0.000
 4104.00    0.82705   0.36077    0.000
 4105.00    0.80754   0.39190    0.000
 4106.00    0.73789   0.45437    0.000
 4107.00    0.59367   0.51658    0.000
 4108.00    0.51492   0.57084    0.000
 4109.00    0.52168   0.61516    0.000
 4110.00    0.62771   0.65103    0.000
 4111.00    0.84798   0.68065    0.000
 4112.00    0.94059   0.70416    0.000
 4113.00    0.90362   0.72625    0.021
 4114.00    0.94437   0.75287    0.021
 4115.00    1.05471   0.78026    0.021
 4116.00    1.07310   0.80224    0.021
 4117.00    1.01893   0.82095    0.021
 4118.00    1.00417   0.83781    0.021
 4119.00    1.01674   0.84738    0.021
 4120.00    1.07027   0.84681    0.021
 4121.00    1.14872   0.84353    0.021
 4122.00    1.12156   0.84710    0.021
 4123.00    1.03830   0.85623    0.021
 4124.00    1.10334   0.86328    0.021
 4125.00    1.23678   0.86860    0.021
 4126.00    1.34968   0.88045    0.021
 4127.00    1.45444   0.89450    0.021
 4128.00    1.28144   0.89738    0.021
 4129.00    1.01443   0.88055    0.021
 4130.00    0.71353   0.85943    0.020
 4131.00    0.40300   0.85690    0.020
 4132.00    0.74193   0.85727    0.020
 4133.00    1.23334   0.84887    0.021
 4134.00    1.28463   0.84836    0.021
 4135.00    1.25284   0.86172    0.021
 4136.00    0.83757   0.87880    0.020
 4137.00    0.36629   0.89635    0.020
 4138.00    0.66988   0.91025    0.021
 4139.00    1.05582   0.91235    0.021
 4140.00    1.06871   0.91313    0.021
 4141.00    1.05580   0.91994    0.021
 4142.00    1.04243   0.92520    0.021
 4143.00    1.02906   0.92198    0.021
 4144.00    0.87208   0.90007    0.021
 4145.00    0.71755   0.86449    0.021
 4146.00    0.65357   0.84935    0.021
 4147.00    0.60183   0.86909    0.021
 4148.00    0.73934   0.89542    0.021
 4149.00    0.85579   0.90835    0.021
 4150.00    0.76458   0.91048    0.021
 4151.00    0.67924   0.90541    0.021
 4152.00    0.63566   0.89915    0.021
 4153.00    0.59421   0.90017    0.021
 4154.00    0.56435   0.90260    0.020
 4155.00    0.54967   0.89915    0.020
 4156.00    0.60135   0.89237    0.020
 4157.00    0.64831   0.88899    0.020
 4158.00    0.67826   0.88924    0.020
 4159.00    0.72225   0.89131    0.020
 4160.00    0.80860   0.89845    0.020
 4161.00    0.89594   0.90874    0.020
 4162.00    0.98577   0.91319    0.020
 4163.00    1.04323   0.91034    0.021
 4164.00    1.02916   0.90781    0.021
 4165.00    0.89634   0.90787    0.021
 4166.00    0.53603   0.90850    0.020
 4167.00    0.32879   0.90964    0.020
 4168.00    0.37734   0.90799    0.020
 4169.00    0.44769   0.90277    0.020
 4170.00    0.54994   0.90063    0.020
 4171.00    0.58548   0.90649    0.020
 4172.00    0.53510   0.90888    0.020
 4173.00    0.44827   0.89247    0.020
 4174.00    0.32005   0.86336    0.020
 4175.00    0.46639   0.84549    0.020
 4176.00    0.88753   0.85134    0.021
 4177.00    0.95783   0.87038    0.021
 4178.00    0.71844   0.88394    0.021
 4179.00    0.75538   0.87846    0.020
 4180.00    1.00726   0.86209    0.021
 4181.00    1.11975   0.86105    0.020
 4182.00    1.13693   0.87855    0.020
 4183.00    0.96010   0.88942    0.020
 4184.00    0.66698   0.88731    0.020
 4185.00    0.60787   0.88747    0.020
 4186.00    0.67114   0.89159    0.020
 4187.00    0.81170   0.89785    0.020
 4188.00    0.98731   0.89614    0.020
 4189.00    1.01033   0.88045    0.020
 4190.00    0.97380   0.87288    0.020
 4191.00    0.99256   0.88326    0.020
 4192.00    1.02969   0.89432    0.020
 4193.00    0.98049   0.89479    0.020
 4194.00    0.90723   0.89519    0.020
 4195.00    0.92688   0.90451    0.020
 4196.00    0.96785   0.90897    0.020
 4197.00    0.98792   0.89899    0.020
 4198.00    1.00414   0.88543    0.020
 4199.00    0.92113   0.87524    0.020
 4200.00    0.82407   0.86158    0.020
 4201.00    0.75015   0.85459    0.019
 4202.00    0.67858   0.86148    0.019
 4203.00    0.75669   0.86475    0.019
 4204.00    0.84455   0.86147    0.019
 4205.00    0.87643   0.86509    0.019
 4206.00    0.90643   0.87175    0.019
 4207.00    0.83200   0.87459    0.019
 4208.00    0.76540   0.88022    0.019
 4209.00    0.92914   0.88876    0.019
 4210.00    1.07674   0.89353    0.019
 4211.00    0.98956   0.89111    0.019
 4212.00    0.89474   0.88642    0.019
 4213.00    0.72774   0.88983    0.019
 4214.00    0.58074   0.89751    0.019
 4215.00    0.57125   0.89890    0.019
 4216.00    0.59026   0.88854    0.020
 4217.00    0.76075   0.86613    0.019
 4218.00    0.90665   0.85380    0.019
 4219.00    0.94756   0.86742    0.019
 4220.00    0.94108   0.88833    0.019
 4221.00    0.76765   0.90045    0.019
 4222.00    0.61861   0.90313    0.019
 4223.00    0.54179   0.90341    0.019
 4224.00    0.58163   0.89845    0.019
 4225.00    0.91588   0.88683    0.019
 4226.00    1.11216   0.86781    0.019
 4227.00    1.00862   0.84162    0.019
 4228.00    0.92269   0.81352    0.018
 4229.00    0.86995   0.80219    0.018
 4230.00    0.81694   0.82488    0.018
 4231.00    0.76351   0.86224    0.018
 4232.00    0.73210   0.88637    0.018
 4233.00    0.73248   0.89440    0.018
 4234.00    0.77218   0.88182    0.018
 4235.00    0.86179   0.85430    0.017
 4236.00    0.78939   0.84514    0.017
 4237.00    0.53572   0.85558    0.017
 4238.00    0.58944   0.85906    0.017
 4239.00    0.94649   0.86092    0.017
 4240.00    1.00691   0.86541    0.017
 4241.00    0.80919   0.86597    0.017
 4242.00    0.65405   0.87005    0.018
 4243.00    0.53156   0.87769    0.018
 4244.00    0.55774   0.87720    0.018
 4245.00    0.68411   0.87680    0.018
 4246.00    0.79220   0.88783    0.019
 4247.00    0.88948   0.89423    0.019
 4248.00    0.97455   0.88080    0.019
 4249.00    1.05334   0.86157    0.020
 4250.00    0.98855   0.85611    0.019
 4251.00    0.85970   0.85575    0.019
 4252.00    0.68856   0.84522    0.019
 4253.00    0.50119   0.83999    0.019
 4254.00    0.66706   0.85107    0.019
 4255.00    0.94805   0.85912    0.019
 4256.00    1.02031   0.85315    0.019
 4257.00    1.03560   0.84937    0.019
 4258.00    1.00411   0.86081    0.019
 4259.00    0.96213   0.87452    0.019
 4260.00    0.97342   0.87072    0.019
 4261.00    0.99423   0.85401    0.019
 4262.00    0.77840   0.83733    0.019
 4263.00    0.53019   0.82988    0.019
 4264.00    0.71575   0.84154    0.019
 4265.00    0.94368   0.86474    0.019
 4266.00    1.01166   0.88096    0.019
 4267.00    1.06986   0.88766    0.019
 4268.00    0.89679   0.88702    0.019
 4269.00    0.71864   0.87611    0.018
 4270.00    0.76885   0.86279    0.018
 4271.00    0.81362   0.85420    0.018
 4272.00    0.71435   0.84173    0.018
 4273.00    0.62293   0.81857    0.018
 4274.00    0.63946   0.80321    0.018
 4275.00    0.67245   0.81008    0.019
 4276.00    0.85496   0.81928    0.019
 4277.00    1.00030   0.82321    0.019
 4278.00    0.89812   0.83655    0.019
 4279.00    0.80451   0.85603    0.019
 4280.00    0.75531   0.86654    0.019
 4281.00    0.74039   0.86460    0.019
 4282.00    0.86853   0.85636   -2.000
 4283.00    0.95478   0.84922   -2.000
 4284.00    0.89638   0.84373   -2.000
 4285.00    0.83610   0.84139   -2.000
 4286.00    0.77029   0.84303   -2.000
 4287.00    0.70177   0.84181   -2.000
 4288.00    0.62652   0.83902   -2.000
 4289.00    0.65916   0.83784   -2.000
 4290.00    0.92244   0.83129   -2.000
 4291.00    1.07388   0.81083   -2.000
 4292.00    1.01768   0.78943   -2.000
 4293.00    0.94953   0.79307   -2.000
 4294.00    0.86198   0.81746   -2.000
 4295.00    0.75097   0.83267   -2.000
 4296.00    0.60659   0.82690   -2.000
 4297.00    0.47938   0.81761   -2.000
 4298.00    0.37366   0.81503    0.019
 4299.00    0.30982   0.81366    0.019
 4300.00    0.29216   0.80567    0.019
 4301.00    0.36396   0.78256    0.019
 4302.00    0.52280   0.76034    0.019
 4303.00    0.57373   0.75919    0.018
 4304.00    0.53206   0.76310    0.018
 4305.00    0.56413   0.76417    0.019
 4306.00    0.65192   0.77486    0.019
 4307.00    0.58260   0.78620    0.019
 4308.00    0.40896   0.78552    0.019
 4309.00    0.34525   0.77176    0.018
 4310.00    0.34549   0.75436    0.018
 4311.00    0.55913   0.75177    0.018
 4312.00    0.88093   0.76574    0.018
 4313.00    1.01803   0.78144    0.018
 4314.00    1.07407   0.78760    0.018
 4315.00    1.07961   0.78203    0.018
 4316.00    1.06611   0.77234    0.018
 4317.00    0.90870   0.77657    0.018
 4318.00    0.70528   0.80139    0.018
 4319.00    0.62359   0.82600    0.018
 4320.00    0.57444   0.83134    0.018
 4321.00    0.60894   0.82249    0.018
 4322.00    0.66176   0.80732    0.018
 4323.00    0.75527   0.79238    0.018
 4324.00    0.85586   0.78541    0.018
 4325.00    0.79676   0.77640    0.018
 4326.00    0.71654   0.75138    0.018
 4327.00    0.77913   0.71433    0.018
 4328.00    0.85507   0.69003    0.018
 4329.00    0.89117   0.69837    0.018
 4330.00    0.92499   0.72220    0.000
 4331.00    0.92775   0.73047    0.000
 4332.00    0.92986   0.71572    0.000
 4333.00    0.93952   0.69349    0.000
 4334.00    0.94773   0.67526    0.000
 4335.00    0.92119   0.65740    0.000
 4336.00    0.89979   0.63705    0.000
 4337.00    0.94523   0.61449    0.000
 4338.00    0.96782   0.57991    0.000
 4339.00    0.79083   0.52506    0.000
 4340.00    0.63606   0.46402    0.000
 4341.00    0.62484   0.40827    0.000
 4342.00    0.64036   0.35944    0.000
 4343.00    0.79072   0.34505    0.000
 4344.00    0.92497   0.38343    0.000
 4345.00    0.99345   0.44232    0.000
 4346.00    1.01195   0.49137    0.000
 4347.00    0.86135   0.53436    0.000
 4348.00    0.73589   0.57333    0.000
 4349.00    0.68218   0.60396    0.000
 4350.00    0.63935   0.63363    0.000
 4351.00    0.62304   0.66414    0.019
 4352.00    0.64974   0.67934    0.019
 4353.00    0.76687   0.66976    0.019
 4354.00    0.84813   0.65871    0.018
 4355.00    0.86384   0.67532    0.018
 4356.00    0.90770   0.70880    0.018
 4357.00    0.99656   0.73556    0.018
 4358.00    1.03839   0.75475    0.018
 4359.00    1.01432   0.76800    0.018
 4360.00    0.98877   0.77043    0.018
 4361.00    0.96141   0.76700    0.018
 4362.00    0.96465   0.77176    0.018
 4363.00    1.00115   0.78564    0.018
 4364.00    0.81901   0.79779    0.018
 4365.00    0.42713   0.80402    0.018
 4366.00    0.33505   0.81132    0.018
 4367.00    0.49655   0.82119    0.017
 4368.00    0.60912   0.82266    0.017
 4369.00    0.68525   0.81045    0.018
 4370.00    0.63045   0.79603    0.018
 4371.00    0.48999   0.79332    0.018
 4372.00    0.58978   0.79922    0.018
 4373.00    0.82717   0.80660    0.017
 4374.00    0.93141   0.81224    0.018
 4375.00    0.96923   0.80908    0.018
 4376.00    0.95049   0.79266    0.018
 4377.00    0.90732   0.77686    0.018
 4378.00    0.80866   0.78150    0.018
 4379.00    0.68945   0.80433    0.018
 4380.00    0.63543   0.82436    0.018
 4381.00    0.60185   0.82957    0.018
 4382.00    0.52656   0.82497    0.018
 4383.00    0.44035   0.81764    0.017
 4384.00    0.46192   0.79989    0.017
 4385.00    0.50651   0.76257    0.017
 4386.00    0.56736   0.72648    0.017
 4387.00    0.63097   0.72380    0.018
 4388.00    0.64605   0.75126    0.018
 4389.00    0.65494   0.77506    0.018
 4390.00    0.48321   0.78223    0.017
 4391.00    0.29536   0.78515    0.017
 4392.00    0.36257   0.78654    0.017
 4393.00    0.44336   0.78832    0.017
 4394.00    0.45115   0.79808    0.017
 4395.00    0.45691   0.80637    0.018
 4396.00    0.41378   0.79895    0.018
 4397.00    0.38010   0.78575    0.018
 4398.00    0.55412   0.79088    0.018
 4399.00    0.71638   0.81318    0.018
 4400.00    0.73330   0.82653    0.018
 4401.00    0.74690   0.81883    0.018
 4402.00    0.73261   0.80002    0.018
 4403.00    0.71137   0.79165    0.018
 4404.00    0.64661   0.80247    0.018
 4405.00    0.56304   0.80951    0.018
 4406.00    0.38697   0.79186    0.018
 4407.00    0.29780   0.77198    0.018
 4408.00    0.55549   0.77758    0.018
 4409.00    0.73207   0.79178    0.018
 4410.00    0.63966   0.79348    0.018
 4411.00    0.56739   0.79533    0.018
 4412.00    0.55151   0.80742    0.018
 4413.00    0.60888   0.81944    0.018
 4414.00    0.84183   0.82764    0.018
 4415.00    0.95527   0.82930    0.018
 4416.00    0.82136   0.81289    0.018
 4417.00    0.64280   0.78572    0.018
 4418.00    0.38386   0.77096    0.018
 4419.00    0.39311   0.77269    0.018
 4420.00    0.82453   0.78384    0.018
 4421.00    0.92597   0.80283    0.018
 4422.00    0.57143   0.82041    0.018
 4423.00    0.42147   0.82244    0.018
 4424.00    0.52032   0.80836    0.018
 4425.00    0.60202   0.79747    0.018
 4426.00    0.66533   0.80198    0.018
 4427.00    0.74159   0.81012    0.018
 4428.00    0.83010   0.81008    0.018
 4429.00    0.82576   0.80432    0.018
 4430.00    0.74398   0.80344    0.018
 4431.00    0.52637   0.80673    0.018
 4432.00    0.20904   0.80303    0.018
 4433.00    0.14639   0.79924    0.019
 4434.00    0.24794   0.80365    0.019
 4435.00    0.36927   0.80290    0.019
 4436.00    0.50175   0.78880    0.019
 4437.00    0.58305   0.77381    0.019
 4438.00    0.63922   0.77314    0.019
 4439.00    0.55101   0.78824    0.019
 4440.00    0.40154   0.80841    0.019
 4441.00    0.41173   0.82281    0.018
 4442.00    0.47996   0.82377    0.018
 4443.00    0.57190   0.80945    0.018
 4444.00    0.67114   0.78809    0.018
 4445.00    0.75483   0.77076    0.018
 4446.00    0.83455   0.76884    0.018
 4447.00    0.73377   0.78674    0.018
 4448.00    0.59538   0.80693    0.018
 4449.00    0.54177   0.81213    0.019
 4450.00    0.50209   0.81032    0.019
 4451.00    0.41216   0.80854    0.018
 4452.00    0.31603   0.80124    0.018
 4453.00    0.48733   0.79570    0.018
 4454.00    0.68138   0.79959    0.018
 4455.00    0.61919   0.80163    0.018
 4456.00    0.54435   0.78926    0.017
 4457.00    0.48612   0.77032    0.017
 4458.00    0.43125   0.76572    0.017
 4459.00    0.57026   0.77386    0.017
 4460.00    0.69931   0.77785    0.018
 4461.00    0.62646   0.77542    0.000
 4462.00    0.55782   0.77312    0.000
 4463.00    0.53854   0.76859    0.000
 4464.00    0.51308   0.76384    0.000
 4465.00    0.43752   0.77086    0.000
 4466.00    0.39131   0.78368    0.000
 4467.00    0.52375   0.78795    0.000
 4468.00    0.61671   0.78538    0.000
 4469.00    0.52032   0.78074    0.000
 4470.00    0.44255   0.77210    0.000
 4471.00    0.43753   0.76185    0.000
 4472.00    0.44424   0.75512    0.000
 4473.00    0.48904   0.75228    0.000
 4474.00    0.54608   0.75798    0.000
 4475.00    0.63675   0.77610    0.000
 4476.00    0.71153   0.79517    0.000
 4477.00    0.74883   0.80291    0.000
 4478.00    0.74736   0.80432    0.000
 4479.00    0.66692   0.80940    0.000
 4480.00    0.53928   0.81321    0.000
 4481.00    0.32797   0.80290    0.000
 4482.00    0.21766   0.76802    0.017
 4483.00    0.26399   0.72241    0.017
 4484.00    0.35909   0.70963    0.017
 4485.00    0.52059   0.74176    0.017
 4486.00    0.58877   0.78111    0.017
 4487.00    0.54504   0.80319    0.017
 4488.00    0.54561   0.81114    0.017
 4489.00    0.59302   0.80879    0.017
 4490.00    0.67972   0.79445    0.017
 4491.00    0.80306   0.77643    0.017
 4492.00    0.85295   0.76724    0.017
 4493.00    0.84245   0.77029    0.017
 4494.00    0.70592   0.78155    0.017
 4495.00    0.47820   0.78983    0.017
 4496.00    0.36972   0.78524    0.017
 4497.00    0.33699   0.77562    0.017
 4498.00    0.49926   0.77390    0.017
 4499.00    0.76986   0.78013    0.017
 4500.00    0.76311   0.78988    0.017
 4501.00    0.62236   0.79850    0.017
 4502.00    0.53802   0.79682    0.017
 4503.00    0.47719   0.78343    0.018
 4504.00    0.40756   0.77781    0.017
 4505.00    0.33479   0.79258    0.017
 4506.00    0.43734   0.81205    0.017
 4507.00    0.59276   0.81882    0.017
 4508.00    0.59312   0.81330    0.017
 4509.00    0.55464   0.80118    0.017
 4510.00    0.62693   0.78917    0.017
 4511.00    0.72173   0.78682    0.017
 4512.00    0.68875   0.79594    0.017
 4513.00    0.63539   0.80462    0.017
 4514.00    0.55030   0.80276    0.017
 4515.00    0.46145   0.79477    0.017
 4516.00    0.65493   0.78455    0.017
 4517.00    0.87125   0.77471    0.018
 4518.00    1.08509   0.77393    0.017
 4519.00    1.29881   0.78004    0.017
 4520.00    0.96717   0.78239    0.017
 4521.00    0.63457   0.78098    0.017
 4522.00    0.59463   0.78109    0.017
 4523.00    0.55745   0.78234    0.017
 4524.00    0.57192   0.77610    0.017
 4525.00    0.58368   0.76475    0.016
 4526.00    0.56516   0.76267    0.016
 4527.00    0.53962   0.76577    0.016
 4528.00    0.45911   0.76318    0.016
 4529.00    0.39623   0.75544    0.016
 4530.00    0.43765   0.74578    0.016
 4531.00    0.49083   0.73958    0.016
 4532.00    0.59903   0.74212    0.017
 4533.00    0.68583   0.75054    0.017
 4534.00    0.69086   0.75873    0.017
 4535.00    0.66887   0.75551    0.017
 4536.00    0.56071   0.73938    0.017
 4537.00    0.48518   0.73060    0.017
 4538.00    0.49782   0.74433    0.017
 4539.00    0.54335   0.77098    0.017
 4540.00    0.66513   0.78841    0.017
 4541.00    0.73236   0.78706    0.017
 4542.00    0.69024   0.77403    0.017
 4543.00    0.62671   0.76234    0.017
 4544.00    0.52580   0.76327    0.017
 4545.00    0.51497   0.77299    0.017
 4546.00    0.64178   0.77520    0.017
 4547.00    0.69595   0.76851    0.017
 4548.00    0.65260   0.76584    0.017
 4549.00    0.67410   0.76779    0.017
 4550.00    0.77224   0.76048    0.000
 4551.00    0.78212   0.73710    0.000
 4552.00    0.70001   0.72207    0.000
 4553.00    0.52475   0.73704    0.000
 4554.00    0.26386   0.75735    0.000
 4555.00    0.20795   0.75921    0.000
 4556.00    0.31816   0.74827    0.000
 4557.00    0.50293   0.73474    0.000
 4558.00    0.74086   0.73241    0.000
 4559.00    0.72519   0.74761    0.000
 4560.00    0.55079   0.76250    0.000
 4561.00    0.44437   0.76698    0.000
 4562.00    0.37512   0.77181    0.000
 4563.00    0.44050   0.77931    0.000
 4564.00    0.56990   0.78132    0.000
 4565.00    0.67289   0.77043    0.000
 4566.00    0.76506   0.75208    0.000
 4567.00    0.65111   0.74363    0.000
 4568.00    0.46493   0.75081    0.000
 4569.00    0.35529   0.76625    0.000
 4570.00    0.26827   0.77966    0.000
 4571.00    0.36638   0.78341    0.000
 4572.00    0.50984   0.77706    0.000
 4573.00    0.57680   0.76075    0.000
 4574.00    0.62860   0.74552    0.000
 4575.00    0.57265   0.75055    0.000
 4576.00    0.50003   0.76694    0.000
 4577.00    0.55870   0.77183    0.000
 4578.00    0.63240   0.76711    0.000
 4579.00    0.74403   0.76522    0.000
 4580.00    0.85857   0.76511    0.000
 4581.00    0.71567   0.75859    0.000
 4582.00    0.56205   0.74782    0.000
 4583.00    0.49416   0.74212    0.000
 4584.00    0.43220   0.74197    0.000
 4585.00    0.59231   0.73790    0.000
 4586.00    0.74314   0.73110    0.000
 4587.00    0.73180   0.73373    0.000
 4588.00    0.72213   0.74387    0.000
 4589.00    0.73039   0.75002    0.000
 4590.00    0.73625   0.75100    0.000
 4591.00    0.72395   0.75293    0.000
 4592.00    0.71874   0.75604    0.000
 4593.00    0.75420   0.75338    0.000
 4594.00    0.74633   0.74598    0.000
 4595.00    0.54050   0.74320    0.000
 4596.00    0.43494   0.74614    0.000
 4597.00    0.70454   0.74681    0.000
 4598.00    0.90810   0.74498    0.000
 4599.00    0.90515   0.74602    0.000
 4600.00    0.85874   0.74988    0.000
 4601.00    0.69696   0.75382    0.000
 4602.00    0.63658   0.75283    0.000
 4603.00    0.80724   0.74805    0.000
 4604.00    0.89509   0.74703    0.000
 4605.00    0.81956   0.74952    0.000
 4606.00    0.72597   0.75099    0.000
 4607.00    0.60134   0.74937    0.000
 4608.00    0.57349   0.74814    0.000
 4609.00    0.69137   0.75294    0.000
 4610.00    0.78050   0.76266    0.000
 4611.00    0.83160   0.77161    0.000
 4612.00    0.83320   0.77430    0.000
 4613.00    0.77712   0.76876    0.000
 4614.00    0.77867   0.76124    0.000
 4615.00    0.83944   0.75714    0.000
 4616.00    0.79191   0.75661    0.000
 4617.00    0.64621   0.75838    0.000
 4618.00    0.60236   0.75734    0.000
 4619.00    0.63988   0.75524    0.000
 4620.00    0.67169   0.75323    0.000
 4621.00    0.69950   0.74546    0.000
 4622.00    0.75925   0.74020    0.000
 4623.00    0.83871   0.74660    0.000
 4624.00    0.77579   0.75531    0.000
 4625.00    0.63619   0.75929    0.000
 4626.00    0.68653   0.76106    0.000
 4627.00    0.82572   0.75957    0.000
 4628.00    0.91204   0.75563    0.000
 4629.00    0.97705   0.75369    0.000
 4630.00    0.90127   0.75015    0.000
 4631.00    0.77707   0.74087    0.000
 4632.00    0.70131   0.73660    0.000
 4633.00    0.63957   0.74557    0.000
 4634.00    0.64265   0.75446    0.000
 4635.00    0.66125   0.74982    0.000
 4636.00    0.66471   0.73774    0.000
 4637.00    0.66526   0.73214    0.000
 4638.00    0.56740   0.73560    0.000
 4639.00    0.45478   0.73796    0.000
 4640.00    0.56903   0.73508    0.000
 4641.00    0.70825   0.73213    0.000
 4642.00    0.70575   0.73087    0.000
 4643.00    0.69293   0.73371    0.000
 4644.00    0.54710   0.74067    0.000
 4645.00    0.39623   0.74320    0.000
 4646.00    0.72156   0.73995    0.000
 4647.00    1.03758   0.73486    0.000
 4648.00    0.91904   0.72488    0.000
 4649.00    0.80384   0.71330    0.000
 4650.00    0.74334   0.71005    0.000
 4651.00    0.68116   0.71557    0.000
 4652.00    0.60171   0.72478    0.000
 4653.00    0.51817   0.73327    0.000
 4654.00    0.40471   0.73893    0.000
 4655.00    0.32471   0.74129    0.000
 4656.00    0.43172   0.73717    0.000
 4657.00    0.51540   0.72768    0.000
 4658.00    0.49501   0.72077    0.000
 4659.00    0.50104   0.72150    0.000
 4660.00    0.60388   0.73135    0.000
 4661.00    0.69612   0.74638    0.000
 4662.00    0.75587   0.75642    0.000
 4663.00    0.79897   0.75499    0.000
 4664.00    0.79864   0.74443    0.000
 4665.00    0.81380   0.73155    0.000
 4666.00    0.86369   0.72393    0.000
 4667.00    0.83907   0.72257    0.000
 4668.00    0.66970   0.71526    0.000
 4669.00    0.64348   0.69791    0.000
 4670.00    0.85965   0.68743    0.000
 4671.00    0.96992   0.69351    0.000
 4672.00    0.92306   0.70750    0.000
 4673.00    0.74590   0.72098    0.000
 4674.00    0.39883   0.72857    0.000
 4675.00    0.33466   0.72751    0.000
 4676.00    0.59553   0.72404    0.000
 4677.00    0.70232   0.72569    0.000
 4678.00    0.65296   0.73230    0.000
 4679.00    0.68558   0.73718    0.000
 4680.00    0.79148   0.73375    0.000
 4681.00    0.88223   0.72446    0.000
 4682.00    0.96105   0.71712    0.000
 4683.00    0.99141   0.71385    0.000
 4684.00    0.98820   0.71448    0.000
 4685.00    0.95623   0.71947    0.000
 4686.00    0.90679   0.72471    0.000
 4687.00    0.80079   0.72615    0.000
 4688.00    0.66478   0.72465    0.000
 4689.00    0.61105   0.72182    0.000
 4690.00    0.59516   0.72000    0.000
 4691.00    0.51477   0.72094    0.000
 4692.00    0.40881   0.72146    0.000
 4693.00    0.48155   0.71897    0.000
 4694.00    0.61463   0.71740    0.000
 4695.00    0.65445   0.71927    0.000
 4696.00    0.66781   0.72256    0.000
 4697.00    0.65567   0.72751    0.000
 4698.00    0.63757   0.73282    0.000
 4699.00    0.68697   0.73170    0.000
 4700.00    0.74908   0.72066    0.000
 4701.00    0.61804   0.70878    0.000
 4702.00    0.45891   0.70619    0.000
 4703.00    0.48507   0.70833    0.000
 4704.00    0.53082   0.70588    0.000
 4705.00    0.50187   0.70011    0.000
 4706.00    0.46778   0.70072    0.000
 4707.00    0.61371   0.70915    0.000
 4708.00    0.76575   0.71413    0.000
 4709.00    0.64075   0.70976    0.000
 4710.00    0.51554   0.70275    0.000
 4711.00    0.39725   0.69965    0.000
 4712.00    0.29379   0.70269    0.000
 4713.00    0.41791   0.71177    0.000
 4714.00    0.55378   0.71777    0.000
 4715.00    0.80485   0.71281    0.000
 4716.00    1.01799   0.70310    0.000
 4717.00    0.96289   0.69952    0.000
 4718.00    0.89172   0.70623    0.000
 4719.00    0.73311   0.71707    0.000
 4720.00    0.61710   0.72308    0.000
 4721.00    0.68677   0.72513    0.000
 4722.00    0.74533   0.72815    0.000
 4723.00    0.76401   0.72930    0.000
 4724.00    0.78855   0.72574    0.000
 4725.00    0.83074   0.72248    0.000
 4726.00    0.79503   0.72477    0.000
 4727.00    0.55968   0.72950    0.000
 4728.00    0.43458   0.72858    0.000
 4729.00    0.55253   0.71709    0.000
 4730.00    0.63338   0.70095    0.000
 4731.00    0.64332   0.69219    0.000
 4732.00    0.68138   0.69158    0.000
 4733.00    0.76633   0.69198    0.000
 4734.00    0.76881   0.69489    0.000
 4735.00    0.65070   0.70263    0.000
 4736.00    0.54601   0.71003    0.000
 4737.00    0.45854   0.71399    0.000
 4738.00    0.51525   0.71131    0.000
 4739.00    0.73525   0.70363    0.000
 4740.00    0.75101   0.70370    0.000
 4741.00    0.56271   0.71119    0.000
 4742.00    0.42385   0.71344    0.000
 4743.00    0.32856   0.70991    0.000
 4744.00    0.34687   0.70857    0.000
 4745.00    0.45337   0.71224    0.000
 4746.00    0.54943   0.71532    0.000
 4747.00    0.63836   0.71372    0.000
 4748.00    0.69650   0.71343    0.000
 4749.00    0.73622   0.71685    0.000
 4750.00    0.73896   0.71753    0.000
 4751.00    0.72240   0.71554    0.000
 4752.00    0.74641   0.71605    0.000
 4753.00    0.78880   0.71703    0.000
 4754.00    0.67770   0.71397    0.000
 4755.00    0.50684   0.70891    0.000
 4756.00    0.56384   0.70475    0.000
 4757.00    0.69633   0.70116    0.000
 4758.00    0.60968   0.69824    0.000
 4759.00    0.46210   0.69733    0.000
 4760.00    0.60012   0.70018    0.000
 4761.00    0.80347   0.70493    0.017
 4762.00    0.88054   0.70766    0.017
 4763.00    0.93447   0.70502    0.017
 4764.00    0.78461   0.69568    0.017
 4765.00    0.60604   0.68573    0.016
 4766.00    0.57791   0.68004    0.016
 4767.00    0.56503   0.67608    0.017
 4768.00    0.54421   0.67492    0.017
 4769.00    0.52288   0.67864    0.017
 4770.00    0.56492   0.68563    0.017
 4771.00    0.60868   0.69470    0.017
 4772.00    0.55390   0.70142    0.016
 4773.00    0.50353   0.69943    0.016
 4774.00    0.58115   0.69236    0.016
 4775.00    0.64600   0.69073    0.016
 4776.00    0.52627   0.69686    0.016
 4777.00    0.43409   0.70340    0.016
 4778.00    0.60113   0.70504    0.016
 4779.00    0.73660   0.70496    0.016
 4780.00    0.65586   0.70517    0.016
 4781.00    0.57496   0.70212    0.016
 4782.00    0.49317   0.69725    0.016
 4783.00    0.43062   0.69564    0.015
 4784.00    0.45004   0.69536    0.015
 4785.00    0.50620   0.69138    0.015
 4786.00    0.69152   0.68759    0.016
 4787.00    0.82228   0.68865    0.016
 4788.00    0.79184   0.68740    0.016
 4789.00    0.75720   0.68320    0.016
 4790.00    0.71195   0.68433    0.016
 4791.00    0.72477   0.68670    0.016
 4792.00    0.86350   0.68575    0.016
 4793.00    0.88865   0.68632    0.016
 4794.00    0.69999   0.68927    0.016
 4795.00    0.58458   0.69436    0.016
 4796.00    0.58953   0.70278    0.016
 4797.00    0.62933   0.70941    0.016
 4798.00    0.71932   0.70926    0.016
 4799.00    0.68791   0.70377    0.016
 4800.00    0.50263   0.69562    0.016
 4801.00    0.45416   0.68665    0.016
 4802.00    0.55847   0.68071    0.016
 4803.00    0.64224   0.68280    0.016
 4804.00    0.70578   0.69192    0.016
 4805.00    0.71490   0.69862    0.016
 4806.00    0.67677   0.69571    0.016
 4807.00    0.67213   0.68605    0.016
 4808.00    0.69313   0.67912    0.016
 4809.00    0.63257   0.67937    0.016
 4810.00    0.51714   0.68043    0.016
 4811.00    0.50710   0.67986    0.016
 4812.00    0.55915   0.68111    0.016
 4813.00    0.56838   0.68234    0.016
 4814.00    0.55560   0.68059    0.016
 4815.00    0.57513   0.67926    0.016
 4816.00    0.60904   0.68065    0.016
 4817.00    0.66458   0.68240    0.016
 4818.00    0.72840   0.68413    0.016
 4819.00    0.75467   0.68692    0.016
 4820.00    0.76873   0.69027    0.016
 4821.00    0.67208   0.69222    0.016
 4822.00    0.54530   0.69115    0.016
 4823.00    0.57673   0.68849    0.016
 4824.00    0.64351   0.68395    0.016
 4825.00    0.63190   0.67097    0.016
 4826.00    0.60631   0.65462    0.016
 4827.00    0.56711   0.65287    0.016
 4828.00    0.52604   0.66440    0.016
 4829.00    0.56559   0.67215    0.016
 4830.00    0.61297   0.67107    0.016
 4831.00    0.71635   0.66678    0.016
 4832.00    0.82312   0.66490    0.015
 4833.00    0.69461   0.66404    0.015
 4834.00    0.56066   0.65914    0.015
 4835.00    0.56835   0.65496    0.016
 4836.00    0.57357   0.65734    0.016
 4837.00    0.51442   0.66033    0.016
 4838.00    0.46141   0.65854    0.016
 4839.00    0.49215   0.65512    0.016
 4840.00    0.53065   0.65230    0.016
 4841.00    0.63928   0.64648    0.015
 4842.00    0.73228   0.63717    0.015
 4843.00    0.72160   0.63158    0.016
 4844.00    0.69392   0.63087    0.016
 4845.00    0.57856   0.62787    0.015
 4846.00    0.48977   0.62360    0.015
 4847.00    0.51153   0.62389    0.015
 4848.00    0.52677   0.62448    0.000
 4849.00    0.51959   0.61660    0.000
 4850.00    0.55594   0.60009    0.000
 4851.00    0.71856   0.58423    0.000
 4852.00    0.79048   0.57831    0.000
 4853.00    0.63792   0.57704    0.000
 4854.00    0.50557   0.56885    0.000
 4855.00    0.41635   0.55542    0.000
 4856.00    0.39870   0.53871    0.000
 4857.00    0.51365   0.51325    0.000
 4858.00    0.56255   0.48708    0.000
 4859.00    0.50450   0.47249    0.000
 4860.00    0.44007   0.45966    0.000
 4861.00    0.36657   0.43289    0.000
 4862.00    0.39608   0.38945    0.000
 4863.00    0.55429   0.34043    0.000
 4864.00    0.65535   0.31756    0.000
 4865.00    0.69348   0.34193    0.000
 4866.00    0.67763   0.38744    0.000
 4867.00    0.60935   0.42413    0.000
 4868.00    0.60575   0.45428    0.000
 4869.00    0.65753   0.48138    0.000
 4870.00    0.64701   0.50180    0.000
 4871.00    0.58949   0.51790    0.000
 4872.00    0.48996   0.52937    0.000
 4873.00    0.36257   0.53050    0.000
 4874.00    0.36828   0.52957    0.000
 4875.00    0.45125   0.54193    0.015
 4876.00    0.42559   0.56271    0.015
 4877.00    0.34498   0.57664    0.015
 4878.00    0.39235   0.58297    0.015
 4879.00    0.49575   0.59018    0.015
 4880.00    0.51442   0.60052    0.015
 4881.00    0.50122   0.61278    0.015
 4882.00    0.47013   0.62393    0.015
 4883.00    0.43332   0.62539    0.015
 4884.00    0.53015   0.62004    0.015
 4885.00    0.66261   0.61940    0.015
 4886.00    0.62802   0.62209    0.015
 4887.00    0.55698   0.62062    0.015
 4888.00    0.49255   0.61731    0.015
 4889.00    0.42925   0.61869    0.016
 4890.00    0.44889   0.62441    0.015
 4891.00    0.47944   0.62862    0.015
 4892.00    0.43074   0.62494    0.015
 4893.00    0.37466   0.61384    0.015
 4894.00    0.47159   0.61060    0.015
 4895.00    0.57719   0.62685    0.016
 4896.00    0.40541   0.64784    0.016
 4897.00    0.22959   0.66134    0.016
 4898.00    0.30409   0.66893    0.016
 4899.00    0.37935   0.67040    0.016
 4900.00    0.47249   0.66802    0.016
 4901.00    0.56377   0.66269    0.016
 4902.00    0.63117   0.65455    0.015
 4903.00    0.70068   0.65083    0.015
 4904.00    0.78862   0.65252    0.015
 4905.00    0.83833   0.65118    0.016
 4906.00    0.64217   0.64829    0.016
 4907.00    0.48978   0.65240    0.016
 4908.00    0.55754   0.66235    0.016
 4909.00    0.61585   0.66853    0.016
 4910.00    0.63566   0.66518    0.016
 4911.00    0.62854   0.65433    0.016
 4912.00    0.53053   0.64242    0.016
 4913.00    0.47025   0.63550    0.016
 4914.00    0.51737   0.63760    0.016
 4915.00    0.59060   0.64583    0.016
 4916.00    0.72738   0.65306    0.016
 4917.00    0.78175   0.65958    0.016
 4918.00    0.66317   0.66443    0.016
 4919.00    0.57676   0.66193    0.016
 4920.00    0.54908   0.64861    0.016
 4921.00    0.47638   0.62618    0.016
 4922.00    0.33188   0.60652    0.016
 4923.00    0.30343   0.59904    0.016
 4924.00    0.43738   0.60467    0.016
 4925.00    0.44700   0.61458    0.016
 4926.00    0.30350   0.61698    0.016
 4927.00    0.23971   0.61928    0.015
 4928.00    0.26245   0.63265    0.016
 4929.00    0.34654   0.65010    0.016
 4930.00    0.48937   0.65910    0.016
 4931.00    0.54866   0.66345    0.016
 4932.00    0.53742   0.66743    0.016
 4933.00    0.50318   0.66813    0.016
 4934.00    0.45186   0.66413    0.016
 4935.00    0.54015   0.65218    0.016
 4936.00    0.71963   0.63702    0.016
 4937.00    0.67396   0.63494    0.016
 4938.00    0.49957   0.64438    0.016
 4939.00    0.54814   0.64559    0.016
 4940.00    0.70770   0.63353    0.000
 4941.00    0.63310   0.62177    0.000
 4942.00    0.45765   0.62363    0.000
 4943.00    0.48651   0.63885    0.000
 4944.00    0.59079   0.65327    0.000
 4945.00    0.61898   0.65862    0.000
 4946.00    0.62337   0.66112    0.000
 4947.00    0.71861   0.66056    0.000
 4948.00    0.83756   0.65545    0.000
 4949.00    0.91282   0.65370    0.000
 4950.00    0.97877   0.65677    0.000
 4951.00    0.83058   0.65915    0.000
 4952.00    0.64631   0.66025    0.000
 4953.00    0.55117   0.66207    0.000
 4954.00    0.46736   0.66150    0.000
 4955.00    0.65590   0.65557    0.000
 4956.00    0.86861   0.65082    0.000
 4957.00    0.67262   0.65051    0.000
 4958.00    0.45506   0.64537    0.000
 4959.00    0.50589   0.62546    0.000
 4960.00    0.56245   0.60279    0.000
 4961.00    0.66567   0.60802    0.000
 4962.00    0.76514   0.63575    0.000
 4963.00    0.78310   0.65254    0.000
 4964.00    0.80365   0.65319    0.000
 4965.00    0.85602   0.65164    0.000
 4966.00    0.88561   0.65146    0.000
 4967.00    0.72448   0.64580    0.000
 4968.00    0.56867   0.63535    0.000
 4969.00    0.44610   0.63017    0.000
 4970.00    0.38234   0.63036    0.000
 4971.00    0.60697   0.63115    0.000
 4972.00    0.76991   0.63376    0.000
 4973.00    0.68730   0.63785    0.000
 4974.00    0.63518   0.64247    0.000
 4975.00    0.68393   0.64641    0.000
 4976.00    0.69916   0.64882    0.000
 4977.00    0.62068   0.65060    0.000
 4978.00    0.55922   0.64896    0.000
 4979.00    0.53844   0.64435    0.000
 4980.00    0.53053   0.63900    0.000
 4981.00    0.54921   0.63327    0.000
 4982.00    0.55476   0.62995    0.000
 4983.00    0.53674   0.62616    0.000
 4984.00    0.52939   0.61450    0.000
 4985.00    0.53884   0.59865    0.000
 4986.00    0.53206   0.59216    0.000
 4987.00    0.50293   0.59797    0.000
 4988.00    0.49202   0.60871    0.000
 4989.00    0.50323   0.62155    0.000
 4990.00    0.55993   0.63316    0.000
 4991.00    0.66532   0.63677    0.000
 4992.00    0.71761   0.63276    0.000
 4993.00    0.71977   0.62598    0.000
 4994.00    0.61056   0.62208    0.000
 4995.00    0.40863   0.62378    0.000
 4996.00    0.33375   0.62495    0.000
 4997.00    0.35195   0.62682    0.000
 4998.00    0.35797   0.63253    0.000
 4999.00    0.35613   0.63592    0.000
 5000.00    0.39809   0.63470    0.000
 5001.00    0.46471   0.62843    0.000
 5002.00    0.50260   0.61748    0.000
 5003.00    0.52641   0.60762    0.000
 5004.00    0.56120   0.60315    0.000
 5005.00    0.60064   0.60486    0.000
 5006.00    0.62135   0.60856    0.000
 5007.00    0.63527   0.60510    0.000
 5008.00    0.69223   0.59425    0.000
 5009.00    0.76241   0.58995    0.000
 5010.00    0.79093   0.60029    0.000
 5011.00    0.80882   0.61549    0.000
 5012.00    0.61326   0.62192    0.000
 5013.00    0.37334   0.61905    0.000
 5014.00    0.36819   0.61118    0.000
 5015.00    0.40147   0.59948    0.000
 5016.00    0.40842   0.58961    0.000
 5017.00    0.41213   0.58649    0.000
 5018.00    0.42228   0.59004    0.000
 5019.00    0.43298   0.59339    0.000
 5020.00    0.57199   0.58669    0.000
 5021.00    0.71726   0.57861    0.000
 5022.00    0.61911   0.58395    0.000
 5023.00    0.51868   0.59650    0.000
 5024.00    0.50946   0.60010    0.000
 5025.00    0.50481   0.59886    0.000
 5026.00    0.59194   0.60492    0.000
 5027.00    0.66834   0.61415    0.000
 5028.00    0.61941   0.61694    0.000
 5029.00    0.56808   0.61198    0.016
 5030.00    0.49727   0.60418    0.016
 5031.00    0.44652   0.60469    0.016
 5032.00    0.51741   0.61186    0.016
 5033.00    0.55847   0.61520    0.016
 5034.00    0.45687   0.61781    0.016
 5035.00    0.39921   0.62486    0.016
 5036.00    0.51267   0.62990    0.016
 5037.00    0.59233   0.62311    0.016
 5038.00    0.56236   0.60749    0.016
 5039.00    0.52268   0.59959    0.016
 5040.00    0.45636   0.60410    0.016
 5041.00    0.39975   0.60353    0.016
 5042.00    0.36596   0.58877    0.016
 5043.00    0.41296   0.56749    0.015
 5044.00    0.62418   0.56002    0.015
 5045.00    0.70744   0.57904    0.015
 5046.00    0.56431   0.60556    0.015
 5047.00    0.47912   0.61928    0.015
 5048.00    0.48364   0.62635    0.015
 5049.00    0.45579   0.62802    0.015
 5050.00    0.38394   0.61873    0.015
 5051.00    0.34456   0.60459    0.015
 5052.00    0.34404   0.59715    0.015
 5053.00    0.43660   0.59689    0.015
 5054.00    0.62738   0.59731    0.015
 5055.00    0.71897   0.60026    0.015
 5056.00    0.71825   0.60745    0.015
 5057.00    0.66079   0.61002    0.015
 5058.00    0.55677   0.60373    0.015
 5059.00    0.50392   0.60064    0.015
 5060.00    0.48802   0.60824    0.015
 5061.00    0.51795   0.61828    0.015
 5062.00    0.57695   0.62078    0.015
 5063.00    0.59338   0.62221    0.015
 5064.00    0.58621   0.62499    0.015
 5065.00    0.55704   0.62461    0.015
 5066.00    0.51727   0.61551    0.015
 5067.00    0.47648   0.60041    0.015
 5068.00    0.43528   0.59332    0.015
 5069.00    0.38648   0.59781    0.014
 5070.00    0.33497   0.60019    0.014
 5071.00    0.36710   0.59819    0.014
 5072.00    0.42438   0.60021    0.015
 5073.00    0.50550   0.60424    0.015
 5074.00    0.59258   0.60133    0.015
 5075.00    0.46305   0.59566    0.015
 5076.00    0.28964   0.59747    0.015
 5077.00    0.28466   0.60006    0.015
 5078.00    0.30646   0.59796    0.015
 5079.00    0.47739   0.59902    0.014
 5080.00    0.66595   0.60252    0.014
 5081.00    0.59588   0.59570    0.015
 5082.00    0.50501   0.57898    0.015
 5083.00    0.55381   0.57159    0.014
 5084.00    0.60889   0.57768    0.014
 5085.00    0.68507   0.58510    0.014
 5086.00    0.75686   0.58902    0.014
 5087.00    0.59746   0.59359    0.014
 5088.00    0.44300   0.59896    0.014
 5089.00    0.38033   0.60067    0.014
 5090.00    0.32941   0.59944    0.014
 5091.00    0.40935   0.60038    0.014
 5092.00    0.48499   0.60293    0.014
 5093.00    0.52705   0.60377    0.014
 5094.00    0.58220   0.60465    0.015
 5095.00    0.71446   0.60806    0.015
 5096.00    0.81265   0.61175    0.015
 5097.00    0.75185   0.61103    0.015
 5098.00    0.68030   0.60427    0.015
 5099.00    0.56778   0.59468    0.015
 5100.00    0.51361   0.58492    0.015
 5101.00    0.64509   0.57581    0.015
 5102.00    0.68571   0.57147    0.015
 5103.00    0.48138   0.57698    0.015
 5104.00    0.34520   0.58823    0.015
 5105.00    0.36661   0.59575    0.015
 5106.00    0.37884   0.59616    0.015
 5107.00    0.37273   0.59392    0.015
 5108.00    0.35550   0.59291    0.015
 5109.00    0.31890   0.58890    0.015
 5110.00    0.32818   0.58278    0.015
 5111.00    0.40742   0.58098    0.015
 5112.00    0.45705   0.58123    0.016
 5113.00    0.46697   0.58162    0.016
 5114.00    0.38136   0.58765    0.016
 5115.00    0.18301   0.59437    0.016
 5116.00    0.21011   0.59609    0.016
 5117.00    0.47178   0.59669    0.016
 5118.00    0.53050   0.59806    0.016
 5119.00    0.40295   0.60108    0.016
 5120.00    0.38364   0.60559    0.016
 5121.00    0.45190   0.60656    0.016
 5122.00    0.53698   0.60297    0.016
 5123.00    0.63402   0.59720    0.016
 5124.00    0.59793   0.59064    0.016
 5125.00    0.47869   0.58273    0.015
 5126.00    0.48156   0.57349    0.015
 5127.00    0.55110   0.56863    0.015
 5128.00    0.51998   0.57127    0.015
 5129.00    0.44112   0.57450    0.015
 5130.00    0.48445   0.57383    0.015
 5131.00    0.57778   0.57162    0.015
 5132.00    0.59211   0.57134    0.015
 5133.00    0.57883   0.57542    0.015
 5134.00    0.53542   0.58125    0.015
 5135.00    0.48314   0.58279    0.015
 5136.00    0.42303   0.58165    0.015
 5137.00    0.36102   0.58503    0.015
 5138.00    0.39125   0.59097    0.015
 5139.00    0.43970   0.58820    0.015
 5140.00    0.49266   0.57885    0.015
 5141.00    0.54633   0.57053    0.015
 5142.00    0.55689   0.56661    0.015
 5143.00    0.56255   0.57246    0.015
 5144.00    0.54040   0.57642    0.015
 5145.00    0.51613   0.56886    0.014
 5146.00    0.52074   0.56608    0.014
 5147.00    0.52653   0.57182    0.014
 5148.00    0.44596   0.57202    0.014
 5149.00    0.36561   0.56835    0.014
 5150.00    0.32447   0.56595    0.014
 5151.00    0.28984   0.56642    0.014
 5152.00    0.36802   0.57044    0.014
 5153.00    0.44676   0.57147    0.014
 5154.00    0.53143   0.56765    0.014
 5155.00    0.59785   0.56389    0.014
 5156.00    0.52690   0.56129    0.014
 5157.00    0.45375   0.56216    0.015
 5158.00    0.36794   0.56932    0.014
 5159.00    0.30260   0.57889    0.014
 5160.00    0.33048   0.58652    0.014
 5161.00    0.37879   0.58999    0.014
 5162.00    0.50327   0.58865    0.014
 5163.00    0.58677   0.58679    0.014
 5164.00    0.54239   0.58323    0.014
 5165.00    0.50642   0.57751    0.014
 5166.00    0.49269   0.57509    0.014
 5167.00    0.44669   0.57011    0.014
 5168.00    0.32731   0.55246    0.014
 5169.00    0.24334   0.52469    0.014
 5170.00    0.22906   0.50016    0.015
 5171.00    0.21625   0.49455    0.015
 5172.00    0.20596   0.51168    0.015
 5173.00    0.21352   0.52939    0.015
 5174.00    0.24793   0.52185    0.015
 5175.00    0.29364   0.50102    0.015
 5176.00    0.35426   0.50522    0.015
 5177.00    0.43372   0.53613    0.015
 5178.00    0.53507   0.56152    0.015
 5179.00    0.57595   0.56746    0.015
 5180.00    0.55477   0.56848    0.015
 5181.00    0.51774   0.57110    0.015
 5182.00    0.46635   0.56989    0.014
 5183.00    0.43305   0.56417    0.014
 5184.00    0.41416   0.55279    0.014
 5185.00    0.45175   0.52766    0.015
 5186.00    0.52897   0.49883    0.015
 5187.00    0.60399   0.49841    0.015
 5188.00    0.67765   0.52818    0.015
 5189.00    0.58913   0.55595    0.015
 5190.00    0.41343   0.56478    0.000
 5191.00    0.47912   0.56361    0.000
 5192.00    0.65749   0.56691    0.000
 5193.00    0.64550   0.56909    0.000
 5194.00    0.55693   0.55508    0.000
 5195.00    0.49061   0.54103    0.000
 5196.00    0.43192   0.54483    0.000
 5197.00    0.56051   0.55288    0.000
 5198.00    0.74320   0.55330    0.000
 5199.00    0.74044   0.55385    0.000
 5200.00    0.69339   0.55791    0.000
 5201.00    0.62151   0.56290    0.000
 5202.00    0.54485   0.56883    0.000
 5203.00    0.46228   0.57219    0.000
 5204.00    0.37884   0.57150    0.000
 5205.00    0.38925   0.56797    0.000
 5206.00    0.40995   0.56145    0.000
 5207.00    0.44411   0.54883    0.000
 5208.00    0.47925   0.53601    0.000
 5209.00    0.35412   0.53304    0.000
 5210.00    0.22301   0.53446    0.000
 5211.00    0.23325   0.53205    0.015
 5212.00    0.24602   0.53518    0.015
 5213.00    0.32709   0.54589    0.014
 5214.00    0.40313   0.55766    0.014
 5215.00    0.39747   0.56888    0.014
 5216.00    0.39736   0.57429    0.014
 5217.00    0.45361   0.56983    0.014
 5218.00    0.51150   0.55795    0.014
 5219.00    0.58132   0.55076    0.014
 5220.00    0.64515   0.55577    0.015
 5221.00    0.67567   0.56680    0.014
 5222.00    0.69103   0.57521    0.014
 5223.00    0.63898   0.57941    0.014
 5224.00    0.58188   0.58156    0.014
 5225.00    0.50631   0.57778    0.014
 5226.00    0.46116   0.56826    0.014
 5227.00    0.50908   0.55500    0.014
 5228.00    0.52333   0.53645    0.014
 5229.00    0.44992   0.51687    0.014
 5230.00    0.39094   0.51386    0.014
 5231.00    0.36420   0.53493    0.014
 5232.00    0.38208   0.55884    0.014
 5233.00    0.48645   0.56946    0.014
 5234.00    0.54569   0.56966    0.014
 5235.00    0.52865   0.55878    0.014
 5236.00    0.48916   0.54472    0.015
 5237.00    0.41641   0.54113    0.015
 5238.00    0.39205   0.54930    0.015
 5239.00    0.43068   0.56159    0.015
 5240.00    0.52649   0.56947    0.015
 5241.00    0.68789   0.57203    0.015
 5242.00    0.67768   0.57238    0.015
 5243.00    0.49389   0.57245    0.015
 5244.00    0.47390   0.57332    0.015
 5245.00    0.60004   0.57305    0.015
 5246.00    0.62420   0.57283    0.015
 5247.00    0.56819   0.57687    0.015
 5248.00    0.50832   0.57749    0.015
 5249.00    0.44578   0.56497    0.015
 5250.00    0.44877   0.55135    0.015
 5251.00    0.49147   0.55165    0.015
 5252.00    0.45529   0.55409    0.015
 5253.00    0.37738   0.54894    0.015
 5254.00    0.40460   0.54869    0.015
 5255.00    0.48010   0.55583    0.015
 5256.00    0.46365   0.55905    0.015
 5257.00    0.41085   0.55452    0.015
 5258.00    0.52269   0.55127    0.015
 5259.00    0.69000   0.55886    0.015
 5260.00    0.67065   0.57129    0.015
 5261.00    0.59847   0.57803    0.016
 5262.00    0.50650   0.57587    0.016
 5263.00    0.40991   0.56670    0.015
 5264.00    0.34719   0.55485    0.015
 5265.00    0.29081   0.54122    0.015
 5266.00    0.22558   0.52570    0.015
 5267.00    0.15907   0.51338    0.015
 5268.00    0.28437   0.50794    0.015
 5269.00    0.42984   0.51366    0.016
 5270.00    0.41608   0.52828    0.016
 5271.00    0.39146   0.52839    0.016
 5272.00    0.39881   0.50653    0.016
 5273.00    0.40723   0.49841    0.016
 5274.00    0.41930   0.51929    0.015
 5275.00    0.43011   0.54056    0.015
 5276.00    0.40008   0.54524    0.015
 5277.00    0.37394   0.53996    0.015
 5278.00    0.40714   0.53179    0.015
 5279.00    0.44116   0.53642    0.015
 5280.00    0.48316   0.55565    0.014
 5281.00    0.50808   0.56899    0.014
 5282.00    0.41266   0.56742    0.014
 5283.00    0.35645   0.55919    0.014
 5284.00    0.51281   0.55205    0.014
 5285.00    0.63382   0.54682    0.014
 5286.00    0.60122   0.53992    0.014
 5287.00    0.55913   0.54002    0.014
 5288.00    0.48308   0.55600    0.015
 5289.00    0.43666   0.57332    0.015
 5290.00    0.47920   0.57753    0.015
 5291.00    0.51569   0.57398    0.015
 5292.00    0.53668   0.57320    0.015
 5293.00    0.54947   0.57577    0.015
 5294.00    0.54422   0.57588    0.015
 5295.00    0.51005   0.57221    0.015
 5296.00    0.42070   0.56895    0.015
 5297.00    0.42112   0.56845    0.015
 5298.00    0.57103   0.56384    0.015
 5299.00    0.65102   0.55135    0.015
 5300.00    0.62896   0.53582    0.015
 5301.00    0.54374   0.53048    0.015
 5302.00    0.37749   0.54077    0.015
 5303.00    0.38481   0.55070    0.015
 5304.00    0.58840   0.55022    0.015
 5305.00    0.63520   0.54978    0.015
 5306.00    0.52563   0.55782    0.015
 5307.00    0.45044   0.56822    0.015
 5308.00    0.40549   0.57216    0.015
 5309.00    0.45770   0.56795    0.015
 5310.00    0.58521   0.56167    0.015
 5311.00    0.57920   0.56117    0.015
 5312.00    0.48222   0.56678    0.015
 5313.00    0.41650   0.57127    0.015
 5314.00    0.36945   0.57006    0.015
 5315.00    0.48613   0.56589    0.015
 5316.00    0.68812   0.56178    0.015
 5317.00    0.62514   0.55899    0.015
 5318.00    0.44248   0.55144    0.015
 5319.00    0.43501   0.53990    0.015
 5320.00    0.49562   0.53920    0.015
 5321.00    0.56270   0.55032    0.015
 5322.00    0.63194   0.55808    0.015
 5323.00    0.58863   0.55852    0.015
 5324.00    0.51413   0.55762    0.015
 5325.00    0.45889   0.55440    0.015
 5326.00    0.40805   0.54605    0.014
 5327.00    0.37172   0.53686    0.014
 5328.00    0.33803   0.53760    0.014
 5329.00    0.27175   0.53800    0.014
 5330.00    0.20089   0.51982    0.014
 5331.00    0.26293   0.49665    0.014
 5332.00    0.33839   0.50094    0.014
 5333.00    0.35057   0.53018    0.014
 5334.00    0.35869   0.55553    0.014
 5335.00    0.44596   0.55554    0.014
 5336.00    0.53529   0.54785    0.014
 5337.00    0.50412   0.55119    0.014
 5338.00    0.47574   0.55626    0.014
 5339.00    0.52715   0.55446    0.014
 5340.00    0.57143   0.54979    0.014
 5341.00    0.51348   0.54699    0.014
 5342.00    0.45446   0.53946    0.014
 5343.00    0.38540   0.52808    0.014
 5344.00    0.33126   0.52884    0.013
 5345.00    0.37897   0.54253    0.014
 5346.00    0.44428   0.55185    0.014
 5347.00    0.60252   0.55182    0.014
 5348.00    0.70377   0.54597    0.014
 5349.00    0.56299   0.54266    0.014
 5350.00    0.43999   0.54454    0.014
 5351.00    0.37930   0.54379    0.015
 5352.00    0.35326   0.54110    0.015
 5353.00    0.42933   0.54514    0.015
 5354.00    0.47741   0.55457    0.015
 5355.00    0.45516   0.55919    0.015
 5356.00    0.43068   0.55906    0.015
 5357.00    0.40134   0.56267    0.014
 5358.00    0.43560   0.56785    0.014
 5359.00    0.58931   0.56907    0.014
 5360.00    0.69669   0.56832    0.015
 5361.00    0.72809   0.56793    0.015
 5362.00    0.65682   0.56748    0.015
 5363.00    0.43787   0.56430    0.015
 5364.00    0.38495   0.55558    0.015
 5365.00    0.54206   0.54620    0.015
 5366.00    0.63972   0.54360    0.015
 5367.00    0.67109   0.54355    0.015
 5368.00    0.63331   0.54168   -2.000
 5369.00    0.52753   0.54027   -2.000
 5370.00    0.47793   0.54021   -2.000
 5371.00    0.47704   0.53828   -2.000
 5372.00    0.54605   0.53043   -2.000
 5373.00    0.66847   0.51695   -2.000
 5374.00    0.64101   0.50985   -2.000
 5375.00    0.51291   0.51974   -2.000
 5376.00    0.48359   0.53965   -2.000
 5377.00    0.51236   0.55359   -2.000
 5378.00    0.50770   0.55865   -2.000
 5379.00    0.48590   0.55644   -2.000
 5380.00    0.51850   0.55209   -2.000
 5381.00    0.57527   0.55265   -2.000
 5382.00    0.52762   0.55288   -2.000
 5383.00    0.44012   0.54897    0.014
 5384.00    0.43304   0.54463    0.014
 5385.00    0.45204   0.54175    0.014
 5386.00    0.36772   0.53935    0.014
 5387.00    0.25534   0.54247    0.014
 5388.00    0.25941   0.54835    0.014
 5389.00    0.28944   0.54900    0.014
 5390.00    0.38985   0.54657    0.014
 5391.00    0.50277   0.54414    0.014
 5392.00    0.43325   0.54012    0.014
 5393.00    0.33897   0.53506    0.014
 5394.00    0.37514   0.53298    0.014
 5395.00    0.42391   0.53218    0.014
 5396.00    0.37529   0.53140    0.014
 5397.00    0.32080   0.53115    0.014
 5398.00    0.34960   0.52870    0.014
 5399.00    0.38070   0.51929    0.014
 5400.00    0.43599   0.51060    0.014
 5401.00    0.48735   0.51802    0.014
 5402.00    0.43759   0.53099    0.014
 5403.00    0.39734   0.53332    0.014
 5404.00    0.48578   0.53215    0.014
 5405.00    0.55211   0.53331    0.014
 5406.00    0.41954   0.52722    0.014
 5407.00    0.31467   0.51244    0.014
 5408.00    0.39283   0.50018    0.014
 5409.00    0.45920   0.50139    0.014
 5410.00    0.46493   0.51369    0.014
 5411.00    0.47044   0.52163    0.014
 5412.00    0.47500   0.51702    0.014
 5413.00    0.48576   0.51120    0.014
 5414.00    0.51781   0.51794    0.014
 5415.00    0.51375   0.53070    0.014
 5416.00    0.40525   0.53568    0.014
 5417.00    0.36988   0.53221    0.014
 5418.00    0.51511   0.53175    0.015
 5419.00    0.62088   0.53902    0.015
 5420.00    0.64260   0.54559    0.014
 5421.00    0.62304   0.54458    0.014
 5422.00    0.52715   0.53967    0.015
 5423.00    0.44682   0.53478    0.015
 5424.00    0.39164   0.53454    0.014
 5425.00    0.38518   0.53722    0.014
 5426.00    0.44777   0.53240    0.014
 5427.00    0.53253   0.52358    0.014
 5428.00    0.64494   0.52614    0.014
 5429.00    0.68354   0.53772    0.014
 5430.00    0.64104   0.54408    0.014
 5431.00    0.52314   0.53446    0.014
 5432.00    0.33215   0.51475    0.014
 5433.00    0.26994   0.51041    0.014
 5434.00    0.31782   0.52206    0.014
 5435.00    0.33821   0.52550    0.014
 5436.00    0.33789   0.51774    0.014
 5437.00    0.38854   0.51165    0.013
 5438.00    0.47291   0.51190    0.013
 5439.00    0.47534   0.51752    0.013
 5440.00    0.43028   0.52664    0.014
 5441.00    0.39834   0.53727    0.014
 5442.00    0.37302   0.54460    0.014
 5443.00    0.40462   0.54723    0.014
 5444.00    0.46111   0.54729    0.014
 5445.00    0.45119   0.54628    0.014
 5446.00    0.41637   0.54515    0.014
 5447.00    0.44754   0.53875    0.014
 5448.00    0.49971   0.52446    0.013
 5449.00    0.43898   0.50790    0.014
 5450.00    0.34823   0.50306    0.014
 5451.00    0.39649   0.51584    0.014
 5452.00    0.47497   0.53010    0.014
 5453.00    0.48937   0.53538    0.014
 5454.00    0.49269   0.53529    0.014
 5455.00    0.41557   0.53317    0.014
 5456.00    0.32789   0.52850    0.014
 5457.00    0.36645   0.51736    0.014
 5458.00    0.41667   0.50324    0.014
 5459.00    0.41375   0.50284    0.014
 5460.00    0.40785   0.51766    0.014
 5461.00    0.39378   0.53096    0.014
 5462.00    0.37955   0.53458    0.015
 5463.00    0.36692   0.53119    0.014
 5464.00    0.35641   0.52480    0.014
 5465.00    0.39579   0.51747    0.015
 5466.00    0.43520   0.51157    0.015
 5467.00    0.47494   0.51508    0.014
 5468.00    0.50916   0.52259    0.014
 5469.00    0.49571   0.52301    0.014
 5470.00    0.48776   0.52259    0.015
 5471.00    0.51513   0.52637    0.014
 5472.00    0.53440   0.52687    0.014
 5473.00    0.51304   0.52273    0.014
 5474.00    0.48620   0.52137    0.014
 5475.00    0.43716   0.52059    0.014
 5476.00    0.38914   0.51565    0.014
 5477.00    0.34460   0.51306    0.014
 5478.00    0.32445   0.50998   -2.000
 5479.00    0.37362   0.49765   -2.000
 5480.00    0.38418   0.49177   -2.000
 5481.00    0.30103   0.50381   -2.000
 5482.00    0.24787   0.51730   -2.000
 5483.00    0.25752   0.51663   -2.000
 5484.00    0.23278   0.50719   -2.000
 5485.00    0.14540   0.50561   -2.000
 5486.00    0.09716   0.51326   -2.000
 5487.00    0.11124   0.52247   -2.000
 5488.00   -0.02228   0.52890   -2.000
 5489.00   -0.36201   0.52532   -2.000
 5490.00   -0.26933   0.51459   -2.000
 5491.00    0.35493   0.51165   -2.000
 5492.00    0.86499   0.52296   -2.000
 5493.00    1.25128   0.52857   -2.000
 5494.00    1.19752   0.52386   -2.000
 5495.00    0.72312   0.52132   -2.000
 5496.00    0.47779   0.51774   -2.000
 5497.00    0.42555   0.51671   -2.000
 5498.00    0.44257   0.52053   -2.000
 5499.00    0.51098   0.51909   -2.000
 5500.00    0.53187   0.51193   -2.000
 5501.00    0.52179   0.51308   -2.000
 5502.00    0.52038   0.52266   -1.000
 5503.00    0.52392   0.52283   -1.000
 5504.00    0.49924   0.51262   -1.000
 5505.00    0.46053   0.50632   -1.000
 5506.00    0.48814   0.50828   -1.000
 5507.00    0.54424   0.51270   -1.000
 5508.00    0.46290   0.51027    0.038
 5509.00    0.33093   0.50174    0.016
 5510.00    0.40121   0.50187    0.014
 5511.00    0.53461   0.51109    0.014
 5512.00    0.55653   0.51470    0.014
 5513.00    0.54944   0.51161    0.014
 5514.00    0.53092   0.50690    0.014
 5515.00    0.50998   0.50207    0.014
 5516.00    0.50783   0.50027    0.014
 5517.00    0.50883   0.50287    0.014
 5518.00    0.45272   0.50744    0.014
 5519.00    0.38938   0.51096    0.014
 5520.00    0.35423   0.51435    0.014
 5521.00    0.32156   0.52074    0.014
 5522.00    0.23415   0.52453    0.014
 5523.00    0.14387   0.52302    0.014
 5524.00    0.30367   0.52054    0.014
 5525.00    0.46514   0.52019    0.014
 5526.00    0.39969   0.52054    0.013
 5527.00    0.33352   0.51897    0.013
 5528.00    0.25162   0.51461    0.013
 5529.00    0.17586   0.50919    0.013
 5530.00    0.17512   0.50075    0.013
 5531.00    0.20244   0.49315    0.013
 5532.00    0.46370   0.49745    0.013
 5533.00    0.68235   0.50891    0.013
 5534.00    0.63581   0.51479    0.013
 5535.00    0.59539   0.51426    0.013
 5536.00    0.58480   0.51120    0.013
 5537.00    0.56831   0.50609    0.013
 5538.00    0.52837   0.50239    0.013
 5539.00    0.48208   0.50581    0.013
 5540.00    0.41484   0.51096    0.013
 5541.00    0.38886   0.51166    0.013
 5542.00    0.47792   0.51448    0.013
 5543.00    0.56673   0.51899    0.013
 5544.00    0.65492   0.52041    0.013
 5545.00    0.69163   0.51689    0.013
 5546.00    0.62222   0.51091    0.013
 5547.00    0.51748   0.50828    0.013
 5548.00    0.34940   0.50902    0.013
 5549.00    0.26289   0.50947    0.013
 5550.00    0.30433   0.51218    0.013
 5551.00    0.35908   0.51668    0.013
 5552.00    0.43215   0.51983    0.014
 5553.00    0.49934   0.52124    0.014
 5554.00    0.55942   0.52120    0.014
 5555.00    0.54065   0.51810    0.014
 5556.00    0.43764   0.51317    0.014
 5557.00    0.37430   0.50873    0.014
 5558.00    0.34835   0.50883    0.013
 5559.00    0.37279   0.51113    0.013
 5560.00    0.43910   0.51068    0.013
 5561.00    0.43959   0.50933    0.013
 5562.00    0.39191   0.50991    0.013
 5563.00    0.39188   0.51023    0.013
 5564.00    0.42244   0.50879    0.013
 5565.00    0.43725   0.50496    0.013
 5566.00    0.44321   0.50180    0.013
 5567.00    0.39168   0.50317    0.013
 5568.00    0.31204   0.50331    0.013
 5569.00    0.34184   0.50054    0.013
 5570.00    0.41788   0.49995    0.013
 5571.00    0.48280   0.49989    0.013
 5572.00    0.54370   0.49716    0.013
 5573.00    0.52063   0.49833    0.013
 5574.00    0.47187   0.50380    0.013
 5575.00    0.49834   0.50054    0.012
 5576.00    0.54397   0.49496    0.012
 5577.00    0.55246   0.49976    0.012
 5578.00    0.55326   0.50476    0.013
 5579.00    0.50994   0.50394    0.013
 5580.00    0.45942   0.50427    0.013
 5581.00    0.46217   0.50545    0.013
 5582.00    0.47143   0.50639    0.013
 5583.00    0.45916   0.50823    0.013
 5584.00    0.44509   0.50703    0.013
 5585.00    0.41928   0.50407    0.013
 5586.00    0.39290   0.50362    0.013
 5587.00    0.38604   0.50348    0.013
 5588.00    0.38044   0.49819    0.013
 5589.00    0.43234   0.48704    0.013
 5590.00    0.48392   0.47674    0.013
 5591.00    0.52943   0.47397    0.013
 5592.00    0.56650   0.47687    0.014
 5593.00    0.50563   0.48371    0.014
 5594.00    0.45050   0.49091    0.014
 5595.00    0.44150   0.49298    0.014
 5596.00    0.43966   0.49112    0.014
 5597.00    0.48102   0.48874    0.014
 5598.00    0.52227   0.49381    0.014
 5599.00    0.56292   0.50403    0.014
 5600.00    0.57325   0.50334    0.014
 5601.00    0.46578   0.49324    0.014
 5602.00    0.43042   0.48868    0.014
 5603.00    0.62837   0.48866    0.014
 5604.00    0.71116   0.48546    0.014
 5605.00    0.47858   0.48168    0.014
 5606.00    0.32439   0.48330    0.013
 5607.00    0.35416   0.49275    0.013
 5608.00    0.39125   0.50287    0.013
 5609.00    0.44318   0.50909    0.013
 5610.00    0.49587   0.51096    0.013
 5611.00    0.54990   0.50971    0.013
 5612.00    0.57759   0.50805    0.013
 5613.00    0.56458   0.50690    0.013
 5614.00    0.53244   0.50808    0.013
 5615.00    0.47433   0.51015    0.012
 5616.00    0.47313   0.50903    0.012
 5617.00    0.53993   0.49708    0.013
 5618.00    0.55810   0.47787    0.013
 5619.00    0.52504   0.47349    0.012
 5620.00    0.42619   0.48567    0.012
 5621.00    0.26621   0.49363    0.012
 5622.00    0.24175   0.49172    0.012
 5623.00    0.32831   0.49025    0.012
 5624.00    0.37546   0.49435    0.012
 5625.00    0.39420   0.49866    0.013
 5626.00    0.46146   0.49505    0.013
 5627.00    0.55942   0.48404    0.012
 5628.00    0.59689   0.47909    0.012
 5629.00    0.60089   0.48498    0.013
 5630.00    0.55842   0.49129    0.013
 5631.00    0.49359   0.49410    0.013
 5632.00    0.46322   0.49827    0.013
 5633.00    0.44716   0.50159    0.013
 5634.00    0.48102   0.50233    0.013
 5635.00    0.53261   0.50145    0.013
 5636.00    0.50715   0.49894    0.013
 5637.00    0.45856   0.49651    0.013
 5638.00    0.41788   0.49411    0.013
 5639.00    0.37916   0.49026    0.013
 5640.00    0.36109   0.48626    0.013
 5641.00    0.34718   0.48580    0.013
 5642.00    0.38962   0.48901    0.013
 5643.00    0.44098   0.48921    0.013
 5644.00    0.49401   0.48509    0.013
 5645.00    0.54724   0.48480    0.013
 5646.00    0.46046   0.48706    0.013
 5647.00    0.36250   0.48831    0.013
 5648.00    0.38729   0.48911    0.013
 5649.00    0.41754   0.49017    0.013
 5650.00    0.34542   0.49208    0.012
 5651.00    0.27376   0.49290    0.012
 5652.00    0.28127   0.49115    0.012
 5653.00    0.29076   0.48938    0.012
 5654.00    0.33678   0.49182    0.012
 5655.00    0.38403   0.49589    0.012
 5656.00    0.44487   0.49638    0.012
 5657.00    0.50575   0.49097    0.012
 5658.00    0.56698   0.48659    0.012
 5659.00    0.61611   0.48874    0.012
 5660.00    0.59421   0.48433    0.012
 5661.00    0.57196   0.46986    0.012
 5662.00    0.54812   0.46642    0.012
 5663.00    0.52270   0.47798    0.012
 5664.00    0.49126   0.48333    0.012
 5665.00    0.45955   0.47803    0.012
 5666.00    0.42696   0.47610    0.012
 5667.00    0.39601   0.48294    0.012
 5668.00    0.36945   0.49024    0.012
 5669.00    0.35565   0.49043    0.012
 5670.00    0.37130   0.48621    0.012
 5671.00    0.39214   0.48390    0.013
 5672.00    0.42334   0.48392    0.013
 5673.00    0.44897   0.48489    0.013
 5674.00    0.46490   0.48691    0.013
 5675.00    0.47403   0.49156    0.013
 5676.00    0.47282   0.49637    0.013
 5677.00    0.44856   0.49670    0.013
 5678.00    0.39349   0.49359    0.013
 5679.00    0.40303   0.49360    0.013
 5680.00    0.48868   0.49541    0.013
 5681.00    0.51144   0.49347    0.013
 5682.00    0.46887   0.49055    0.013
 5683.00    0.44319   0.48983    0.013
 5684.00    0.43298   0.48855    0.013
 5685.00    0.38669   0.48306    0.013
 5686.00    0.31126   0.47972    0.012
 5687.00    0.31370   0.48322    0.012
 5688.00    0.37147   0.48609    0.012
 5689.00    0.38227   0.48321    0.012
 5690.00    0.36380   0.47834    0.012
 5691.00    0.37794   0.47648    0.012
 5692.00    0.40984   0.47973    0.012
 5693.00    0.45031   0.48535    0.012
 5694.00    0.49484   0.48940    0.012
 5695.00    0.50857   0.49255    0.012
 5696.00    0.50973   0.49372    0.012
 5697.00    0.52501   0.49136    0.012
 5698.00    0.54523   0.48877    0.012
 5699.00    0.50408   0.48946    0.012
 5700.00    0.44489   0.48877    0.012
 5701.00    0.43860   0.48347    0.012
 5702.00    0.44521   0.48068    0.012
 5703.00    0.42563   0.47945    0.012
 5704.00    0.40091   0.47495    0.012
 5705.00    0.35655   0.47257    0.012
 5706.00    0.30919   0.47630    0.012
 5707.00    0.32066   0.48141    0.012
 5708.00    0.33879   0.48085    0.012
 5709.00    0.31853   0.47496    0.012
 5710.00    0.29537   0.46974    0.012
 5711.00    0.35082   0.46594    0.012
 5712.00    0.40946   0.46244    0.012
 5713.00    0.49474   0.46394    0.013
 5714.00    0.57780   0.46580    0.013
 5715.00    0.56138   0.46633    0.013
 5716.00    0.54484   0.47340    0.012
 5717.00    0.52633   0.48131    0.013
 5718.00    0.50851   0.48398    0.013
 5719.00    0.49779   0.48510    0.013
 5720.00    0.49453   0.48520    0.013
 5721.00    0.54714   0.48460    0.013
 5722.00    0.58319   0.48543    0.012
 5723.00    0.52468   0.48687    0.012
 5724.00    0.48326   0.48858    0.012
 5725.00    0.51945   0.49115    0.012
 5726.00    0.55931   0.49251    0.012
 5727.00    0.61284   0.49134    0.012
 5728.00    0.65360   0.48951    0.012
 5729.00    0.65464   0.48502    0.012
 5730.00    0.62071   0.47954    0.012
 5731.00    0.49435   0.47956    0.012
 5732.00    0.40221   0.48415    0.012
 5733.00    0.38769   0.48498    0.012
 5734.00    0.39719   0.48004    0.012
 5735.00    0.45388   0.47812    0.012
 5736.00    0.48790   0.48289    0.012
 5737.00    0.48312   0.48798    0.012
 5738.00    0.46861   0.48935    0.012
 5739.00    0.43951   0.48767    0.012
 5740.00    0.43087   0.48516    0.000
 5741.00    0.44920   0.48351    0.000
 5742.00    0.45462   0.48295    0.000
 5743.00    0.44506   0.48330    0.000
 5744.00    0.44502   0.48331    0.000
 5745.00    0.45473   0.48237    0.000
 5746.00    0.45501   0.48155    0.000
 5747.00    0.44676   0.48310    0.000
 5748.00    0.42893   0.48650    0.000
 5749.00    0.40346   0.48765    0.000
 5750.00    0.43747   0.48261    0.000
 5751.00    0.51311   0.47590    0.000
 5752.00    0.55269   0.47741    0.000
 5753.00    0.57011   0.48374    0.000
 5754.00    0.57837   0.48559    0.000
 5755.00    0.58172   0.48032    0.000
 5756.00    0.54133   0.47143    0.000
 5757.00    0.48055   0.46631    0.000
 5758.00    0.45212   0.47045    0.000
 5759.00    0.43667   0.47929    0.000
 5760.00    0.44604   0.48487    0.000
 5761.00    0.46391   0.48613    0.000
 5762.00    0.39494   0.48372    0.000
 5763.00    0.30094   0.47890    0.000
 5764.00    0.35755   0.47286    0.000
 5765.00    0.45001   0.46686    0.000
 5766.00    0.46186   0.46570    0.000
 5767.00    0.45825   0.47303    0.000
 5768.00    0.48609   0.48109    0.000
 5769.00    0.51862   0.48397    0.000
 5770.00    0.57205   0.48415    0.000
 5771.00    0.62777   0.48340    0.000
 5772.00    0.62143   0.48193    0.000
 5773.00    0.61064   0.48093    0.000
 5774.00    0.55842   0.48020    0.000
 5775.00    0.50468   0.47821    0.000
 5776.00    0.50388   0.47722    0.000
 5777.00    0.50333   0.47689    0.000
 5778.00    0.50343   0.47619    0.000
 5779.00    0.50213   0.47757    0.000
 5780.00    0.47846   0.47957    0.000
 5781.00    0.45558   0.47957    0.000
 5782.00    0.44078   0.47630    0.000
 5783.00    0.42872   0.46830    0.000
 5784.00    0.43654   0.45762    0.000
 5785.00    0.43834   0.45404    0.000
 5786.00    0.40661   0.45728    0.000
 5787.00    0.39004   0.45742    0.000
 5788.00    0.44065   0.45444    0.000
 5789.00    0.47577   0.45756    0.000
 5790.00    0.45443   0.46530    0.000
 5791.00    0.44603   0.47036   -2.000
 5792.00    0.47715   0.47287   -2.000
 5793.00    0.48036   0.47097   -2.000
 5794.00    0.41110   0.46694   -2.000
 5795.00    0.34653   0.46761   -2.000
 5796.00    0.29241   0.47189   -2.000
 5797.00    0.30850   0.47570   -2.000
 5798.00    0.46038   0.47861   -2.000
 5799.00    0.56475   0.47797   -2.000
 5800.00    0.58897   0.47216   -2.000
 5801.00    0.57608   0.46752   -2.000
 5802.00    0.50834   0.47108   -2.000
 5803.00    0.46569   0.47838   -2.000
 5804.00    0.45564   0.48212   -2.000
 5805.00    0.47211   0.48342   -2.000
 5806.00    0.51895   0.48159   -2.000
 5807.00    0.53782   0.47574   -2.000
 5808.00    0.52845   0.47128   -2.000
 5809.00    0.53824   0.47058   -2.000
 5810.00    0.56511   0.47215   -2.000
 5811.00    0.52926   0.47373    0.000
 5812.00    0.44418   0.47476    0.000
 5813.00    0.38851   0.47634    0.000
 5814.00    0.35313   0.47792    0.000
 5815.00    0.29977   0.47740    0.000
 5816.00    0.23553   0.47520    0.000
 5817.00    0.24988   0.47279    0.000
 5818.00    0.30573   0.46939    0.000
 5819.00    0.35309   0.46626    0.000
 5820.00    0.39655   0.46757    0.000
 5821.00    0.39962   0.47342    0.000
 5822.00    0.38676   0.47792    0.000
 5823.00    0.51231   0.47927    0.000
 5824.00    0.68439   0.47904    0.000
 5825.00    0.74704   0.47710    0.000
 5826.00    0.77879   0.47505    0.000
 5827.00    0.62310   0.47386    0.000
 5828.00    0.42379   0.47465    0.000
 5829.00    0.39727   0.47552    0.000
 5830.00    0.40304   0.47605    0.000
 5831.00    0.41802   0.47684    0.000
 5832.00    0.43433   0.47722    0.000
 5833.00    0.45087   0.47715    0.000
 5834.00    0.46743   0.47627    0.000
 5835.00    0.46142   0.47598    0.000
 5836.00    0.45388   0.47551    0.000
 5837.00    0.46665   0.47314    0.000
 5838.00    0.48010   0.47099    0.000
 5839.00    0.43967   0.47210    0.000
 5840.00    0.40205   0.47315    0.000
 5841.00    0.45433   0.47125    0.000
 5842.00    0.50221   0.47039    0.000
 5843.00    0.48357   0.47332    0.000
 5844.00    0.46634   0.47689    0.000
 5845.00    0.46280   0.47766    0.000
 5846.00    0.45665   0.47696    0.000
 5847.00    0.43216   0.47503    0.000
 5848.00    0.41416   0.47211    0.000
 5849.00    0.43129   0.46866    0.000
 5850.00    0.43216   0.46571    0.000
 5851.00    0.36257   0.46584    0.000
 5852.00    0.32083   0.46746    0.000
 5853.00    0.37848   0.46774    0.000
 5854.00    0.43920   0.46635    0.000
 5855.00    0.50918   0.46257    0.000
 5856.00    0.55758   0.45730    0.000
 5857.00    0.55095   0.45626    0.000
 5858.00    0.54173   0.45921    0.000
 5859.00    0.52684   0.45822    0.000
 5860.00    0.50647   0.45119    0.000
 5861.00    0.47569   0.44646    0.000
 5862.00    0.45153   0.44971    0.000
 5863.00    0.43837   0.45633    0.000
 5864.00    0.44242   0.46063    0.000
 5865.00    0.47154   0.46000    0.000
 5866.00    0.48197   0.45904    0.000
 5867.00    0.46849   0.46101    0.000
 5868.00    0.47551   0.46232    0.000
 5869.00    0.50568   0.45956    0.000
 5870.00    0.49377   0.45687    0.000
 5871.00    0.43996   0.45968    0.000
 5872.00    0.40700   0.46459    0.000
 5873.00    0.39236   0.46698    0.000
 5874.00    0.42359   0.46642    0.000
 5875.00    0.49031   0.46383    0.000
 5876.00    0.54693   0.46157    0.000
 5877.00    0.59669   0.45971    0.000
 5878.00    0.60831   0.45751    0.000
 5879.00    0.59719   0.45518    0.000
 5880.00    0.58209   0.45482    0.000
 5881.00    0.56492   0.45715    0.000
 5882.00    0.49625   0.45614    0.000
 5883.00    0.40438   0.45290    0.000
 5884.00    0.34955   0.45207    0.000
 5885.00    0.30908   0.45438    0.000
 5886.00    0.35956   0.45429    0.000
 5887.00    0.44003   0.45161    0.000
 5888.00    0.50351   0.45100    0.000
 5889.00    0.56229   0.45244    0.000
 5890.00    0.52902   0.44939    0.000
 5891.00    0.47481   0.43346    0.000
 5892.00    0.42689   0.40137    0.000
 5893.00    0.38012   0.37577    0.000
 5894.00    0.40453   0.38363    0.000
 5895.00    0.43887   0.40917    0.000
 5896.00    0.44697   0.42505    0.000
 5897.00    0.45243   0.42531    0.000
 5898.00    0.43646   0.40687    0.000
 5899.00    0.41913   0.38866    0.000
 5900.00    0.37257   0.39753    0.000
 5901.00    0.32522   0.42079    0.012
 5902.00    0.30032   0.43427    0.011
 5903.00    0.27707   0.44011    0.011
 5904.00    0.30032   0.44505    0.011
 5905.00    0.32816   0.44793    0.011
 5906.00    0.42153   0.44935    0.011
 5907.00    0.50676   0.45062    0.011
 5908.00    0.51629   0.45020    0.011
 5909.00    0.51761   0.44935    0.011
 5910.00    0.46309   0.45057    0.011
 5911.00    0.41382   0.45263    0.011
 5912.00    0.39220   0.45300    0.011
 5913.00    0.38032   0.45270    0.011
 5914.00    0.40970   0.45443    0.011
 5915.00    0.43969   0.45454    0.011
 5916.00    0.47183   0.44942    0.011
 5917.00    0.49680   0.44261    0.011
 5918.00    0.50073   0.44058    0.011
 5919.00    0.51588   0.44219    0.011
 5920.00    0.55919   0.44576    0.011
 5921.00    0.59460   0.44875    0.012
 5922.00    0.61291   0.44963    0.011
 5923.00    0.60448   0.45064    0.011
 5924.00    0.54587   0.45025    0.012
 5925.00    0.47283   0.44833    0.012
 5926.00    0.37616   0.44840    0.011
 5927.00    0.35404   0.45017    0.012
 5928.00    0.43893   0.45147    0.012
 5929.00    0.49842   0.45277    0.012
 5930.00    0.52583   0.45259    0.012
 5931.00    0.49874   0.45025    0.012
 5932.00    0.41099   0.44625    0.011
 5933.00    0.40840   0.44326    0.011
 5934.00    0.48940   0.44571    0.011
 5935.00    0.54765   0.45089    0.011
 5936.00    0.58620   0.45185    0.011
 5937.00    0.57667   0.44750    0.011
 5938.00    0.53048   0.44478    0.011
 5939.00    0.49710   0.44735    0.011
 5940.00    0.47229   0.45072    0.011
 5941.00    0.46422   0.45231    0.011
 5942.00    0.46597   0.45320    0.011
 5943.00    0.44121   0.45132    0.011
 5944.00    0.40286   0.44577    0.011
 5945.00    0.37381   0.44282    0.011
 5946.00    0.34888   0.44433    0.011
 5947.00    0.37595   0.44677    0.011
 5948.00    0.42282   0.44921    0.011
 5949.00    0.47695   0.45119    0.011
 5950.00    0.53342   0.45027    0.011
 5951.00    0.54214   0.44538    0.011
 5952.00    0.53791   0.44115    0.011
 5953.00    0.50986   0.44301    0.011
 5954.00    0.47652   0.44677    0.011
 5955.00    0.45336   0.44497    0.011
 5956.00    0.43202   0.44100    0.011
 5957.00    0.46327   0.44265    0.012
 5958.00    0.50163   0.44591    0.012
 5959.00    0.46038   0.44297    0.012
 5960.00    0.41147   0.43853    0.011
 5961.00    0.38642   0.43855    0.011
 5962.00    0.36279   0.44215    0.011
 5963.00    0.45967   0.44666    0.011
 5964.00    0.55914   0.44930    0.011
 5965.00    0.58363   0.45097    0.011
 5966.00    0.60652   0.45141    0.011
 5967.00    0.58863   0.45059    0.011
 5968.00    0.57058   0.44800    0.011
 5969.00    0.55055   0.44545    0.011
 5970.00    0.53253   0.44645    0.011
 5971.00    0.53255   0.44872    0.011
 5972.00    0.53775   0.45003    0.011
 5973.00    0.57706   0.45122    0.011
 5974.00    0.60024   0.45224    0.011
 5975.00    0.54079   0.45228    0.011
 5976.00    0.47814   0.45175    0.011
 5977.00    0.40222   0.45016    0.011
 5978.00    0.36331   0.44667    0.011
 5979.00    0.45118   0.44212    0.011
 5980.00    0.52359   0.43816    0.011
 5981.00    0.55142   0.43570    0.011
 5982.00    0.55712   0.43736    0.011
 5983.00    0.50828   0.44274    0.011
 5984.00    0.46755   0.44694    0.011
 5985.00    0.44406   0.44610    0.011
 5986.00    0.44196   0.44064    0.011
 5987.00    0.47936   0.43415    0.011
 5988.00    0.50756   0.43310    0.011
 5989.00    0.52093   0.43692    0.011
 5990.00    0.53361   0.43949    0.011
 5991.00    0.54530   0.44073    0.011
 5992.00    0.52425   0.44322    0.011
 5993.00    0.46242   0.44442    0.011
 5994.00    0.42647   0.44219    0.011
 5995.00    0.41890   0.44071    0.011
 5996.00    0.42656   0.44375    0.011
 5997.00    0.44897   0.44778    0.011
 5998.00    0.50541   0.44845    0.011
 5999.00    0.59089   0.44525    0.011
 6000.00    0.63375   0.44004    0.011
 6001.00    0.64457   0.43692    0.011
 6002.00    0.63541   0.43809    0.011
 6003.00    0.61305   0.44097    0.011
 6004.00    0.60342   0.44221    0.011
 6005.00    0.60114   0.44016    0.011
 6006.00    0.56181   0.43743    0.011
 6007.00    0.50382   0.43821    0.011
 6008.00    0.49086   0.44015    0.011
 6009.00    0.49752   0.43863    0.011
 6010.00    0.52946   0.43392    0.011
 6011.00    0.57085   0.42924    0.011
 6012.00    0.59171   0.43055    0.011
 6013.00    0.60605   0.43748    0.011
 6014.00    0.63845   0.44203    0.012
 6015.00    0.67565   0.43975    0.012
 6016.00    0.64622   0.43444    0.011
 6017.00    0.60234   0.43336    0.011
 6018.00    0.57102   0.43596    0.011
 6019.00    0.54185   0.43567    0.012
 6020.00    0.52377   0.43366    0.012
 6021.00    0.50712   0.43470    0.012
 6022.00    0.48187   0.43526    0.011
 6023.00    0.45582   0.43267    0.011
 6024.00    0.51795   0.43072    0.011
 6025.00    0.58500   0.43148    0.012
 6026.00    0.56143   0.43293    0.011
 6027.00    0.53541   0.43349    0.011
 6028.00    0.46326   0.43577    0.011
 6029.00    0.39506   0.43815    0.011
 6030.00    0.41858   0.43747    0.011
 6031.00    0.44095   0.43809    0.011
 6032.00    0.44860   0.44076    0.011
 6033.00    0.45551   0.44215    0.011
 6034.00    0.45601   0.44173    0.011
 6035.00    0.46637   0.44198    0.011
 6036.00    0.53968   0.44340    0.011
 6037.00    0.60549   0.44415    0.011
 6038.00    0.63382   0.44398    0.011
 6039.00    0.64557   0.44356    0.011
 6040.00    0.59023   0.44332    0.011
 6041.00    0.53603   0.44301    0.011
 6042.00    0.48562   0.44174    0.011
 6043.00    0.45112   0.43961    0.011
 6044.00    0.46168   0.43855    0.011
 6045.00    0.48952   0.43888    0.011
 6046.00    0.55925   0.44065    0.011
 6047.00    0.62820   0.44269    0.011
 6048.00    0.69553   0.44347    0.011
 6049.00    0.70877   0.44333    0.012
 6050.00    0.62367   0.44332    0.012
 6051.00    0.57984   0.44345    0.011
 6052.00    0.60159   0.44272    0.011
 6053.00    0.61824   0.44280    0.011
 6054.00    0.62777   0.44376    0.011
 6055.00    0.61791   0.44263    0.011
 6056.00    0.58426   0.43943    0.011
 6057.00    0.54586   0.43719    0.011
 6058.00    0.50234   0.43598    0.011
 6059.00    0.47600   0.43436    0.011
 6060.00    0.46606   0.43381    0.011
 6061.00    0.48422   0.43564    0.011
 6062.00    0.52602   0.43838    0.011
 6063.00    0.54743   0.43972    0.011
 6064.00    0.55372   0.43956    0.010
 6065.00    0.53699   0.43806    0.011
 6066.00    0.50526   0.43568    0.011
 6067.00    0.49633   0.43191    0.011
 6068.00    0.50038   0.42620    0.011
 6069.00    0.51581   0.42503    0.011
 6070.00    0.53689   0.43183    0.011
 6071.00    0.53082   0.43885    0.011
 6072.00    0.51311   0.44134    0.011
 6073.00    0.53556   0.44120    0.011
 6074.00    0.57277   0.44117    0.011
 6075.00    0.60330   0.44226    0.011
 6076.00    0.63174   0.44311    0.011
 6077.00    0.59073   0.44330    0.011
 6078.00    0.53169   0.44303    0.011
 6079.00    0.52455   0.44124    0.011
 6080.00    0.52839   0.43775    0.011
 6081.00    0.55008   0.43315    0.011
 6082.00    0.57475   0.43045    0.011
 6083.00    0.55768   0.43145    0.011
 6084.00    0.53534   0.43137    0.011
 6085.00    0.50261   0.42832    0.011
 6086.00    0.46896   0.42748    0.011
 6087.00    0.50724   0.42935    0.011
 6088.00    0.54923   0.42997    0.011
 6089.00    0.50129   0.42995    0.011
 6090.00    0.45210   0.43139    0.011
 6091.00    0.43104   0.43342    0.011
 6092.00    0.41309   0.43250    0.011
 6093.00    0.46145   0.42875    0.011
 6094.00    0.50929   0.42649    0.010
 6095.00    0.55095   0.42689    0.010
 6096.00    0.58948   0.42777    0.010
 6097.00    0.60205   0.42990    0.010
 6098.00    0.61102   0.43364    0.011
 6099.00    0.59769   0.43506    0.011
 6100.00    0.58145   0.43337    0.011
 6101.00    0.55110   0.43204    0.011
 6102.00    0.52740   0.43336    0.011
 6103.00    0.52999   0.43506    0.011
 6104.00    0.53148   0.43171    0.011
 6105.00    0.52934   0.41999    0.011
 6106.00    0.52173   0.41027    0.011
 6107.00    0.49892   0.41476    0.011
 6108.00    0.47997   0.42565    0.011
 6109.00    0.47021   0.43113    0.011
 6110.00    0.47218   0.43053    0.011
 6111.00    0.49829   0.42870    0.011
 6112.00    0.51889   0.43032    0.011
 6113.00    0.52964   0.43289    0.011
 6114.00    0.53191   0.43160    0.011
 6115.00    0.52091   0.42941    0.011
 6116.00    0.52664   0.43082    0.011
 6117.00    0.55536   0.43380    0.011
 6118.00    0.56359   0.43459    0.011
 6119.00    0.54701   0.43175    0.011
 6120.00    0.52775   0.42965    0.011
 6121.00    0.50561   0.43109    0.010
 6122.00    0.49529   0.43080    0.010
 6123.00    0.49608   0.42623    0.010
 6124.00    0.49724   0.41924    0.010
 6125.00    0.49870   0.41261    0.010
 6126.00    0.49815   0.41354    0.010
 6127.00    0.49612   0.42159    0.011
 6128.00    0.48063   0.42631    0.011
 6129.00    0.45651   0.42551    0.010
 6130.00    0.42908   0.42373    0.010
 6131.00    0.39980   0.42197    0.010
 6132.00    0.40167   0.42192    0.011
 6133.00    0.41875   0.42538    0.011
 6134.00    0.43125   0.42914    0.011
 6135.00    0.44181   0.43030    0.011
 6136.00    0.46778   0.43049    0.011
 6137.00    0.49930   0.42870    0.011
 6138.00    0.47005   0.42161    0.011
 6139.00    0.42225   0.40858    0.011
 6140.00    0.43630   0.39618    0.011
 6141.00    0.46606   0.39740    0.011
 6142.00    0.53182   0.41234    0.011
 6143.00    0.60501   0.42372    0.011
 6144.00    0.61089   0.42135    0.011
 6145.00    0.60583   0.41569    0.011
 6146.00    0.59145   0.41850    0.011
 6147.00    0.57594   0.42634    0.011
 6148.00    0.54391   0.43093    0.010
 6149.00    0.51050   0.43010    0.010
 6150.00    0.48463   0.42655    0.010
 6151.00    0.45912   0.42205    0.010
 6152.00    0.47657   0.41811    0.010
 6153.00    0.49499   0.41655    0.010
 6154.00    0.53309   0.41802    0.010
 6155.00    0.56946   0.42138    0.011
 6156.00    0.57170   0.42417    0.011
 6157.00    0.57038   0.42282    0.011
 6158.00    0.52793   0.41852    0.011
 6159.00    0.48931   0.41659    0.011
 6160.00    0.48144   0.41637    0.011
 6161.00    0.47312   0.41632    0.011
 6162.00    0.46209   0.41689    0.011
 6163.00    0.44971   0.41373    0.011
 6164.00    0.43093   0.40210    0.011
 6165.00    0.41671   0.38942    0.011
 6166.00    0.42014   0.38653    0.011
 6167.00    0.41900   0.39337    0.011
 6168.00    0.40310   0.40234    0.011
 6169.00    0.40582   0.40782    0.011
 6170.00    0.45939   0.41133    0.011
 6171.00    0.48627   0.41129    0.011
 6172.00    0.45067   0.40304    0.011
 6173.00    0.42096   0.39511    0.010
 6174.00    0.40317   0.39850    0.010
 6175.00    0.40992   0.40766    0.010
 6176.00    0.45991   0.41178    0.010
 6177.00    0.47701   0.41158    0.010
 6178.00    0.44337   0.41137    0.010
 6179.00    0.40597   0.41099    0.010
 6180.00    0.36345   0.41063    0.010
 6181.00    0.35432   0.41221    0.010
 6182.00    0.38500   0.41404    0.010
 6183.00    0.40100   0.41377    0.010
 6184.00    0.40158   0.41404    0.010
 6185.00    0.43153   0.41637    0.010
 6186.00    0.48874   0.41757    0.011
 6187.00    0.54432   0.41686    0.011
 6188.00    0.59858   0.41597    0.011
 6189.00    0.57949   0.41340    0.011
 6190.00    0.50760   0.40938    0.011
 6191.00    0.42671   0.40703    0.011
 6192.00    0.34013   0.40700    0.011
 6193.00    0.41982   0.40502    0.011
 6194.00    0.59134   0.39768    0.011
 6195.00    0.74037   0.39385    0.012
 6196.00    0.87859   0.40066   -2.000
 6197.00    0.85721   0.40953   -2.000
 6198.00    0.76965   0.41299   -2.000
 6199.00    0.51251   0.41385   -2.000
 6200.00    0.19525   0.41486   -2.000
 6201.00    0.07521   0.41380   -2.000
 6202.00    0.01419   0.40842   -2.000
 6203.00    0.09524   0.40290   -2.000
 6204.00    0.21159   0.40398   -2.000
 6205.00    0.25584   0.40987   -2.000
 6206.00    0.28558   0.41409   -2.000
 6207.00    0.26836   0.41483   -2.000
 6208.00    0.24372   0.41405    0.011
 6209.00    0.32294   0.41396    0.011
 6210.00    0.41434   0.41457    0.011
 6211.00    0.42839   0.41480    0.011
 6212.00    0.43630   0.41446    0.011
 6213.00    0.46020   0.41311    0.011
 6214.00    0.48481   0.41129    0.011
 6215.00    0.56910   0.40901    0.011
 6216.00    0.65226   0.40327    0.011
 6217.00    0.65010   0.39592    0.011
 6218.00    0.64665   0.39197    0.011
 6219.00    0.61946   0.39282    0.011
 6220.00    0.58753   0.39773    0.011
 6221.00    0.50351   0.40209    0.011
 6222.00    0.43171   0.40072    0.011
 6223.00    0.45431   0.39655    0.011
 6224.00    0.47620   0.39578    0.011
 6225.00    0.49390   0.39906    0.011
 6226.00    0.50043   0.40222    0.011
 6227.00    0.45508   0.40205    0.011
 6228.00    0.41758   0.40129    0.011
 6229.00    0.40977   0.40243    0.011
 6230.00    0.40779   0.40386    0.011
 6231.00    0.42424   0.40384    0.011
 6232.00    0.44474   0.40033    0.010
 6233.00    0.47610   0.39201    0.010
 6234.00    0.49253   0.38541    0.010
 6235.00    0.47455   0.38659    0.010
 6236.00    0.46100   0.39170    0.010
 6237.00    0.45630   0.39828    0.010
 6238.00    0.46146   0.40503    0.010
 6239.00    0.48374   0.40771    0.010
 6240.00    0.50336   0.40495    0.010
 6241.00    0.51893   0.39996    0.010
 6242.00    0.52839   0.39525    0.010
 6243.00    0.52970   0.39178    0.010
 6244.00    0.52445   0.39239    0.010
 6245.00    0.51149   0.39402    0.011
 6246.00    0.48489   0.39106    0.011
 6247.00    0.44414   0.38855    0.011
 6248.00    0.42255   0.38940    0.011
 6249.00    0.41849   0.38904    0.011
 6250.00    0.44208   0.38977    0.011
 6251.00    0.48795   0.39469    0.011
 6252.00    0.51245   0.39965    0.011
 6253.00    0.52179   0.40118    0.011
 6254.00    0.51378   0.39880    0.011
 6255.00    0.49496   0.39256    0.011
 6256.00    0.47556   0.38708    0.010
 6257.00    0.45584   0.38621    0.010
 6258.00    0.44115   0.38749    0.010
 6259.00    0.42884   0.38721    0.011
 6260.00    0.38892   0.38448    0.011
 6261.00    0.33777   0.38097    0.012
 6262.00    0.30942   0.38121    0.012
 6263.00    0.28901   0.38668    0.013
 6264.00    0.29472   0.39191    0.013
 6265.00    0.30810   0.39566    0.012
 6266.00    0.37601   0.40033    0.012
 6267.00    0.45716   0.40182    0.011
 6268.00    0.46502   0.39818    0.011
 6269.00    0.45850   0.39571    0.011
 6270.00    0.47596   0.39772    0.011
 6271.00    0.49709   0.39983    0.011
 6272.00    0.48813   0.39871    0.011
 6273.00    0.47578   0.39681    0.011
 6274.00    0.48895   0.39745    0.011
 6275.00    0.50404   0.39979    0.010
 6276.00    0.47186   0.40172    0.011
 6277.00    0.43777   0.40201    0.011
 6278.00    0.45021   0.40113    0.011
 6279.00    0.46295   0.40094    0.011
 6280.00    0.47415   0.40123    0.000
 6281.00    0.48862   0.40040    0.000
 6282.00    0.55879   0.39784    0.000
 6283.00    0.62133   0.39450    0.000
 6284.00    0.60353   0.39302    0.000
 6285.00    0.58932   0.39434    0.000
 6286.00    0.60191   0.39754    0.000
 6287.00    0.60954   0.40056    0.000
 6288.00    0.58886   0.40081    0.000
 6289.00    0.55997   0.40079    0.000
 6290.00    0.49386   0.40318    0.000
 6291.00    0.44776   0.40575    0.000
 6292.00    0.47594   0.40668    0.000
 6293.00    0.51206   0.40473    0.000
 6294.00    0.57289   0.40103    0.000
 6295.00    0.62256   0.39802    0.000
 6296.00    0.64280   0.39690    0.000
 6297.00    0.65988   0.39846    0.000
 6298.00    0.66983   0.39996    0.000
 6299.00    0.65946   0.39735    0.000
 6300.00    0.60925   0.39269    0.000
 6301.00    0.57507   0.39076    0.000
 6302.00    0.56828   0.39255    0.000
 6303.00    0.56184   0.39395    0.000
 6304.00    0.55591   0.39134    0.000
 6305.00    0.54901   0.38802    0.000
 6306.00    0.54085   0.38908    0.000
 6307.00    0.53555   0.39295    0.000
 6308.00    0.53358   0.39496    0.000
 6309.00    0.53994   0.39533    0.000
 6310.00    0.55482   0.39834    0.000
 6311.00    0.56694   0.40268    0.000
 6312.00    0.57656   0.40369    0.000
 6313.00    0.57155   0.40090    0.000
 6314.00    0.55491   0.39723    0.000
 6315.00    0.55107   0.39537    0.000
 6316.00    0.55617   0.39608    0.000
 6317.00    0.56914   0.39535    0.000
 6318.00    0.58692   0.39143    0.000
 6319.00    0.56758   0.38956    0.000
 6320.00    0.52836   0.38970    0.000
 6321.00    0.47960   0.38672    0.010
 6322.00    0.42641   0.38465    0.010
 6323.00    0.43481   0.38854    0.010
 6324.00    0.46788   0.39373    0.010
 6325.00    0.49326   0.39541    0.011
 6326.00    0.51601   0.39554    0.011
 6327.00    0.55085   0.39726    0.011
 6328.00    0.58916   0.39957    0.011
 6329.00    0.56308   0.40015    0.011
 6330.00    0.52171   0.39886    0.010
 6331.00    0.50203   0.39870    0.010
 6332.00    0.48650   0.40015    0.010
 6333.00    0.47777   0.39946    0.010
 6334.00    0.47005   0.39745    0.010
 6335.00    0.43767   0.39814    0.010
 6336.00    0.40262   0.40057    0.010
 6337.00    0.41335   0.39988    0.010
 6338.00    0.42734   0.39330    0.010
 6339.00    0.44902   0.38567    0.010
 6340.00    0.47098   0.38438    0.010
 6341.00    0.44039   0.38839    0.010
 6342.00    0.41045   0.39156    0.010
 6343.00    0.41027   0.39396    0.010
 6344.00    0.40941   0.39710    0.010
 6345.00    0.39762   0.39804    0.010
 6346.00    0.38763   0.39462    0.010
 6347.00    0.39587   0.38939    0.010
 6348.00    0.41579   0.38665    0.010
 6349.00    0.51998   0.38451    0.010
 6350.00    0.60427   0.38227    0.011
 6351.00    0.57848   0.38383    0.011
 6352.00    0.54556   0.39020    0.011
 6353.00    0.48118   0.39541    0.011
 6354.00    0.42397   0.39702    0.011
 6355.00    0.39288   0.39767    0.011
 6356.00    0.38183   0.39712    0.010
 6357.00    0.43182   0.39337    0.011
 6358.00    0.48572   0.38895    0.011
 6359.00    0.54975   0.38829    0.010
 6360.00    0.58780   0.38909    0.010
 6361.00    0.56799   0.38639    0.010
 6362.00    0.53985   0.38220    0.010
 6363.00    0.49566   0.38096    0.010
 6364.00    0.45445   0.38063    0.010
 6365.00    0.41827   0.37837    0.010
 6366.00    0.40546   0.37699    0.010
 6367.00    0.42715   0.37938    0.010
 6368.00    0.44190   0.38356    0.010
 6369.00    0.44766   0.38654    0.010
 6370.00    0.45821   0.38955    0.010
 6371.00    0.47422   0.39298    0.010
 6372.00    0.50282   0.39380    0.010
 6373.00    0.54410   0.38955    0.010
 6374.00    0.55079   0.38509    0.011
 6375.00    0.52672   0.38660    0.010
 6376.00    0.51806   0.39258    0.010
 6377.00    0.52147   0.39715    0.010
 6378.00    0.53691   0.39766    0.011
 6379.00    0.56064   0.39715    0.011
 6380.00    0.58549   0.39676    0.011
 6381.00    0.61102   0.39460    0.011
 6382.00    0.59598   0.39120    0.011
 6383.00    0.55956   0.38897    0.010
 6384.00    0.54416   0.38910    0.010
 6385.00    0.53839   0.39104    0.010
 6386.00    0.55148   0.39242    0.010
 6387.00    0.57199   0.39152    0.010
 6388.00    0.60295   0.39033    0.010
 6389.00    0.63741   0.39104    0.010
 6390.00    0.63244   0.39292    0.010
 6391.00    0.61637   0.39391    0.010
 6392.00    0.59850   0.39384    0.010
 6393.00    0.58022   0.39425    0.010
 6394.00    0.56387   0.39434    0.010
 6395.00    0.54787   0.39069    0.010
 6396.00    0.51620   0.38324    0.010
 6397.00    0.48228   0.37887    0.011
 6398.00    0.46182   0.38258    0.011
 6399.00    0.44275   0.38965    0.011
 6400.00    0.48538   0.39443    0.011
 6401.00    0.53215   0.39496    0.011
 6402.00    0.53495   0.38886    0.011
 6403.00    0.53632   0.37926    0.011
 6404.00    0.51508   0.37737    0.011
 6405.00    0.49483   0.38554    0.011
 6406.00    0.50586   0.39377    0.011
 6407.00    0.51753   0.39658    0.011
 6408.00    0.53891   0.39608    0.011
 6409.00    0.56150   0.39376    0.010
 6410.00    0.59579   0.38938    0.010
 6411.00    0.62219   0.38517    0.010
 6412.00    0.59351   0.38613    0.010
 6413.00    0.56549   0.38993    0.010
 6414.00    0.54104   0.38873    0.010
 6415.00    0.52626   0.38486    0.010
 6416.00    0.55329   0.38499    0.010
 6417.00    0.58102   0.38754    0.010
 6418.00    0.61128   0.38874    0.010
 6419.00    0.63853   0.38897    0.010
 6420.00    0.65676   0.38943    0.010
 6421.00    0.66759   0.38939    0.010
 6422.00    0.65957   0.38750    0.010
 6423.00    0.63586   0.38297    0.010
 6424.00    0.57777   0.37908    0.010
 6425.00    0.53063   0.38156    0.010
 6426.00    0.50431   0.38910    0.010
 6427.00    0.49447   0.39409    0.010
 6428.00    0.51195   0.39390    0.011
 6429.00    0.54064   0.39278    0.011
 6430.00    0.58561   0.39398    0.011
 6431.00    0.62454   0.39578    0.011
 6432.00    0.65574   0.39447    0.011
 6433.00    0.63956   0.38785    0.011
 6434.00    0.56999   0.37949    0.010
 6435.00    0.51829   0.37733    0.010
 6436.00    0.48435   0.38204    0.010
 6437.00    0.48535   0.38777    0.010
 6438.00    0.51697   0.39146    0.010
 6439.00    0.55279   0.39288    0.010
 6440.00    0.59185   0.39154    0.010
 6441.00    0.60786   0.38590    0.010
 6442.00    0.60823   0.37912    0.010
 6443.00    0.56602   0.37942    0.010
 6444.00    0.49848   0.38696    0.010
 6445.00    0.44354   0.39337    0.010
 6446.00    0.39512   0.39518    0.010
 6447.00    0.39878   0.39453    0.010
 6448.00    0.42588   0.39404    0.010
 6449.00    0.48577   0.39487    0.011
 6450.00    0.55834   0.39563    0.011
 6451.00    0.55413   0.39247    0.011
 6452.00    0.52466   0.38205    0.011
 6453.00    0.48825   0.37018    0.011
 6454.00    0.44992   0.36870    0.011
 6455.00    0.45640   0.37745    0.010
 6456.00    0.47303   0.38612    0.010
 6457.00    0.52104   0.38860    0.010
 6458.00    0.57473   0.38417    0.011
 6459.00    0.57644   0.37741    0.011
 6460.00    0.57092   0.37636    0.011
 6461.00    0.56417   0.38244    0.011
 6462.00    0.55729   0.38948    0.010
 6463.00    0.54543   0.39293    0.010
 6464.00    0.53326   0.39080    0.010
 6465.00    0.50851   0.38209    0.010
 6466.00    0.48355   0.37368    0.010
 6467.00    0.50205   0.37479    0.010
 6468.00    0.52195   0.38181    0.010
 6469.00    0.58100   0.38720    0.010
 6470.00    0.63579   0.39021    0.010
 6471.00    0.63047   0.39122    0.010
 6472.00    0.61963   0.38964    0.010
 6473.00    0.55748   0.38663    0.010
 6474.00    0.50379   0.38375    0.011
 6475.00    0.50726   0.38235    0.011
 6476.00    0.51437   0.38377    0.011
 6477.00    0.54053   0.38490    0.011
 6478.00    0.55849   0.38286    0.011
 6479.00    0.54183   0.38166    0.011
 6480.00    0.53698   0.38418    0.010
 6481.00    0.57335   0.38664    0.010
 6482.00    0.59057   0.38659    0.011
 6483.00    0.55161   0.38527    0.010
 6484.00    0.52680   0.38129    0.010
 6485.00    0.53741   0.37451    0.010
 6486.00    0.54240   0.37050    0.010
 6487.00    0.53531   0.37281    0.010
 6488.00    0.53228   0.37779    0.010
 6489.00    0.53687   0.38099    0.010
 6490.00    0.53451   0.38210    0.010
 6491.00    0.52078   0.38264    0.010
 6492.00    0.50978   0.38220    0.010
 6493.00    0.50272   0.37985    0.010
 6494.00    0.50943   0.37665    0.010
 6495.00    0.53349   0.37376    0.010
 6496.00    0.53950   0.36868    0.010
 6497.00    0.52547   0.35844    0.010
 6498.00    0.50578   0.34806    0.010
 6499.00    0.48056   0.34466    0.011
 6500.00    0.48487   0.34799    0.011
 6501.00    0.51471   0.35444    0.011
 6502.00    0.50549   0.35994    0.011
 6503.00    0.46652   0.36397    0.011
 6504.00    0.44822   0.36857    0.011
 6505.00    0.44375   0.37253    0.011
 6506.00    0.45599   0.37474    0.010
 6507.00    0.47804   0.37609    0.010
 6508.00    0.47331   0.37746    0.010
 6509.00    0.45492   0.37897    0.010
 6510.00    0.48503   0.37952    0.010
 6511.00    0.53662   0.37801    0.010
 6512.00    0.60356   0.37582    0.010
 6513.00    0.67633   0.37559    0.010
 6514.00    0.67032   0.37705    0.010
 6515.00    0.63887   0.37773    0.010
 6516.00    0.59787   0.37760    0.010
 6517.00    0.55430   0.37725    0.010
 6518.00    0.59055   0.37483    0.010
 6519.00    0.64449   0.37071    0.010
 6520.00    0.61232   0.36807    0.010
 6521.00    0.56496   0.36717    0.010
 6522.00    0.54607   0.36709    0.010
 6523.00    0.53101   0.36936    0.010
 6524.00    0.55310   0.37363    0.010
 6525.00    0.57875   0.37647    0.010
 6526.00    0.58426   0.37636    0.011
 6527.00    0.58858   0.37566    0.011
 6528.00    0.61911   0.37582    0.000
 6529.00    0.64991   0.37460    0.000
 6530.00    0.62350   0.37137    0.000
 6531.00    0.59745   0.36941    0.000
 6532.00    0.58040   0.37063    0.000
 6533.00    0.56615   0.37302    0.000
 6534.00    0.58931   0.37325    0.000
 6535.00    0.60556   0.37031    0.000
 6536.00    0.56026   0.36692    0.000
 6537.00    0.51869   0.36615    0.000
 6538.00    0.50157   0.36802    0.000
 6539.00    0.48958   0.36992    0.000
 6540.00    0.50375   0.36970    0.000
 6541.00    0.51461   0.36836    0.000
 6542.00    0.51179   0.36845    0.000
 6543.00    0.51665   0.36974    0.000
 6544.00    0.54778   0.36958    0.000
 6545.00    0.57010   0.36674    0.000
 6546.00    0.56704   0.36291    0.000
 6547.00    0.57827   0.35969    0.000
 6548.00    0.62464   0.35566    0.000
 6549.00    0.66494   0.34980    0.000
 6550.00    0.69236   0.34606    0.000
 6551.00    0.71976   0.34731    0.000
 6552.00    0.74709   0.34986    0.000
 6553.00    0.73991   0.34934    0.000
 6554.00    0.67718   0.34569    0.000
 6555.00    0.61624   0.34111    0.000
 6556.00    0.55782   0.33649    0.000
 6557.00    0.49073   0.33123    0.000
 6558.00    0.41286   0.32511    0.000
 6559.00    0.39123   0.31952    0.000
 6560.00    0.43122   0.31586    0.000
 6561.00    0.58876   0.31279    0.000
 6562.00    0.85986   0.30771    0.000
 6563.00    1.18422   0.29948    0.000
 6564.00    1.55394   0.28264    0.000
 6565.00    1.78554   0.25121    0.000
 6566.00    1.91350   0.22206    0.000
 6567.00    1.82445   0.22504    0.000
 6568.00    1.59235   0.25688    0.000
 6569.00    1.31075   0.28708    0.000
 6570.00    1.00057   0.30305    0.000
 6571.00    0.78852   0.31088    0.000
 6572.00    0.62581   0.31509    0.000
 6573.00    0.53683   0.31860    0.000
 6574.00    0.47993   0.32337    0.000
 6575.00    0.46840   0.32730    0.000
 6576.00    0.47380   0.32831    0.000
 6577.00    0.50653   0.32810    0.000
 6578.00    0.54792   0.32978    0.000
 6579.00    0.55148   0.33530    0.000
 6580.00    0.54505   0.34329    0.000
 6581.00    0.56179   0.34985    0.000
 6582.00    0.58354   0.35297    0.000
 6583.00    0.73161   0.35265    0.000
 6584.00    0.90134   0.35055    0.000
 6585.00    1.04806   0.35034    0.000
 6586.00    1.19177   0.35322    0.000
 6587.00    1.17312   0.35633    0.000
 6588.00    1.13963   0.35763    0.000
 6589.00    1.01431   0.35735    0.000
 6590.00    0.88392   0.35748    0.000
 6591.00    0.73809   0.35970    0.000
 6592.00    0.59269   0.36252    0.000
 6593.00    0.52055   0.36422    0.000
 6594.00    0.45041   0.36337    0.000
 6595.00    0.42600   0.35758    0.000
 6596.00    0.40405   0.34906    0.000
 6597.00    0.41330   0.34563    0.000
 6598.00    0.42389   0.35084    0.000
 6599.00    0.44599   0.35833    0.000
 6600.00    0.47146   0.36134    0.000
 6601.00    0.51846   0.36034    0.000
 6602.00    0.56173   0.35900    0.000
 6603.00    0.58637   0.36037    0.000
 6604.00    0.60418   0.36422    0.000
 6605.00    0.59441   0.36693    0.000
 6606.00    0.58417   0.36681    0.000
 6607.00    0.57232   0.36495    0.000
 6608.00    0.55631   0.36274    0.000
 6609.00    0.52852   0.36123    0.010
 6610.00    0.52267   0.36023    0.010
 6611.00    0.56986   0.35859    0.010
 6612.00    0.60750   0.35612    0.010
 6613.00    0.62521   0.35597    0.010
 6614.00    0.62798   0.36067    0.010
 6615.00    0.60365   0.36571    0.010
 6616.00    0.58101   0.36596    0.010
 6617.00    0.56106   0.36366    0.010
 6618.00    0.55759   0.36377    0.010
 6619.00    0.57704   0.36586    0.011
 6620.00    0.58757   0.36654    0.011
 6621.00    0.58717   0.36590    0.011
 6622.00    0.54304   0.36612    0.011
 6623.00    0.45168   0.36738    0.011
 6624.00    0.40259   0.36837    0.010
 6625.00    0.39375   0.36820    0.010
 6626.00    0.41743   0.36625    0.010
 6627.00    0.46844   0.36239    0.010
 6628.00    0.51496   0.35833    0.010
 6629.00    0.55818   0.35732    0.010
 6630.00    0.57627   0.35972    0.010
 6631.00    0.57803   0.36224    0.010
 6632.00    0.55417   0.36295    0.010
 6633.00    0.51573   0.36220    0.010
 6634.00    0.49820   0.36104    0.010
 6635.00    0.49102   0.35949    0.010
 6636.00    0.50358   0.35614    0.010
 6637.00    0.52460   0.35259    0.010
 6638.00    0.53854   0.35292    0.010
 6639.00    0.54989   0.35710    0.010
 6640.00    0.53044   0.36121    0.010
 6641.00    0.50142   0.36290    0.010
 6642.00    0.52833   0.36225    0.010
 6643.00    0.56971   0.36054    0.011
 6644.00    0.62461   0.36081    0.011
 6645.00    0.68237   0.36207    0.011
 6646.00    0.68386   0.35949    0.011
 6647.00    0.67598   0.35534    0.011
 6648.00    0.64877   0.35535    0.010
 6649.00    0.61914   0.35837    0.010
 6650.00    0.59657   0.36009    0.010
 6651.00    0.57461   0.35988    0.010
 6652.00    0.55259   0.36001    0.010
 6653.00    0.53056   0.36104    0.010
 6654.00    0.54821   0.36114    0.010
 6655.00    0.56621   0.35985    0.010
 6656.00    0.55888   0.35884    0.010
 6657.00    0.55028   0.35898    0.010
 6658.00    0.51489   0.35965    0.010
 6659.00    0.48334   0.35986    0.010
 6660.00    0.49806   0.35929    0.010
 6661.00    0.51429   0.35915    0.010
 6662.00    0.54305   0.35928    0.010
 6663.00    0.56790   0.35841    0.010
 6664.00    0.56866   0.35684    0.011
 6665.00    0.56884   0.35477    0.011
 6666.00    0.56623   0.35135    0.011
 6667.00    0.55792   0.34875    0.011
 6668.00    0.52715   0.34986    0.011
 6669.00    0.51870   0.35217    0.010
 6670.00    0.58349   0.35283    0.011
 6671.00    0.63266   0.35282    0.011
 6672.00    0.63840   0.35411    0.010
 6673.00    0.64345   0.35686    0.010
 6674.00    0.64681   0.35901    0.010
 6675.00    0.65357   0.35943    0.010
 6676.00    0.66732   0.35915    0.010
 6677.00    0.65831   0.35917    0.010
 6678.00    0.60863   0.35937    0.010
 6679.00    0.55552   0.35805    0.010
 6680.00    0.49704   0.35220    0.010
 6681.00    0.46605   0.34387    0.010
 6682.00    0.47277   0.34108    0.010
 6683.00    0.49299   0.34631    0.010
 6684.00    0.52951   0.35243    0.010
 6685.00    0.53596   0.35445    0.010
 6686.00    0.51039   0.35480    0.010
 6687.00    0.49681   0.35581    0.011
 6688.00    0.49450   0.35674    0.011
 6689.00    0.50882   0.35639    0.011
 6690.00    0.53691   0.35560    0.011
 6691.00    0.56549   0.35533    0.011
 6692.00    0.59443   0.35575    0.011
 6693.00    0.59073   0.35656    0.011
 6694.00    0.56615   0.35675    0.010
 6695.00    0.55787   0.35637    0.010
 6696.00    0.55873   0.35605    0.000
 6697.00    0.57914   0.35581    0.000
 6698.00    0.60908   0.35447    0.000
 6699.00    0.61694   0.35153    0.000
 6700.00    0.61551   0.34880    0.000
 6701.00    0.64095   0.34870    0.000
 6702.00    0.67608   0.35085    0.000
 6703.00    0.67386   0.35374    0.000
 6704.00    0.66027   0.35577    0.000
 6705.00    0.63947   0.35571    0.000
 6706.00    0.61684   0.35382    0.000
 6707.00    0.68860   0.35111    0.000
 6708.00    0.77977   0.34987    0.000
 6709.00    0.71478   0.35102    0.000
 6710.00    0.62450   0.35262    0.000
 6711.00    0.57944   0.35333    0.000
 6712.00    0.53985   0.35335    0.000
 6713.00    0.53903   0.35234    0.000
 6714.00    0.54142   0.35096    0.000
 6715.00    0.53341   0.35081    0.000
 6716.00    0.52491   0.35077    0.000
 6717.00    0.66930   0.34928    0.000
 6718.00    0.81511   0.34683    0.000
 6719.00    0.91941   0.34374    0.000
 6720.00    1.01382   0.34004    0.000
 6721.00    0.91545   0.33810    0.000
 6722.00    0.81341   0.34111    0.000
 6723.00    0.66936   0.34649    0.000
 6724.00    0.53794   0.34851    0.000
 6725.00    0.50715   0.34754    0.000
 6726.00    0.47764   0.34800    0.000
 6727.00    0.45587   0.34998    0.000
 6728.00    0.44313   0.35047    0.000
 6729.00    0.47315   0.34897    0.000
 6730.00    0.51291   0.34752    0.000
 6731.00    0.59030   0.34759    0.000
 6732.00    0.65684   0.34865    0.000
 6733.00    0.68849   0.35015    0.000
 6734.00    0.71284   0.35155    0.000
 6735.00    0.71729   0.35168    0.000
 6736.00    0.70646   0.35037    0.000
 6737.00    0.65992   0.34894    0.000
 6738.00    0.62835   0.34845    0.000
 6739.00    0.62702   0.34923    0.000
 6740.00    0.61660   0.35000    0.000
 6741.00    0.59018   0.34831    0.000
 6742.00    0.58107   0.34544    0.000
 6743.00    0.59863   0.34489    0.000
 6744.00    0.61020   0.34647    0.000
 6745.00    0.61367   0.34691    0.000
 6746.00    0.59740   0.34516    0.000
 6747.00    0.55762   0.34415    0.000
 6748.00    0.53946   0.34565    0.000
 6749.00    0.54399   0.34692    0.000
 6750.00    0.54340   0.34613    0.000
 6751.00    0.53806   0.34471    0.000
 6752.00    0.57170   0.34364    0.000
 6753.00    0.63717   0.34297    0.011
 6754.00    0.64927   0.34327    0.012
 6755.00    0.62304   0.34413    0.012
 6756.00    0.61365   0.34371    0.012
 6757.00    0.61489   0.34311    0.012
 6758.00    0.59442   0.34436    0.012
 6759.00    0.56200   0.34580    0.012
 6760.00    0.63128   0.34680    0.013
 6761.00    0.74931   0.34834    0.013
 6762.00    0.75793   0.34987    0.013
 6763.00    0.72131   0.35067    0.013
 6764.00    0.76168   0.35079    0.013
 6765.00    0.82927   0.34981    0.013
 6766.00    0.83716   0.34849    0.012
 6767.00    0.82723   0.34852    0.012
 6768.00    0.74865   0.34876    0.012
 6769.00    0.65307   0.34702    0.012
 6770.00    0.62025   0.34374    0.012
 6771.00    0.60002   0.34165    0.011
 6772.00    0.63710   0.34229    0.011
 6773.00    0.68318   0.34397    0.011
 6774.00    0.66983   0.34386    0.011
 6775.00    0.64955   0.34286    0.011
 6776.00    0.60448   0.34409    0.011
 6777.00    0.55745   0.34708    0.011
 6778.00    0.61184   0.34941    0.012
 6779.00    0.67064   0.35028    0.012
 6780.00    0.57357   0.35008    0.012
 6781.00    0.47633   0.34968    0.012
 6782.00    0.44700   0.35024    0.012
 6783.00    0.42265   0.35082    0.012
 6784.00    0.48863   0.34962    0.012
 6785.00    0.55137   0.34726    0.012
 6786.00    0.57861   0.34411    0.012
 6787.00    0.60304   0.34016    0.011
 6788.00    0.60590   0.33754    0.011
 6789.00    0.60968   0.33765    0.011
 6790.00    0.61887   0.33946    0.011
 6791.00    0.61666   0.34231    0.011
 6792.00    0.56176   0.34470    0.011
 6793.00    0.52427   0.34499    0.011
 6794.00    0.55258   0.34448    0.011
 6795.00    0.56202   0.34447    0.011
 6796.00    0.51189   0.34350    0.011
 6797.00    0.48379   0.34150    0.011
 6798.00    0.51469   0.34088    0.011
 6799.00    0.51746   0.34177    0.011
 6800.00    0.45557   0.34241    0.011
 6801.00    0.43363   0.34268    0.012
 6802.00    0.49111   0.34296    0.012
 6803.00    0.53000   0.34351    0.012
 6804.00    0.53668   0.34439    0.012
 6805.00    0.54386   0.34521    0.012
 6806.00    0.55181   0.34521    0.012
 6807.00    0.54472   0.34404    0.011
 6808.00    0.51759   0.34339    0.011
 6809.00    0.50698   0.34373    0.011
 6810.00    0.51577   0.34311    0.011
 6811.00    0.56817   0.34248    0.011
 6812.00    0.66571   0.34305    0.011
 6813.00    0.71176   0.34288    0.012
 6814.00    0.71081   0.34241    0.012
 6815.00    0.65677   0.34321    0.012
 6816.00    0.56002   0.34371    0.012
 6817.00    0.52867   0.34239    0.011
 6818.00    0.54364   0.34015    0.011
 6819.00    0.55665   0.33970    0.011
 6820.00    0.56843   0.34198    0.011
 6821.00    0.59485   0.34415    0.011
 6822.00    0.62921   0.34386    0.011
 6823.00    0.65551   0.34196    0.012
 6824.00    0.67800   0.34091    0.012
 6825.00    0.64605   0.34233    0.012
 6826.00    0.59196   0.34505    0.012
 6827.00    0.53388   0.34642    0.012
 6828.00    0.47442   0.34608    0.012
 6829.00    0.41292   0.34542    0.011
 6830.00    0.35083   0.34426    0.011
 6831.00    0.39661   0.34166    0.011
 6832.00    0.46853   0.33930    0.011
 6833.00    0.54510   0.33960    0.011
 6834.00    0.62258   0.34217    0.011
 6835.00    0.60994   0.34406    0.011
 6836.00    0.58356   0.34322    0.011
 6837.00    0.50846   0.34213    0.011
 6838.00    0.42789   0.34313    0.012
 6839.00    0.43416   0.34409    0.012
 6840.00    0.44692   0.34337    0.012
 6841.00    0.43410   0.34138    0.012
 6842.00    0.42027   0.33864    0.012
 6843.00    0.44328   0.33590    0.012
 6844.00    0.46928   0.33315    0.012
 6845.00    0.60448   0.33063    0.012
 6846.00    0.72830   0.33093    0.012
 6847.00    0.65985   0.33482    0.012
 6848.00    0.59616   0.33962    0.012
 6849.00    0.58223   0.34189    0.012
 6850.00    0.56440   0.34153    0.011
 6851.00    0.51753   0.34100    0.011
 6852.00    0.47241   0.34120    0.011
 6853.00    0.43719   0.34162    0.011
 6854.00    0.42494   0.34192    0.011
 6855.00    0.51645   0.34168    0.011
 6856.00    0.59714   0.34138    0.011
 6857.00    0.63779   0.34032    0.011
 6858.00    0.65248   0.33688    0.011
 6859.00    0.58672   0.33351    0.011
 6860.00    0.53573   0.33350    0.011
 6861.00    0.52360   0.33535    0.011
 6862.00    0.49866   0.33687    0.011
 6863.00    0.44478   0.33706    0.011
 6864.00    0.41545   0.33470    0.011
 6865.00    0.43415   0.33200    0.012
 6866.00    0.46700   0.33325    0.012
 6867.00    0.52400   0.33768    0.012
 6868.00    0.56686   0.34083    0.012
 6869.00    0.58856   0.34036    0.012
 6870.00    0.58805   0.33765    0.012
 6871.00    0.55835   0.33442    0.012
 6872.00    0.53915   0.33329    0.012
 6873.00    0.53212   0.33559    0.012
 6874.00    0.52095   0.33731    0.011
 6875.00    0.50553   0.33573    0.011
 6876.00    0.54558   0.33377    0.011
 6877.00    0.63554   0.33416    0.011
 6878.00    0.65048   0.33557    0.011
 6879.00    0.60592   0.33616    0.011
 6880.00    0.53964   0.33715    0.011
 6881.00    0.45821   0.33926    0.011
 6882.00    0.46457   0.34076    0.011
 6883.00    0.52465   0.34013    0.011
 6884.00    0.47937   0.33817    0.011
 6885.00    0.37778   0.33490    0.011
 6886.00    0.44610   0.33189    0.012
 6887.00    0.59325   0.33254    0.012
 6888.00    0.60553   0.33564    0.012
 6889.00    0.56392   0.33725    0.012
 6890.00    0.59365   0.33663    0.012
 6891.00    0.64770   0.33741    0.012
 6892.00    0.65085   0.33972    0.012
 6893.00    0.63942   0.34127    0.012
 6894.00    0.59323   0.34281    0.012
 6895.00    0.53881   0.34367    0.012
 6896.00    0.62149   0.34220    0.012
 6897.00    0.73030   0.34073    0.012
 6898.00    0.63817   0.34011    0.012
 6899.00    0.51636   0.33893    0.011
 6900.00    0.49080   0.33845    0.012
 6901.00    0.47562   0.33982    0.012
 6902.00    0.52062   0.34137    0.012
 6903.00    0.56987   0.34045    0.011
 6904.00    0.52032   0.33841    0.011
 6905.00    0.46723   0.33884    0.011
 6906.00    0.51634   0.34079    0.012
 6907.00    0.56225   0.34097    0.012
 6908.00    0.48552   0.33957    0.012
 6909.00    0.41550   0.33887    0.012
 6910.00    0.45166   0.34030    0.012
 6911.00    0.48483   0.34232    0.012
 6912.00    0.48807   0.34272    0.012
 6913.00    0.49604   0.34230    0.012
 6914.00    0.53802   0.34166    0.012
 6915.00    0.56974   0.34047    0.012
 6916.00    0.54483   0.33856    0.012
 6917.00    0.51453   0.33581    0.012
 6918.00    0.46045   0.33376    0.011
 6919.00    0.44484   0.33439    0.011
 6920.00    0.56867   0.33566    0.012
 6921.00    0.65437   0.33631    0.012
 6922.00    0.62419   0.33765    0.012
 6923.00    0.60248   0.33895    0.011
 6924.00    0.60266   0.33975    0.011
 6925.00    0.59880   0.34009    0.011
 6926.00    0.58600   0.33945    0.012
 6927.00    0.57978   0.33673    0.012
 6928.00    0.58623   0.33292    0.012
 6929.00    0.58136   0.33089    0.012
 6930.00    0.55747   0.33190    0.012
 6931.00    0.52523   0.33506    0.012
 6932.00    0.48069   0.33741    0.012
 6933.00    0.44152   0.33778    0.012
 6934.00    0.40930   0.33746    0.012
 6935.00    0.38728   0.33654    0.012
 6936.00    0.37689   0.33458    0.012
 6937.00    0.44304   0.33306    0.012
 6938.00    0.58619   0.33456    0.012
 6939.00    0.63453   0.33685    0.012
 6940.00    0.59874   0.33664    0.012
 6941.00    0.58128   0.33562    0.012
 6942.00    0.57815   0.33587    0.012
 6943.00    0.57665   0.33751    0.012
 6944.00    0.57627   0.33885    0.012
 6945.00    0.58413   0.33873    0.012
 6946.00    0.59696   0.33683    0.012
 6947.00    0.57443   0.33357    0.012
 6948.00    0.53330   0.32986    0.012
 6949.00    0.52135   0.32809    0.012
 6950.00    0.52270   0.33060    0.013
 6951.00    0.47804   0.33479    0.013
 6952.00    0.41531   0.33724    0.012
 6953.00    0.47236   0.33782    0.013
 6954.00    0.56948   0.33595    0.013
 6955.00    0.56825   0.33282    0.013
 6956.00    0.53940   0.33161    0.013
 6957.00    0.51456   0.33167    0.013
 6958.00    0.49066   0.33149    0.013
 6959.00    0.47664   0.33225    0.013
 6960.00    0.46446   0.33433    0.012
 6961.00    0.43449   0.33553    0.013
 6962.00    0.40198   0.33525    0.013
 6963.00    0.38825   0.33528    0.012
 6964.00    0.37646   0.33590    0.012
 6965.00    0.42600   0.33646    0.012
 6966.00    0.47962   0.33677    0.012
 6967.00    0.55844   0.33725    0.012
 6968.00    0.63803   0.33712    0.012
 6969.00    0.56419   0.33563    0.013
 6970.00    0.49356   0.33449    0.013
 6971.00    0.52124   0.33604    0.013
 6972.00    0.54126   0.33841    0.013
 6973.00    0.44714   0.33850    0.013
 6974.00    0.36050   0.33646    0.013
 6975.00    0.34573   0.33466    0.013
 6976.00    0.34853   0.33583    0.013
 6977.00    0.47359   0.33763    0.013
 6978.00    0.57612   0.33632    0.013
 6979.00    0.55770   0.33291    0.013
 6980.00    0.54669   0.32944    0.013
 6981.00    0.56759   0.32468    0.013
 6982.00    0.58298   0.31957    0.013
 6983.00    0.57878   0.31962    0.013
 6984.00    0.56631   0.32607    0.013
 6985.00    0.52919   0.33256    0.012
 6986.00    0.49691   0.33589    0.012
 6987.00    0.47694   0.33784    0.012
 6988.00    0.42508   0.33858    0.012
 6989.00    0.30354   0.33789    0.012
 6990.00    0.24655   0.33730    0.012
 6991.00    0.31198   0.33674    0.013
 6992.00    0.40272   0.33481    0.013
 6993.00    0.53537   0.33222    0.013
 6994.00    0.60877   0.33244    0.013
 6995.00    0.59618   0.33550    0.013
 6996.00    0.58350   0.33753    0.013
 6997.00    0.57071   0.33675    0.013
 6998.00    0.60473   0.33498    0.013
 6999.00    0.69139   0.33440    0.013
 7000.00    0.65028   0.33526    0.013
 7001.00    0.48243   0.33587    0.013
 7002.00    0.38078   0.33387    0.013
 7003.00    0.33705   0.33002    0.013
 7004.00    0.38063   0.32785    0.012
 7005.00    0.49151   0.32949    0.012
 7006.00    0.52589   0.33227    0.012
 7007.00    0.50844   0.33202    0.013
 7008.00    0.49900   0.32904    0.013
 7009.00    0.49431   0.32746    0.012
 7010.00    0.39078   0.32826    0.012
 7011.00    0.23606   0.33002    0.012
 7012.00    0.22532   0.33208    0.013
 7013.00    0.27923   0.33358    0.013
 7014.00    0.33869   0.33334    0.013
 7015.00    0.40031   0.33195    0.013
 7016.00    0.41501   0.33151    0.013
 7017.00    0.41432   0.33210    0.013
 7018.00    0.33687   0.33055    0.013
 7019.00    0.23829   0.32507    0.013
 7020.00    0.31062   0.31931    0.013
 7021.00    0.42159   0.32056    0.014
 7022.00    0.53464   0.32797    0.013
 7023.00    0.64807   0.33340    0.013
 7024.00    0.64561   0.33506    0.013
 7025.00    0.62710   0.33474    0.013
 7026.00    0.51132   0.33228    0.013
 7027.00    0.38589   0.32813    0.013
 7028.00    0.43645   0.32565    0.013
 7029.00    0.49803   0.32730    0.013
 7030.00    0.51570   0.33009    0.013
 7031.00    0.53206   0.33112    0.013
 7032.00    0.53438   0.33172    0.013
 7033.00    0.53285   0.33317    0.013
 7034.00    0.42546   0.33427    0.013
 7035.00    0.32050   0.33400    0.012
 7036.00    0.24970   0.33273    0.013
 7037.00    0.18523   0.33167    0.013
 7038.00    0.17924   0.33175    0.013
 7039.00    0.18491   0.33303    0.013
 7040.00    0.26912   0.33360    0.013
 7041.00    0.35416   0.33019    0.013
 7042.00    0.44353   0.32476    0.013
 7043.00    0.48711   0.32564    0.014
 7044.00    0.33791   0.33363    0.013
 7045.00    0.24092   0.34050    0.013
 7046.00    0.32557   0.34276    0.013
 7047.00    0.41262   0.34113    0.013
 7048.00    0.50668   0.33727    0.013
 7049.00    0.56703   0.33473    0.013
 7050.00    0.54319   0.33570   -2.000
 7051.00    0.52296   0.33855   -2.000
 7052.00    0.51048   0.33941   -2.000
 7053.00    0.50601   0.33608   -2.000
 7054.00    0.51651   0.33430   -2.000
 7055.00    0.52791   0.33491   -2.000
 7056.00    0.54076   0.33117   -2.000
 7057.00    0.53135   0.32466   -2.000
 7058.00    0.49009   0.32178   -2.000
 7059.00    0.42822   0.32214   -2.000
 7060.00    0.34042   0.32452   -2.000
 7061.00    0.35538   0.32685   -2.000
 7062.00    0.48430   0.32613   -2.000
 7063.00    0.62094   0.32228   -2.000
 7064.00    0.76515   0.31893   -2.000
 7065.00    0.74591   0.31888   -2.000
 7066.00    0.58570   0.32095   -2.000
 7067.00    0.51030   0.32322   -2.000
 7068.00    0.49935   0.32530   -2.000
 7069.00    0.46966   0.32454   -2.000
 7070.00    0.42746   0.32121   -2.000
 7071.00    0.38769   0.31736   -2.000
 7072.00    0.34934   0.31455   -2.000
 7073.00    0.36841   0.31595   -2.000
 7074.00    0.41675   0.32087   -2.000
 7075.00    0.52568   0.32485   -2.000
 7076.00    0.66137   0.32599   -2.000
 7077.00    0.65606   0.32570   -2.000
 7078.00    0.59727   0.32545   -2.000
 7079.00    0.49391   0.32490   -2.000
 7080.00    0.37621   0.32366   -2.000
 7081.00    0.37066   0.32353   -2.000
 7082.00    0.39532   0.32485   -2.000
 7083.00    0.48299   0.32562   -2.000
 7084.00    0.58459   0.32634   -2.000
 7085.00    0.50055   0.32665   -2.000
 7086.00    0.38388   0.32377   -2.000
 7087.00    0.36680   0.31802   -2.000
 7088.00    0.36306   0.31186   -2.000
 7089.00    0.43531   0.30982   -2.000
 7090.00    0.51478   0.31187   -2.000
 7091.00    0.45476   0.31219   -2.000
 7092.00    0.38656   0.31028   -2.000
 7093.00    0.37360   0.30865   -2.000
 7094.00    0.36272   0.30737   -2.000
 7095.00    0.45018   0.30732   -2.000
 7096.00    0.53457   0.30797   -2.000
 7097.00    0.54260   0.30784   -2.000
 7098.00    0.54056   0.30806   -2.000
 7099.00    0.40495   0.30855   -2.000
 7100.00    0.28936   0.30892   -2.000
 7101.00    0.35130   0.30929   -2.000
 7102.00    0.42251   0.31078   -2.000
 7103.00    0.55434   0.31425   -2.000
 7104.00    0.67565   0.31582   -2.000
 7105.00    0.74345   0.31495   -2.000
 7106.00    0.75855   0.31303   -2.000
 7107.00    0.55674   0.31262   -2.000
 7108.00    0.41110   0.31447   -2.000
 7109.00    0.45688   0.31609   -2.000
 7110.00    0.48848   0.31485   -2.000
 7111.00    0.47936   0.31260   -2.000
 7112.00    0.48288   0.31253   -2.000
 7113.00    0.51738   0.31297   -2.000
 7114.00    0.52760   0.31116   -2.000
 7115.00    0.48641   0.30875   -2.000
 7116.00    0.47798   0.30879   -2.000
 7117.00    0.52978   0.31109   -2.000
 7118.00    0.54407   0.31320   -2.000
 7119.00    0.49808   0.31421   -2.000
 7120.00    0.48934   0.31485   -2.000
 7121.00    0.53312   0.31503   -2.000
 7122.00    0.55035   0.31425   -2.000
 7123.00    0.53462   0.31342   -2.000
 7124.00    0.44447   0.31308   -2.000
 7125.00    0.27295   0.31217   -2.000
 7126.00    0.13385   0.31104   -2.000
 7127.00    0.02601   0.31192   -2.000
 7128.00    0.16488   0.31298   -2.000
 7129.00    0.51355   0.31088   -2.000
 7130.00    0.44463   0.30736   -2.000
 7131.00    0.06299   0.30633   -2.000
 7132.00    0.05871   0.30738   -2.000
 7133.00    0.30272   0.30659   -2.000
 7134.00    0.39956   0.30307   -2.000
 7135.00    0.41164   0.30116   -2.000
 7136.00    0.39887   0.30357   -2.000
 7137.00    0.37364   0.30724   -2.000
 7138.00    0.40302   0.31012   -2.000
 7139.00    0.45610   0.31120   -2.000
 7140.00    0.47908   0.31139   -2.000
 7141.00    0.49085   0.31261   -2.000
 7142.00    0.39972   0.31195   -2.000
 7143.00    0.27609   0.30923   -2.000
 7144.00    0.28308   0.30871   -2.000
 7145.00    0.32453   0.31117   -2.000
 7146.00    0.45317   0.31249   -2.000
 7147.00    0.60060   0.31188   -2.000
 7148.00    0.48826   0.31108   -2.000
 7149.00    0.33151   0.31059   -2.000
 7150.00    0.27257   0.31005   -2.000
 7151.00    0.22629   0.30707   -2.000
 7152.00    0.32777   0.30279   -2.000
 7153.00    0.44266   0.30299   -2.000
 7154.00    0.56467   0.30627   -2.000
 7155.00    0.68707   0.30928   -2.000
 7156.00    0.74296   0.31235   -2.000
 7157.00    0.79668   0.31451   -2.000
 7158.00    0.77798   0.31397   -2.000
 7159.00    0.74727   0.31199   -2.000
 7160.00    0.44404   0.31217   -2.000
 7161.00    0.13013   0.31493   -2.000
 7162.00   -0.31837   0.31511   -2.000
 7163.00   -0.67516   0.31229   -2.000
 7164.00   -0.24962   0.31030   -2.000
 7165.00    0.19426   0.31121   -2.000
 7166.00    0.75436   0.31291   -2.000
 7167.00    1.16619   0.31037   -2.000
 7168.00    0.84181   0.30424   -2.000
 7169.00    0.52360   0.30082   -2.000
 7170.00    0.23017   0.30416   -2.000
 7171.00    0.03759   0.31005   -2.000
 7172.00    0.18194   0.31333   -2.000
 7173.00    0.33601   0.31337   -2.000
 7174.00    0.51753   0.31247   -2.000
 7175.00    0.61284   0.31281   -2.000
 7176.00    0.50020   0.31473   -2.000
 7177.00    0.42214   0.31577   -2.000
 7178.00    0.41610   0.31495   -2.000
 7179.00    0.40911   0.31246   -2.000
 7180.00    0.40042   0.30949   -2.000
 7181.00    0.36292   0.31030   -2.000
 7182.00    0.27984   0.31352   -2.000
 7183.00    0.26435   0.31261   -2.000
 7184.00    0.34278   0.30676   -2.000
 7185.00    0.35999   0.30261   -2.000
 7186.00    0.30235   0.30477   -2.000
 7187.00    0.21414   0.31070   -2.000
 7188.00    0.09297   0.31373   -2.000
 7189.00    0.09589   0.31297   -2.000
 7190.00    0.21681   0.30969   -2.000
 7191.00    0.20845   0.30426   -2.000
 7192.00    0.09173   0.30110   -2.000
 7193.00    0.08970   0.30187   -2.000
 7194.00    0.17234   0.30490   -2.000
 7195.00    0.27912   0.30785   -2.000
 7196.00    0.40156   0.30765   -2.000
 7197.00    0.56024   0.30604   -2.000
 7198.00    0.73947   0.30685   -2.000
 7199.00    0.63902   0.31008   -2.000
 7200.00    0.40045   0.31036   -2.000
 7201.00    0.08016   0.30745   -2.000
 7202.00   -0.27503   0.30707   -2.000
 7203.00   -0.20257   0.30909   -2.000
 7204.00    0.02634   0.30994   -2.000
 7205.00    0.25068   0.30841   -2.000
 7206.00    0.47360   0.30711   -2.000
 7207.00    0.43830   0.30899   -2.000
 7208.00    0.33636   0.31261   -2.000
 7209.00    0.32315   0.31337   -2.000
 7210.00    0.32862   0.30782   -2.000
 7211.00    0.35470   0.30020   -2.000
 7212.00    0.38421   0.29861   -2.000
 7213.00    0.27031   0.30234   -2.000
 7214.00    0.13849   0.30736   -2.000
 7215.00    0.23269   0.31163   -2.000
 7216.00    0.34647   0.31172   -2.000
 7217.00    0.37828   0.30888   -2.000
 7218.00    0.40592   0.30684   -2.000
