###################################################################
## OUTPUT of StarlightChains_v04.for    [Cid@UFSC - 01/Apr/2007] ##
###################################################################

## Some input info
KUG0210-078._22_28.txt                   [arq_obs]
Base.CB07.vall.4m                        [arq_base]
Masks.EmLines.NEW.gm                     [arq_masks]
StCv04.C11.config                        [arq_config]
   66                                    [N_base]
    0                                    [N_YAV_components = # of components with extra extinction!]
    0                                    [i_FitPowerLaw (1/0 = Yes/No)]
-9.99                                    [alpha_PowerLaw]
CCM                                      [red_law_option]
 1.458241                                [q_norm = A(l_norm)/A(V)]

## (Re)Sampling Parameters
 3741.00                                 [l_ini (A)]
 7218.00                                 [l_fin (A)]
    1.00                                 [dl    (A)]     (OBS: dl_cushion =    50.00 A)

## Normalization info
 4020.00                                 [l_norm (A) - for base]
 4010.00                                 [llow_norm (A) - window for f_obs]
 4060.00                                 [lupp_norm (A) - window for f_obs]
6.302561E-18                             [fobs_norm (in input units)]

## S/N
 3691.00                                 [llow_SN (A) - window for S/N]
 7268.00                                 [lupp_SN (A) - window for S/N]
   2.874                                 [S/N in S/N window]
   2.134                                 [S/N in norm. window]
   0.011                                 [S/N_err in S/N window]
   0.008                                 [S/N_err in norm. window]
  1.0000                                 [fscale_chi2]

## etc...
    -2007244                             [idum_orig]
  2354                                   [NOl_eff]
  2308                                   [Nl_eff]
    46    NSIGMA                         [Ntot_cliped & clip_method]
  1281000                                [Nglobal_steps]
   7                                     [N_chains]
   9                                     [NEX0s_base = N_base in EX0s-fits]
 0   0   1       46   2.0   1.839E+03    [Clip-Bug, RC-Crash & Burn-In warning-flags, n_censored_weights, wei_nsig_threshold & wei_limit]
    18     17.977     17.498      0.479  [idt_all, wdt_TotTime, wdt_UsrTime & wdt_SysTime (sec)]

## Synthesis Results - Best model ##

 9.35004E-05                             [chi2/Nl_eff]
    62.62220                             [adev (%)]

   130.00000                             [sum-of-x (%)]
 7.07731E-17                             [Flux_tot (units of input spectrum!)]
 9.23007E-13                             [Mini_tot (???)]
 4.61864E-13                             [Mcor_tot (???)]

 395.67                                  [v0_min  (km/s)]
   0.09                                  [vd_min  (km/s)]
 1.6054                                  [AV_min  (mag)]
 0.0000                                  [YAV_min (mag)]

# j     x_j(%)      Mini_j(%)     Mcor_j(%)     age_j(yr)     Z_j      (L/M)_j    YAV?  Mstars   component_j        a/Fe...       SSP_chi2r SSP_adev(%)   SSP_AV   SSP_x(%)
  1      0.0000     0.0000E+00    0.0000E+00    1.000000E+06  0.00400  1.094E-02    0   1.0000   age020_m42            0.0000     9.4647E-05    82.6591   2.2770   152.0854
  2      0.0000     0.0000E+00    0.0000E+00    3.160000E+06  0.00400  4.007E-02    0   0.9999   age045_m42            0.0000     1.0385E-04    84.2271   1.5394   162.0837
  3      0.0000     0.0000E+00    0.0000E+00    5.010000E+06  0.00400  2.539E-02    0   0.9488   age055_m42            0.0000     9.8910E-05    83.4310   1.8640   158.4390
  4      0.0000     0.0000E+00    0.0000E+00    6.610000E+06  0.00400  2.620E-02    0   0.9220   age061_m42            0.0000     1.0396E-04    83.8363   1.4795   161.9902
  5      0.0000     0.0000E+00    0.0000E+00    1.000000E+07  0.00400  1.322E-02    0   0.8862   age070_m42            0.0000     1.0041E-04    81.9265   1.2825   162.7556
  6      0.0000     0.0000E+00    0.0000E+00    1.445000E+07  0.00400  7.883E-03    0   0.8571   age078_m42            0.0000     9.7982E-05    81.8035   1.6009   159.1547
  7      0.0000     0.0000E+00    0.0000E+00    2.512000E+07  0.00400  5.251E-03    0   0.8174   age090_m42            0.0000     1.0072E-04    81.6424   1.1729   162.9930
  8      0.0000     0.0000E+00    0.0000E+00    4.000000E+07  0.00400  3.649E-03    0   0.7851   age104_m42            0.0000     1.0273E-04    82.0876   0.9336   164.6116
  9      0.0000     0.0000E+00    0.0000E+00    5.500000E+07  0.00400  3.098E-03    0   0.7629   age110_m42            0.0000     1.0690E-04    82.9605   1.0566   165.2340
 10      0.0000     0.0000E+00    0.0000E+00    1.015200E+08  0.00400  2.228E-03    0   0.7207   age116_m42            0.0000     1.1040E-04    83.2409   1.0674   165.5423
 11      0.0000     0.0000E+00    0.0000E+00    2.861200E+08  0.00400  1.093E-03    0   0.6648   age125_m42            0.0000     1.1259E-04    82.7594   0.5389   168.8480
 12      0.0000     0.0000E+00    0.0000E+00    5.088000E+08  0.00400  6.597E-04    0   0.6365   age130_m42            0.0000     1.1786E-04    83.5910   0.4996   170.7111
 13      0.0000     0.0000E+00    0.0000E+00    1.434000E+09  0.00400  2.132E-04    0   0.5798   age139_m42            0.0000     1.1899E-04    84.5886  -0.5150   175.8094
 14      0.0000     0.0000E+00    0.0000E+00    4.250000E+09  0.00400  5.895E-05    0   0.5377   age158_m42            0.0000     1.1329E-04    85.0929  -1.0000   172.7245
 15      0.0000     0.0000E+00    0.0000E+00    7.500000E+09  0.00400  3.510E-05    0   0.5212   age171_m42            0.0000     1.1461E-04    82.0269  -1.0000   167.1540
 16      0.0000     0.0000E+00    0.0000E+00    1.300000E+10  0.00400  2.005E-05    0   0.5034   age193_m42            0.0000     1.1626E-04    79.2882  -1.0000   161.6955
 17      0.0000     0.0000E+00    0.0000E+00    1.800000E+10  0.00400  1.525E-05    0   0.4967   age213_m42            0.0000     1.1551E-04    78.9505  -1.0000   160.4919
 18      0.0000     0.0000E+00    0.0000E+00    1.000000E+06  0.00800  1.238E-02    0   1.0000   age020_m52            0.0000     9.4591E-05    82.6830   2.2706   152.4695
 19      0.0000     0.0000E+00    0.0000E+00    3.160000E+06  0.00800  3.074E-02    0   0.9966   age045_m52            0.0000     9.4893E-05    82.7501   2.1870   154.0118
 20      0.0000     0.0000E+00    0.0000E+00    5.010000E+06  0.00800  2.668E-02    0   0.9443   age055_m52            0.0000     9.7368E-05    82.9523   1.9490   156.9949
 21      0.0000     0.0000E+00    0.0000E+00    6.610000E+06  0.00800  2.136E-02    0   0.9177   age061_m52            0.0000     9.7631E-05    81.9985   0.7605   165.9105
 22      0.0000     0.0000E+00    0.0000E+00    1.000000E+07  0.00800  1.215E-02    0   0.8827   age070_m52            0.0000     9.7993E-05    81.1633   1.4849   161.7424
 23      0.0000     0.0000E+00    0.0000E+00    1.445000E+07  0.00800  8.717E-03    0   0.8552   age078_m52            0.0000     9.8792E-05    81.6025   1.5735   161.0742
 24      0.0000     0.0000E+00    0.0000E+00    2.512000E+07  0.00800  5.592E-03    0   0.8162   age090_m52            0.0000     1.0131E-04    81.3650   1.2447   164.5706
 25      0.0000     0.0000E+00    0.0000E+00    4.000000E+07  0.00800  3.896E-03    0   0.7841   age104_m52            0.0000     1.0429E-04    82.0619   1.1382   166.1831
 26      0.0000     0.0000E+00    0.0000E+00    1.015200E+08  0.00800  2.148E-03    0   0.7226   age116_m52            0.0000     1.0837E-04    82.7663   1.0468   166.6558
 27      0.0000     0.0000E+00    0.0000E+00    2.861200E+08  0.00800  9.925E-04    0   0.6683   age125_m52            0.0000     1.1825E-04    82.8014   0.5834   171.6293
 28      0.0000     0.0000E+00    0.0000E+00    9.047900E+08  0.00800  3.141E-04    0   0.6138   age135_m52            0.0000     1.2392E-04    84.8514  -0.2908   181.1501
 29      0.0000     0.0000E+00    0.0000E+00    1.434000E+09  0.00800  1.719E-04    0   0.5853   age139_m52            0.0000     1.1783E-04    85.5500  -0.9311   180.5543
 30      0.0000     0.0000E+00    0.0000E+00    2.500000E+09  0.00800  7.872E-05    0   0.5600   age150_m52            0.0000     1.1811E-04    82.0146  -1.0000   172.0131
 31      0.0000     0.0000E+00    0.0000E+00    4.250000E+09  0.00800  4.336E-05    0   0.5426   age158_m52            0.0000     1.1735E-04    81.8739  -1.0000   170.2202
 32      0.0000     0.0000E+00    0.0000E+00    6.250000E+09  0.00800  3.159E-05    0   0.5319   age166_m52            0.0000     1.2167E-04    78.4894  -1.0000   164.0817
 33      0.0000     0.0000E+00    0.0000E+00    1.300000E+10  0.00800  1.361E-05    0   0.5073   age193_m52            0.0000     1.3021E-04    70.5493  -1.0000   146.5068
 34     16.7145     9.9722E+01    9.9445E+01    1.800000E+10  0.00800  9.886E-06    0   0.4990   age213_m52            0.0000     1.3551E-04    68.5776  -1.0000   141.0435
 35     12.9089     4.9313E-02    9.8549E-02    1.000000E+06  0.02000  1.544E-02    0   1.0000   age020_m62            0.0000     9.4278E-05    82.5932   2.2674   152.8439
 36      0.0000     0.0000E+00    0.0000E+00    3.160000E+06  0.02000  3.762E-02    0   0.9858   age045_m62            0.0000     9.4117E-05    82.4832   2.2025   154.2903
 37      0.0000     0.0000E+00    0.0000E+00    5.010000E+06  0.02000  3.296E-02    0   0.9342   age055_m62            0.0000     1.0112E-04    83.5364   1.8115   160.5621
 38      0.0000     0.0000E+00    0.0000E+00    8.710000E+06  0.02000  1.154E-02    0   0.8861   age067_m62            0.0000     8.9691E-05    76.9139   1.0916   161.4410
 39      0.0000     0.0000E+00    0.0000E+00    1.445000E+07  0.02000  7.663E-03    0   0.8472   age078_m62            0.0000     9.5737E-05    80.0616   1.1761   164.0676
 40      0.0000     0.0000E+00    0.0000E+00    2.512000E+07  0.02000  4.532E-03    0   0.8099   age090_m62            0.0000     9.6480E-05    79.7623   1.1834   163.0373
 41      0.0000     0.0000E+00    0.0000E+00    5.500000E+07  0.02000  2.733E-03    0   0.7595   age110_m62            0.0000     1.0280E-04    81.5372   1.1185   165.2305
 42      0.0000     0.0000E+00    0.0000E+00    1.609000E+08  0.02000  1.369E-03    0   0.6985   age120_m62            0.0000     1.1321E-04    81.9576   0.9545   168.9577
 43      0.0000     0.0000E+00    0.0000E+00    2.861200E+08  0.02000  9.013E-04    0   0.6714   age125_m62            0.0000     1.2140E-04    81.8959   0.7258   172.1409
 44      0.0000     0.0000E+00    0.0000E+00    5.088000E+08  0.02000  5.028E-04    0   0.6449   age130_m62            0.0000     1.2812E-04    83.3782   0.2988   177.8118
 45      0.0000     0.0000E+00    0.0000E+00    9.047900E+08  0.02000  2.428E-04    0   0.6179   age135_m62            0.0000     1.2263E-04    85.8615  -0.4260   183.0176
 46      0.0000     0.0000E+00    0.0000E+00    1.434000E+09  0.02000  1.263E-04    0   0.5908   age139_m62            0.0000     1.1907E-04    86.9392  -0.9409   183.5102
 47      0.0000     0.0000E+00    0.0000E+00    2.500000E+09  0.02000  5.985E-05    0   0.5673   age150_m62            0.0000     1.2058E-04    81.3374  -1.0000   173.6974
 48      0.0000     0.0000E+00    0.0000E+00    4.250000E+09  0.02000  3.271E-05    0   0.5468   age158_m62            0.0000     1.2722E-04    75.9278  -1.0000   162.2135
 49      0.0000     0.0000E+00    0.0000E+00    1.000000E+10  0.02000  1.360E-05    0   0.5167   age181_m62            0.0000     1.3782E-04    69.4361  -1.0000   147.7386
 50      0.0000     0.0000E+00    0.0000E+00    1.800000E+10  0.02000  7.124E-06    0   0.5013   age213_m62            0.0000     1.4592E-04    65.2415  -1.0000   137.2954
 51    100.3767     2.2841E-01    4.5637E-01    1.000000E+06  0.05000  2.592E-02    0   0.9998   age020_m72            0.0000     9.3449E-05    82.2924   2.2683   152.7406
 52      0.0000     0.0000E+00    0.0000E+00    3.160000E+06  0.05000  4.845E-02    0   0.9577   age045_m72            0.0000     9.6593E-05    82.8917   2.0687   156.6443
 53      0.0000     0.0000E+00    0.0000E+00    5.010000E+06  0.05000  3.072E-02    0   0.9147   age055_m72            0.0000     9.4649E-05    80.9187   1.7046   159.7759
 54      0.0000     0.0000E+00    0.0000E+00    6.610000E+06  0.05000  1.455E-02    0   0.8877   age061_m72            0.0000     8.7576E-05    75.8583   1.1944   160.6557
 55      0.0000     0.0000E+00    0.0000E+00    1.000000E+07  0.05000  9.074E-03    0   0.8524   age070_m72            0.0000     9.5225E-05    81.1168   1.8906   158.9693
 56      0.0000     0.0000E+00    0.0000E+00    2.512000E+07  0.05000  4.250E-03    0   0.7902   age090_m72            0.0000     9.9623E-05    81.1492   1.6009   161.4262
 57      0.0000     0.0000E+00    0.0000E+00    4.000000E+07  0.05000  3.087E-03    0   0.7618   age104_m72            0.0000     1.0171E-04    80.7769   1.3949   163.2417
 58      0.0000     0.0000E+00    0.0000E+00    1.015200E+08  0.05000  1.700E-03    0   0.7096   age116_m72            0.0000     1.1138E-04    81.6184   1.1131   167.7147
 59      0.0000     0.0000E+00    0.0000E+00    2.861200E+08  0.05000  7.384E-04    0   0.6633   age125_m72            0.0000     1.2597E-04    82.3796   0.5745   174.6787
 60      0.0000     0.0000E+00    0.0000E+00    5.088000E+08  0.05000  3.819E-04    0   0.6372   age130_m72            0.0000     1.2585E-04    84.5477  -0.0314   182.2061
 61      0.0000     0.0000E+00    0.0000E+00    9.047900E+08  0.05000  1.676E-04    0   0.6110   age135_m72            0.0000     1.2193E-04    87.4545  -0.9101   186.7371
 62      0.0000     0.0000E+00    0.0000E+00    1.434000E+09  0.05000  8.837E-05    0   0.5874   age139_m72            0.0000     1.2251E-04    81.2652  -1.0000   176.1071
 63      0.0000     0.0000E+00    0.0000E+00    2.500000E+09  0.05000  4.233E-05    0   0.5598   age150_m72            0.0000     1.2868E-04    75.6480  -1.0000   163.5513
 64      0.0000     0.0000E+00    0.0000E+00    6.250000E+09  0.05000  1.435E-05    0   0.5249   age166_m72            0.0000     1.3992E-04    67.8392  -1.0000   143.3910
 65      0.0000     0.0000E+00    0.0000E+00    1.300000E+10  0.05000  6.513E-06    0   0.5036   age193_m72            0.0000     1.5053E-04    62.2848  -1.0000   131.8293
 66      0.0000     0.0000E+00    0.0000E+00    1.800000E+10  0.05000  4.527E-06    0   0.4945   age213_m72            0.0000     1.5673E-04    59.1545  -1.0000   124.0859


## Synthesis Results - Average & Chains ##

# j      x_j: min, <> & last-chain-values for 1 ...  7 chains
  1      0.0000      1.6388      2.7674      3.2264      2.7196      2.4999      3.1178      2.8586      2.7028
  2      0.0000      0.9620      0.0000      0.0000      0.0000      0.0000      0.0000      0.0000      0.0000
  3      0.0000      0.6066      0.0014      0.0000      0.0000      0.0000      0.0000      0.0000      0.0000
  4      0.0000      0.4858      0.0000      0.0000      0.0000      0.0000      0.0000      0.0000      0.0000
  5      0.0000      0.5388      0.1138      0.1009      0.0799      0.0157      0.1031      0.1129      0.0993
  6      0.0000      0.6213      0.0220      0.0146      0.0000      0.0069      0.0008      0.0000      0.0140
  7      0.0000      0.6672      0.0004      0.0000      0.0000      0.0000      0.0000      0.0000      0.0000
  8      0.0000      0.8860      0.0000      0.0000      0.0011      0.0002      0.0000      0.0000      0.0000
  9      0.0000      0.6881      0.0000      0.0000      0.0066      0.0000      0.0000      0.0000      0.0016
 10      0.0000      0.5857      0.0000      0.0000      0.0000      0.0000      0.0000      0.0000      0.0005
 11      0.0000      0.8054      0.0000      0.0000      0.0000      0.0000      0.0000      0.0000      0.0000
 12      0.0000      0.6362      0.0000      0.0000      0.0000      0.0000      0.0000      0.0000      0.0000
 13      0.0000      0.6797      0.0000      0.0000      0.0000      0.0080      0.0000      0.0000      0.0000
 14      0.0000      0.6873      0.0000      0.0000      0.0000      0.0000      0.0000      0.0000      0.0000
 15      0.0000      0.5029      0.0000      0.0000      0.0000      0.0000      0.0000      0.0000      0.0000
 16      0.0000      0.9915      0.0000      0.0005      0.0000      0.0000      0.0000      0.0000      0.0000
 17      0.0000      0.7574      0.0000      0.0000      0.0000      0.0000      0.0014      0.0000      0.0000
 18      0.0000      0.8903      1.3379      1.3903      1.3307      1.2679      1.3176      1.3551      1.4610
 19      0.0000      0.8431      0.6150      0.6287      0.6286      0.2983      0.6256      0.6414      0.6041
 20      0.0000      0.5168      0.0000      0.0019      0.0000      0.0000      0.0000      0.0000      0.0000
 21      0.0000      0.6435      0.0000      0.0000      0.0000      0.0000      0.0000      0.0000      0.0000
 22      0.0000      0.5821      0.0000      0.0127      0.0000      0.0001      0.0000      0.0000      0.0000
 23      0.0000      3.9407      7.2725      7.4077      7.5796      7.2220      7.2286      7.4180      7.2935
 24      0.0000      0.6152      0.0000      0.0000      0.0000      0.0064      0.0000      0.0000      0.0193
 25      0.0000      0.4082      0.0000      0.0000      0.0000      0.0000      0.0000      0.0000      0.0000
 26      0.0000      0.6706      0.0000      0.0000      0.0000      0.0000      0.0000      0.0000      0.0000
 27      0.0000      0.7600      0.0000      0.0000      0.0000      0.0000      0.0000      0.0000      0.0000
 28      0.0000      0.8769      0.0000      0.0000      0.0000      0.0000      0.0000      0.0000      0.0000
 29      0.0000      0.7000      0.0000      0.0000      0.0000      0.0000      0.0000      0.0000      0.0000
 30      0.0000      0.4797      0.0000      0.0000      0.0000      0.0000      0.0000      0.0000      0.0000
 31      0.0000      0.7511      0.0000      0.0000      0.0000      0.0000      0.0000      0.0000      0.0000
 32      0.0000      0.6794      0.0000      0.0000      0.0000      0.0000      0.0000      0.0000      0.0000
 33      0.0000      5.6603     11.5652     11.6083     11.6603     11.3308     11.4826     10.8208     11.4097
 34     16.7145      4.0739      8.3215      8.5202      8.3845      6.4723      8.4028      8.6237      8.3556
 35     12.9089      1.3500      2.3730      2.3324      2.5623      2.0764      3.3732      2.2225      2.3763
 36      0.0000      1.0372      0.7137      0.7221      0.6916      0.2438      0.6784      0.7303      0.7103
 37      0.0000      0.4889      0.0000      0.0103      0.0000      0.0043      0.0000      0.0000      0.0833
 38      0.0000     11.1140     25.0580     24.0620     24.2877     29.3840     24.1476     24.5466     25.1802
 39      0.0000      0.5179      0.0000      0.0000      0.0000      0.0000      0.0000      0.0000      0.0047
 40      0.0000      0.6766      0.8967      0.8465      0.9769      0.0004      0.7393      0.6474      0.6650
 41      0.0000      0.5794      0.0004      0.0000      0.0000      0.0479      0.0000      0.0000      0.0016
 42      0.0000      0.4627      0.0000      0.0000      0.0000      0.0000      0.0004      0.0000      0.0000
 43      0.0000      0.5330      0.0000      0.0000      0.0000      0.0000      0.0000      0.0000      0.0000
 44      0.0000      0.6196      0.0000      0.0000      0.0000      0.2248      0.0000      0.0000      0.0000
 45      0.0000      0.5277      0.0000      0.0000      0.0000      0.0000      0.0000      0.0000      0.0000
 46      0.0000      0.5265      0.0000      0.0000      0.0000      0.0000      0.0000      0.0000      0.0000
 47      0.0000      0.6267      0.0000      0.0000      0.0000      0.0000      0.0000      0.0000      0.0001
 48      0.0000      0.6086      0.0000      0.0000      0.0000      0.0000      0.0000      0.0000      0.0000
 49      0.0000      0.6219      0.0000      0.0000      0.0000      0.0000      0.0000      0.0000      0.0000
 50      0.0000      1.1806      1.0599      1.1455      1.0652      1.2480      1.1340      1.1335      1.0475
 51    100.3767      4.4993      7.8644      8.0385      8.0164      7.4737      7.6430      8.8891      7.9696
 52      0.0000      0.4629      0.0165      0.0034      0.0088      0.0000      0.0039      0.0000      0.0000
 53      0.0000      0.5251      0.0000      0.0000      0.0000      0.0000      0.0000      0.0000      0.0000
 54      0.0000      0.5133      0.0000      0.0000      0.0002      0.0000      0.0000      0.0000      0.0000
 55      0.0000      0.5719      0.0000      0.0000      0.0000      0.1683      0.0000      0.0000      0.0000
 56      0.0000      0.5080      0.0000      0.0000      0.0000      0.0000      0.0000      0.0000      0.0000
 57      0.0000      0.6294      0.0000      0.0000      0.0001      0.0000      0.0000      0.0000      0.0000
 58      0.0000      0.8265      0.0004      0.0000      0.0000      0.0000      0.0000      0.0000      0.0000
 59      0.0000      0.7207      0.0000      0.0000      0.0000      0.0000      0.0000      0.0000      0.0000
 60      0.0000      0.4813      0.0000      0.0000      0.0000      0.0000      0.0000      0.0000      0.0000
 61      0.0000      0.4709      0.0000      0.0000      0.0000      0.0000      0.0000      0.0000      0.0000
 62      0.0000      0.6180      0.0000      0.0000      0.0000      0.0000      0.0000      0.0000      0.0000
 63      0.0000      0.7503      0.0000      0.0000      0.0000      0.0000      0.0000      0.0000      0.0000
 64      0.0000      0.4917      0.0000      0.0000      0.0000      0.0000      0.0000      0.0000      0.0000
 65      0.0000      0.5480      0.0000      0.0000      0.0000      0.0000      0.0000      0.0000      0.0000
 66      0.0000      0.4515      0.0000      0.0000      0.0000      0.0000      0.0000      0.0000      0.0000

# j      m_j: min, <> & last-chain-values for 1 ...  7 chains
  1  0.0000E+00  1.9435E-02  2.7219E-02  3.1142E-02  2.6546E-02  2.7174E-02  3.0460E-02  2.8340E-02  2.6726E-02
  2  0.0000E+00  3.1144E-03  0.0000E+00  0.0000E+00  0.0000E+00  0.0000E+00  0.0000E+00  0.0000E+00  0.0000E+00
  3  0.0000E+00  2.9409E-03  5.6025E-06  0.0000E+00  0.0000E+00  0.0000E+00  0.0000E+00  0.0000E+00  0.0000E+00
  4  0.0000E+00  2.2182E-03  0.0000E+00  0.0000E+00  0.0000E+00  0.0000E+00  0.0000E+00  0.0000E+00  0.0000E+00
  5  0.0000E+00  4.6859E-03  8.2062E-04  7.1407E-04  5.7214E-04  1.2481E-04  7.3869E-04  8.2108E-04  7.1986E-04
  6  0.0000E+00  8.7635E-03  2.5707E-04  1.6721E-04  0.0000E+00  8.8658E-05  9.0090E-06  0.0000E+00  1.6496E-04
  7  0.0000E+00  1.3474E-02  5.9550E-06  0.0000E+00  0.0000E+00  0.0000E+00  0.0000E+00  0.0000E+00  0.0000E+00
  8  0.0000E+00  2.4730E-02  0.0000E+00  0.0000E+00  2.5853E-05  6.1269E-06  0.0000E+00  0.0000E+00  0.0000E+00
  9  0.0000E+00  2.1983E-02  0.0000E+00  0.0000E+00  1.7297E-04  0.0000E+00  0.0000E+00  0.0000E+00  4.2759E-05
 10  0.0000E+00  2.4580E-02  0.0000E+00  0.0000E+00  0.0000E+00  0.0000E+00  0.0000E+00  0.0000E+00  1.7108E-05
 11  0.0000E+00  6.3551E-02  0.0000E+00  0.0000E+00  0.0000E+00  0.0000E+00  0.0000E+00  0.0000E+00  0.0000E+00
 12  0.0000E+00  7.9633E-02  0.0000E+00  0.0000E+00  0.0000E+00  0.0000E+00  0.0000E+00  0.0000E+00  0.0000E+00
 13  0.0000E+00  2.3980E-01  0.0000E+00  0.0000E+00  0.0000E+00  2.5767E-03  0.0000E+00  0.0000E+00  0.0000E+00
 14  0.0000E+00  8.1336E-01  0.0000E+00  0.0000E+00  0.0000E+00  0.0000E+00  0.0000E+00  0.0000E+00  0.0000E+00
 15  0.0000E+00  9.6876E-01  0.0000E+00  0.0000E+00  0.0000E+00  0.0000E+00  0.0000E+00  0.0000E+00  0.0000E+00
 16  0.0000E+00  3.2297E+00  0.0000E+00  1.2338E-03  0.0000E+00  0.0000E+00  0.0000E+00  0.0000E+00  0.0000E+00
 17  0.0000E+00  3.2003E+00  0.0000E+00  0.0000E+00  0.0000E+00  0.0000E+00  5.0475E-03  0.0000E+00  0.0000E+00
 18  0.0000E+00  9.3302E-03  1.1629E-02  1.1858E-02  1.1478E-02  1.2179E-02  1.1375E-02  1.1872E-02  1.2767E-02
 19  0.0000E+00  3.5462E-03  2.1453E-03  2.1524E-03  2.1761E-03  1.1499E-03  2.1676E-03  2.2553E-03  2.1186E-03
 20  0.0000E+00  2.3731E-03  0.0000E+00  7.1610E-06  0.0000E+00  0.0000E+00  0.0000E+00  0.0000E+00  0.0000E+00
 21  0.0000E+00  3.5868E-03  0.0000E+00  0.0000E+00  0.0000E+00  0.0000E+00  0.0000E+00  0.0000E+00  0.0000E+00
 22  0.0000E+00  5.4862E-03  0.0000E+00  9.7551E-05  0.0000E+00  7.4941E-07  0.0000E+00  0.0000E+00  0.0000E+00
 23  0.0000E+00  5.0158E-02  7.6771E-02  7.6741E-02  7.9408E-02  8.4256E-02  7.5797E-02  7.8932E-02  7.7406E-02
 24  0.0000E+00  1.1649E-02  0.0000E+00  0.0000E+00  0.0000E+00  1.1150E-04  0.0000E+00  0.0000E+00  3.0407E-04
 25  0.0000E+00  1.0659E-02  0.0000E+00  0.0000E+00  0.0000E+00  0.0000E+00  0.0000E+00  0.0000E+00  0.0000E+00
 26  0.0000E+00  2.9266E-02  0.0000E+00  0.0000E+00  0.0000E+00  0.0000E+00  0.0000E+00  0.0000E+00  0.0000E+00
 27  0.0000E+00  6.6390E-02  0.0000E+00  0.0000E+00  0.0000E+00  0.0000E+00  0.0000E+00  0.0000E+00  0.0000E+00
 28  0.0000E+00  2.2232E-01  0.0000E+00  0.0000E+00  0.0000E+00  0.0000E+00  0.0000E+00  0.0000E+00  0.0000E+00
 29  0.0000E+00  3.0920E-01  0.0000E+00  0.0000E+00  0.0000E+00  0.0000E+00  0.0000E+00  0.0000E+00  0.0000E+00
 30  0.0000E+00  4.4272E-01  0.0000E+00  0.0000E+00  0.0000E+00  0.0000E+00  0.0000E+00  0.0000E+00  0.0000E+00
 31  0.0000E+00  1.2193E+00  0.0000E+00  0.0000E+00  0.0000E+00  0.0000E+00  0.0000E+00  0.0000E+00  0.0000E+00
 32  0.0000E+00  1.4842E+00  0.0000E+00  0.0000E+00  0.0000E+00  0.0000E+00  0.0000E+00  0.0000E+00  0.0000E+00
 33  0.0000E+00  2.7372E+01  4.6385E+01  4.5690E+01  4.6412E+01  5.0223E+01  4.5745E+01  4.3745E+01  4.6007E+01
 34  9.9445E+01  2.6678E+01  4.5196E+01  4.5412E+01  4.5193E+01  3.8848E+01  4.5331E+01  4.7210E+01  4.5625E+01
 35  9.8549E-02  1.1343E-02  1.6538E-02  1.5951E-02  1.7721E-02  1.5992E-02  2.3350E-02  1.5612E-02  1.6649E-02
 36  0.0000E+00  3.5262E-03  2.0124E-03  1.9980E-03  1.9352E-03  7.5955E-04  1.9000E-03  2.0755E-03  2.0135E-03
 37  0.0000E+00  1.7979E-03  0.0000E+00  3.0679E-05  0.0000E+00  1.4501E-05  0.0000E+00  0.0000E+00  2.5531E-04
 38  0.0000E+00  1.1072E-01  2.0703E-01  1.9510E-01  1.9915E-01  2.6830E-01  1.9817E-01  2.0442E-01  2.0916E-01
 39  0.0000E+00  7.4278E-03  0.0000E+00  0.0000E+00  0.0000E+00  0.0000E+00  0.0000E+00  0.0000E+00  5.6752E-05
 40  0.0000E+00  1.5687E-02  1.7243E-02  1.5973E-02  1.8642E-02  7.4807E-06  1.4121E-02  1.2548E-02  1.2856E-02
 41  0.0000E+00  2.0891E-02  1.1652E-05  0.0000E+00  0.0000E+00  1.5842E-03  0.0000E+00  0.0000E+00  4.7373E-05
 42  0.0000E+00  3.0627E-02  0.0000E+00  0.0000E+00  0.0000E+00  0.0000E+00  2.0990E-05  0.0000E+00  0.0000E+00
 43  0.0000E+00  5.1508E-02  0.0000E+00  0.0000E+00  0.0000E+00  0.0000E+00  0.0000E+00  0.0000E+00  0.0000E+00
 44  0.0000E+00  1.0310E-01  0.0000E+00  0.0000E+00  0.0000E+00  3.4285E-02  0.0000E+00  0.0000E+00  0.0000E+00
 45  0.0000E+00  1.7423E-01  0.0000E+00  0.0000E+00  0.0000E+00  0.0000E+00  0.0000E+00  0.0000E+00  0.0000E+00
 46  0.0000E+00  3.1951E-01  0.0000E+00  0.0000E+00  0.0000E+00  0.0000E+00  0.0000E+00  0.0000E+00  0.0000E+00
 47  0.0000E+00  7.7063E-01  0.0000E+00  0.0000E+00  0.0000E+00  0.0000E+00  0.0000E+00  0.0000E+00  1.2185E-04
 48  0.0000E+00  1.3200E+00  0.0000E+00  0.0000E+00  0.0000E+00  0.0000E+00  0.0000E+00  0.0000E+00  0.0000E+00
 49  0.0000E+00  3.0654E+00  0.0000E+00  0.0000E+00  0.0000E+00  0.0000E+00  0.0000E+00  0.0000E+00  0.0000E+00
 50  0.0000E+00  1.0778E+01  8.0251E+00  8.5115E+00  8.0040E+00  1.0443E+01  8.5290E+00  8.6505E+00  7.9739E+00
 51  4.5637E-01  2.2516E-02  3.2641E-02  3.2742E-02  3.3020E-02  3.4281E-02  3.1509E-02  3.7188E-02  3.3255E-02
 52  0.0000E+00  1.1872E-03  3.5048E-05  7.0145E-06  1.8671E-05  0.0000E+00  8.3098E-06  0.0000E+00  0.0000E+00
 53  0.0000E+00  2.0285E-03  0.0000E+00  0.0000E+00  0.0000E+00  0.0000E+00  0.0000E+00  0.0000E+00  0.0000E+00
 54  0.0000E+00  4.0628E-03  0.0000E+00  0.0000E+00  1.1062E-06  0.0000E+00  0.0000E+00  0.0000E+00  0.0000E+00
 55  0.0000E+00  6.9704E-03  0.0000E+00  0.0000E+00  0.0000E+00  1.8801E-03  0.0000E+00  0.0000E+00  0.0000E+00
 56  0.0000E+00  1.2253E-02  0.0000E+00  0.0000E+00  0.0000E+00  0.0000E+00  0.0000E+00  0.0000E+00  0.0000E+00
 57  0.0000E+00  2.0152E-02  0.0000E+00  0.0000E+00  2.7048E-06  0.0000E+00  0.0000E+00  0.0000E+00  0.0000E+00
 58  0.0000E+00  4.4758E-02  1.5935E-05  0.0000E+00  0.0000E+00  0.0000E+00  0.0000E+00  0.0000E+00  0.0000E+00
 59  0.0000E+00  8.3997E-02  0.0000E+00  0.0000E+00  0.0000E+00  0.0000E+00  0.0000E+00  0.0000E+00  0.0000E+00
 60  0.0000E+00  1.0419E-01  0.0000E+00  0.0000E+00  0.0000E+00  0.0000E+00  0.0000E+00  0.0000E+00  0.0000E+00
 61  0.0000E+00  2.2271E-01  0.0000E+00  0.0000E+00  0.0000E+00  0.0000E+00  0.0000E+00  0.0000E+00  0.0000E+00
 62  0.0000E+00  5.3297E-01  0.0000E+00  0.0000E+00  0.0000E+00  0.0000E+00  0.0000E+00  0.0000E+00  0.0000E+00
 63  0.0000E+00  1.2873E+00  0.0000E+00  0.0000E+00  0.0000E+00  0.0000E+00  0.0000E+00  0.0000E+00  0.0000E+00
 64  0.0000E+00  2.3335E+00  0.0000E+00  0.0000E+00  0.0000E+00  0.0000E+00  0.0000E+00  0.0000E+00  0.0000E+00
 65  0.0000E+00  5.4973E+00  0.0000E+00  0.0000E+00  0.0000E+00  0.0000E+00  0.0000E+00  0.0000E+00  0.0000E+00
 66  0.0000E+00  6.3983E+00  0.0000E+00  0.0000E+00  0.0000E+00  0.0000E+00  0.0000E+00  0.0000E+00  0.0000E+00

# AV, chi2 & Mass for <> & i_chain = 1 ...  7 solutions
AV       1.6054      1.9133      1.8987      1.8867      1.8945      1.9740      1.9014      1.9207      1.9049
chi2 9.3500E-05  1.5031E-04  1.4620E-04  1.4616E-04  1.4624E-04  1.4583E-04  1.4613E-04  1.4601E-04  1.4614E-04
Mass 4.6186E-13  6.3460E-13  7.5024E-13  7.5224E-13  7.5171E-13  7.5115E-13  7.5808E-13  7.6662E-13  7.5251E-13
 395.67                                  [v0_min (km/s) before EX0s...]
   0.09                                  [vd_min (km/s) before EX0s...]


## Synthetic spectrum (Best Model) ##l_obs f_obs f_syn wei
 3478    [Nl_obs]
 3741.00    1.93830   1.13292    0.000
 3742.00    1.19312   1.18177    0.000
 3743.00    0.13523   1.23241    0.000
 3744.00   -0.17400   1.27339    0.000
 3745.00   -0.04703   1.29734    0.000
 3746.00    2.51038   1.30739    0.030
 3747.00    6.30198   1.30323    0.033
 3748.00    5.43881   1.28957    0.033
 3749.00    2.52881   1.27143    0.033
 3750.00    1.25630   1.24654    0.031
 3751.00    0.60200   1.22015    0.029
 3752.00   -0.68844   1.19131    0.000
 3753.00   -2.18274   1.13877    0.000
 3754.00   -0.71545   1.07236    0.000
 3755.00    1.54548   1.04637    0.028
 3756.00    2.29564   1.09113    0.027
 3757.00    2.71420   1.16323    0.027
 3758.00    2.52361   1.20385    0.027
 3759.00    2.22668   1.20345    0.028
 3760.00    1.71840   1.21717    0.035
 3761.00    1.18205   1.24219    0.050
 3762.00    0.55005   1.22755    0.034
 3763.00   -0.09095   1.21472    0.000
 3764.00    1.03667   1.19680    0.025
 3765.00    2.26631   1.19324    0.025
 3766.00    3.07549   1.24284    0.027
 3767.00    3.86729   1.27227    0.029
 3768.00    3.76084   1.27359    0.028
 3769.00    3.63794   1.27963    0.027
 3770.00    3.11544   1.27656    0.026
 3771.00    2.58836   1.25008    0.024
 3772.00    2.00115   1.21308    0.024
 3773.00    1.52873   1.17566    0.024
 3774.00    2.06402   1.11512    0.024
 3775.00    2.48567   1.04214    0.024
 3776.00    2.17042   1.02927    0.024
 3777.00    1.68734   1.09336    0.024
 3778.00    0.35482   1.15310    0.023
 3779.00   -0.41151   1.19004    0.000
 3780.00    1.13964   1.23978    0.023
 3781.00    2.33516   1.28074    0.024
 3782.00    2.32455   1.29719    0.025
 3783.00    2.61824   1.30687    0.025
 3784.00    3.78226   1.32045    0.026
 3785.00    4.41826   1.33415    0.026
 3786.00    3.76419   1.33986    0.026
 3787.00    3.38386   1.33972    0.027
 3788.00    3.58048   1.34300    0.030
 3789.00    3.11468   1.34720    0.030
 3790.00    1.43548   1.33920    0.027
 3791.00   -0.13741   1.32186    0.000
 3792.00   -1.54013   1.31082    0.000
 3793.00   -1.17109   1.30479    0.000
 3794.00    1.68660   1.29498    0.025
 3795.00    3.99509   1.27057    0.025
 3796.00    5.62478   1.24043    0.026
 3797.00    5.05526   1.23579    0.025
 3798.00    2.08972   1.23592    0.023
 3799.00    0.96320   1.20684    0.023
 3800.00    1.60397   1.15621    0.024
 3801.00    1.72966   1.08269    0.023
 3802.00    1.41888   0.99147    0.023
 3803.00    0.09232   0.94632    0.023
 3804.00   -1.99225   1.00093    0.000
 3805.00   -2.92651   1.10341    0.000
 3806.00   -3.10670   1.18469    0.000
 3807.00   -2.73814   1.23550    0.000
 3808.00   -2.05470   1.27097    0.000
 3809.00   -1.19387   1.29291    0.000
 3810.00   -0.24438   1.29889    0.000
 3811.00   -0.25149   1.29354    0.000
 3812.00   -0.67226   1.29202    0.000
 3813.00   -0.24718   1.30551    0.000
 3814.00    0.49158   1.32025    0.022
 3815.00    1.66712   1.32430    0.023
 3816.00    2.97994   1.32116    0.023
 3817.00    2.27217   1.31402    0.024
 3818.00    1.03434   1.30145    0.024
 3819.00    1.28366   1.29161    0.023
 3820.00    1.85160   1.28588    0.022
 3821.00    2.41052   1.28207    0.023
 3822.00    2.96790   1.28335    0.024
 3823.00    2.23691   1.26328    0.023
 3824.00    1.34060   1.20658    0.023
 3825.00    2.34791   1.18127    0.023
 3826.00    3.52610   1.22312    0.024
 3827.00    1.77264   1.27085    0.023
 3828.00   -0.13839   1.28704    0.000
 3829.00   -0.78607   1.27784    0.000
 3830.00   -1.36898   1.26310    0.000
 3831.00    1.37800   1.25581    0.027
 3832.00    3.94861   1.25240    0.033
 3833.00    2.60113   1.24590    0.033
 3834.00    1.31570   1.23468    0.033
 3835.00    0.80190   1.21887    0.033
 3836.00    0.18592   1.18976    0.032
 3837.00   -1.29369   1.13952    0.000
 3838.00   -2.40158   1.07001    0.000
 3839.00   -1.17093   0.97811    0.000
 3840.00    0.02943   0.90224    0.026
 3841.00    1.08026   0.91417    0.023
 3842.00    1.77061   0.99722    0.022
 3843.00    1.01790   1.07752    0.021
 3844.00    0.60227   1.13698    0.021
 3845.00    1.30734   1.17913    0.022
 3846.00    1.85939   1.21267    0.023
 3847.00    1.98172   1.24461    0.000
 3848.00    2.08404   1.26704    0.000
 3849.00    2.13828   1.27819    0.000
 3850.00    2.29492   1.28270    0.000
 3851.00    2.66392   1.28610    0.000
 3852.00    3.22465   1.29181    0.000
 3853.00    4.13120   1.29377    0.000
 3854.00    4.17747   1.28667    0.000
 3855.00    2.86702   1.27851    0.000
 3856.00    1.49912   1.28306    0.000
 3857.00    0.05167   1.29352    0.000
 3858.00   -0.45838   1.29395    0.000
 3859.00    0.17377   1.28755    0.000
 3860.00    1.49952   1.27855    0.000
 3861.00    3.57031   1.26702    0.000
 3862.00    3.53542   1.26080    0.000
 3863.00    1.50541   1.25656    0.000
 3864.00    0.74303   1.25046    0.000
 3865.00    1.03965   1.25051    0.000
 3866.00    1.38713   1.26246    0.000
 3867.00    1.77202   1.27915    0.000
 3868.00    2.18956   1.28747    0.000
 3869.00    2.62819   1.28454    0.000
 3870.00    1.85077   1.27950    0.000
 3871.00    0.38611   1.27677    0.000
 3872.00    0.29990   1.27091    0.000
 3873.00    0.89178   1.26962    0.000
 3874.00    1.05175   1.27539    0.000
 3875.00    1.02808   1.27188    0.000
 3876.00    1.58558   1.25511    0.000
 3877.00    2.35478   1.24147    0.000
 3878.00    2.73723   1.24700    0.000
 3879.00    3.00045   1.26474    0.000
 3880.00    2.22693   1.27011    0.000
 3881.00    1.18725   1.26409    0.020
 3882.00    1.47324   1.25732    0.020
 3883.00    2.03639   1.24947    0.019
 3884.00    1.60960   1.24608    0.020
 3885.00    1.01957   1.24680    0.020
 3886.00    1.13357   1.23668    0.020
 3887.00    1.33476   1.21519    0.020
 3888.00    2.13503   1.19931    0.020
 3889.00    2.98658   1.18907    0.021
 3890.00    1.74098   1.15551    0.021
 3891.00    0.39085   1.09291    0.020
 3892.00    1.11397   1.01782    0.021
 3893.00    1.84809   0.92442    0.021
 3894.00    1.10013   0.86306    0.021
 3895.00    0.41518   0.90919    0.020
 3896.00    1.01916   1.02161    0.020
 3897.00    1.49677   1.11576    0.020
 3898.00    0.47983   1.17446    0.020
 3899.00   -0.30401   1.20888    0.000
 3900.00    0.81108   1.22701    0.019
 3901.00    1.66244   1.24356    0.019
 3902.00    0.90289   1.26118    0.018
 3903.00    0.70001   1.26559    0.018
 3904.00    3.17597   1.26212    0.018
 3905.00    4.63074   1.26623    0.019
 3906.00    2.08636   1.27856    0.018
 3907.00    0.23325   1.28236    0.017
 3908.00    0.63331   1.27815    0.018
 3909.00    0.68865   1.27889    0.018
 3910.00   -0.20664   1.27612    0.000
 3911.00   -0.91920   1.27158    0.000
 3912.00   -1.20029   1.27807    0.000
 3913.00   -0.66449   1.29140    0.000
 3914.00    1.53849   1.30078    0.020
 3915.00    2.53371   1.30255    0.020
 3916.00    1.38377   1.30023    0.019
 3917.00    0.63300   1.29932    0.019
 3918.00    0.50245   1.30012    0.019
 3919.00    0.34403   1.30054    0.019
 3920.00    0.14759   1.29940    0.019
 3921.00    0.39369   1.29541    0.019
 3922.00    1.17140   1.29004    0.019
 3923.00    1.88043   1.27948    0.020
 3924.00    2.51671   1.25923    0.020
 3925.00    2.01446   1.23824    0.019
 3926.00    0.44861   1.22666    0.019
 3927.00   -0.28850   1.21983    0.000
 3928.00   -0.34308   1.20961    0.000
 3929.00   -0.04529   1.20869    0.000
 3930.00    0.50793   1.21819    0.019
 3931.00    0.82566   1.22248    0.019
 3932.00    0.99351   1.22135    0.019
 3933.00    1.21030   1.21885    0.020
 3934.00    1.45431   1.21600    0.020
 3935.00    1.30615   1.21302    0.020
 3936.00    0.96814   1.20659    0.020
 3937.00    1.33221   1.19720    0.020
 3938.00    1.98980   1.18247    0.020
 3939.00    2.26794   1.16415    0.020
 3940.00    2.41036   1.16439    0.021
 3941.00    1.72861   1.18761    0.020
 3942.00    0.79775   1.21121    0.020
 3943.00    0.96090   1.22441    0.020
 3944.00    1.39881   1.23507    0.020
 3945.00    1.01352   1.24548    0.020
 3946.00    0.46036   1.24965    0.020
 3947.00    0.47964   1.24904    0.020
 3948.00    0.59058   1.24463    0.021
 3949.00    1.49713   1.23637    0.021
 3950.00    2.49867   1.23857    0.021
 3951.00    1.68208   1.25576    0.020
 3952.00    0.71744   1.26280    0.020
 3953.00    0.41519   1.25645    0.020
 3954.00    0.14339   1.26063    0.020
 3955.00    1.16473   1.27542    0.020
 3956.00    2.17438   1.28299    0.020
 3957.00    1.71230   1.27632    0.020
 3958.00    1.29928   1.26793    0.020
 3959.00    1.81542   1.26870    0.019
 3960.00    2.27708   1.27079    0.000
 3961.00    2.12461   1.26521    0.000
 3962.00    1.97546   1.25872    0.000
 3963.00    1.85240   1.25838    0.000
 3964.00    1.70875   1.25859    0.000
 3965.00    1.44285   1.23953    0.000
 3966.00    1.11242   1.19179    0.000
 3967.00    0.47897   1.15559    0.000
 3968.00    0.12796   1.15239    0.000
 3969.00    0.85934   1.14201    0.000
 3970.00    1.34326   1.11321    0.000
 3971.00    1.03619   1.07966    0.000
 3972.00    0.89588   1.02849    0.000
 3973.00    1.20726   0.94686    0.000
 3974.00    1.39659   0.84479    0.000
 3975.00    1.30251   0.78049    0.000
 3976.00    1.12403   0.81672    0.000
 3977.00    0.77599   0.92319    0.000
 3978.00    1.05162   1.02329    0.000
 3979.00    2.41816   1.09419    0.000
 3980.00    2.70683   1.14608    0.000
 3981.00    1.34530   1.18144    0.019
 3982.00    0.82676   1.20542    0.020
 3983.00    1.44191   1.22641    0.020
 3984.00    1.91169   1.24524    0.020
 3985.00    2.20933   1.25965    0.020
 3986.00    2.12700   1.26447    0.020
 3987.00    1.64789   1.25926    0.020
 3988.00    1.14604   1.25539    0.020
 3989.00    0.62325   1.26181    0.020
 3990.00    0.68892   1.27312    0.020
 3991.00    1.23236   1.28038    0.019
 3992.00    1.52563   1.28471    0.019
 3993.00    1.64015   1.29131    0.020
 3994.00    1.51654   1.29316    0.019
 3995.00    1.24362   1.28911    0.019
 3996.00    2.14652   1.28965    0.019
 3997.00    3.69379   1.29548    0.020
 3998.00    3.07319   1.29844    0.019
 3999.00    1.41993   1.29218    0.019
 4000.00    0.70419   1.28273    0.019
 4001.00    0.37377   1.27928    0.019
 4002.00    0.89756   1.27571    0.019
 4003.00    1.72135   1.27042    0.019
 4004.00    1.90844   1.27735    0.019
 4005.00    1.90688   1.29322    0.019
 4006.00    1.41609   1.30071    0.018
 4007.00    0.80512   1.29966    0.018
 4008.00    1.44574   1.29386    0.018
 4009.00    2.33520   1.28056    0.018
 4010.00    1.81013   1.26325    0.018
 4011.00    1.06526   1.25781    0.018
 4012.00    1.69801   1.26857    0.018
 4013.00    2.48916   1.27838    0.018
 4014.00    1.95492   1.27770    0.018
 4015.00    1.31819   1.27859    0.018
 4016.00    1.20938   1.28644    0.018
 4017.00    1.12279   1.29346    0.018
 4018.00    0.91478   1.29736    0.018
 4019.00    0.70858   1.29928    0.018
 4020.00    0.62985   1.30235    0.018
 4021.00    0.56490   1.30419    0.018
 4022.00    0.74284   1.29902    0.018
 4023.00    0.82974   1.29483    0.018
 4024.00   -0.06295   1.29908    0.000
 4025.00   -0.71391   1.30039    0.000
 4026.00    0.47023   1.29272    0.018
 4027.00    1.51645   1.28151    0.018
 4028.00    1.76718   1.26423    0.018
 4029.00    1.88670   1.22498    0.018
 4030.00    1.40481   1.16017    0.018
 4031.00    1.04729   1.11402    0.018
 4032.00    1.15625   1.14156    0.018
 4033.00    1.28221   1.21466    0.018
 4034.00    1.46150   1.26394    0.018
 4035.00    1.41585   1.27077    0.017
 4036.00    0.77177   1.26049    0.017
 4037.00    0.48273   1.25503    0.017
 4038.00    1.00442   1.25378    0.018
 4039.00    1.14310   1.25597    0.018
 4040.00    0.52461   1.26533    0.018
 4041.00    0.01942   1.28352    0.018
 4042.00   -0.29059   1.30333    0.000
 4043.00    0.05917   1.31386    0.018
 4044.00    1.40419   1.31255    0.018
 4045.00    2.12389   1.30230    0.018
 4046.00    2.01465   1.29311    0.019
 4047.00    1.70556   1.29427    0.019
 4048.00    1.16314   1.29394    0.019
 4049.00    0.33173   1.27532    0.018
 4050.00   -0.79719   1.24576    0.000
 4051.00   -1.07037   1.23351    0.000
 4052.00   -0.56645   1.25170    0.000
 4053.00    0.13695   1.27882    0.018
 4054.00    1.00000   1.29364    0.018
 4055.00    1.10136   1.30028    0.018
 4056.00    0.66639   1.30384    0.018
 4057.00    0.40236   1.30026    0.018
 4058.00    0.24393   1.29192    0.018
 4059.00    0.40146   1.28212    0.018
 4060.00    0.72948   1.27165    0.018
 4061.00    0.69674   1.26603    0.018
 4062.00    0.49492   1.26617    0.018
 4063.00    0.76150   1.26675    0.018
 4064.00    1.21731   1.27068    0.017
 4065.00    1.20000   1.27823    0.017
 4066.00    1.01956   1.28259    0.017
 4067.00    0.98429   1.27393    0.017
 4068.00    0.99117   1.25220    0.017
 4069.00    1.20331   1.24068    0.017
 4070.00    1.46475   1.25318    0.017
 4071.00    1.32692   1.26472    0.017
 4072.00    1.11171   1.24414    0.017
 4073.00    1.49458   1.20227    0.017
 4074.00    1.96758   1.17362    0.017
 4075.00    1.56888   1.16933    0.017
 4076.00    1.07376   1.18196    0.016
 4077.00    1.10368   1.20545    0.017
 4078.00    1.17205   1.23637    0.017
 4079.00    1.04525   1.25904    0.016
 4080.00    0.91097   1.25307    0.016
 4081.00    0.12176   1.23027    0.016
 4082.00   -0.63047   1.21955    0.000
 4083.00    0.14786   1.22661    0.016
 4084.00    0.90025   1.24302    0.017
 4085.00    1.22514   1.26184    0.017
 4086.00    1.47235   1.27655    0.017
 4087.00    0.92014   1.28269    0.017
 4088.00    0.40774   1.27721    0.016
 4089.00    0.18744   1.26481    0.017
 4090.00    0.12868   1.25783    0.017
 4091.00    0.97614   1.26098    0.017
 4092.00    1.60891   1.26485    0.000
 4093.00    1.28101   1.24471    0.000
 4094.00    0.95623   1.21392    0.000
 4095.00    0.64292   1.22082    0.000
 4096.00    0.42126   1.25195    0.000
 4097.00    0.48146   1.26289    0.000
 4098.00    0.45687   1.25856    0.000
 4099.00    0.21068   1.25272    0.000
 4100.00    0.13853   1.23229    0.000
 4101.00    0.45728   1.18604    0.000
 4102.00    0.44754   1.12491    0.000
 4103.00   -0.20140   1.08284    0.000
 4104.00    0.11702   1.05580    0.000
 4105.00    2.07681   0.99296    0.000
 4106.00    2.84090   0.89082    0.000
 4107.00    1.82758   0.82607    0.000
 4108.00    0.60992   0.86134    0.000
 4109.00   -0.87475   0.96689    0.000
 4110.00   -0.65261   1.07481    0.000
 4111.00    1.53411   1.15145    0.000
 4112.00    2.55420   1.19552    0.000
 4113.00    2.39005   1.21697    0.017
 4114.00    1.22845   1.22585    0.017
 4115.00   -0.82618   1.22819    0.000
 4116.00   -1.33920   1.23040    0.000
 4117.00   -0.63589   1.23735    0.000
 4118.00   -0.32941   1.24953    0.000
 4119.00   -0.29831   1.25873    0.000
 4120.00   -0.23984   1.24661    0.000
 4121.00   -0.16472   1.22108    0.000
 4122.00    0.38794   1.21985    0.017
 4123.00    1.19429   1.23641    0.017
 4124.00    0.85175   1.23665    0.017
 4125.00   -0.02056   1.22572    0.000
 4126.00   -0.13739   1.22049    0.000
 4127.00    0.04577   1.22736    0.016
 4128.00    0.95599   1.24490    0.017
 4129.00    2.11229   1.26336    0.017
 4130.00    1.90121   1.27587    0.016
 4131.00    1.30108   1.27823    0.016
 4132.00    1.23597   1.26944    0.015
 4133.00    1.29647   1.25727    0.015
 4134.00    1.31661   1.25237    0.015
 4135.00    1.32914   1.25253    0.015
 4136.00    0.71307   1.24737    0.015
 4137.00    0.00522   1.23610    0.015
 4138.00    0.15832   1.22975    0.015
 4139.00    0.40292   1.23498    0.015
 4140.00    0.49968   1.24988    0.015
 4141.00    0.58621   1.26745    0.015
 4142.00    0.85803   1.27595    0.016
 4143.00    1.13624   1.27671    0.016
 4144.00    1.36105   1.27867    0.016
 4145.00    1.55310   1.27994    0.015
 4146.00    0.66625   1.27367    0.015
 4147.00   -0.14959   1.25115    0.000
 4148.00    0.13247   1.21301    0.015
 4149.00    0.33913   1.18818    0.015
 4150.00   -0.19745   1.20247    0.000
 4151.00   -0.67122   1.23602    0.000
 4152.00   -0.69910   1.25798    0.000
 4153.00   -0.59401   1.26488    0.000
 4154.00    0.23697   1.26068    0.016
 4155.00    0.79099   1.25143    0.016
 4156.00    0.13434   1.24772    0.016
 4157.00   -0.37547   1.24632    0.000
 4158.00   -0.35717   1.24091    0.000
 4159.00   -0.14453   1.23819    0.000
 4160.00    0.65454   1.24087    0.015
 4161.00    1.16746   1.24060    0.015
 4162.00    0.94554   1.23995    0.015
 4163.00    0.65768   1.24970    0.015
 4164.00    0.22416   1.26457    0.015
 4165.00    0.04296   1.27176    0.015
 4166.00    0.34511   1.26997    0.015
 4167.00    0.51238   1.26636    0.016
 4168.00    0.45420   1.26433    0.016
 4169.00    0.55085   1.26288    0.016
 4170.00    0.87431   1.26288    0.015
 4171.00    0.73754   1.26294    0.015
 4172.00    0.00799   1.25733    0.016
 4173.00   -0.46612   1.24937    0.000
 4174.00   -0.65037   1.24969    0.000
 4175.00   -0.18481   1.25610    0.000
 4176.00    0.93110   1.25476    0.016
 4177.00    0.98664   1.23888    0.016
 4178.00    0.10616   1.22250    0.015
 4179.00    0.07383   1.22202    0.015
 4180.00    0.70113   1.23223    0.015
 4181.00    1.07247   1.24006    0.015
 4182.00    1.26876   1.24066    0.015
 4183.00    1.18881   1.23833    0.015
 4184.00    0.94327   1.24130    0.015
 4185.00    0.67737   1.24934    0.015
 4186.00    0.40082   1.25206    0.015
 4187.00    0.45470   1.24713    0.015
 4188.00    0.65846   1.24435    0.015
 4189.00    0.66063   1.24786    0.015
 4190.00    0.58413   1.25101    0.015
 4191.00    0.55514   1.24148    0.015
 4192.00    0.54193   1.21956    0.015
 4193.00    0.29863   1.21201    0.015
 4194.00   -0.00880   1.22661    0.000
 4195.00   -0.17428   1.23897    0.000
 4196.00   -0.30720   1.24151    0.000
 4197.00   -0.27584   1.24589    0.000
 4198.00   -0.21430   1.25691    0.000
 4199.00    0.44191   1.26303    0.015
 4200.00    1.18219   1.25016    0.015
 4201.00    0.76637   1.22604    0.014
 4202.00    0.23267   1.20553    0.014
 4203.00    0.30218   1.18120    0.014
 4204.00    0.41098   1.14343    0.014
 4205.00    0.49225   1.11552    0.014
 4206.00    0.57242   1.12392    0.014
 4207.00    0.48619   1.15756    0.014
 4208.00    0.39690   1.19267    0.014
 4209.00    0.21795   1.21919    0.014
 4210.00    0.08365   1.23418    0.014
 4211.00    0.59921   1.24370    0.014
 4212.00    1.07553   1.25451    0.014
 4213.00    1.18075   1.26353    0.014
 4214.00    1.20775   1.26556    0.013
 4215.00    0.69704   1.25972    0.013
 4216.00    0.35195   1.25188    0.013
 4217.00    0.88706   1.24442    0.013
 4218.00    1.32920   1.24051    0.013
 4219.00    1.37421   1.24185    0.013
 4220.00    1.35980   1.23588    0.013
 4221.00    1.13603   1.22519    0.013
 4222.00    0.97277   1.23281    0.013
 4223.00    0.98871   1.25511    0.013
 4224.00    1.03343   1.27043    0.013
 4225.00    1.15076   1.27726    0.013
 4226.00    1.25437   1.28046    0.013
 4227.00    1.32818   1.27439    0.013
 4228.00    1.20368   1.25774    0.013
 4229.00    0.70521   1.23822    0.013
 4230.00    0.45194   1.21638    0.012
 4231.00    0.60237   1.18769    0.012
 4232.00    0.70902   1.16558    0.012
 4233.00    0.75246   1.17683    0.012
 4234.00    0.80537   1.21600    0.012
 4235.00    0.87030   1.24825    0.012
 4236.00    0.98966   1.26249    0.012
 4237.00    1.16990   1.26411    0.012
 4238.00    1.14479   1.25340    0.012
 4239.00    0.91706   1.24320    0.012
 4240.00    1.04875   1.24065    0.012
 4241.00    1.49326   1.23330    0.012
 4242.00    1.77737   1.22519    0.013
 4243.00    1.93853   1.22918    0.013
 4244.00    1.46376   1.23640    0.013
 4245.00    0.56042   1.24012    0.013
 4246.00    0.43706   1.24654    0.013
 4247.00    0.77423   1.25246    0.014
 4248.00    0.75982   1.25370    0.014
 4249.00    0.56441   1.26072    0.014
 4250.00    0.42658   1.27299    0.014
 4251.00    0.31446   1.27209    0.014
 4252.00    0.33405   1.25605    0.014
 4253.00    0.40415   1.23999    0.013
 4254.00    0.23070   1.23199    0.013
 4255.00   -0.02212   1.22606    0.000
 4256.00    0.34050   1.22311    0.013
 4257.00    0.87110   1.23278    0.013
 4258.00    1.03673   1.24263    0.013
 4259.00    1.12057   1.23534    0.014
 4260.00    1.37928   1.22401    0.014
 4261.00    1.66928   1.22844    0.014
 4262.00    1.47939   1.24612    0.014
 4263.00    1.22384   1.25464    0.013
 4264.00    1.44794   1.24152    0.014
 4265.00    1.71890   1.22048    0.014
 4266.00    1.01045   1.20921    0.013
 4267.00    0.24210   1.21877    0.013
 4268.00    0.54329   1.24353    0.013
 4269.00    0.87363   1.26273    0.013
 4270.00    1.26025   1.26908    0.013
 4271.00    1.63210   1.26624    0.013
 4272.00    1.61365   1.25122    0.013
 4273.00    1.57941   1.23344    0.013
 4274.00    1.32822   1.23059    0.013
 4275.00    1.11688   1.22937    0.013
 4276.00    1.26747   1.21096    0.013
 4277.00    1.39897   1.18944    0.013
 4278.00    1.40335   1.18804    0.013
 4279.00    1.31716   1.19736    0.014
 4280.00    0.76211   1.19816    0.014
 4281.00    0.37555   1.20187    0.014
 4282.00    0.69236   1.22137   -2.000
 4283.00    1.00529   1.24353   -2.000
 4284.00    1.30478   1.25348   -2.000
 4285.00    1.35840   1.24480   -2.000
 4286.00    0.69734   1.23011   -2.000
 4287.00    0.10634   1.22774   -2.000
 4288.00   -0.31092   1.23210   -2.000
 4289.00   -0.55583   1.23482   -2.000
 4290.00   -0.43229   1.23057   -2.000
 4291.00   -0.26672   1.22055   -2.000
 4292.00   -0.02309   1.21908   -2.000
 4293.00    0.14084   1.22289   -2.000
 4294.00    0.17552   1.21309   -2.000
 4295.00    0.50863   1.19224   -2.000
 4296.00    1.26629   1.18567   -2.000
 4297.00    1.55226   1.20299   -2.000
 4298.00    1.24787   1.22693    0.013
 4299.00    0.95347   1.23455    0.013
 4300.00    0.67009   1.22440    0.013
 4301.00    0.42768   1.21861    0.013
 4302.00    0.22514   1.21788    0.013
 4303.00    0.10307   1.20911    0.013
 4304.00    0.05006   1.18969    0.013
 4305.00    0.11961   1.16743    0.012
 4306.00    0.28179   1.16084    0.012
 4307.00    0.26928   1.16863    0.012
 4308.00    0.14076   1.17038    0.013
 4309.00    0.19660   1.16759    0.013
 4310.00    0.35967   1.17143    0.012
 4311.00    0.34637   1.17484    0.012
 4312.00    0.24370   1.16978    0.012
 4313.00    0.32472   1.15602    0.012
 4314.00    0.48634   1.14513    0.012
 4315.00    0.73668   1.14947    0.012
 4316.00    1.02045   1.16437    0.012
 4317.00    0.89845   1.17864    0.012
 4318.00    0.64672   1.18857    0.012
 4319.00    0.45307   1.19541    0.012
 4320.00    0.27494   1.20857    0.012
 4321.00    0.81446   1.23793    0.012
 4322.00    1.51102   1.27063    0.012
 4323.00    1.52065   1.28340    0.012
 4324.00    1.41079   1.27994    0.012
 4325.00    0.70209   1.27279    0.012
 4326.00   -0.08582   1.26543    0.000
 4327.00   -0.21221   1.25890    0.000
 4328.00   -0.27679   1.24708    0.000
 4329.00   -0.05237   1.21870    0.000
 4330.00    0.18858   1.18201    0.000
 4331.00    0.38662   1.15898    0.000
 4332.00    0.58494   1.16899    0.000
 4333.00    0.92940   1.20602    0.000
 4334.00    1.25175   1.23894    0.000
 4335.00    1.04303   1.24973    0.000
 4336.00    0.84317   1.24238    0.000
 4337.00    0.75854   1.23363    0.000
 4338.00    0.66485   1.22948    0.000
 4339.00    0.49212   1.22383    0.000
 4340.00    0.42942   1.21744    0.000
 4341.00    1.07737   1.20166    0.000
 4342.00    1.66067   1.15101    0.000
 4343.00    1.91777   1.06089    0.000
 4344.00    1.96826   0.95799    0.000
 4345.00    1.17542   0.86031    0.000
 4346.00    0.58505   0.80528    0.000
 4347.00    0.67970   0.85546    0.000
 4348.00    0.68866   0.97946    0.000
 4349.00    0.45311   1.07767    0.000
 4350.00    0.30316   1.13003    0.000
 4351.00    0.36193   1.16785    0.013
 4352.00    0.52665   1.19250    0.013
 4353.00    0.91425   1.20627    0.013
 4354.00    1.14908   1.22392    0.013
 4355.00    1.10463   1.23707    0.013
 4356.00    0.77544   1.22234    0.013
 4357.00   -0.00869   1.19051    0.000
 4358.00   -0.19214   1.18309    0.000
 4359.00    0.46660   1.20784    0.013
 4360.00    0.75562   1.23143    0.013
 4361.00    0.58846   1.24236    0.013
 4362.00    0.52776   1.25211    0.013
 4363.00    0.58283   1.25883    0.013
 4364.00    0.65211   1.25079    0.013
 4365.00    0.73500   1.24005    0.013
 4366.00    0.77600   1.24779    0.013
 4367.00    0.78155   1.26515    0.013
 4368.00    0.57116   1.27242    0.013
 4369.00    0.19992   1.27297    0.013
 4370.00    0.52136   1.28014    0.013
 4371.00    1.29605   1.28480    0.013
 4372.00    1.32146   1.26864    0.013
 4373.00    0.91772   1.24542    0.013
 4374.00    0.86642   1.24073    0.013
 4375.00    0.99093   1.24969    0.013
 4376.00    1.03918   1.25353    0.013
 4377.00    1.05452   1.25276    0.013
 4378.00    0.82020   1.24996    0.013
 4379.00    0.49350   1.23725    0.013
 4380.00    0.52390   1.21764    0.013
 4381.00    0.66630   1.21082    0.013
 4382.00    0.94071   1.22795    0.013
 4383.00    1.24965   1.25393    0.012
 4384.00    1.11513   1.26127    0.012
 4385.00    0.88588   1.25105    0.012
 4386.00    0.84356   1.24662    0.012
 4387.00    0.83284   1.24142    0.013
 4388.00    0.73144   1.20780    0.013
 4389.00    0.61846   1.15992    0.012
 4390.00    0.66060   1.14485    0.013
 4391.00    0.71659   1.17336    0.013
 4392.00    1.11714   1.20518    0.013
 4393.00    1.53604   1.20554    0.013
 4394.00    1.39235   1.19588    0.013
 4395.00    1.23960   1.20269    0.013
 4396.00    1.24568   1.21759    0.013
 4397.00    1.24257   1.23511    0.013
 4398.00    1.03730   1.25269    0.013
 4399.00    0.82160   1.25379    0.013
 4400.00    0.47696   1.23852    0.012
 4401.00    0.12227   1.23186    0.012
 4402.00   -0.31706   1.24999    0.000
 4403.00   -0.62566   1.27359    0.000
 4404.00   -0.11489   1.27456    0.000
 4405.00    0.30869   1.25520    0.013
 4406.00    0.30351   1.23628    0.013
 4407.00    0.32704   1.24006    0.013
 4408.00    0.46522   1.25752    0.012
 4409.00    0.51534   1.24490    0.012
 4410.00    0.27345   1.20585    0.012
 4411.00    0.28371   1.19529    0.012
 4412.00    1.00041   1.21813    0.012
 4413.00    1.37543   1.23136    0.012
 4414.00    0.93153   1.23098    0.012
 4415.00    0.58750   1.24384    0.012
 4416.00    0.45020   1.26635    0.012
 4417.00    0.41728   1.27873    0.012
 4418.00    0.57228   1.28704    0.012
 4419.00    0.66813   1.28005    0.012
 4420.00    0.67089   1.24266    0.012
 4421.00    0.62267   1.20948    0.012
 4422.00    0.50402   1.21334    0.012
 4423.00    0.48990   1.23555    0.012
 4424.00    0.60293   1.25884    0.012
 4425.00    0.70330   1.27916    0.012
 4426.00    0.79012   1.28447    0.012
 4427.00    0.85583   1.27121    0.012
 4428.00    0.90158   1.25328    0.012
 4429.00    0.73674   1.25101    0.012
 4430.00    0.39627   1.26098    0.012
 4431.00    0.26400   1.26365    0.012
 4432.00    0.28458   1.25896    0.012
 4433.00    0.54838   1.25839    0.012
 4434.00    0.96900   1.26635    0.012
 4435.00    1.14292   1.26569    0.012
 4436.00    1.17768   1.25137    0.012
 4437.00    0.78649   1.25230    0.012
 4438.00    0.18619   1.26270    0.012
 4439.00   -0.02569   1.25469    0.000
 4440.00   -0.07276   1.23303    0.000
 4441.00   -0.01001   1.21940    0.000
 4442.00    0.09265   1.23021    0.012
 4443.00    0.53270   1.25680    0.012
 4444.00    1.07650   1.28155    0.012
 4445.00    0.99737   1.28913    0.012
 4446.00    0.75874   1.27045    0.012
 4447.00    0.73946   1.23989    0.012
 4448.00    0.76590   1.22306    0.012
 4449.00    0.91125   1.22811    0.012
 4450.00    1.07613   1.24971    0.012
 4451.00    0.94468   1.27685    0.012
 4452.00    0.77669   1.28496    0.012
 4453.00    0.64456   1.27556    0.012
 4454.00    0.51548   1.27561    0.012
 4455.00    0.84143   1.27890    0.012
 4456.00    1.18984   1.27239    0.012
 4457.00    1.07678   1.26949    0.012
 4458.00    0.95932   1.27058    0.012
 4459.00    1.02690   1.26211    0.012
 4460.00    1.08838   1.24215    0.012
 4461.00    1.02644   1.22621    0.000
 4462.00    0.94460   1.23160    0.000
 4463.00    0.62895   1.24380    0.000
 4464.00    0.35756   1.24331    0.000
 4465.00    0.44501   1.23695    0.000
 4466.00    0.54993   1.23327    0.000
 4467.00    0.76115   1.22518    0.000
 4468.00    0.95991   1.22525    0.000
 4469.00    1.09891   1.24784    0.000
 4470.00    1.13992   1.26560    0.000
 4471.00    0.79822   1.26394    0.000
 4472.00    0.55022   1.25827    0.000
 4473.00    0.60692   1.25464    0.000
 4474.00    0.67339   1.24556    0.000
 4475.00    0.76672   1.22475    0.000
 4476.00    0.83022   1.18390    0.000
 4477.00    0.82341   1.13707    0.000
 4478.00    0.75575   1.15441    0.000
 4479.00    0.56418   1.23243    0.000
 4480.00    0.45598   1.28257    0.000
 4481.00    0.49559   1.28932    0.000
 4482.00    0.57608   1.29414    0.011
 4483.00    0.71995   1.30751    0.011
 4484.00    0.72027   1.30834    0.011
 4485.00    0.52506   1.28183    0.011
 4486.00    0.41473   1.24002    0.011
 4487.00    0.40617   1.21563    0.011
 4488.00    0.53873   1.22830    0.011
 4489.00    0.82047   1.26521    0.011
 4490.00    1.04193   1.29373    0.011
 4491.00    1.20718   1.30750    0.011
 4492.00    1.27201   1.31224    0.011
 4493.00    1.25430   1.30426    0.011
 4494.00    1.30195   1.28224    0.011
 4495.00    1.39689   1.26001    0.012
 4496.00    1.34739   1.25741    0.012
 4497.00    1.20613   1.27479    0.011
 4498.00    1.15245   1.29153    0.011
 4499.00    1.14740   1.28866    0.011
 4500.00    1.12097   1.26779    0.011
 4501.00    1.08421   1.25353    0.011
 4502.00    1.07437   1.25691    0.011
 4503.00    1.07576   1.27201    0.011
 4504.00    1.18759   1.29175    0.011
 4505.00    1.33885   1.30262    0.011
 4506.00    1.31418   1.29606    0.011
 4507.00    1.23648   1.28072    0.011
 4508.00    1.17610   1.28458    0.011
 4509.00    1.12005   1.31328    0.011
 4510.00    1.54940   1.33246    0.011
 4511.00    2.07740   1.32988    0.011
 4512.00    1.69949   1.31833    0.011
 4513.00    1.17705   1.30861    0.011
 4514.00    0.85472   1.30502    0.011
 4515.00    0.55616   1.30691    0.011
 4516.00    0.79167   1.30171    0.011
 4517.00    1.07038   1.29117    0.011
 4518.00    1.22053   1.28574    0.011
 4519.00    1.36483   1.28010    0.011
 4520.00    1.25796   1.26086    0.011
 4521.00    1.15040   1.25240    0.011
 4522.00    1.16508   1.26835    0.011
 4523.00    1.17315   1.27507    0.011
 4524.00    1.05716   1.27031    0.011
 4525.00    0.95400   1.28291    0.011
 4526.00    0.99473   1.30241    0.011
 4527.00    1.02451   1.31086    0.011
 4528.00    0.96855   1.29363    0.011
 4529.00    0.91103   1.27012    0.011
 4530.00    0.84428   1.26756    0.011
 4531.00    0.76642   1.26836    0.011
 4532.00    0.63654   1.25716    0.011
 4533.00    0.64903   1.24227    0.011
 4534.00    1.20563   1.22801    0.011
 4535.00    1.60023   1.22263    0.011
 4536.00    1.47827   1.23239    0.011
 4537.00    1.32898   1.24749    0.011
 4538.00    1.10581   1.26424    0.011
 4539.00    0.94439   1.25806    0.011
 4540.00    0.92601   1.23290    0.011
 4541.00    0.93007   1.22146    0.011
 4542.00    0.97909   1.24250    0.011
 4543.00    1.09266   1.28126    0.011
 4544.00    1.31890   1.29132    0.011
 4545.00    1.42636   1.26207    0.011
 4546.00    1.35232   1.20341    0.011
 4547.00    1.39126   1.14701    0.011
 4548.00    1.58188   1.15342    0.011
 4549.00    1.50246   1.21153    0.011
 4550.00    1.10382   1.24318    0.000
 4551.00    0.98231   1.24987    0.000
 4552.00    1.14968   1.26487    0.000
 4553.00    1.28789   1.27724    0.000
 4554.00    1.39927   1.27187    0.000
 4555.00    1.28144   1.25575    0.000
 4556.00    0.97784   1.25790    0.000
 4557.00    0.70923   1.27418    0.000
 4558.00    0.46559   1.26750    0.000
 4559.00    0.68869   1.25350    0.000
 4560.00    1.20389   1.24783    0.000
 4561.00    1.35557   1.25084    0.000
 4562.00    1.30843   1.26904    0.000
 4563.00    1.23233   1.29305    0.000
 4564.00    1.14247   1.30499    0.000
 4565.00    1.05439   1.30679    0.000
 4566.00    0.96705   1.30581    0.000
 4567.00    0.92238   1.30735    0.000
 4568.00    0.89267   1.30695    0.000
 4569.00    1.10495   1.29170    0.000
 4570.00    1.38876   1.27147    0.000
 4571.00    1.38224   1.26503    0.000
 4572.00    1.30461   1.27627    0.000
 4573.00    1.38993   1.29399    0.000
 4574.00    1.50755   1.29643    0.000
 4575.00    1.48518   1.29032    0.000
 4576.00    1.44114   1.28725    0.000
 4577.00    0.99012   1.27481    0.000
 4578.00    0.49253   1.27254    0.000
 4579.00    0.65997   1.29771    0.000
 4580.00    0.87849   1.30893    0.000
 4581.00    1.31690   1.30097    0.000
 4582.00    1.76446   1.30202    0.000
 4583.00    1.41624   1.30625    0.000
 4584.00    1.06705   1.29981    0.000
 4585.00    0.97272   1.28169    0.000
 4586.00    0.88730   1.26381    0.000
 4587.00    0.95728   1.26253    0.000
 4588.00    1.00771   1.27436    0.000
 4589.00    0.84895   1.27942    0.000
 4590.00    0.71505   1.27678    0.000
 4591.00    0.76918   1.27460    0.000
 4592.00    0.80506   1.27288    0.000
 4593.00    0.73611   1.28009    0.000
 4594.00    0.74875   1.29612    0.000
 4595.00    1.13426   1.30686    0.000
 4596.00    1.46229   1.29899    0.000
 4597.00    1.57528   1.27843    0.000
 4598.00    1.53573   1.26720    0.000
 4599.00    1.01911   1.27208    0.000
 4600.00    0.67825   1.27695    0.000
 4601.00    0.80393   1.27158    0.000
 4602.00    0.97517   1.26930    0.000
 4603.00    1.25026   1.27396    0.000
 4604.00    1.41332   1.28355    0.000
 4605.00    1.35535   1.29067    0.000
 4606.00    1.33031   1.28188    0.000
 4607.00    1.36190   1.27119    0.000
 4608.00    1.40459   1.27563    0.000
 4609.00    1.46402   1.28298    0.000
 4610.00    1.58401   1.28659    0.000
 4611.00    1.78416   1.28409    0.000
 4612.00    1.67761   1.28243    0.000
 4613.00    1.21363   1.29230    0.000
 4614.00    1.12048   1.31122    0.000
 4615.00    1.40844   1.32050    0.000
 4616.00    1.46195   1.30609    0.000
 4617.00    1.30295   1.29373    0.000
 4618.00    1.27523   1.29603    0.000
 4619.00    1.35240   1.29640    0.000
 4620.00    1.27349   1.30016    0.000
 4621.00    1.08488   1.31070    0.000
 4622.00    1.09506   1.31065    0.000
 4623.00    1.22781   1.31118    0.000
 4624.00    1.36770   1.30748    0.000
 4625.00    1.51143   1.29336    0.000
 4626.00    1.67006   1.29427    0.000
 4627.00    1.83565   1.31008    0.000
 4628.00    1.71747   1.31496    0.000
 4629.00    1.48490   1.31443    0.000
 4630.00    1.28130   1.31667    0.000
 4631.00    1.08767   1.31183    0.000
 4632.00    1.10945   1.30621    0.000
 4633.00    1.19362   1.30933    0.000
 4634.00    1.33541   1.30894    0.000
 4635.00    1.49100   1.29651    0.000
 4636.00    1.43834   1.28361    0.000
 4637.00    1.34548   1.28237    0.000
 4638.00    1.23942   1.28741    0.000
 4639.00    1.13139   1.28685    0.000
 4640.00    1.11472   1.28674    0.000
 4641.00    1.10811   1.29112    0.000
 4642.00    1.31534   1.29488    0.000
 4643.00    1.53812   1.28757    0.000
 4644.00    1.37613   1.27607    0.000
 4645.00    1.19960   1.26830    0.000
 4646.00    1.11174   1.26664    0.000
 4647.00    1.03091   1.27609    0.000
 4648.00    1.19372   1.28895    0.000
 4649.00    1.35663   1.29463    0.000
 4650.00    1.52130   1.29407    0.000
 4651.00    1.65776   1.27872    0.000
 4652.00    1.50556   1.22993    0.000
 4653.00    1.37565   1.18268    0.000
 4654.00    1.40865   1.18743    0.000
 4655.00    1.41348   1.21373    0.000
 4656.00    1.26086   1.21580    0.000
 4657.00    1.19885   1.21779    0.000
 4658.00    1.54111   1.24691    0.000
 4659.00    1.79918   1.26770    0.000
 4660.00    1.74891   1.25163    0.000
 4661.00    1.55273   1.24104    0.000
 4662.00    0.90887   1.25740    0.000
 4663.00    0.51856   1.27820    0.000
 4664.00    0.78946   1.30188    0.000
 4665.00    1.06750   1.32338    0.000
 4666.00    1.36154   1.33046    0.000
 4667.00    1.46552   1.31875    0.000
 4668.00    1.20037   1.29614    0.000
 4669.00    1.04670   1.27828    0.000
 4670.00    1.08179   1.26938    0.000
 4671.00    1.13407   1.26065    0.000
 4672.00    1.21183   1.24065    0.000
 4673.00    1.19032   1.21754    0.000
 4674.00    1.03933   1.21482    0.000
 4675.00    1.11716   1.23804    0.000
 4676.00    1.45788   1.27213    0.000
 4677.00    1.52261   1.29887    0.000
 4678.00    1.30767   1.30050    0.000
 4679.00    1.09656   1.28049    0.000
 4680.00    0.88887   1.26908    0.000
 4681.00    1.01791   1.27810    0.000
 4682.00    1.41216   1.29613    0.000
 4683.00    1.48457   1.30396    0.000
 4684.00    1.33405   1.29563    0.000
 4685.00    1.08278   1.28189    0.000
 4686.00    0.77030   1.27122    0.000
 4687.00    0.48423   1.26354    0.000
 4688.00    0.21216   1.26006    0.000
 4689.00    0.35840   1.26210    0.000
 4690.00    0.69711   1.23351    0.000
 4691.00    0.88269   1.16225    0.000
 4692.00    1.00760   1.12826    0.000
 4693.00    0.93569   1.17407    0.000
 4694.00    0.79734   1.23762    0.000
 4695.00    0.89247   1.27139    0.000
 4696.00    1.05388   1.28135    0.000
 4697.00    1.38840   1.27887    0.000
 4698.00    1.76345   1.28215    0.000
 4699.00    1.76578   1.29212    0.000
 4700.00    1.69799   1.30019    0.000
 4701.00    1.65583   1.30937    0.000
 4702.00    1.61741   1.31603    0.000
 4703.00    1.48179   1.30913    0.000
 4704.00    1.33590   1.28309    0.000
 4705.00    1.27407   1.26290    0.000
 4706.00    1.21801   1.26678    0.000
 4707.00    0.94068   1.27573    0.000
 4708.00    0.65582   1.27015    0.000
 4709.00    0.47801   1.26084    0.000
 4710.00    0.31324   1.26513    0.000
 4711.00    0.56745   1.27610    0.000
 4712.00    0.81367   1.27891    0.000
 4713.00    0.93755   1.27333    0.000
 4714.00    1.05115   1.26588    0.000
 4715.00    1.06391   1.26116    0.000
 4716.00    1.06076   1.26885    0.000
 4717.00    0.94502   1.28815    0.000
 4718.00    0.83563   1.28397    0.000
 4719.00    0.76075   1.25631    0.000
 4720.00    0.75058   1.24285    0.000
 4721.00    1.02237   1.25884    0.000
 4722.00    1.17788   1.28413    0.000
 4723.00    0.91623   1.30370    0.000
 4724.00    0.78722   1.31286    0.000
 4725.00    1.05754   1.31996    0.000
 4726.00    1.23941   1.32514    0.000
 4727.00    1.19462   1.32407    0.000
 4728.00    1.06817   1.31633    0.000
 4729.00    0.76172   1.31216    0.000
 4730.00    0.64560   1.31942    0.000
 4731.00    0.89338   1.32857    0.000
 4732.00    1.14522   1.32253    0.000
 4733.00    1.40382   1.29578    0.000
 4734.00    1.53886   1.27014    0.000
 4735.00    1.49324   1.26472    0.000
 4736.00    1.43793   1.26975    0.000
 4737.00    1.37017   1.27545    0.000
 4738.00    1.32408   1.28441    0.000
 4739.00    1.30257   1.29347    0.000
 4740.00    1.38698   1.29928    0.000
 4741.00    1.57721   1.30339    0.000
 4742.00    1.57879   1.29624    0.000
 4743.00    1.41414   1.28682    0.000
 4744.00    1.28964   1.29676    0.000
 4745.00    1.19632   1.30980    0.000
 4746.00    1.26895   1.30560    0.000
 4747.00    1.45486   1.29615    0.000
 4748.00    1.70294   1.29804    0.000
 4749.00    1.98822   1.30859    0.000
 4750.00    1.81942   1.31306    0.000
 4751.00    1.41360   1.30926    0.000
 4752.00    1.35995   1.31176    0.000
 4753.00    1.46573   1.32055    0.000
 4754.00    1.25042   1.32152    0.000
 4755.00    0.91011   1.31873    0.000
 4756.00    0.82152   1.31965    0.000
 4757.00    0.81634   1.31883    0.000
 4758.00    0.91470   1.31197    0.000
 4759.00    1.04185   1.30433    0.000
 4760.00    1.20474   1.29899    0.000
 4761.00    1.37580   1.29701    0.010
 4762.00    1.39662   1.29596    0.010
 4763.00    1.38991   1.29678    0.010
 4764.00    1.37270   1.29937    0.010
 4765.00    1.35402   1.30487    0.010
 4766.00    1.16164   1.31132    0.010
 4767.00    0.95164   1.30504    0.010
 4768.00    1.05490   1.28614    0.010
 4769.00    1.17841   1.27268    0.010
 4770.00    1.06732   1.26954    0.010
 4771.00    0.94945   1.26625    0.010
 4772.00    0.99122   1.26265    0.010
 4773.00    1.03893   1.26936    0.010
 4774.00    1.25887   1.28310    0.010
 4775.00    1.46420   1.29825    0.010
 4776.00    1.45839   1.30888    0.010
 4777.00    1.45435   1.30418    0.010
 4778.00    1.46702   1.29198    0.010
 4779.00    1.46005   1.29231    0.010
 4780.00    1.31862   1.30674    0.010
 4781.00    1.22728   1.31820    0.010
 4782.00    1.40126   1.31732    0.010
 4783.00    1.54305   1.31650    0.010
 4784.00    1.54774   1.31788    0.010
 4785.00    1.49260   1.31261    0.010
 4786.00    1.22723   1.30582    0.010
 4787.00    1.00581   1.30548    0.010
 4788.00    0.91424   1.30195    0.010
 4789.00    0.91482   1.29031    0.010
 4790.00    1.14750   1.28762    0.010
 4791.00    1.26178   1.29099    0.010
 4792.00    1.11933   1.28177    0.010
 4793.00    1.15751   1.27493    0.010
 4794.00    1.53570   1.28217    0.010
 4795.00    1.74267   1.28474    0.010
 4796.00    1.66827   1.28508    0.010
 4797.00    1.56620   1.29098    0.010
 4798.00    1.42425   1.29723    0.010
 4799.00    1.33624   1.30726    0.010
 4800.00    1.31659   1.32312    0.010
 4801.00    1.32416   1.33423    0.010
 4802.00    1.36212   1.33277    0.010
 4803.00    1.48362   1.32239    0.010
 4804.00    1.68741   1.30686    0.010
 4805.00    1.71541   1.29154    0.010
 4806.00    1.59068   1.28704    0.010
 4807.00    1.57113   1.29813    0.010
 4808.00    1.63207   1.31514    0.010
 4809.00    1.55004   1.32372    0.010
 4810.00    1.37185   1.31768    0.010
 4811.00    1.16456   1.30388    0.010
 4812.00    0.94014   1.29704    0.010
 4813.00    0.87379   1.29523    0.010
 4814.00    0.88865   1.29099    0.010
 4815.00    0.90009   1.29162    0.010
 4816.00    0.91001   1.29782    0.010
 4817.00    1.32535   1.30269    0.010
 4818.00    1.89578   1.30334    0.010
 4819.00    1.75717   1.30273    0.010
 4820.00    1.38803   1.30425    0.010
 4821.00    1.39563   1.30810    0.010
 4822.00    1.50580   1.31368    0.010
 4823.00    1.41236   1.31993    0.010
 4824.00    1.27342   1.32386    0.010
 4825.00    1.28321   1.32472    0.010
 4826.00    1.31951   1.32270    0.010
 4827.00    1.34565   1.32105    0.010
 4828.00    1.37041   1.31533    0.010
 4829.00    1.23414   1.29563    0.010
 4830.00    1.08223   1.27927    0.010
 4831.00    1.18818   1.28716    0.010
 4832.00    1.30978   1.30555    0.010
 4833.00    1.22460   1.31222    0.010
 4834.00    1.13374   1.30374    0.010
 4835.00    1.00766   1.29521    0.010
 4836.00    0.88904   1.29724    0.010
 4837.00    0.96537   1.29703    0.010
 4838.00    1.05267   1.28758    0.010
 4839.00    1.28972   1.28755    0.010
 4840.00    1.47201   1.30088    0.010
 4841.00    1.15930   1.30839    0.009
 4842.00    0.89114   1.30627    0.009
 4843.00    0.91859   1.30606    0.009
 4844.00    0.93633   1.30463    0.009
 4845.00    0.90400   1.29315    0.009
 4846.00    0.92657   1.28070    0.009
 4847.00    1.17765   1.28111    0.009
 4848.00    1.33919   1.28766    0.000
 4849.00    1.19241   1.28545    0.000
 4850.00    1.12722   1.28425    0.000
 4851.00    1.29866   1.29556    0.000
 4852.00    1.37149   1.30614    0.000
 4853.00    1.20027   1.30201    0.000
 4854.00    1.07595   1.28364    0.000
 4855.00    1.05164   1.27004    0.000
 4856.00    1.00341   1.27501    0.000
 4857.00    0.91082   1.28207    0.000
 4858.00    0.96847   1.27854    0.000
 4859.00    1.26934   1.27127    0.000
 4860.00    1.43871   1.25333    0.000
 4861.00    1.42135   1.21812    0.000
 4862.00    1.41585   1.18911    0.000
 4863.00    1.42517   1.17572    0.000
 4864.00    1.37584   1.14275    0.000
 4865.00    1.26192   1.06512    0.000
 4866.00    1.04020   0.95489    0.000
 4867.00    0.71377   0.85579    0.000
 4868.00    0.56244   0.84123    0.000
 4869.00    0.56108   0.93241    0.000
 4870.00    0.59366   1.04825    0.000
 4871.00    0.65183   1.12819    0.000
 4872.00    0.75426   1.17245    0.000
 4873.00    0.88603   1.19495    0.000
 4874.00    1.06199   1.21230    0.000
 4875.00    1.26360   1.23538    0.009
 4876.00    1.22227   1.24308    0.009
 4877.00    1.05805   1.22252    0.009
 4878.00    0.97583   1.20723    0.009
 4879.00    0.92951   1.22273    0.009
 4880.00    0.86302   1.24817    0.009
 4881.00    0.78895   1.25958    0.009
 4882.00    0.89642   1.26498    0.009
 4883.00    1.06178   1.27330    0.009
 4884.00    1.04246   1.28123    0.009
 4885.00    0.97392   1.29489    0.009
 4886.00    0.89260   1.30705    0.009
 4887.00    0.80850   1.29705    0.009
 4888.00    0.81880   1.28006    0.009
 4889.00    0.84548   1.27989    0.009
 4890.00    0.85197   1.28349    0.009
 4891.00    0.85580   1.27363    0.009
 4892.00    0.89295   1.26126    0.009
 4893.00    0.93320   1.26173    0.009
 4894.00    1.02407   1.27036    0.009
 4895.00    1.11781   1.27244    0.009
 4896.00    1.19703   1.25845    0.009
 4897.00    1.27438   1.23641    0.009
 4898.00    1.18244   1.23994    0.009
 4899.00    1.09362   1.27658    0.009
 4900.00    1.07855   1.31335    0.009
 4901.00    1.06951   1.33458    0.009
 4902.00    1.13846   1.34324    0.009
 4903.00    1.18169   1.34367    0.009
 4904.00    1.00136   1.33978    0.009
 4905.00    0.84278   1.32539    0.009
 4906.00    0.82410   1.30558    0.009
 4907.00    0.81556   1.30180    0.009
 4908.00    0.85794   1.30881    0.009
 4909.00    0.93026   1.30415    0.009
 4910.00    1.12443   1.29610    0.009
 4911.00    1.29617   1.30541    0.009
 4912.00    1.39219   1.32418    0.009
 4913.00    1.39581   1.33001    0.009
 4914.00    1.13640   1.31918    0.009
 4915.00    0.99883   1.30093    0.009
 4916.00    1.15767   1.28162    0.009
 4917.00    1.17973   1.27352    0.009
 4918.00    0.91469   1.28356    0.009
 4919.00    0.82098   1.29887    0.009
 4920.00    1.03989   1.30900    0.009
 4921.00    1.16266   1.31967    0.009
 4922.00    1.13209   1.32882    0.010
 4923.00    1.14646   1.32110    0.010
 4924.00    1.22372   1.29026    0.009
 4925.00    1.23850   1.24684    0.009
 4926.00    1.17634   1.21073    0.009
 4927.00    1.14248   1.19843    0.009
 4928.00    1.13935   1.21533    0.009
 4929.00    1.10501   1.24232    0.009
 4930.00    1.04076   1.25333    0.009
 4931.00    1.07416   1.25614    0.009
 4932.00    1.18999   1.27528    0.009
 4933.00    1.16788   1.30327    0.009
 4934.00    1.04322   1.31974    0.009
 4935.00    0.99432   1.32922    0.009
 4936.00    0.99491   1.33587    0.009
 4937.00    1.14363   1.33683    0.009
 4938.00    1.37703   1.33018    0.009
 4939.00    1.32474   1.30658    0.009
 4940.00    1.13023   1.27967    0.000
 4941.00    1.21970   1.28125    0.000
 4942.00    1.43145   1.30031    0.000
 4943.00    1.38764   1.29883    0.000
 4944.00    1.24946   1.27332    0.000
 4945.00    1.34378   1.25239    0.000
 4946.00    1.51084   1.26101    0.000
 4947.00    1.56685   1.29197    0.000
 4948.00    1.59389   1.31314    0.000
 4949.00    1.37750   1.31935    0.000
 4950.00    1.10928   1.32612    0.000
 4951.00    1.18624   1.32709    0.000
 4952.00    1.32136   1.31849    0.000
 4953.00    1.24353   1.31735    0.000
 4954.00    1.13861   1.32793    0.000
 4955.00    1.33570   1.33550    0.000
 4956.00    1.55958   1.33685    0.000
 4957.00    1.33166   1.33850    0.000
 4958.00    1.07989   1.33819    0.000
 4959.00    1.46396   1.33085    0.000
 4960.00    1.85382   1.32244    0.000
 4961.00    1.74577   1.31680    0.000
 4962.00    1.63688   1.30006    0.000
 4963.00    1.50956   1.25870    0.000
 4964.00    1.40255   1.22462    0.000
 4965.00    1.54481   1.24401    0.000
 4966.00    1.66613   1.29233    0.000
 4967.00    1.61200   1.31738    0.000
 4968.00    1.52304   1.31696    0.000
 4969.00    1.21650   1.31494    0.000
 4970.00    0.97806   1.31444    0.000
 4971.00    1.07352   1.30249    0.000
 4972.00    1.20907   1.28493    0.000
 4973.00    1.50426   1.27919    0.000
 4974.00    1.70227   1.28209    0.000
 4975.00    1.57882   1.28507    0.000
 4976.00    1.45209   1.28822    0.000
 4977.00    1.31615   1.29318    0.000
 4978.00    1.20081   1.30290    0.000
 4979.00    1.13470   1.31373    0.000
 4980.00    1.11235   1.32089    0.000
 4981.00    1.18037   1.32401    0.000
 4982.00    1.14375   1.32075    0.000
 4983.00    0.91915   1.31302    0.000
 4984.00    0.89829   1.30116    0.000
 4985.00    1.19755   1.28803    0.000
 4986.00    1.34104   1.28257    0.000
 4987.00    1.26967   1.27526    0.000
 4988.00    1.21858   1.25110    0.000
 4989.00    1.19211   1.22443    0.000
 4990.00    1.30894   1.22175    0.000
 4991.00    1.57914   1.23939    0.000
 4992.00    1.57045   1.25914    0.000
 4993.00    1.29844   1.28023    0.000
 4994.00    1.30351   1.29843    0.000
 4995.00    1.53924   1.30065    0.000
 4996.00    1.51849   1.29048    0.000
 4997.00    1.30977   1.28036    0.000
 4998.00    1.18808   1.28171    0.000
 4999.00    1.12238   1.29033    0.000
 5000.00    1.06049   1.28928    0.000
 5001.00    1.00073   1.28937    0.000
 5002.00    1.06291   1.29878    0.000
 5003.00    1.18483   1.30312    0.000
 5004.00    1.39652   1.29858    0.000
 5005.00    1.64623   1.28501    0.000
 5006.00    1.51375   1.26403    0.000
 5007.00    1.24268   1.25047    0.000
 5008.00    1.20226   1.25081    0.000
 5009.00    1.23260   1.25848    0.000
 5010.00    1.25420   1.26460    0.000
 5011.00    1.27356   1.25632    0.000
 5012.00    1.28524   1.23631    0.000
 5013.00    1.29532   1.22959    0.000
 5014.00    1.25951   1.25174    0.000
 5015.00    1.21620   1.28033    0.000
 5016.00    1.02758   1.28855    0.000
 5017.00    0.82112   1.27891    0.000
 5018.00    1.15082   1.25976    0.000
 5019.00    1.52585   1.23622    0.000
 5020.00    1.39319   1.21644    0.000
 5021.00    1.23572   1.20247    0.000
 5022.00    1.14781   1.20201    0.000
 5023.00    1.06403   1.21674    0.000
 5024.00    1.16712   1.22862    0.000
 5025.00    1.26793   1.23744    0.000
 5026.00    1.32313   1.25321    0.000
 5027.00    1.36026   1.26565    0.000
 5028.00    1.18628   1.26069    0.000
 5029.00    1.04515   1.25387    0.009
 5030.00    1.16921   1.26424    0.009
 5031.00    1.28315   1.27822    0.009
 5032.00    1.33576   1.27929    0.009
 5033.00    1.33588   1.26978    0.009
 5034.00    1.08494   1.25955    0.009
 5035.00    0.91174   1.26731    0.009
 5036.00    1.04131   1.28577    0.009
 5037.00    1.12995   1.29428    0.009
 5038.00    1.08588   1.30028    0.009
 5039.00    1.02991   1.31229    0.009
 5040.00    0.94130   1.31882    0.009
 5041.00    0.94907   1.30309    0.009
 5042.00    1.18348   1.27107    0.009
 5043.00    1.34029   1.25649    0.009
 5044.00    1.33936   1.26542    0.009
 5045.00    1.34218   1.26210    0.009
 5046.00    1.35163   1.23297    0.009
 5047.00    1.33357   1.19726    0.009
 5048.00    1.27294   1.19049    0.009
 5049.00    1.24384   1.22941    0.009
 5050.00    1.25757   1.27581    0.009
 5051.00    1.22767   1.30083    0.009
 5052.00    1.14552   1.31682    0.009
 5053.00    1.16504   1.31941    0.009
 5054.00    1.29184   1.29757    0.009
 5055.00    1.37044   1.26655    0.009
 5056.00    1.40417   1.25282    0.009
 5057.00    1.44887   1.25618    0.009
 5058.00    1.50257   1.26255    0.008
 5059.00    1.37317   1.27486    0.008
 5060.00    1.11152   1.29438    0.009
 5061.00    1.13583   1.30675    0.009
 5062.00    1.34145   1.30556    0.009
 5063.00    1.34909   1.30264    0.008
 5064.00    1.24697   1.30666    0.008
 5065.00    1.21879   1.31251    0.009
 5066.00    1.22626   1.31313    0.009
 5067.00    1.23643   1.31709    0.009
 5068.00    1.24774   1.32412    0.009
 5069.00    1.29538   1.32134    0.009
 5070.00    1.35596   1.29907    0.009
 5071.00    1.35514   1.26650    0.009
 5072.00    1.33585   1.25478    0.008
 5073.00    1.17206   1.26882    0.008
 5074.00    0.97218   1.27545    0.008
 5075.00    1.03969   1.27180    0.008
 5076.00    1.16139   1.27967    0.008
 5077.00    1.18215   1.29116    0.008
 5078.00    1.18686   1.28264    0.008
 5079.00    1.07096   1.26942    0.008
 5080.00    0.94078   1.27525    0.008
 5081.00    1.03237   1.28410    0.008
 5082.00    1.14179   1.27993    0.008
 5083.00    1.12285   1.27898    0.008
 5084.00    1.09813   1.28316    0.008
 5085.00    1.19332   1.26566    0.008
 5086.00    1.28756   1.22752    0.008
 5087.00    1.26340   1.21508    0.008
 5088.00    1.23932   1.23408    0.008
 5089.00    1.21689   1.25023    0.008
 5090.00    1.21007   1.25420    0.008
 5091.00    1.37706   1.26569    0.008
 5092.00    1.49106   1.28123    0.008
 5093.00    1.19216   1.28538    0.008
 5094.00    0.94477   1.28191    0.008
 5095.00    1.00075   1.28371    0.008
 5096.00    1.07236   1.29027    0.008
 5097.00    1.21695   1.29210    0.009
 5098.00    1.33313   1.29425    0.009
 5099.00    1.34108   1.30343    0.009
 5100.00    1.34127   1.31195    0.008
 5101.00    1.31679   1.30825    0.008
 5102.00    1.32405   1.29465    0.008
 5103.00    1.41689   1.27858    0.008
 5104.00    1.34011   1.26029    0.009
 5105.00    0.87113   1.23964    0.009
 5106.00    0.73929   1.23222    0.009
 5107.00    1.28194   1.25330    0.009
 5108.00    1.51137   1.28049    0.009
 5109.00    1.19502   1.28880    0.009
 5110.00    0.98761   1.28231    0.009
 5111.00    0.94636   1.27401    0.009
 5112.00    1.05532   1.26955    0.009
 5113.00    1.36555   1.26182    0.009
 5114.00    1.43253   1.25039    0.009
 5115.00    1.21247   1.24994    0.009
 5116.00    1.14775   1.25289    0.009
 5117.00    1.24468   1.25157    0.009
 5118.00    1.25484   1.26318    0.009
 5119.00    1.18538   1.27833    0.009
 5120.00    1.33581   1.28207    0.009
 5121.00    1.66412   1.28594    0.009
 5122.00    1.65181   1.29082    0.009
 5123.00    1.39702   1.29796    0.009
 5124.00    1.27702   1.30773    0.009
 5125.00    1.24122   1.30905    0.009
 5126.00    1.22308   1.30046    0.009
 5127.00    1.21457   1.28803    0.008
 5128.00    1.20566   1.27425    0.008
 5129.00    1.19656   1.25671    0.008
 5130.00    1.17292   1.23552    0.008
 5131.00    1.14334   1.22840    0.009
 5132.00    1.06861   1.23838    0.009
 5133.00    0.97809   1.24447    0.008
 5134.00    0.95410   1.24180    0.008
 5135.00    0.94972   1.23863    0.008
 5136.00    1.06874   1.23878    0.008
 5137.00    1.21790   1.24654    0.008
 5138.00    1.09398   1.26035    0.008
 5139.00    0.91611   1.26821    0.008
 5140.00    1.05374   1.27038    0.008
 5141.00    1.24003   1.27942    0.008
 5142.00    1.26207   1.29059    0.008
 5143.00    1.26539   1.28157    0.008
 5144.00    1.35447   1.26146    0.008
 5145.00    1.45010   1.24650    0.008
 5146.00    1.38737   1.23928    0.008
 5147.00    1.31813   1.25323    0.008
 5148.00    1.23938   1.26097    0.008
 5149.00    1.16574   1.24000    0.008
 5150.00    1.31063   1.23560    0.008
 5151.00    1.45029   1.25261    0.008
 5152.00    1.49948   1.25370    0.008
 5153.00    1.54246   1.24323    0.008
 5154.00    1.51938   1.24096    0.008
 5155.00    1.47497   1.24887    0.008
 5156.00    1.27013   1.25963    0.008
 5157.00    1.11278   1.25346    0.008
 5158.00    1.22746   1.23857    0.008
 5159.00    1.32183   1.23257    0.008
 5160.00    1.32371   1.23284    0.008
 5161.00    1.29940   1.23810    0.008
 5162.00    1.17734   1.25393    0.008
 5163.00    1.12346   1.27500    0.008
 5164.00    1.28226   1.29236    0.008
 5165.00    1.32848   1.30034    0.008
 5166.00    1.07654   1.29679    0.008
 5167.00    0.92647   1.29619    0.008
 5168.00    1.00802   1.29119    0.008
 5169.00    1.04855   1.27580    0.008
 5170.00    1.00829   1.26711    0.008
 5171.00    0.95630   1.25502    0.008
 5172.00    0.88418   1.21505    0.008
 5173.00    0.89179   1.15766    0.008
 5174.00    1.01921   1.11223    0.008
 5175.00    1.10255   1.11353    0.008
 5176.00    1.12767   1.15744    0.008
 5177.00    1.15471   1.19034    0.008
 5178.00    1.18400   1.16195    0.008
 5179.00    1.13065   1.10509    0.008
 5180.00    0.99250   1.10719    0.008
 5181.00    0.87224   1.17707    0.008
 5182.00    0.76817   1.23824    0.008
 5183.00    0.81282   1.25724    0.008
 5184.00    0.97607   1.26149    0.008
 5185.00    1.04250   1.26579    0.008
 5186.00    1.04100   1.26116    0.008
 5187.00    1.02956   1.24858    0.008
 5188.00    1.01201   1.22315    0.008
 5189.00    1.10752   1.16799    0.008
 5190.00    1.26381   1.10402    0.000
 5191.00    1.07793   1.10401    0.000
 5192.00    0.73233   1.17516    0.000
 5193.00    0.74512   1.24113    0.000
 5194.00    0.90208   1.26350    0.000
 5195.00    1.01213   1.26126    0.000
 5196.00    1.10608   1.26840    0.000
 5197.00    1.19283   1.27456    0.000
 5198.00    1.27750   1.24115    0.000
 5199.00    1.50204   1.20313    0.000
 5200.00    1.75999   1.21163    0.000
 5201.00    1.70561   1.23629    0.000
 5202.00    1.59110   1.23960    0.000
 5203.00    1.43353   1.24490    0.000
 5204.00    1.26953   1.25901    0.000
 5205.00    1.18290   1.27021    0.000
 5206.00    1.10474   1.27897    0.000
 5207.00    1.12905   1.28034    0.000
 5208.00    1.16075   1.27577    0.000
 5209.00    1.30838   1.26893    0.000
 5210.00    1.46035   1.25787    0.000
 5211.00    1.36254   1.22670    0.008
 5212.00    1.26786   1.19462    0.008
 5213.00    1.32956   1.19199    0.008
 5214.00    1.37962   1.20084    0.008
 5215.00    1.24096   1.19335    0.008
 5216.00    1.13437   1.19754    0.008
 5217.00    1.35418   1.22326    0.008
 5218.00    1.52860   1.25282    0.008
 5219.00    1.37276   1.28055    0.008
 5220.00    1.20722   1.29846    0.008
 5221.00    0.98757   1.29310    0.008
 5222.00    0.85083   1.26742    0.008
 5223.00    1.08292   1.25041    0.008
 5224.00    1.23669   1.25887    0.008
 5225.00    1.10438   1.28100    0.008
 5226.00    1.01294   1.29839    0.008
 5227.00    1.04665   1.30480    0.008
 5228.00    1.05778   1.31008    0.008
 5229.00    1.01016   1.30636    0.008
 5230.00    1.00361   1.28811    0.008
 5231.00    1.08889   1.25837    0.008
 5232.00    1.20057   1.22253    0.008
 5233.00    1.36341   1.18810    0.008
 5234.00    1.45534   1.18409    0.008
 5235.00    1.42740   1.23068    0.008
 5236.00    1.41774   1.27896    0.008
 5237.00    1.43513   1.29571    0.008
 5238.00    1.46735   1.29930    0.008
 5239.00    1.51889   1.27977    0.008
 5240.00    1.56734   1.25077    0.008
 5241.00    1.61225   1.24799    0.008
 5242.00    1.58249   1.26511    0.008
 5243.00    1.47718   1.29037    0.008
 5244.00    1.31172   1.30914    0.008
 5245.00    1.09261   1.31264    0.008
 5246.00    1.13071   1.30703    0.008
 5247.00    1.37104   1.30552    0.008
 5248.00    1.48474   1.30901    0.008
 5249.00    1.51088   1.30772    0.008
 5250.00    1.40928   1.30554    0.008
 5251.00    1.23024   1.31578    0.008
 5252.00    1.20223   1.32103    0.009
 5253.00    1.25415   1.29218    0.009
 5254.00    1.33123   1.25812    0.009
 5255.00    1.41985   1.25735    0.009
 5256.00    1.33806   1.26402    0.008
 5257.00    1.18888   1.24975    0.008
 5258.00    1.18483   1.25028    0.008
 5259.00    1.22967   1.26900    0.008
 5260.00    1.30079   1.27860    0.008
 5261.00    1.37934   1.26836    0.009
 5262.00    1.19222   1.25757    0.009
 5263.00    0.94308   1.27929    0.008
 5264.00    1.04580   1.31465    0.008
 5265.00    1.21449   1.33122    0.008
 5266.00    1.26500   1.32773    0.008
 5267.00    1.29839   1.30992    0.009
 5268.00    1.10154   1.28094    0.009
 5269.00    0.88047   1.24545    0.009
 5270.00    0.78324   1.21468    0.008
 5271.00    0.69444   1.19461    0.008
 5272.00    0.83104   1.18056    0.008
 5273.00    0.97519   1.18511    0.008
 5274.00    1.06491   1.22011    0.008
 5275.00    1.15134   1.22539    0.008
 5276.00    1.13447   1.16766    0.008
 5277.00    1.11417   1.14337    0.008
 5278.00    1.04150   1.19860    0.008
 5279.00    0.97331   1.25100    0.008
 5280.00    0.94872   1.25874    0.008
 5281.00    0.94454   1.25536    0.008
 5282.00    1.08415   1.24793    0.008
 5283.00    1.22216   1.25620    0.008
 5284.00    1.35144   1.29763    0.008
 5285.00    1.46248   1.32758    0.008
 5286.00    1.49419   1.32408    0.008
 5287.00    1.51237   1.30222    0.008
 5288.00    1.48216   1.28166    0.008
 5289.00    1.42421   1.26649    0.008
 5290.00    1.28297   1.25312    0.008
 5291.00    1.19964   1.25626    0.008
 5292.00    1.26439   1.29458    0.008
 5293.00    1.32969   1.33425    0.008
 5294.00    1.39620   1.34234    0.008
 5295.00    1.40289   1.33135    0.008
 5296.00    1.29544   1.32693    0.008
 5297.00    1.24850   1.33485    0.008
 5298.00    1.30232   1.33911    0.008
 5299.00    1.32810   1.33043    0.008
 5300.00    1.31295   1.31867    0.008
 5301.00    1.27184   1.31876    0.008
 5302.00    1.19742   1.31410    0.008
 5303.00    1.18667   1.28435    0.008
 5304.00    1.24791   1.24104    0.008
 5305.00    1.33966   1.22555    0.008
 5306.00    1.46183   1.25688    0.008
 5307.00    1.49380   1.28646    0.008
 5308.00    1.44643   1.28298    0.008
 5309.00    1.43660   1.27958    0.008
 5310.00    1.45585   1.29950    0.009
 5311.00    1.35128   1.32706    0.008
 5312.00    1.16235   1.33916    0.008
 5313.00    1.24343   1.33025    0.008
 5314.00    1.48576   1.31477    0.008
 5315.00    1.50855   1.31635    0.008
 5316.00    1.41697   1.33157    0.008
 5317.00    1.37321   1.33874    0.008
 5318.00    1.35106   1.33505    0.008
 5319.00    1.19714   1.32879    0.008
 5320.00    0.99204   1.32168    0.008
 5321.00    1.02049   1.31983    0.008
 5322.00    1.12614   1.31527    0.008
 5323.00    1.21659   1.29965    0.008
 5324.00    1.30282   1.29413    0.008
 5325.00    1.30570   1.30527    0.008
 5326.00    1.28957   1.30998    0.008
 5327.00    1.10263   1.30341    0.008
 5328.00    0.88451   1.30173    0.008
 5329.00    0.98871   1.30074    0.008
 5330.00    1.13810   1.28790    0.008
 5331.00    1.25762   1.26637    0.008
 5332.00    1.37413   1.27117    0.008
 5333.00    1.33978   1.27536    0.008
 5334.00    1.29576   1.22895    0.008
 5335.00    1.41258   1.16417    0.008
 5336.00    1.53348   1.17617    0.008
 5337.00    1.36028   1.24476    0.008
 5338.00    1.19687   1.29031    0.008
 5339.00    1.31349   1.29377    0.008
 5340.00    1.42237   1.28874    0.008
 5341.00    1.42024   1.30353    0.008
 5342.00    1.41186   1.31841    0.008
 5343.00    1.34499   1.31307    0.008
 5344.00    1.27474   1.30438    0.008
 5345.00    1.18142   1.30470    0.008
 5346.00    1.12432   1.28988    0.008
 5347.00    1.25845   1.25501    0.008
 5348.00    1.35760   1.24731    0.008
 5349.00    1.30825   1.27878    0.008
 5350.00    1.23616   1.30498    0.008
 5351.00    1.08437   1.31040    0.008
 5352.00    1.00841   1.29671    0.008
 5353.00    1.15598   1.28633    0.008
 5354.00    1.31803   1.29267    0.008
 5355.00    1.51645   1.28739    0.008
 5356.00    1.62432   1.27198    0.008
 5357.00    1.53623   1.28142    0.008
 5358.00    1.49483   1.30945    0.008
 5359.00    1.54111   1.32367    0.008
 5360.00    1.53883   1.32140    0.008
 5361.00    1.45686   1.32953    0.008
 5362.00    1.42041   1.34537    0.008
 5363.00    1.44941   1.35022    0.008
 5364.00    1.42104   1.34958    0.008
 5365.00    1.32011   1.34985    0.008
 5366.00    1.24012   1.34942    0.008
 5367.00    1.18345   1.34214    0.008
 5368.00    1.21536   1.32410   -2.000
 5369.00    1.33434   1.30631   -2.000
 5370.00    1.39993   1.30265   -2.000
 5371.00    1.41921   1.30107   -2.000
 5372.00    1.21413   1.29346   -2.000
 5373.00    0.83766   1.29424   -2.000
 5374.00    0.97310   1.29833   -2.000
 5375.00    1.45224   1.29739   -2.000
 5376.00    1.55385   1.28047   -2.000
 5377.00    1.43339   1.24357   -2.000
 5378.00    1.31065   1.21612   -2.000
 5379.00    1.18673   1.23672   -2.000
 5380.00    1.26427   1.28875   -2.000
 5381.00    1.43132   1.32436   -2.000
 5382.00    1.37157   1.33658   -2.000
 5383.00    1.22524   1.33174    0.008
 5384.00    1.24015   1.32291    0.008
 5385.00    1.30735   1.32524    0.008
 5386.00    1.48993   1.32703    0.008
 5387.00    1.70383   1.31731    0.008
 5388.00    1.79242   1.30766    0.008
 5389.00    1.85309   1.30282    0.008
 5390.00    1.62954   1.29719    0.008
 5391.00    1.35550   1.30259    0.008
 5392.00    1.32451   1.31667    0.008
 5393.00    1.32650   1.32156    0.008
 5394.00    1.33982   1.31910    0.008
 5395.00    1.35423   1.31321    0.008
 5396.00    1.36475   1.30038    0.008
 5397.00    1.37503   1.28758    0.008
 5398.00    1.32867   1.28178    0.008
 5399.00    1.28086   1.28022    0.008
 5400.00    1.23732   1.27860    0.008
 5401.00    1.19796   1.27775    0.008
 5402.00    1.26633   1.27568    0.008
 5403.00    1.32545   1.25394    0.008
 5404.00    1.25925   1.22823    0.008
 5405.00    1.20293   1.24574    0.008
 5406.00    1.23561   1.28193    0.008
 5407.00    1.23932   1.29100    0.008
 5408.00    1.05162   1.28932    0.008
 5409.00    0.90562   1.29522    0.008
 5410.00    0.97413   1.28433    0.008
 5411.00    1.05372   1.24670    0.008
 5412.00    1.17928   1.20992    0.008
 5413.00    1.26765   1.20469    0.008
 5414.00    1.22827   1.23175    0.008
 5415.00    1.22522   1.24929    0.008
 5416.00    1.32728   1.22342    0.008
 5417.00    1.38705   1.17187    0.008
 5418.00    1.34234   1.15011    0.008
 5419.00    1.27711   1.17844    0.008
 5420.00    1.16816   1.22815    0.008
 5421.00    1.15515   1.26201    0.008
 5422.00    1.31956   1.27749    0.008
 5423.00    1.40875   1.29799    0.008
 5424.00    1.37639   1.31618    0.008
 5425.00    1.35335   1.31752    0.008
 5426.00    1.34351   1.30729    0.007
 5427.00    1.28810   1.29611    0.007
 5428.00    1.17585   1.29644    0.007
 5429.00    1.15917   1.30803    0.007
 5430.00    1.24753   1.30207    0.007
 5431.00    1.23959   1.28027    0.007
 5432.00    1.13830   1.28190    0.007
 5433.00    1.16834   1.30929    0.007
 5434.00    1.31067   1.33031    0.007
 5435.00    1.33061   1.31412    0.007
 5436.00    1.25840   1.26229    0.007
 5437.00    1.19878   1.24143    0.007
 5438.00    1.14750   1.26916    0.007
 5439.00    1.16491   1.28236    0.007
 5440.00    1.22212   1.26686    0.007
 5441.00    1.31481   1.24938    0.007
 5442.00    1.42543   1.24670    0.007
 5443.00    1.51129   1.25997    0.007
 5444.00    1.58634   1.28343    0.007
 5445.00    1.47851   1.31032    0.008
 5446.00    1.30209   1.33067    0.008
 5447.00    1.23230   1.33954    0.008
 5448.00    1.19644   1.34000    0.008
 5449.00    1.22730   1.33919    0.008
 5450.00    1.27588   1.33883    0.008
 5451.00    1.33349   1.32637    0.008
 5452.00    1.39306   1.29363    0.008
 5453.00    1.32179   1.24788    0.008
 5454.00    1.22792   1.22694    0.008
 5455.00    1.28500   1.25482    0.008
 5456.00    1.36188   1.29332    0.008
 5457.00    1.20164   1.31021    0.008
 5458.00    1.01949   1.31078    0.008
 5459.00    1.04403   1.30571    0.008
 5460.00    1.08019   1.29535    0.008
 5461.00    1.14978   1.27123    0.008
 5462.00    1.22116   1.23728    0.008
 5463.00    1.40010   1.23247    0.008
 5464.00    1.57222   1.26829    0.008
 5465.00    1.58432   1.30506    0.008
 5466.00    1.59050   1.31651    0.008
 5467.00    1.52057   1.30865    0.008
 5468.00    1.44161   1.29548    0.008
 5469.00    1.28446   1.27821    0.008
 5470.00    1.17253   1.26277    0.008
 5471.00    1.35040   1.27042    0.008
 5472.00    1.50434   1.28977    0.008
 5473.00    1.53836   1.29409    0.008
 5474.00    1.53969   1.29455    0.007
 5475.00    1.40830   1.30190    0.007
 5476.00    1.28857   1.30257    0.007
 5477.00    1.20807   1.29177    0.007
 5478.00    1.13001   1.28694   -2.000
 5479.00    1.05886   1.28599   -2.000
 5480.00    0.99673   1.27529   -2.000
 5481.00    0.95649   1.26839   -2.000
 5482.00    1.22531   1.26539   -2.000
 5483.00    2.14159   1.24004   -2.000
 5484.00    2.43058   1.22057   -2.000
 5485.00    1.57723   1.24621   -2.000
 5486.00    0.63425   1.28322   -2.000
 5487.00   -0.45140   1.28602   -2.000
 5488.00   -0.76269   1.26274   -2.000
 5489.00    0.00779   1.25415   -2.000
 5490.00    0.72285   1.26905   -2.000
 5491.00    1.36978   1.29161   -2.000
 5492.00    1.82624   1.30920   -2.000
 5493.00    2.07630   1.30691   -2.000
 5494.00    1.93740   1.28652   -2.000
 5495.00    1.42669   1.27546   -2.000
 5496.00    1.19069   1.28195   -2.000
 5497.00    1.18624   1.28719   -2.000
 5498.00    1.12138   1.29276   -2.000
 5499.00    1.01169   1.29878   -2.000
 5500.00    1.04117   1.29331   -2.000
 5501.00    1.16138   1.28815   -2.000
 5502.00    1.27270   1.29503    0.023
 5503.00    1.37895   1.29471    0.009
 5504.00    1.35384   1.27830    0.008
 5505.00    1.26346   1.27841    0.008
 5506.00    1.25633   1.30018    0.008
 5507.00    1.28496   1.30543    0.008
 5508.00    1.23654   1.28483    0.012
 5509.00    1.15975   1.26974    0.063
 5510.00    1.08686   1.27492   -1.000
 5511.00    1.01520   1.28569   -1.000
 5512.00    1.04355   1.28292   -1.000
 5513.00    1.09793   1.26422   -1.000
 5514.00    1.14054   1.25519    0.018
 5515.00    1.18065   1.26999    0.008
 5516.00    1.35175   1.28206    0.007
 5517.00    1.54484   1.28288    0.007
 5518.00    1.34738   1.27573    0.007
 5519.00    1.10046   1.25881    0.007
 5520.00    1.11462   1.24871    0.007
 5521.00    1.15179   1.25314    0.007
 5522.00    1.19525   1.26605    0.007
 5523.00    1.23904   1.27865    0.007
 5524.00    1.29931   1.28984    0.007
 5525.00    1.35676   1.30510    0.007
 5526.00    1.17757   1.31671    0.007
 5527.00    1.01025   1.31621    0.007
 5528.00    1.09837   1.31071    0.007
 5529.00    1.18123   1.30778    0.007
 5530.00    1.19986   1.30804    0.007
 5531.00    1.22478   1.30712    0.007
 5532.00    1.30215   1.29875    0.007
 5533.00    1.36685   1.28353    0.007
 5534.00    1.35277   1.26339    0.007
 5535.00    1.33857   1.24576    0.007
 5536.00    1.32384   1.25265    0.007
 5537.00    1.28438   1.28145    0.007
 5538.00    1.14675   1.30112    0.007
 5539.00    1.07690   1.30104    0.007
 5540.00    1.23072   1.29400    0.007
 5541.00    1.35187   1.28493    0.007
 5542.00    1.38188   1.27673    0.007
 5543.00    1.42331   1.28055    0.007
 5544.00    1.49196   1.29081    0.007
 5545.00    1.51512   1.29437    0.007
 5546.00    1.44450   1.29937    0.007
 5547.00    1.37804   1.31106    0.007
 5548.00    1.31902   1.31963    0.007
 5549.00    1.33080   1.31440    0.007
 5550.00    1.45361   1.29906    0.007
 5551.00    1.51063   1.29048    0.007
 5552.00    1.47708   1.29128    0.007
 5553.00    1.42993   1.29148    0.007
 5554.00    1.36630   1.29675    0.007
 5555.00    1.34564   1.31033    0.007
 5556.00    1.37091   1.32054    0.007
 5557.00    1.33690   1.32308    0.007
 5558.00    1.24702   1.32242    0.007
 5559.00    1.20885   1.31801    0.007
 5560.00    1.21364   1.30718    0.007
 5561.00    1.29406   1.29530    0.007
 5562.00    1.42981   1.29262    0.007
 5563.00    1.34834   1.29843    0.007
 5564.00    1.12734   1.30069    0.007
 5565.00    1.21181   1.29968    0.007
 5566.00    1.46792   1.30162    0.007
 5567.00    1.43922   1.30312    0.007
 5568.00    1.27125   1.30087    0.007
 5569.00    1.24776   1.29317    0.007
 5570.00    1.28531   1.28403    0.007
 5571.00    1.27495   1.28231    0.007
 5572.00    1.24726   1.28178    0.007
 5573.00    1.32581   1.27659    0.007
 5574.00    1.43686   1.27609    0.007
 5575.00    1.40585   1.27950    0.007
 5576.00    1.33867   1.27668    0.007
 5577.00    1.24728   1.27692    0.007
 5578.00    1.15088   1.28750    0.007
 5579.00    1.26955   1.28416    0.007
 5580.00    1.42330   1.27113    0.007
 5581.00    1.38839   1.27885    0.007
 5582.00    1.33044   1.29303    0.007
 5583.00    1.53360   1.29289    0.007
 5584.00    1.75870   1.29376    0.007
 5585.00    1.67476   1.29775    0.007
 5586.00    1.57586   1.29893    0.007
 5587.00    1.46724   1.30310    0.007
 5588.00    1.35875   1.30278    0.007
 5589.00    1.26726   1.29506    0.007
 5590.00    1.18617   1.29340    0.007
 5591.00    1.31141   1.29503    0.007
 5592.00    1.41831   1.28631    0.007
 5593.00    1.31220   1.26310    0.007
 5594.00    1.20617   1.23459    0.007
 5595.00    1.10070   1.21840    0.007
 5596.00    1.05340   1.22105    0.007
 5597.00    1.35755   1.23567    0.007
 5598.00    1.56207   1.23488    0.008
 5599.00    1.29160   1.21831    0.008
 5600.00    1.07503   1.21088    0.008
 5601.00    1.06778   1.22989    0.007
 5602.00    1.07250   1.26058    0.007
 5603.00    1.11591   1.28941    0.007
 5604.00    1.14432   1.29729    0.007
 5605.00    1.13168   1.27675    0.007
 5606.00    1.18957   1.25894    0.007
 5607.00    1.41296   1.25755    0.007
 5608.00    1.56118   1.25401    0.007
 5609.00    1.55695   1.24359    0.007
 5610.00    1.55122   1.24182    0.007
 5611.00    1.54284   1.26214    0.007
 5612.00    1.50004   1.29157    0.007
 5613.00    1.40404   1.31021    0.007
 5614.00    1.33896   1.31654    0.007
 5615.00    1.31583   1.31738    0.007
 5616.00    1.30266   1.31532    0.007
 5617.00    1.30140   1.31238    0.007
 5618.00    1.29853   1.31339    0.007
 5619.00    1.29398   1.31889    0.007
 5620.00    1.26663   1.31886    0.007
 5621.00    1.21808   1.29552    0.007
 5622.00    1.24210   1.25052    0.007
 5623.00    1.32557   1.22706    0.007
 5624.00    1.32728   1.24776    0.007
 5625.00    1.27006   1.27538    0.007
 5626.00    1.24994   1.28161    0.007
 5627.00    1.25330   1.27932    0.007
 5628.00    1.24858   1.28559    0.007
 5629.00    1.23938   1.29650    0.007
 5630.00    1.22562   1.29254    0.007
 5631.00    1.20968   1.26666    0.007
 5632.00    1.21900   1.24634    0.007
 5633.00    1.23883   1.25484    0.007
 5634.00    1.35896   1.27447    0.007
 5635.00    1.51474   1.28585    0.007
 5636.00    1.55807   1.29465    0.007
 5637.00    1.56767   1.30416    0.007
 5638.00    1.60560   1.30942    0.007
 5639.00    1.65059   1.30944    0.007
 5640.00    1.51316   1.30495    0.007
 5641.00    1.33889   1.29797    0.007
 5642.00    1.32448   1.29105    0.007
 5643.00    1.33538   1.28284    0.007
 5644.00    1.47190   1.27316    0.007
 5645.00    1.62319   1.26939    0.007
 5646.00    1.67148   1.27371    0.007
 5647.00    1.71154   1.27450    0.007
 5648.00    1.57740   1.26641    0.007
 5649.00    1.43551   1.26437    0.007
 5650.00    1.37869   1.27319    0.007
 5651.00    1.32436   1.28026    0.007
 5652.00    1.34399   1.28346    0.007
 5653.00    1.35889   1.28682    0.007
 5654.00    1.28654   1.29075    0.006
 5655.00    1.21492   1.29321    0.006
 5656.00    1.15144   1.29080    0.006
 5657.00    1.09256   1.28756    0.006
 5658.00    1.06937   1.29105    0.006
 5659.00    1.07509   1.29993    0.007
 5660.00    1.25053   1.30440    0.007
 5661.00    1.38883   1.29614    0.007
 5662.00    1.35435   1.28338    0.007
 5663.00    1.32652   1.28064    0.007
 5664.00    1.32401   1.27236    0.007
 5665.00    1.32967   1.24052    0.007
 5666.00    1.36125   1.22025    0.007
 5667.00    1.41222   1.24106    0.007
 5668.00    1.51536   1.26558    0.007
 5669.00    1.57896   1.26130    0.007
 5670.00    1.55135   1.25197    0.007
 5671.00    1.51384   1.26340    0.007
 5672.00    1.45656   1.28269    0.007
 5673.00    1.43671   1.28795    0.007
 5674.00    1.48193   1.27769    0.007
 5675.00    1.48640   1.26646    0.007
 5676.00    1.42884   1.26648    0.007
 5677.00    1.37003   1.27362    0.007
 5678.00    1.30953   1.28088    0.007
 5679.00    1.31078   1.29112    0.007
 5680.00    1.38478   1.30518    0.007
 5681.00    1.37937   1.31258    0.007
 5682.00    1.29147   1.30774    0.007
 5683.00    1.31736   1.30376    0.007
 5684.00    1.44751   1.30862    0.007
 5685.00    1.49980   1.30973    0.007
 5686.00    1.48921   1.30141    0.007
 5687.00    1.44058   1.29583    0.007
 5688.00    1.36490   1.29438    0.007
 5689.00    1.34234   1.28382    0.007
 5690.00    1.35288   1.26916    0.007
 5691.00    1.35949   1.26855    0.007
 5692.00    1.36396   1.27915    0.006
 5693.00    1.37698   1.28237    0.006
 5694.00    1.39404   1.27237    0.006
 5695.00    1.43295   1.26228    0.006
 5696.00    1.48078   1.26577    0.006
 5697.00    1.46883   1.28057    0.007
 5698.00    1.43603   1.29446    0.007
 5699.00    1.47083   1.30401    0.007
 5700.00    1.52553   1.30957    0.007
 5701.00    1.58280   1.30812    0.007
 5702.00    1.64071   1.30479    0.007
 5703.00    1.51500   1.30568    0.007
 5704.00    1.35312   1.30499    0.007
 5705.00    1.28692   1.29383    0.007
 5706.00    1.23541   1.28133    0.007
 5707.00    1.30057   1.27625    0.007
 5708.00    1.37896   1.26815    0.007
 5709.00    1.36409   1.25888    0.007
 5710.00    1.34215   1.26250    0.007
 5711.00    1.37537   1.27628    0.007
 5712.00    1.41083   1.28248    0.007
 5713.00    1.43027   1.27232    0.007
 5714.00    1.44746   1.25635    0.007
 5715.00    1.37688   1.24295    0.007
 5716.00    1.30536   1.23031    0.007
 5717.00    1.21770   1.22695    0.007
 5718.00    1.14647   1.23284    0.007
 5719.00    1.24905   1.23796    0.007
 5720.00    1.33902   1.25378    0.007
 5721.00    1.33438   1.27922    0.007
 5722.00    1.34483   1.29328    0.007
 5723.00    1.44142   1.29734    0.007
 5724.00    1.52899   1.29842    0.007
 5725.00    1.57558   1.29627    0.007
 5726.00    1.61388   1.29796    0.007
 5727.00    1.62133   1.30488    0.007
 5728.00    1.61509   1.31054    0.006
 5729.00    1.56625   1.31519    0.006
 5730.00    1.50777   1.31899    0.006
 5731.00    1.42378   1.31940    0.006
 5732.00    1.36802   1.31699    0.006
 5733.00    1.37631   1.30843    0.006
 5734.00    1.36889   1.29202    0.006
 5735.00    1.33062   1.28398    0.006
 5736.00    1.32168   1.29490    0.006
 5737.00    1.36299   1.30562    0.006
 5738.00    1.37926   1.29866    0.006
 5739.00    1.35798   1.28801    0.006
 5740.00    1.31341   1.29359    0.000
 5741.00    1.23815   1.30745    0.000
 5742.00    1.17488   1.31433    0.000
 5743.00    1.12553   1.31357    0.000
 5744.00    1.16130   1.30939    0.000
 5745.00    1.28423   1.30591    0.000
 5746.00    1.39518   1.30346    0.000
 5747.00    1.49529   1.30067    0.000
 5748.00    1.52234   1.29963    0.000
 5749.00    1.49123   1.29929    0.000
 5750.00    1.50099   1.29713    0.000
 5751.00    1.53935   1.29879    0.000
 5752.00    1.50917   1.30942    0.000
 5753.00    1.43689   1.31868    0.000
 5754.00    1.38346   1.31297    0.000
 5755.00    1.34014   1.29507    0.000
 5756.00    1.34318   1.28775    0.000
 5757.00    1.36782   1.30054    0.000
 5758.00    1.34421   1.31266    0.000
 5759.00    1.30123   1.30529    0.000
 5760.00    1.30055   1.28245    0.000
 5761.00    1.31435   1.26326    0.000
 5762.00    1.31993   1.26538    0.000
 5763.00    1.32313   1.28776    0.000
 5764.00    1.46008   1.31046    0.000
 5765.00    1.62889   1.31981    0.000
 5766.00    1.58807   1.31655    0.000
 5767.00    1.50703   1.30407    0.000
 5768.00    1.50580   1.28711    0.000
 5769.00    1.51646   1.27070    0.000
 5770.00    1.56371   1.26223    0.000
 5771.00    1.61496   1.27373    0.000
 5772.00    1.56249   1.29922    0.000
 5773.00    1.50259   1.31511    0.000
 5774.00    1.41440   1.31715    0.000
 5775.00    1.32516   1.31521    0.000
 5776.00    1.52012   1.31266    0.000
 5777.00    1.71199   1.30981    0.000
 5778.00    1.75049   1.30723    0.000
 5779.00    1.77692   1.30301    0.000
 5780.00    1.60925   1.29964    0.000
 5781.00    1.45534   1.29844    0.000
 5782.00    1.44064   1.29585    0.000
 5783.00    1.42997   1.29643    0.000
 5784.00    1.44836   1.30271    0.000
 5785.00    1.44919   1.30614    0.000
 5786.00    1.35253   1.30108    0.000
 5787.00    1.28409   1.28324    0.000
 5788.00    1.34084   1.25505    0.000
 5789.00    1.35670   1.23563    0.000
 5790.00    1.22354   1.23921    0.000
 5791.00    1.13186   1.24905   -2.000
 5792.00    1.16687   1.24686   -2.000
 5793.00    1.21652   1.24534   -2.000
 5794.00    1.30417   1.26179   -2.000
 5795.00    1.33080   1.28267   -2.000
 5796.00    1.22119   1.29321   -2.000
 5797.00    1.20247   1.29353   -2.000
 5798.00    1.35954   1.28371   -2.000
 5799.00    1.42655   1.27860   -2.000
 5800.00    1.34159   1.28845   -2.000
 5801.00    1.30179   1.30109   -2.000
 5802.00    1.32875   1.31023   -2.000
 5803.00    1.39304   1.31254   -2.000
 5804.00    1.50586   1.30048   -2.000
 5805.00    1.59690   1.28270   -2.000
 5806.00    1.66300   1.28152   -2.000
 5807.00    1.60908   1.29019   -2.000
 5808.00    1.43398   1.28298   -2.000
 5809.00    1.33160   1.27659   -2.000
 5810.00    1.29398   1.28666   -2.000
 5811.00    1.33615   1.29828    0.000
 5812.00    1.44091   1.29284    0.000
 5813.00    1.45107   1.28838    0.000
 5814.00    1.39592   1.29423    0.000
 5815.00    1.32285   1.30049    0.000
 5816.00    1.23895   1.30353    0.000
 5817.00    1.24439   1.30337    0.000
 5818.00    1.29703   1.29357    0.000
 5819.00    1.28183   1.27693    0.000
 5820.00    1.23554   1.27346    0.000
 5821.00    1.30713   1.28476    0.000
 5822.00    1.42522   1.29474    0.000
 5823.00    1.43898   1.28631    0.000
 5824.00    1.41767   1.28298    0.000
 5825.00    1.49124   1.29426    0.000
 5826.00    1.59159   1.31011    0.000
 5827.00    1.59760   1.31757    0.000
 5828.00    1.58166   1.31919    0.000
 5829.00    1.59014   1.31845    0.000
 5830.00    1.60319   1.31456    0.000
 5831.00    1.48540   1.31175    0.000
 5832.00    1.34874   1.31586    0.000
 5833.00    1.38653   1.32569    0.000
 5834.00    1.44258   1.32980    0.000
 5835.00    1.47341   1.32644    0.000
 5836.00    1.50253   1.32178    0.000
 5837.00    1.43612   1.32190    0.000
 5838.00    1.36655   1.32175    0.000
 5839.00    1.45067   1.31893    0.000
 5840.00    1.53274   1.31794    0.000
 5841.00    1.54712   1.31516    0.000
 5842.00    1.55522   1.30797    0.000
 5843.00    1.46856   1.30680    0.000
 5844.00    1.39098   1.31299    0.000
 5845.00    1.40140   1.31260    0.000
 5846.00    1.41574   1.30648    0.000
 5847.00    1.45761   1.30810    0.000
 5848.00    1.49190   1.31734    0.000
 5849.00    1.48522   1.32328    0.000
 5850.00    1.46696   1.32471    0.000
 5851.00    1.39849   1.32341    0.000
 5852.00    1.35321   1.31892    0.000
 5853.00    1.39072   1.31165    0.000
 5854.00    1.43128   1.30185    0.000
 5855.00    1.48096   1.29336    0.000
 5856.00    1.53198   1.29322    0.000
 5857.00    1.58638   1.29752    0.000
 5858.00    1.59583   1.29813    0.000
 5859.00    1.50659   1.28933    0.000
 5860.00    1.43043   1.27193    0.000
 5861.00    1.37918   1.25926    0.000
 5862.00    1.36281   1.26606    0.000
 5863.00    1.40440   1.27657    0.000
 5864.00    1.43163   1.26633    0.000
 5865.00    1.43794   1.24657    0.000
 5866.00    1.44311   1.24647    0.000
 5867.00    1.44682   1.26570    0.000
 5868.00    1.42765   1.28199    0.000
 5869.00    1.38266   1.28520    0.000
 5870.00    1.40266   1.28000    0.000
 5871.00    1.48736   1.28066    0.000
 5872.00    1.52753   1.28829    0.000
 5873.00    1.52859   1.28741    0.000
 5874.00    1.51964   1.27685    0.000
 5875.00    1.50295   1.27501    0.000
 5876.00    1.51004   1.28744    0.000
 5877.00    1.53330   1.30012    0.000
 5878.00    1.49716   1.30556    0.000
 5879.00    1.42563   1.30402    0.000
 5880.00    1.40937   1.29621    0.000
 5881.00    1.42185   1.28032    0.000
 5882.00    1.37970   1.23436    0.000
 5883.00    1.31292   1.18761    0.000
 5884.00    1.29828   1.18398    0.000
 5885.00    1.30385   1.22441    0.000
 5886.00    1.26503   1.26985    0.000
 5887.00    1.21156   1.27071    0.000
 5888.00    1.17116   1.26622    0.000
 5889.00    1.13438   1.27208    0.000
 5890.00    1.16987   1.27971    0.000
 5891.00    1.22180   1.27518    0.000
 5892.00    1.20559   1.26998    0.000
 5893.00    1.17699   1.27466    0.000
 5894.00    1.17182   1.27608    0.000
 5895.00    1.16992   1.25596    0.000
 5896.00    1.18561   1.19250    0.000
 5897.00    1.20306   1.09765    0.000
 5898.00    1.27073   1.05390    0.000
 5899.00    1.34160   1.10846    0.000
 5900.00    1.38768   1.18285    0.000
 5901.00    1.43288   1.21254    0.006
 5902.00    1.42312   1.19408    0.006
 5903.00    1.41240   1.13275    0.006
 5904.00    1.37466   1.10010    0.006
 5905.00    1.33844   1.15036    0.006
 5906.00    1.32382   1.21418    0.006
 5907.00    1.30954   1.24038    0.006
 5908.00    1.29839   1.25494    0.006
 5909.00    1.29618   1.26881    0.006
 5910.00    1.35468   1.27402    0.006
 5911.00    1.41041   1.27552    0.006
 5912.00    1.45158   1.27530    0.006
 5913.00    1.48634   1.27004    0.007
 5914.00    1.49394   1.26645    0.015
 5915.00    1.49790   1.27267   -1.000
 5916.00    1.48911   1.27992   -1.000
 5917.00    1.46493   1.27994   -1.000
 5918.00    1.39550   1.27915   -1.000
 5919.00    1.36063   1.28358   -1.000
 5920.00    1.41242   1.28192   -1.000
 5921.00    1.46494   1.26522   -1.000
 5922.00    1.51907   1.24811   -1.000
 5923.00    1.54010   1.24701   -1.000
 5924.00    1.49911   1.25458   -1.000
 5925.00    1.47836   1.26537    0.032
 5926.00    1.49076   1.27269    0.009
 5927.00    1.49795   1.27694    0.006
 5928.00    1.49768   1.28188    0.006
 5929.00    1.45576   1.27929    0.006
 5930.00    1.36123   1.27320    0.006
 5931.00    1.36661   1.27529    0.006
 5932.00    1.48317   1.28154    0.006
 5933.00    1.54843   1.28506    0.006
 5934.00    1.56335   1.28642    0.006
 5935.00    1.55321   1.28211    0.006
 5936.00    1.52137   1.27141    0.006
 5937.00    1.53331   1.26010    0.006
 5938.00    1.57862   1.25694    0.006
 5939.00    1.57669   1.27024    0.006
 5940.00    1.54311   1.28447    0.006
 5941.00    1.49009   1.28093    0.006
 5942.00    1.42564   1.26638    0.006
 5943.00    1.48667   1.26318    0.006
 5944.00    1.61191   1.27585    0.006
 5945.00    1.63110   1.28500    0.006
 5946.00    1.60327   1.28853    0.006
 5947.00    1.58348   1.28983    0.006
 5948.00    1.56675   1.27957    0.006
 5949.00    1.55505   1.26517    0.006
 5950.00    1.54498   1.26445    0.006
 5951.00    1.47671   1.27359    0.006
 5952.00    1.39268   1.28237    0.006
 5953.00    1.39501   1.29002    0.006
 5954.00    1.41652   1.29273    0.006
 5955.00    1.45956   1.28350    0.006
 5956.00    1.50641   1.26529    0.006
 5957.00    1.44117   1.25783    0.006
 5958.00    1.36077   1.26860    0.006
 5959.00    1.34574   1.27693    0.006
 5960.00    1.33699   1.26678    0.006
 5961.00    1.34731   1.25873    0.006
 5962.00    1.35877   1.26924    0.006
 5963.00    1.42130   1.27582    0.006
 5964.00    1.48435   1.26492    0.006
 5965.00    1.42741   1.25612    0.006
 5966.00    1.37757   1.26254    0.006
 5967.00    1.50849   1.27593    0.006
 5968.00    1.63346   1.28788    0.006
 5969.00    1.67827   1.29439    0.006
 5970.00    1.71246   1.29581    0.006
 5971.00    1.65157   1.29331    0.006
 5972.00    1.59870   1.28978    0.006
 5973.00    1.59868   1.28169    0.006
 5974.00    1.60442   1.27730    0.006
 5975.00    1.63964   1.28452    0.006
 5976.00    1.65412   1.29188    0.006
 5977.00    1.58269   1.29542    0.006
 5978.00    1.52607   1.29882    0.006
 5979.00    1.52017   1.30085    0.006
 5980.00    1.51539   1.29925    0.006
 5981.00    1.51382   1.29647    0.006
 5982.00    1.53044   1.29008    0.006
 5983.00    1.59186   1.27597    0.006
 5984.00    1.61220   1.26285    0.006
 5985.00    1.54524   1.25888    0.006
 5986.00    1.53024   1.26135    0.006
 5987.00    1.61116   1.27087    0.006
 5988.00    1.65092   1.28362    0.006
 5989.00    1.62428   1.28969    0.006
 5990.00    1.58126   1.28321    0.006
 5991.00    1.51508   1.26331    0.006
 5992.00    1.48768   1.24418    0.006
 5993.00    1.50857   1.24960    0.006
 5994.00    1.51227   1.26801    0.006
 5995.00    1.49713   1.27424    0.006
 5996.00    1.46899   1.27637    0.006
 5997.00    1.42827   1.28132    0.006
 5998.00    1.40008   1.28181    0.006
 5999.00    1.38259   1.27475    0.006
 6000.00    1.35981   1.27579    0.006
 6001.00    1.33306   1.29017    0.006
 6002.00    1.30407   1.29964    0.006
 6003.00    1.27360   1.29763    0.006
 6004.00    1.27302   1.28696    0.006
 6005.00    1.28972   1.27394    0.006
 6006.00    1.30265   1.26955    0.006
 6007.00    1.31368   1.27529    0.006
 6008.00    1.34245   1.28240    0.006
 6009.00    1.37896   1.28337    0.006
 6010.00    1.45960   1.27181    0.006
 6011.00    1.55675   1.26361    0.006
 6012.00    1.51900   1.27212    0.006
 6013.00    1.43844   1.27823    0.006
 6014.00    1.38416   1.27020    0.006
 6015.00    1.33684   1.25250    0.006
 6016.00    1.34253   1.23895    0.006
 6017.00    1.35971   1.25329    0.006
 6018.00    1.43191   1.28054    0.006
 6019.00    1.51359   1.28765    0.006
 6020.00    1.57832   1.27327    0.006
 6021.00    1.64084   1.25930    0.006
 6022.00    1.58042   1.26330    0.006
 6023.00    1.50871   1.27289    0.006
 6024.00    1.45657   1.26757    0.006
 6025.00    1.40552   1.26233    0.006
 6026.00    1.48095   1.26920    0.006
 6027.00    1.55881   1.26719    0.006
 6028.00    1.60387   1.25436    0.006
 6029.00    1.64306   1.25162    0.006
 6030.00    1.54609   1.25948    0.006
 6031.00    1.46125   1.26500    0.006
 6032.00    1.53121   1.26693    0.006
 6033.00    1.59389   1.27623    0.006
 6034.00    1.59391   1.28214    0.006
 6035.00    1.58405   1.27816    0.006
 6036.00    1.51111   1.28336    0.006
 6037.00    1.44463   1.29301    0.006
 6038.00    1.41040   1.29386    0.006
 6039.00    1.38230   1.29018    0.006
 6040.00    1.37898   1.29395    0.006
 6041.00    1.36300   1.29946    0.006
 6042.00    1.30449   1.29964    0.006
 6043.00    1.26713   1.29705    0.006
 6044.00    1.28972   1.29679    0.006
 6045.00    1.32218   1.29720    0.006
 6046.00    1.37852   1.29727    0.006
 6047.00    1.42281   1.29313    0.006
 6048.00    1.44189   1.28935    0.006
 6049.00    1.45924   1.28830    0.006
 6050.00    1.47343   1.28782    0.006
 6051.00    1.51633   1.29419    0.006
 6052.00    1.60484   1.30282    0.006
 6053.00    1.62074   1.30588    0.006
 6054.00    1.53537   1.30704    0.006
 6055.00    1.47013   1.30758    0.006
 6056.00    1.42960   1.30575    0.006
 6057.00    1.42211   1.30399    0.006
 6058.00    1.45035   1.30631    0.006
 6059.00    1.48125   1.30704    0.006
 6060.00    1.51468   1.30160    0.006
 6061.00    1.54106   1.29402    0.006
 6062.00    1.56151   1.29091    0.006
 6063.00    1.59914   1.28770    0.006
 6064.00    1.64951   1.28062    0.006
 6065.00    1.67230   1.28077    0.006
 6066.00    1.67716   1.28699    0.006
 6067.00    1.65517   1.29705    0.006
 6068.00    1.61790   1.30384    0.006
 6069.00    1.64368   1.30308    0.006
 6070.00    1.70072   1.29543    0.006
 6071.00    1.66400   1.28487    0.006
 6072.00    1.58709   1.26911    0.006
 6073.00    1.56406   1.24889    0.006
 6074.00    1.56085   1.25594    0.006
 6075.00    1.50972   1.28846    0.006
 6076.00    1.44368   1.30833    0.006
 6077.00    1.41539   1.31171    0.006
 6078.00    1.39691   1.31136    0.006
 6079.00    1.41442   1.31129    0.006
 6080.00    1.43956   1.31131    0.006
 6081.00    1.44280   1.31090    0.006
 6082.00    1.44238   1.31032    0.006
 6083.00    1.46705   1.30861    0.006
 6084.00    1.49489   1.30457    0.006
 6085.00    1.49754   1.29533    0.006
 6086.00    1.49798   1.27884    0.006
 6087.00    1.49315   1.27209    0.006
 6088.00    1.48804   1.28133    0.006
 6089.00    1.50775   1.27994    0.006
 6090.00    1.52711   1.26835    0.006
 6091.00    1.48773   1.26832    0.006
 6092.00    1.45144   1.27571    0.006
 6093.00    1.48103   1.27365    0.006
 6094.00    1.51303   1.27388    0.006
 6095.00    1.57428   1.28303    0.006
 6096.00    1.62409   1.29097    0.006
 6097.00    1.57898   1.28242    0.006
 6098.00    1.53545   1.26554    0.006
 6099.00    1.50178   1.26358    0.006
 6100.00    1.46760   1.27132    0.006
 6101.00    1.43095   1.27428    0.006
 6102.00    1.41112   1.28311    0.006
 6103.00    1.45786   1.29641    0.006
 6104.00    1.50735   1.29759    0.006
 6105.00    1.56586   1.28903    0.006
 6106.00    1.58879   1.28965    0.006
 6107.00    1.51272   1.29865    0.006
 6108.00    1.45971   1.30188    0.006
 6109.00    1.46163   1.28214    0.006
 6110.00    1.47063   1.23394    0.007
 6111.00    1.49417   1.20960    0.019
 6112.00    1.46197   1.24450   -1.000
 6113.00    1.33002   1.28360   -1.000
 6114.00    1.23208   1.29350   -1.000
 6115.00    1.18739   1.28540   -1.000
 6116.00    1.14786   1.27684   -1.000
 6117.00    1.11544   1.28516   -1.000
 6118.00    1.09628   1.29376   -1.000
 6119.00    1.09320   1.28449   -1.000
 6120.00    1.15966   1.27912    0.023
 6121.00    1.30031   1.28904    0.008
 6122.00    1.40399   1.29922    0.006
 6123.00    1.47287   1.29675    0.006
 6124.00    1.52887   1.28330    0.006
 6125.00    1.57419   1.28131    0.006
 6126.00    1.60010   1.28952    0.006
 6127.00    1.61185   1.28417    0.006
 6128.00    1.56790   1.26475    0.006
 6129.00    1.48824   1.24060    0.006
 6130.00    1.43513   1.21901    0.006
 6131.00    1.39692   1.23617    0.006
 6132.00    1.39791   1.27558    0.006
 6133.00    1.41804   1.28780    0.006
 6134.00    1.39941   1.27977    0.006
 6135.00    1.36445   1.27094    0.006
 6136.00    1.39384   1.26487    0.006
 6137.00    1.44647   1.26714    0.006
 6138.00    1.52604   1.28150    0.006
 6139.00    1.61383   1.29364    0.006
 6140.00    1.60273   1.29579    0.006
 6141.00    1.56651   1.29475    0.006
 6142.00    1.48735   1.28528    0.006
 6143.00    1.39932   1.25746    0.006
 6144.00    1.43286   1.20921    0.006
 6145.00    1.48617   1.16954    0.006
 6146.00    1.52537   1.19118    0.006
 6147.00    1.56286   1.25135    0.006
 6148.00    1.59308   1.27846    0.006
 6149.00    1.62269   1.25761    0.006
 6150.00    1.59481   1.24047    0.006
 6151.00    1.56418   1.26101    0.006
 6152.00    1.45830   1.29003    0.006
 6153.00    1.35298   1.29845    0.006
 6154.00    1.34272   1.29372    0.006
 6155.00    1.33186   1.28452    0.006
 6156.00    1.30912   1.27018    0.006
 6157.00    1.28280   1.25739    0.006
 6158.00    1.21513   1.25387    0.006
 6159.00    1.16259   1.26179    0.006
 6160.00    1.23113   1.27579    0.006
 6161.00    1.29247   1.28469    0.006
 6162.00    1.31056   1.27626    0.006
 6163.00    1.31575   1.26426    0.006
 6164.00    1.25957   1.26553    0.006
 6165.00    1.22845   1.26720    0.006
 6166.00    1.29445   1.26355    0.006
 6167.00    1.33774   1.25915    0.006
 6168.00    1.30774   1.23880    0.006
 6169.00    1.28175   1.19063    0.006
 6170.00    1.26672   1.14957    0.006
 6171.00    1.26564   1.15396    0.006
 6172.00    1.29722   1.18731    0.006
 6173.00    1.32408   1.21598    0.006
 6174.00    1.34138   1.22734    0.006
 6175.00    1.35387   1.23549    0.006
 6176.00    1.35789   1.23035    0.006
 6177.00    1.35758   1.19756    0.005
 6178.00    1.35058   1.17945    0.005
 6179.00    1.34624   1.20615    0.005
 6180.00    1.34550   1.23698    0.006
 6181.00    1.34234   1.24033    0.006
 6182.00    1.33629   1.23815    0.006
 6183.00    1.36059   1.24157    0.006
 6184.00    1.41680   1.24070    0.006
 6185.00    1.45419   1.23990    0.006
 6186.00    1.47410   1.24951    0.006
 6187.00    1.44279   1.25699    0.006
 6188.00    1.36958   1.25330    0.006
 6189.00    1.30689   1.25577    0.006
 6190.00    1.25178   1.26553    0.006
 6191.00    1.21518   1.26767    0.006
 6192.00    1.19029   1.26533    0.006
 6193.00    1.23357   1.26210    0.006
 6194.00    1.31450   1.25010    0.006
 6195.00    1.33921   1.23642    0.006
 6196.00    1.33694   1.23147   -2.000
 6197.00    1.19906   1.23191   -2.000
 6198.00    1.00497   1.22086   -2.000
 6199.00    0.81532   1.19126   -2.000
 6200.00    0.62724   1.18522   -2.000
 6201.00    0.62550   1.21794   -2.000
 6202.00    0.67952   1.24535   -2.000
 6203.00    0.84836   1.25404   -2.000
 6204.00    1.04572   1.25890   -2.000
 6205.00    1.08056   1.26412   -2.000
 6206.00    1.08267   1.25856   -2.000
 6207.00    1.08175   1.23817   -2.000
 6208.00    1.08035   1.22185    0.006
 6209.00    1.07408   1.22974    0.006
 6210.00    1.06723   1.25008    0.006
 6211.00    1.09132   1.26138    0.006
 6212.00    1.11786   1.26163    0.006
 6213.00    1.18120   1.26024    0.006
 6214.00    1.24617   1.26364    0.006
 6215.00    1.29055   1.26739    0.006
 6216.00    1.33489   1.26853    0.006
 6217.00    1.38841   1.26748    0.006
 6218.00    1.43953   1.26177    0.006
 6219.00    1.44669   1.25528    0.006
 6220.00    1.45113   1.24674    0.006
 6221.00    1.42555   1.22594    0.006
 6222.00    1.39767   1.20480    0.006
 6223.00    1.35201   1.19751    0.006
 6224.00    1.31482   1.20244    0.006
 6225.00    1.32716   1.21908    0.006
 6226.00    1.34061   1.22976    0.006
 6227.00    1.35919   1.21878    0.006
 6228.00    1.36626   1.20698    0.006
 6229.00    1.32966   1.21068    0.006
 6230.00    1.31104   1.22366    0.006
 6231.00    1.34930   1.23200    0.006
 6232.00    1.38443   1.23022    0.006
 6233.00    1.41116   1.23043    0.006
 6234.00    1.40682   1.23521    0.006
 6235.00    1.33094   1.23667    0.005
 6236.00    1.30231   1.23388    0.005
 6237.00    1.36782   1.21803    0.006
 6238.00    1.41518   1.18615    0.006
 6239.00    1.43105   1.16676    0.006
 6240.00    1.41309   1.17773    0.006
 6241.00    1.34373   1.19912    0.006
 6242.00    1.27411   1.22436    0.006
 6243.00    1.20413   1.24623    0.006
 6244.00    1.21173   1.25044    0.006
 6245.00    1.31053   1.23905    0.006
 6246.00    1.36593   1.22283    0.006
 6247.00    1.37632   1.20844    0.006
 6248.00    1.34932   1.20015    0.006
 6249.00    1.28812   1.20678    0.006
 6250.00    1.25993   1.21193    0.006
 6251.00    1.25835   1.19846    0.006
 6252.00    1.22323   1.19047    0.006
 6253.00    1.16432   1.19234    0.006
 6254.00    1.17499   1.19097    0.006
 6255.00    1.22896   1.20046    0.006
 6256.00    1.28735   1.22385    0.006
 6257.00    1.34813   1.24128    0.006
 6258.00    1.34725   1.24493    0.006
 6259.00    1.31722   1.23306    0.006
 6260.00    1.27217   1.20637    0.006
 6261.00    1.22100   1.18772    0.007
 6262.00    1.22285   1.18859    0.007
 6263.00    1.24316   1.19722    0.007
 6264.00    1.20390   1.19622    0.007
 6265.00    1.14717   1.18416    0.007
 6266.00    1.21818   1.17139    0.007
 6267.00    1.32022   1.17522    0.006
 6268.00    1.46363   1.19813    0.006
 6269.00    1.61517   1.21432    0.006
 6270.00    1.67180   1.22573    0.006
 6271.00    1.71392   1.24225    0.006
 6272.00    1.66561   1.24491    0.006
 6273.00    1.60711   1.22991    0.006
 6274.00    1.59568   1.22515    0.006
 6275.00    1.58779   1.23629    0.006
 6276.00    1.53620   1.24077    0.006
 6277.00    1.48286   1.23351    0.006
 6278.00    1.53581   1.22738    0.006
 6279.00    1.58664   1.22994    0.006
 6280.00    1.52023   1.23977    0.000
 6281.00    1.45488   1.24759    0.000
 6282.00    1.40765   1.24701    0.000
 6283.00    1.37162   1.24490    0.000
 6284.00    1.45353   1.24552    0.000
 6285.00    1.53562   1.24540    0.000
 6286.00    1.61899   1.24234    0.000
 6287.00    1.68532   1.23267    0.000
 6288.00    1.65471   1.21672    0.000
 6289.00    1.60527   1.21089    0.000
 6290.00    1.47057   1.21954    0.000
 6291.00    1.39082   1.23118    0.000
 6292.00    1.51506   1.23937    0.000
 6293.00    1.62611   1.23948    0.000
 6294.00    1.69616   1.24176    0.000
 6295.00    1.72780   1.25316    0.000
 6296.00    1.65812   1.26509    0.000
 6297.00    1.59463   1.26998    0.000
 6298.00    1.54515   1.26315    0.000
 6299.00    1.53089   1.25138    0.000
 6300.00    1.58569   1.24480    0.000
 6301.00    1.63256   1.24451    0.000
 6302.00    1.66585   1.24976    0.000
 6303.00    1.67422   1.25095    0.000
 6304.00    1.64526   1.23742    0.000
 6305.00    1.62905   1.22075    0.000
 6306.00    1.62961   1.21918    0.000
 6307.00    1.64912   1.22986    0.000
 6308.00    1.69060   1.23244    0.000
 6309.00    1.69392   1.21917    0.000
 6310.00    1.65822   1.20796    0.000
 6311.00    1.57385   1.21667    0.000
 6312.00    1.44561   1.23412    0.000
 6313.00    1.38793   1.24157    0.000
 6314.00    1.38633   1.24369    0.000
 6315.00    1.40017   1.25333    0.000
 6316.00    1.42479   1.26258    0.000
 6317.00    1.46421   1.26054    0.000
 6318.00    1.51270   1.24970    0.000
 6319.00    1.55880   1.23938    0.000
 6320.00    1.60360   1.23678    0.000
 6321.00    1.59941   1.24164    0.006
 6322.00    1.57245   1.23757    0.006
 6323.00    1.55257   1.22202    0.006
 6324.00    1.53553   1.21855    0.006
 6325.00    1.51471   1.22296    0.006
 6326.00    1.49260   1.21425    0.006
 6327.00    1.49773   1.20962    0.006
 6328.00    1.51067   1.22383    0.006
 6329.00    1.54909   1.23879    0.006
 6330.00    1.59356   1.24167    0.005
 6331.00    1.58340   1.24401    0.005
 6332.00    1.56279   1.25537    0.005
 6333.00    1.50276   1.26432    0.005
 6334.00    1.43689   1.26491    0.005
 6335.00    1.35855   1.26111    0.005
 6336.00    1.27887   1.26139    0.005
 6337.00    1.25765   1.26487    0.005
 6338.00    1.24060   1.26058    0.005
 6339.00    1.28884   1.25721    0.005
 6340.00    1.33946   1.26561    0.005
 6341.00    1.38721   1.27551    0.005
 6342.00    1.43463   1.26910    0.006
 6343.00    1.47088   1.24126    0.006
 6344.00    1.50573   1.21568    0.006
 6345.00    1.51818   1.21709    0.006
 6346.00    1.53015   1.23528    0.006
 6347.00    1.53721   1.24798    0.006
 6348.00    1.54028   1.25760    0.006
 6349.00    1.51455   1.26819    0.006
 6350.00    1.49770   1.26818    0.006
 6351.00    1.53004   1.25418    0.006
 6352.00    1.55434   1.23711    0.006
 6353.00    1.54315   1.23318    0.006
 6354.00    1.53624   1.23952    0.006
 6355.00    1.54488   1.24626    0.005
 6356.00    1.55372   1.25443    0.005
 6357.00    1.56315   1.26473    0.005
 6358.00    1.55923   1.27091    0.005
 6359.00    1.52071   1.27128    0.005
 6360.00    1.46436   1.26981    0.006
 6361.00    1.36832   1.26449    0.005
 6362.00    1.33364   1.25083    0.005
 6363.00    1.41739   1.23741    0.006
 6364.00    1.50251   1.23843    0.006
 6365.00    1.58994   1.24381    0.006
 6366.00    1.62900   1.23274    0.006
 6367.00    1.59670   1.21664    0.006
 6368.00    1.54962   1.21477    0.006
 6369.00    1.48336   1.21820    0.006
 6370.00    1.46623   1.21413    0.006
 6371.00    1.50526   1.21116    0.006
 6372.00    1.57863   1.21760    0.006
 6373.00    1.68662   1.22875    0.006
 6374.00    1.75429   1.23868    0.006
 6375.00    1.78610   1.24799    0.006
 6376.00    1.76044   1.25788    0.006
 6377.00    1.68974   1.26125    0.006
 6378.00    1.65107   1.25576    0.006
 6379.00    1.63447   1.25286    0.006
 6380.00    1.61200   1.26099    0.006
 6381.00    1.58598   1.27366    0.005
 6382.00    1.57559   1.27942    0.005
 6383.00    1.57343   1.27781    0.005
 6384.00    1.59249   1.27637    0.005
 6385.00    1.62126   1.27492    0.005
 6386.00    1.63533   1.26618    0.005
 6387.00    1.64362   1.25460    0.005
 6388.00    1.64482   1.24907    0.005
 6389.00    1.64364   1.24913    0.005
 6390.00    1.59830   1.25537    0.005
 6391.00    1.54054   1.26325    0.005
 6392.00    1.47186   1.26319    0.006
 6393.00    1.40065   1.25902    0.006
 6394.00    1.38885   1.26130    0.006
 6395.00    1.38812   1.26748    0.006
 6396.00    1.41623   1.26950    0.006
 6397.00    1.44848   1.26826    0.006
 6398.00    1.48851   1.26764    0.006
 6399.00    1.52934   1.26570    0.006
 6400.00    1.52379   1.25294    0.006
 6401.00    1.51512   1.22711    0.006
 6402.00    1.56173   1.21347    0.006
 6403.00    1.61014   1.23158    0.006
 6404.00    1.66655   1.26096    0.006
 6405.00    1.72076   1.27740    0.006
 6406.00    1.70643   1.27597    0.006
 6407.00    1.69001   1.25173    0.005
 6408.00    1.64230   1.21550    0.005
 6409.00    1.59628   1.21030    0.005
 6410.00    1.56660   1.24294    0.005
 6411.00    1.53808   1.27238    0.005
 6412.00    1.51762   1.28164    0.005
 6413.00    1.49903   1.27905    0.005
 6414.00    1.49045   1.26934    0.005
 6415.00    1.49121   1.25281    0.005
 6416.00    1.53229   1.23790    0.006
 6417.00    1.57203   1.24334    0.006
 6418.00    1.60705   1.25923    0.006
 6419.00    1.61328   1.25476    0.006
 6420.00    1.53342   1.24023    0.006
 6421.00    1.46747   1.24238    0.006
 6422.00    1.43689   1.25288    0.006
 6423.00    1.43553   1.25816    0.006
 6424.00    1.49820   1.26178    0.006
 6425.00    1.55991   1.26436    0.006
 6426.00    1.61981   1.26349    0.006
 6427.00    1.67013   1.25602    0.006
 6428.00    1.70458   1.23783    0.006
 6429.00    1.70774   1.22133    0.006
 6430.00    1.66540   1.22851    0.006
 6431.00    1.65149   1.25763    0.006
 6432.00    1.67391   1.27919    0.006
 6433.00    1.68012   1.28088    0.006
 6434.00    1.66808   1.27921    0.006
 6435.00    1.62217   1.28307    0.005
 6436.00    1.54262   1.28594    0.005
 6437.00    1.47149   1.27788    0.005
 6438.00    1.40775   1.25318    0.006
 6439.00    1.42681   1.22628    0.006
 6440.00    1.50982   1.22398    0.006
 6441.00    1.57864   1.24410    0.006
 6442.00    1.63781   1.26448    0.006
 6443.00    1.63647   1.27633    0.006
 6444.00    1.59915   1.28124    0.006
 6445.00    1.54972   1.27744    0.006
 6446.00    1.49403   1.25690    0.006
 6447.00    1.56985   1.23024    0.006
 6448.00    1.70483   1.23166    0.006
 6449.00    1.73143   1.26299    0.006
 6450.00    1.71612   1.28819    0.006
 6451.00    1.63430   1.29486    0.006
 6452.00    1.53062   1.29446    0.006
 6453.00    1.47078   1.29347    0.006
 6454.00    1.42305   1.29401    0.006
 6455.00    1.40469   1.29399    0.006
 6456.00    1.39301   1.28230    0.006
 6457.00    1.37613   1.24683    0.005
 6458.00    1.35831   1.20518    0.005
 6459.00    1.37804   1.20105    0.005
 6460.00    1.40299   1.23512    0.005
 6461.00    1.45169   1.26728    0.005
 6462.00    1.50275   1.27767    0.006
 6463.00    1.53275   1.26398    0.006
 6464.00    1.56142   1.24233    0.005
 6465.00    1.52874   1.24312    0.006
 6466.00    1.49433   1.26700    0.006
 6467.00    1.46911   1.28963    0.006
 6468.00    1.44595   1.29793    0.006
 6469.00    1.48039   1.28631    0.006
 6470.00    1.51133   1.24967    0.006
 6471.00    1.49294   1.21398    0.006
 6472.00    1.48159   1.22081    0.006
 6473.00    1.53552   1.25508    0.006
 6474.00    1.57961   1.27740    0.006
 6475.00    1.55711   1.28483    0.006
 6476.00    1.54651   1.28535    0.006
 6477.00    1.59833   1.28031    0.006
 6478.00    1.63924   1.27198    0.006
 6479.00    1.63414   1.26272    0.006
 6480.00    1.61603   1.25686    0.006
 6481.00    1.55260   1.26237    0.006
 6482.00    1.49770   1.26882    0.005
 6483.00    1.46789   1.26221    0.005
 6484.00    1.45656   1.25629    0.005
 6485.00    1.49147   1.26436    0.005
 6486.00    1.51732   1.27479    0.005
 6487.00    1.52367   1.27704    0.005
 6488.00    1.51882   1.27372    0.005
 6489.00    1.49304   1.26041    0.005
 6490.00    1.49532   1.23627    0.005
 6491.00    1.54345   1.22159    0.006
 6492.00    1.56672   1.23055    0.006
 6493.00    1.55437   1.24969    0.006
 6494.00    1.50955   1.26261    0.006
 6495.00    1.42381   1.26805    0.006
 6496.00    1.35484   1.27022    0.006
 6497.00    1.30449   1.26806    0.006
 6498.00    1.29470   1.25858    0.006
 6499.00    1.32467   1.24523    0.006
 6500.00    1.37031   1.23482    0.006
 6501.00    1.42949   1.21850    0.006
 6502.00    1.46900   1.18083    0.006
 6503.00    1.49354   1.14061    0.005
 6504.00    1.51419   1.12795    0.005
 6505.00    1.53224   1.14105    0.005
 6506.00    1.57662   1.16581    0.005
 6507.00    1.63642   1.18681    0.005
 6508.00    1.66286   1.20092    0.005
 6509.00    1.67226   1.22101    0.005
 6510.00    1.62179   1.24103    0.005
 6511.00    1.54483   1.25184    0.005
 6512.00    1.55743   1.25662    0.006
 6513.00    1.60407   1.25924    0.006
 6514.00    1.63598   1.26317    0.006
 6515.00    1.66313   1.26428    0.006
 6516.00    1.64336   1.25835    0.006
 6517.00    1.61090   1.25209    0.006
 6518.00    1.56350   1.25489    0.006
 6519.00    1.51279   1.26342    0.006
 6520.00    1.54762   1.26731    0.006
 6521.00    1.59754   1.26588    0.006
 6522.00    1.65658   1.26185    0.006
 6523.00    1.71684   1.25258    0.006
 6524.00    1.72112   1.23979    0.006
 6525.00    1.72005   1.23258    0.006
 6526.00    1.72346   1.23073    0.006
 6527.00    1.72713   1.23039    0.006
 6528.00    1.70131   1.24005    0.000
 6529.00    1.67482   1.25589    0.000
 6530.00    1.65955   1.26370    0.000
 6531.00    1.64303   1.26293    0.000
 6532.00    1.59499   1.26113    0.000
 6533.00    1.54816   1.26028    0.000
 6534.00    1.51735   1.25267    0.000
 6535.00    1.49321   1.23798    0.000
 6536.00    1.52844   1.23313    0.000
 6537.00    1.56708   1.24451    0.000
 6538.00    1.62808   1.25746    0.000
 6539.00    1.69010   1.25968    0.000
 6540.00    1.75729   1.25205    0.000
 6541.00    1.82222   1.24406    0.000
 6542.00    1.87782   1.24487    0.000
 6543.00    1.91791   1.25527    0.000
 6544.00    1.90496   1.26548    0.000
 6545.00    1.90110   1.26670    0.000
 6546.00    1.92341   1.26247    0.000
 6547.00    1.95634   1.26398    0.000
 6548.00    2.01542   1.27152    0.000
 6549.00    2.05416   1.27413    0.000
 6550.00    2.04982   1.26791    0.000
 6551.00    2.03160   1.25820    0.000
 6552.00    1.98784   1.24927    0.000
 6553.00    1.93811   1.23952    0.000
 6554.00    1.87878   1.22286    0.000
 6555.00    1.79388   1.21138    0.000
 6556.00    1.67288   1.22178    0.000
 6557.00    1.58769   1.23807    0.000
 6558.00    1.54699   1.24154    0.000
 6559.00    1.62680   1.23509    0.000
 6560.00    1.83860   1.22738    0.000
 6561.00    2.15490   1.22194    0.000
 6562.00    2.57216   1.21289    0.000
 6563.00    2.99567   1.19569    0.000
 6564.00    3.42452   1.17930    0.000
 6565.00    3.59817   1.17225    0.000
 6566.00    3.58035   1.16579    0.000
 6567.00    3.31016   1.14511    0.000
 6568.00    2.87361   1.10965    0.000
 6569.00    2.49263   1.05335    0.000
 6570.00    2.14373   0.94936    0.000
 6571.00    1.93758   0.82730    0.000
 6572.00    1.80320   0.81312    0.000
 6573.00    1.76036   0.93947    0.000
 6574.00    1.75735   1.07563    0.000
 6575.00    1.74682   1.14990    0.000
 6576.00    1.73347   1.18224    0.000
 6577.00    1.70964   1.19002    0.000
 6578.00    1.68249   1.19036    0.000
 6579.00    1.71305   1.20005    0.000
 6580.00    1.75887   1.20764    0.000
 6581.00    1.86214   1.20058    0.000
 6582.00    1.97783   1.19033    0.000
 6583.00    2.17650   1.18973    0.000
 6584.00    2.38940   1.20338    0.000
 6585.00    2.51854   1.22672    0.000
 6586.00    2.63678   1.24379    0.000
 6587.00    2.54199   1.24739    0.000
 6588.00    2.42774   1.24217    0.000
 6589.00    2.20839   1.23286    0.000
 6590.00    1.98324   1.22889    0.000
 6591.00    1.86069   1.23686    0.000
 6592.00    1.74139   1.24662    0.000
 6593.00    1.72207   1.24823    0.000
 6594.00    1.70267   1.24410    0.000
 6595.00    1.68147   1.24081    0.000
 6596.00    1.67070   1.24841    0.000
 6597.00    1.79218   1.25939    0.000
 6598.00    1.90014   1.26298    0.000
 6599.00    1.89217   1.25836    0.000
 6600.00    1.88285   1.23749    0.000
 6601.00    1.86495   1.20058    0.000
 6602.00    1.84882   1.17917    0.000
 6603.00    1.84158   1.19774    0.000
 6604.00    1.82638   1.23119    0.000
 6605.00    1.77901   1.24593    0.000
 6606.00    1.74872   1.24065    0.000
 6607.00    1.77561   1.23260    0.000
 6608.00    1.80188   1.23673    0.000
 6609.00    1.82641   1.25216    0.006
 6610.00    1.83252   1.26326    0.006
 6611.00    1.79408   1.26259    0.006
 6612.00    1.77140   1.25293    0.006
 6613.00    1.78162   1.24015    0.006
 6614.00    1.78789   1.23359    0.006
 6615.00    1.78699   1.23340    0.006
 6616.00    1.77370   1.22985    0.006
 6617.00    1.74074   1.21929    0.006
 6618.00    1.74368   1.21562    0.006
 6619.00    1.79656   1.23332    0.006
 6620.00    1.79554   1.25549    0.006
 6621.00    1.72849   1.25667    0.006
 6622.00    1.71490   1.24469    0.006
 6623.00    1.75903   1.24334    0.006
 6624.00    1.78753   1.25554    0.006
 6625.00    1.80115   1.26307    0.005
 6626.00    1.75969   1.26221    0.005
 6627.00    1.67197   1.26093    0.005
 6628.00    1.64480   1.26324    0.005
 6629.00    1.66241   1.26668    0.005
 6630.00    1.71402   1.26707    0.006
 6631.00    1.78769   1.26150    0.006
 6632.00    1.75330   1.24891    0.006
 6633.00    1.65749   1.23406    0.006
 6634.00    1.63362   1.23035    0.006
 6635.00    1.64535   1.23983    0.006
 6636.00    1.63508   1.24756    0.006
 6637.00    1.61539   1.24895    0.006
 6638.00    1.59283   1.24775    0.006
 6639.00    1.56922   1.24499    0.006
 6640.00    1.57057   1.24122    0.006
 6641.00    1.57968   1.23077    0.006
 6642.00    1.57751   1.21590    0.005
 6643.00    1.57243   1.21268    0.005
 6644.00    1.62239   1.22750    0.005
 6645.00    1.68397   1.24410    0.005
 6646.00    1.69704   1.25255    0.005
 6647.00    1.70203   1.25180    0.005
 6648.00    1.64235   1.24700    0.005
 6649.00    1.57457   1.24762    0.005
 6650.00    1.63819   1.25250    0.006
 6651.00    1.71327   1.24390    0.006
 6652.00    1.75041   1.22321    0.006
 6653.00    1.78561   1.21926    0.006
 6654.00    1.76189   1.23537    0.006
 6655.00    1.73576   1.24562    0.006
 6656.00    1.61302   1.24536    0.006
 6657.00    1.49704   1.24608    0.006
 6658.00    1.52362   1.24972    0.012
 6659.00    1.55999   1.24815   -1.000
 6660.00    1.71432   1.24271   -1.000
 6661.00    1.84490   1.23937   -1.000
 6662.00    1.77930   1.24050   -1.000
 6663.00    1.72308   1.24303   -1.000
 6664.00    1.72486   1.24450   -1.000
 6665.00    1.70772   1.24328   -1.000
 6666.00    1.59871   1.24328   -1.000
 6667.00    1.50489   1.24527   -1.000
 6668.00    1.47106   1.24495   -1.000
 6669.00    1.45451   1.23981    0.047
 6670.00    1.49473   1.23273    0.009
 6671.00    1.53480   1.21977    0.006
 6672.00    1.57447   1.20511    0.006
 6673.00    1.62156   1.20966    0.005
 6674.00    1.68630   1.22502    0.006
 6675.00    1.74247   1.22909    0.006
 6676.00    1.78105   1.22702    0.006
 6677.00    1.77488   1.23147    0.006
 6678.00    1.68875   1.24211    0.006
 6679.00    1.64192   1.25011    0.006
 6680.00    1.65652   1.25193    0.006
 6681.00    1.65503   1.25012    0.006
 6682.00    1.63147   1.24919    0.006
 6683.00    1.62780   1.24933    0.006
 6684.00    1.64816   1.24766    0.006
 6685.00    1.67411   1.23196    0.006
 6686.00    1.70600   1.19699    0.006
 6687.00    1.72106   1.17356    0.006
 6688.00    1.72033   1.18838    0.006
 6689.00    1.70760   1.21154    0.006
 6690.00    1.68494   1.21658    0.006
 6691.00    1.62855   1.21740    0.006
 6692.00    1.54757   1.22278    0.006
 6693.00    1.53365   1.22957    0.006
 6694.00    1.56263   1.23386    0.006
 6695.00    1.58574   1.23582    0.006
 6696.00    1.60554   1.23470    0.000
 6697.00    1.60551   1.23471    0.000
 6698.00    1.59582   1.23856    0.000
 6699.00    1.57860   1.24145    0.000
 6700.00    1.55823   1.24195    0.000
 6701.00    1.64605   1.24105    0.000
 6702.00    1.77285   1.24126    0.000
 6703.00    1.79499   1.23904    0.000
 6704.00    1.78527   1.22927    0.000
 6705.00    1.74818   1.21832    0.000
 6706.00    1.70416   1.21841    0.000
 6707.00    1.64482   1.22530    0.000
 6708.00    1.58233   1.23310    0.000
 6709.00    1.50964   1.24198    0.000
 6710.00    1.43530   1.24555    0.000
 6711.00    1.43104   1.24042    0.000
 6712.00    1.43527   1.23016    0.000
 6713.00    1.50136   1.22252    0.000
 6714.00    1.57259   1.22627    0.000
 6715.00    1.73632   1.23574    0.000
 6716.00    1.90443   1.24159    0.000
 6717.00    1.94795   1.24163    0.000
 6718.00    1.98839   1.23849    0.000
 6719.00    1.95478   1.23265    0.000
 6720.00    1.91740   1.23278    0.000
 6721.00    1.80674   1.23301    0.000
 6722.00    1.69853   1.22656    0.000
 6723.00    1.61847   1.21873    0.000
 6724.00    1.54497   1.20898    0.000
 6725.00    1.52368   1.19520    0.000
 6726.00    1.50410   1.18057    0.000
 6727.00    1.49472   1.18434    0.000
 6728.00    1.50264   1.20867    0.000
 6729.00    1.59259   1.22494    0.000
 6730.00    1.68618   1.22527    0.000
 6731.00    1.79381   1.22339    0.000
 6732.00    1.88016   1.22821    0.000
 6733.00    1.89801   1.23104    0.000
 6734.00    1.91132   1.22565    0.000
 6735.00    1.91225   1.21796    0.000
 6736.00    1.87384   1.21932    0.000
 6737.00    1.74353   1.22649    0.000
 6738.00    1.62908   1.23104    0.000
 6739.00    1.54672   1.23291    0.000
 6740.00    1.50732   1.23120    0.000
 6741.00    1.54351   1.22743    0.000
 6742.00    1.56144   1.22566    0.000
 6743.00    1.55126   1.22872    0.000
 6744.00    1.56814   1.23347    0.000
 6745.00    1.62160   1.23637    0.000
 6746.00    1.67002   1.23190    0.000
 6747.00    1.71243   1.22064    0.000
 6748.00    1.71117   1.21360    0.000
 6749.00    1.66406   1.21696    0.000
 6750.00    1.60365   1.22320    0.000
 6751.00    1.53092   1.21755    0.000
 6752.00    1.47728   1.20682    0.000
 6753.00    1.43921   1.21085    0.006
 6754.00    1.40548   1.21932    0.006
 6755.00    1.37486   1.22164    0.006
 6756.00    1.31816   1.22102    0.006
 6757.00    1.24501   1.21595    0.006
 6758.00    1.22879   1.20777    0.006
 6759.00    1.24393   1.20369    0.006
 6760.00    1.42965   1.21030    0.007
 6761.00    1.69711   1.21442    0.007
 6762.00    1.88871   1.21151    0.007
 6763.00    2.04892   1.21812    0.007
 6764.00    1.96843   1.22566    0.007
 6765.00    1.80283   1.22980    0.007
 6766.00    1.74964   1.23637    0.007
 6767.00    1.73000   1.24178    0.007
 6768.00    1.82472   1.24354    0.007
 6769.00    1.94777   1.24357    0.007
 6770.00    1.94020   1.24188    0.007
 6771.00    1.90641   1.23950    0.007
 6772.00    1.81165   1.23976    0.006
 6773.00    1.70731   1.24093    0.006
 6774.00    1.68502   1.23740    0.006
 6775.00    1.67230   1.22572    0.006
 6776.00    1.65091   1.21073    0.006
 6777.00    1.62883   1.21081    0.006
 6778.00    1.62464   1.22333    0.006
 6779.00    1.62122   1.22597    0.006
 6780.00    1.70628   1.21888    0.006
 6781.00    1.78913   1.22041    0.006
 6782.00    1.72613   1.23083    0.006
 6783.00    1.66731   1.24069    0.006
 6784.00    1.68420   1.24830    0.006
 6785.00    1.69231   1.25180    0.006
 6786.00    1.60433   1.25018    0.006
 6787.00    1.52375   1.24959    0.006
 6788.00    1.50019   1.25219    0.006
 6789.00    1.49039   1.25134    0.006
 6790.00    1.56088   1.24437    0.007
 6791.00    1.60730   1.22990    0.007
 6792.00    1.54239   1.21403    0.006
 6793.00    1.52640   1.20558    0.006
 6794.00    1.69534   1.20674    0.006
 6795.00    1.81305   1.21188    0.006
 6796.00    1.76898   1.22005    0.006
 6797.00    1.74680   1.22994    0.006
 6798.00    1.78321   1.23096    0.006
 6799.00    1.76439   1.22848    0.006
 6800.00    1.61866   1.23135    0.006
 6801.00    1.52621   1.23113    0.006
 6802.00    1.53968   1.22330    0.006
 6803.00    1.56011   1.21700    0.006
 6804.00    1.59259   1.21954    0.006
 6805.00    1.59179   1.22420    0.006
 6806.00    1.54050   1.23046    0.006
 6807.00    1.51511   1.23367    0.006
 6808.00    1.52426   1.23499    0.006
 6809.00    1.61122   1.23793    0.006
 6810.00    1.78952   1.24114    0.006
 6811.00    1.82610   1.24224    0.007
 6812.00    1.71601   1.23902    0.007
 6813.00    1.64949   1.23414    0.007
 6814.00    1.62276   1.23566    0.007
 6815.00    1.64917   1.23439    0.007
 6816.00    1.71836   1.23054    0.007
 6817.00    1.70295   1.23502    0.006
 6818.00    1.62766   1.23679    0.006
 6819.00    1.65730   1.23140    0.006
 6820.00    1.75211   1.23309    0.006
 6821.00    1.79571   1.23762    0.006
 6822.00    1.81150   1.23806    0.006
 6823.00    1.81648   1.23052    0.006
 6824.00    1.81635   1.22233    0.006
 6825.00    1.79655   1.22839    0.006
 6826.00    1.76874   1.24105    0.006
 6827.00    1.66584   1.24385    0.006
 6828.00    1.53686   1.23650    0.006
 6829.00    1.42546   1.22870    0.006
 6830.00    1.31920   1.23199    0.006
 6831.00    1.40409   1.24172    0.006
 6832.00    1.53528   1.24779    0.007
 6833.00    1.63641   1.24971    0.007
 6834.00    1.73167   1.25125    0.007
 6835.00    1.67863   1.24921    0.007
 6836.00    1.60299   1.23766    0.007
 6837.00    1.57645   1.22398    0.007
 6838.00    1.55543   1.22467    0.007
 6839.00    1.55614   1.23750    0.007
 6840.00    1.55846   1.24639    0.007
 6841.00    1.58685   1.24430    0.007
 6842.00    1.61628   1.23998    0.006
 6843.00    1.64573   1.24417    0.006
 6844.00    1.67530   1.24994    0.006
 6845.00    1.70982   1.24786    0.006
 6846.00    1.73760   1.24267    0.006
 6847.00    1.65153   1.23533    0.006
 6848.00    1.57409   1.22489    0.006
 6849.00    1.58705   1.21381    0.006
 6850.00    1.60371   1.20241    0.006
 6851.00    1.64800   1.19849    0.006
 6852.00    1.69604   1.20786    0.006
 6853.00    1.76534   1.22417    0.006
 6854.00    1.80264   1.23891    0.006
 6855.00    1.69551   1.24270    0.006
 6856.00    1.61411   1.24177    0.006
 6857.00    1.62798   1.24298    0.006
 6858.00    1.63568   1.24227    0.007
 6859.00    1.62430   1.23859    0.017
 6860.00    1.63923   1.23749   -1.000
 6861.00    1.72341   1.24039   -1.000
 6862.00    1.79498   1.24065   -1.000
 6863.00    1.83805   1.22769   -1.000
 6864.00    1.79938   1.20967   -1.000
 6865.00    1.60071   1.20895   -1.000
 6866.00    1.39632   1.21795   -1.000
 6867.00    1.18220   1.22258   -1.000
 6868.00    1.10541   1.22795   -1.000
 6869.00    1.23391   1.22539   -1.000
 6870.00    1.36276   1.21191   -1.000
 6871.00    1.49206   1.20852   -1.000
 6872.00    1.57134   1.22653   -1.000
 6873.00    1.59273   1.24677   -1.000
 6874.00    1.62328   1.25024    0.026
 6875.00    1.66319   1.24174    0.008
 6876.00    1.72298   1.22863    0.006
 6877.00    1.80067   1.21798    0.006
 6878.00    1.81037   1.21977    0.006
 6879.00    1.76614   1.23032    0.006
 6880.00    1.76013   1.23208    0.006
 6881.00    1.78079   1.22402    0.006
 6882.00    1.80846   1.22389    0.006
 6883.00    1.84041   1.23168    0.006
 6884.00    1.77865   1.23407    0.006
 6885.00    1.66681   1.23599    0.006
 6886.00    1.63614   1.24310    0.006
 6887.00    1.64313   1.25015    0.006
 6888.00    1.69399   1.25172    0.006
 6889.00    1.76237   1.24818    0.006
 6890.00    1.81549   1.23604    0.006
 6891.00    1.86341   1.22319    0.006
 6892.00    1.78790   1.21970    0.006
 6893.00    1.67701   1.22904    0.006
 6894.00    1.60143   1.23435    0.006
 6895.00    1.53422   1.23126    0.006
 6896.00    1.65277   1.23563    0.006
 6897.00    1.80672   1.24234    0.006
 6898.00    1.80785   1.24109    0.007
 6899.00    1.78641   1.23832    0.007
 6900.00    1.72933   1.24047    0.007
 6901.00    1.66841   1.24294    0.007
 6902.00    1.49781   1.24366    0.006
 6903.00    1.31946   1.24572    0.006
 6904.00    1.49345   1.24522    0.006
 6905.00    1.68009   1.24232    0.006
 6906.00    1.70976   1.24490    0.006
 6907.00    1.73648   1.25067    0.006
 6908.00    1.67885   1.25074    0.006
 6909.00    1.62874   1.24326    0.006
 6910.00    1.69770   1.24274    0.006
 6911.00    1.74940   1.25311    0.006
 6912.00    1.62824   1.26050    0.006
 6913.00    1.52071   1.25857    0.006
 6914.00    1.51118   1.25377    0.006
 6915.00    1.47267   1.25679    0.006
 6916.00    1.27440   1.26515    0.006
 6917.00    1.17069   1.26942    0.006
 6918.00    1.48392   1.26835    0.007
 6919.00    1.71419   1.26478    0.007
 6920.00    1.64378   1.25916    0.007
 6921.00    1.60222   1.25454    0.007
 6922.00    1.64835   1.24721    0.007
 6923.00    1.67862   1.23521    0.007
 6924.00    1.66791   1.23365    0.007
 6925.00    1.64444   1.24063    0.006
 6926.00    1.59264   1.24283    0.006
 6927.00    1.58376   1.24623    0.006
 6928.00    1.65761   1.25023    0.006
 6929.00    1.69515   1.25571    0.006
 6930.00    1.67167   1.26296    0.006
 6931.00    1.70010   1.26606    0.006
 6932.00    1.80498   1.25845    0.006
 6933.00    1.80455   1.24058    0.006
 6934.00    1.66776   1.22797    0.006
 6935.00    1.60949   1.23078    0.006
 6936.00    1.64079   1.24494    0.007
 6937.00    1.67072   1.25664    0.007
 6938.00    1.69927   1.26029    0.007
 6939.00    1.68662   1.25958    0.007
 6940.00    1.63739   1.25744    0.007
 6941.00    1.57255   1.25150    0.007
 6942.00    1.49550   1.24180    0.007
 6943.00    1.54533   1.24189    0.007
 6944.00    1.68241   1.25187    0.007
 6945.00    1.70398   1.25678    0.007
 6946.00    1.65594   1.25557    0.007
 6947.00    1.66411   1.25486    0.007
 6948.00    1.70187   1.25694    0.006
 6949.00    1.72216   1.26147    0.006
 6950.00    1.73449   1.26579    0.006
 6951.00    1.71932   1.26443    0.006
 6952.00    1.69336   1.25658    0.006
 6953.00    1.72553   1.24125    0.006
 6954.00    1.77715   1.22734    0.006
 6955.00    1.72785   1.23236    0.006
 6956.00    1.65019   1.25017    0.006
 6957.00    1.64813   1.26035    0.007
 6958.00    1.66356   1.26436    0.007
 6959.00    1.66225   1.26176    0.007
 6960.00    1.65785   1.25081    0.007
 6961.00    1.62621   1.24308    0.007
 6962.00    1.59067   1.24194    0.007
 6963.00    1.61924   1.24159    0.007
 6964.00    1.65445   1.24643    0.007
 6965.00    1.59108   1.25623    0.007
 6966.00    1.52115   1.26337    0.007
 6967.00    1.43983   1.26463    0.007
 6968.00    1.35819   1.26461    0.007
 6969.00    1.41281   1.26494    0.007
 6970.00    1.46986   1.26699    0.007
 6971.00    1.60159   1.26988    0.007
 6972.00    1.72430   1.27272    0.007
 6973.00    1.71290   1.27436    0.007
 6974.00    1.70316   1.26974    0.006
 6975.00    1.70943   1.26330    0.007
 6976.00    1.71258   1.26708    0.007
 6977.00    1.69395   1.27711    0.007
 6978.00    1.66307   1.28044    0.007
 6979.00    1.56640   1.27461    0.007
 6980.00    1.50046   1.26642    0.007
 6981.00    1.56693   1.26594    0.007
 6982.00    1.60865   1.27324    0.007
 6983.00    1.56250   1.27308    0.007
 6984.00    1.55126   1.26414    0.007
 6985.00    1.64415   1.25241    0.007
 6986.00    1.71910   1.23438    0.007
 6987.00    1.74851   1.20606    0.007
 6988.00    1.76585   1.19220    0.007
 6989.00    1.75683   1.21383    0.007
 6990.00    1.72901   1.24616    0.007
 6991.00    1.66550   1.26710    0.007
 6992.00    1.61115   1.27667    0.007
 6993.00    1.57197   1.27877    0.007
 6994.00    1.57256   1.27812    0.007
 6995.00    1.63087   1.27748    0.007
 6996.00    1.66568   1.27493    0.007
 6997.00    1.67047   1.26679    0.007
 6998.00    1.68446   1.25761    0.007
 6999.00    1.70879   1.25747    0.007
 7000.00    1.71616   1.26477    0.007
 7001.00    1.70672   1.27262    0.007
 7002.00    1.63982   1.27402    0.007
 7003.00    1.52267   1.27017    0.007
 7004.00    1.48587   1.26882    0.007
 7005.00    1.51100   1.27135    0.007
 7006.00    1.52985   1.27183    0.007
 7007.00    1.54446   1.26504    0.007
 7008.00    1.54384   1.24968    0.007
 7009.00    1.53418   1.24016    0.007
 7010.00    1.62492   1.24747    0.007
 7011.00    1.76766   1.26213    0.007
 7012.00    1.71294   1.26518    0.007
 7013.00    1.56958   1.25442    0.007
 7014.00    1.51494   1.24531    0.007
 7015.00    1.49454   1.24678    0.007
 7016.00    1.57412   1.25458    0.007
 7017.00    1.68651   1.26307    0.007
 7018.00    1.65923   1.27017    0.007
 7019.00    1.59352   1.27152    0.007
 7020.00    1.55268   1.26675    0.007
 7021.00    1.51746   1.26521    0.007
 7022.00    1.57860   1.27129    0.007
 7023.00    1.65715   1.27131    0.007
 7024.00    1.52313   1.25027    0.007
 7025.00    1.35967   1.21702    0.007
 7026.00    1.40589   1.21037    0.007
 7027.00    1.47294   1.24030    0.007
 7028.00    1.50787   1.27105    0.007
 7029.00    1.54080   1.28300    0.007
 7030.00    1.51744   1.28420    0.007
 7031.00    1.49293   1.27554    0.007
 7032.00    1.58487   1.25546    0.007
 7033.00    1.67415   1.23934    0.007
 7034.00    1.69052   1.24182    0.007
 7035.00    1.69958   1.25655    0.007
 7036.00    1.60596   1.26609    0.007
 7037.00    1.53397   1.26874    0.007
 7038.00    1.66135   1.27127    0.007
 7039.00    1.75796   1.27504    0.007
 7040.00    1.64712   1.27777    0.007
 7041.00    1.57137   1.27598    0.007
 7042.00    1.67906   1.27227    0.007
 7043.00    1.76729   1.26954    0.007
 7044.00    1.77361   1.27143    0.007
 7045.00    1.76286   1.27733    0.007
 7046.00    1.69273   1.27094    0.007
 7047.00    1.61132   1.24895    0.008
 7048.00    1.49691   1.24158    0.008
 7049.00    1.41552   1.26536    0.007
 7050.00    1.41654   1.29457   -2.000
 7051.00    1.45625   1.30943   -2.000
 7052.00    1.57919   1.31137   -2.000
 7053.00    1.73477   1.30335   -2.000
 7054.00    1.95130   1.29222   -2.000
 7055.00    2.02897   1.29035   -2.000
 7056.00    1.88014   1.29851   -2.000
 7057.00    1.78542   1.30818   -2.000
 7058.00    1.76809   1.31267   -2.000
 7059.00    1.82337   1.30973   -2.000
 7060.00    1.97002   1.29936   -2.000
 7061.00    1.96865   1.27898   -2.000
 7062.00    1.80317   1.25321   -2.000
 7063.00    1.74444   1.23348   -2.000
 7064.00    1.79013   1.22608   -2.000
 7065.00    1.72536   1.23356   -2.000
 7066.00    1.56532   1.24868   -2.000
 7067.00    1.57528   1.25620   -2.000
 7068.00    1.71439   1.24763   -2.000
 7069.00    1.77595   1.23134   -2.000
 7070.00    1.78572   1.22427   -2.000
 7071.00    1.71442   1.22847   -2.000
 7072.00    1.59570   1.23555   -2.000
 7073.00    1.69924   1.24231   -2.000
 7074.00    1.91608   1.24370   -2.000
 7075.00    1.87740   1.23351   -2.000
 7076.00    1.72589   1.22050   -2.000
 7077.00    1.69610   1.21081   -2.000
 7078.00    1.71246   1.21219   -2.000
 7079.00    1.70770   1.22921   -2.000
 7080.00    1.69615   1.24812   -2.000
 7081.00    1.64695   1.25664   -2.000
 7082.00    1.58761   1.25944   -2.000
 7083.00    1.62181   1.26091   -2.000
 7084.00    1.67667   1.25978   -2.000
 7085.00    1.63431   1.25764   -2.000
 7086.00    1.57487   1.25705   -2.000
 7087.00    1.56304   1.25941   -2.000
 7088.00    1.55760   1.26222   -2.000
 7089.00    1.39369   1.26600   -2.000
 7090.00    1.21471   1.26916   -2.000
 7091.00    1.49295   1.26467   -2.000
 7092.00    1.79801   1.24777   -2.000
 7093.00    1.54309   1.22272   -2.000
 7094.00    1.27695   1.20597   -2.000
 7095.00    1.36012   1.20846   -2.000
 7096.00    1.44689   1.21198   -2.000
 7097.00    1.62337   1.20352   -2.000
 7098.00    1.78284   1.19453   -2.000
 7099.00    1.71648   1.19081   -2.000
 7100.00    1.65157   1.19325   -2.000
 7101.00    1.59941   1.20009   -2.000
 7102.00    1.54509   1.20247   -2.000
 7103.00    1.47663   1.20197   -2.000
 7104.00    1.39814   1.20058   -2.000
 7105.00    1.26854   1.19927   -2.000
 7106.00    1.20357   1.20113   -2.000
 7107.00    1.40456   1.20755   -2.000
 7108.00    1.50711   1.21896   -2.000
 7109.00    1.27408   1.22632   -2.000
 7110.00    1.16661   1.22592   -2.000
 7111.00    1.41988   1.21959   -2.000
 7112.00    1.55529   1.21355   -2.000
 7113.00    1.40155   1.21659   -2.000
 7114.00    1.27817   1.22626   -2.000
 7115.00    1.21906   1.23068   -2.000
 7116.00    1.22111   1.22691   -2.000
 7117.00    1.33560   1.22526   -2.000
 7118.00    1.39711   1.22758   -2.000
 7119.00    1.37350   1.22350   -2.000
 7120.00    1.47772   1.21070   -2.000
 7121.00    1.76213   1.20374   -2.000
 7122.00    1.86408   1.21117   -2.000
 7123.00    1.73969   1.22247   -2.000
 7124.00    1.53139   1.22786   -2.000
 7125.00    1.23134   1.23144   -2.000
 7126.00    1.21118   1.23573   -2.000
 7127.00    1.46096   1.23718   -2.000
 7128.00    1.52241   1.23670   -2.000
 7129.00    1.42371   1.23477   -2.000
 7130.00    1.45868   1.23015   -2.000
 7131.00    1.59377   1.22221   -2.000
 7132.00    1.48554   1.22227   -2.000
 7133.00    1.21723   1.23106   -2.000
 7134.00    1.23628   1.22737   -2.000
 7135.00    1.42086   1.20905   -2.000
 7136.00    1.40427   1.19826   -2.000
 7137.00    1.28674   1.20207   -2.000
 7138.00    1.41929   1.20534   -2.000
 7139.00    1.66042   1.19510   -2.000
 7140.00    1.51143   1.18013   -2.000
 7141.00    1.21711   1.18025   -2.000
 7142.00    1.23022   1.19400   -2.000
 7143.00    1.34043   1.20880   -2.000
 7144.00    1.57279   1.21800   -2.000
 7145.00    1.83736   1.22114   -2.000
 7146.00    1.61693   1.22303   -2.000
 7147.00    1.29197   1.22216   -2.000
 7148.00    1.28863   1.21555   -2.000
 7149.00    1.34027   1.21296   -2.000
 7150.00    1.54406   1.21988   -2.000
 7151.00    1.76754   1.22605   -2.000
 7152.00    1.62392   1.22650   -2.000
 7153.00    1.44696   1.22561   -2.000
 7154.00    1.51080   1.22399   -2.000
 7155.00    1.58781   1.22210   -2.000
 7156.00    1.56709   1.21293   -2.000
 7157.00    1.54393   1.19339   -2.000
 7158.00    1.48543   1.18659   -2.000
 7159.00    1.41851   1.20176   -2.000
 7160.00    1.16042   1.21725   -2.000
 7161.00    0.91341   1.22667   -2.000
 7162.00    0.80581   1.23721   -2.000
 7163.00    0.75619   1.24135   -2.000
 7164.00    1.20129   1.23471   -2.000
 7165.00    1.62505   1.23226   -2.000
 7166.00    1.91356   1.24239   -2.000
 7167.00    2.06131   1.24845   -2.000
 7168.00    1.51014   1.23986   -2.000
 7169.00    1.04816   1.22887   -2.000
 7170.00    0.94517   1.22838   -2.000
 7171.00    0.94332   1.23572   -2.000
 7172.00    1.27941   1.23438   -2.000
 7173.00    1.56266   1.21361   -2.000
 7174.00    1.69683   1.19041   -2.000
 7175.00    1.70071   1.19271   -2.000
 7176.00    1.39032   1.21640   -2.000
 7177.00    1.21025   1.23604   -2.000
 7178.00    1.30157   1.24114   -2.000
 7179.00    1.30422   1.23899   -2.000
 7180.00    1.14635   1.24044   -2.000
 7181.00    1.08447   1.24743   -2.000
 7182.00    1.17454   1.25314   -2.000
 7183.00    1.24175   1.25276   -2.000
 7184.00    1.27719   1.24604   -2.000
 7185.00    1.32300   1.23570   -2.000
 7186.00    1.38148   1.23132   -2.000
 7187.00    1.34668   1.23770   -2.000
 7188.00    1.21134   1.24221   -2.000
 7189.00    1.15665   1.23044   -2.000
 7190.00    1.17864   1.20962   -2.000
 7191.00    1.19098   1.20481   -2.000
 7192.00    1.19523   1.22593   -2.000
 7193.00    1.19096   1.25129   -2.000
 7194.00    1.18039   1.25838   -2.000
 7195.00    1.29068   1.24522   -2.000
 7196.00    1.47931   1.21841   -2.000
 7197.00    1.43814   1.19638   -2.000
 7198.00    1.26660   1.19573   -2.000
 7199.00    1.24963   1.20969   -2.000
 7200.00    1.30901   1.22633   -2.000
 7201.00    1.02249   1.23430   -2.000
 7202.00    0.58827   1.23064   -2.000
 7203.00    0.53693   1.22938   -2.000
 7204.00    0.62567   1.23762   -2.000
 7205.00    1.07019   1.24293   -2.000
 7206.00    1.62492   1.23443   -2.000
 7207.00    1.56187   1.22667   -2.000
 7208.00    1.33938   1.23413   -2.000
 7209.00    0.70954   1.24462   -2.000
 7210.00   -0.00598   1.24166   -2.000
 7211.00    0.66370   1.22791   -2.000
 7212.00    1.56345   1.22649   -2.000
 7213.00    1.41447   1.24433   -2.000
 7214.00    1.13444   1.25793   -2.000
 7215.00    1.12960   1.24756   -2.000
 7216.00    1.14859   1.21564   -2.000
 7217.00    1.20516   1.19202   -2.000
 7218.00    1.26363   1.19775   -2.000
