###################################################################
## OUTPUT of StarlightChains_v04.for    [Cid@UFSC - 01/Apr/2007] ##
###################################################################

## Some input info
KUG0210-078._45_31.txt                   [arq_obs]
Base.CB07.vall.4m                        [arq_base]
Masks.EmLines.NEW.gm                     [arq_masks]
StCv04.C11.config                        [arq_config]
   66                                    [N_base]
    0                                    [N_YAV_components = # of components with extra extinction!]
    0                                    [i_FitPowerLaw (1/0 = Yes/No)]
-9.99                                    [alpha_PowerLaw]
CCM                                      [red_law_option]
 1.458241                                [q_norm = A(l_norm)/A(V)]

## (Re)Sampling Parameters
 3741.00                                 [l_ini (A)]
 7218.00                                 [l_fin (A)]
    1.00                                 [dl    (A)]     (OBS: dl_cushion =    50.00 A)

## Normalization info
 4020.00                                 [l_norm (A) - for base]
 4010.00                                 [llow_norm (A) - window for f_obs]
 4060.00                                 [lupp_norm (A) - window for f_obs]
9.619689E-18                             [fobs_norm (in input units)]

## S/N
 3691.00                                 [llow_SN (A) - window for S/N]
 7268.00                                 [lupp_SN (A) - window for S/N]
   2.763                                 [S/N in S/N window]
   3.653                                 [S/N in norm. window]
   0.009                                 [S/N_err in S/N window]
   0.012                                 [S/N_err in norm. window]
  1.0000                                 [fscale_chi2]

## etc...
    -2007859                             [idum_orig]
  2412                                   [NOl_eff]
  2335                                   [Nl_eff]
    77    NSIGMA                         [Ntot_cliped & clip_method]
  6264720                                [Nglobal_steps]
   7                                     [N_chains]
  44                                     [NEX0s_base = N_base in EX0s-fits]
 0   0   1       77   2.0   3.632E+03    [Clip-Bug, RC-Crash & Burn-In warning-flags, n_censored_weights, wei_nsig_threshold & wei_limit]
    76     72.731     71.333      1.398  [idt_all, wdt_TotTime, wdt_UsrTime & wdt_SysTime (sec)]

## Synthesis Results - Best model ##

 2.44363E-05                             [chi2/Nl_eff]
    35.17284                             [adev (%)]

   113.59666                             [sum-of-x (%)]
 3.30377E-18                             [Flux_tot (units of input spectrum!)]
 1.37827E-13                             [Mini_tot (???)]
 7.03402E-14                             [Mcor_tot (???)]

  78.00                                  [v0_min  (km/s)]
 150.00                                  [vd_min  (km/s)]
-0.8907                                  [AV_min  (mag)]
 0.0000                                  [YAV_min (mag)]

# j     x_j(%)      Mini_j(%)     Mcor_j(%)     age_j(yr)     Z_j      (L/M)_j    YAV?  Mstars   component_j        a/Fe...       SSP_chi2r SSP_adev(%)   SSP_AV   SSP_x(%)
  1      0.0000     0.0000E+00    0.0000E+00    1.000000E+06  0.00400  1.094E-02    0   1.0000   age020_m42            0.0000     2.5321E-05    36.3270   2.1774    95.9472
  2      0.0000     0.0000E+00    0.0000E+00    3.160000E+06  0.00400  4.007E-02    0   0.9999   age045_m42            0.0000     2.4873E-05    36.0501   1.4347   102.8878
  3     10.6388     8.8418E-03    1.6438E-02    5.010000E+06  0.00400  2.539E-02    0   0.9488   age055_m42            0.0000     2.5132E-05    36.3882   1.7731    99.8884
  4      0.0000     0.0000E+00    0.0000E+00    6.610000E+06  0.00400  2.620E-02    0   0.9220   age061_m42            0.0000     2.5097E-05    36.3105   1.3785   102.5601
  5      0.0000     0.0000E+00    0.0000E+00    1.000000E+07  0.00400  1.322E-02    0   0.8862   age070_m42            0.0000     2.5331E-05    37.4983   1.1679   102.8017
  6      0.0000     0.0000E+00    0.0000E+00    1.445000E+07  0.00400  7.883E-03    0   0.8571   age078_m42            0.0000     2.5315E-05    37.4183   1.4877   100.4215
  7      0.0000     0.0000E+00    0.0000E+00    2.512000E+07  0.00400  5.251E-03    0   0.8174   age090_m42            0.0000     2.5286E-05    37.6879   1.0473   103.1481
  8      0.0000     0.0000E+00    0.0000E+00    4.000000E+07  0.00400  3.649E-03    0   0.7851   age104_m42            0.0000     2.5166E-05    37.4147   0.8076   104.3882
  9      2.2921     1.5612E-02    2.3338E-02    5.500000E+07  0.00400  3.098E-03    0   0.7629   age110_m42            0.0000     2.5088E-05    36.8059   0.9254   105.3461
 10      0.0000     0.0000E+00    0.0000E+00    1.015200E+08  0.00400  2.228E-03    0   0.7207   age116_m42            0.0000     2.5233E-05    36.4876   0.9268   105.9758
 11      0.0000     0.0000E+00    0.0000E+00    2.861200E+08  0.00400  1.093E-03    0   0.6648   age125_m42            0.0000     2.5509E-05    36.7698   0.3799   108.3909
 12      0.0000     0.0000E+00    0.0000E+00    5.088000E+08  0.00400  6.597E-04    0   0.6365   age130_m42            0.0000     2.5533E-05    36.0260   0.3238   110.6596
 13      0.0000     0.0000E+00    0.0000E+00    1.434000E+09  0.00400  2.132E-04    0   0.5798   age139_m42            0.0000     2.5041E-05    34.6287  -0.6900   114.3879
 14      0.0000     0.0000E+00    0.0000E+00    4.250000E+09  0.00400  5.895E-05    0   0.5377   age158_m42            0.0000     2.5452E-05    34.8508  -1.0000   108.2169
 15     10.4367     6.2743E+00    6.4077E+00    7.500000E+09  0.00400  3.510E-05    0   0.5212   age171_m42            0.0000     2.6466E-05    36.9926  -1.0000   104.0487
 16      0.0000     0.0000E+00    0.0000E+00    1.300000E+10  0.00400  2.005E-05    0   0.5034   age193_m42            0.0000     2.7825E-05    39.3752  -1.0000   100.1394
 17      0.0000     0.0000E+00    0.0000E+00    1.800000E+10  0.00400  1.525E-05    0   0.4967   age213_m42            0.0000     2.7950E-05    39.8493  -1.0000    99.1370
 18      0.0000     0.0000E+00    0.0000E+00    1.000000E+06  0.00800  1.238E-02    0   1.0000   age020_m52            0.0000     2.5334E-05    36.3826   2.1774    96.0728
 19      0.0000     0.0000E+00    0.0000E+00    3.160000E+06  0.00800  3.074E-02    0   0.9966   age045_m52            0.0000     2.5286E-05    36.3725   2.0998    96.9202
 20      0.0000     0.0000E+00    0.0000E+00    5.010000E+06  0.00800  2.668E-02    0   0.9443   age055_m52            0.0000     2.5200E-05    36.5017   1.8626    98.8143
 21      0.0000     0.0000E+00    0.0000E+00    6.610000E+06  0.00800  2.136E-02    0   0.9177   age061_m52            0.0000     2.5003E-05    36.8034   0.6481   104.7123
 22      0.0000     0.0000E+00    0.0000E+00    1.000000E+07  0.00800  1.215E-02    0   0.8827   age070_m52            0.0000     2.5432E-05    37.9788   1.3689   102.0024
 23      0.0000     0.0000E+00    0.0000E+00    1.445000E+07  0.00800  8.717E-03    0   0.8552   age078_m52            0.0000     2.5255E-05    37.4656   1.4544   101.7744
 24      0.9794     3.6958E-03    5.9106E-03    2.512000E+07  0.00800  5.592E-03    0   0.8162   age090_m52            0.0000     2.5260E-05    37.8443   1.1154   104.2637
 25      1.1127     6.0268E-03    9.2595E-03    4.000000E+07  0.00800  3.896E-03    0   0.7841   age104_m52            0.0000     2.5179E-05    37.4483   1.0063   105.6051
 26      0.0000     0.0000E+00    0.0000E+00    1.015200E+08  0.00800  2.148E-03    0   0.7226   age116_m52            0.0000     2.5319E-05    36.8300   0.9175   106.1092
 27      0.0000     0.0000E+00    0.0000E+00    2.861200E+08  0.00800  9.925E-04    0   0.6683   age125_m52            0.0000     2.5551E-05    36.1524   0.3951   111.4765
 28      0.0000     0.0000E+00    0.0000E+00    9.047900E+08  0.00800  3.141E-04    0   0.6138   age135_m52            0.0000     2.5340E-05    34.3373  -0.5004   119.3610
 29      1.1089     1.3612E-01    1.5611E-01    1.434000E+09  0.00800  1.719E-04    0   0.5853   age139_m52            0.0000     2.5111E-05    34.4392  -1.0000   115.3797
 30      0.0000     0.0000E+00    0.0000E+00    2.500000E+09  0.00800  7.872E-05    0   0.5600   age150_m52            0.0000     2.6295E-05    36.7699  -1.0000   107.6503
 31      1.2027     5.8531E-01    6.2229E-01    4.250000E+09  0.00800  4.336E-05    0   0.5426   age158_m52            0.0000     2.6587E-05    36.8019  -1.0000   106.3206
 32      0.4400     2.9390E-01    3.0631E-01    6.250000E+09  0.00800  3.159E-05    0   0.5319   age166_m52            0.0000     2.8549E-05    39.6357  -1.0000   102.0183
 33      0.0000     0.0000E+00    0.0000E+00    1.300000E+10  0.00800  1.361E-05    0   0.5073   age193_m52            0.0000     3.5055E-05    47.5214  -1.0000    89.7641
 34      0.0000     0.0000E+00    0.0000E+00    1.800000E+10  0.00800  9.886E-06    0   0.4990   age213_m52            0.0000     3.7670E-05    48.7031  -1.0000    86.4214
 35      0.0000     0.0000E+00    0.0000E+00    1.000000E+06  0.02000  1.544E-02    0   1.0000   age020_m62            0.0000     2.5381E-05    36.3848   2.1715    96.2925
 36     19.0679     1.0695E-02    2.0659E-02    3.160000E+06  0.02000  3.762E-02    0   0.9858   age045_m62            0.0000     2.5279E-05    36.4657   2.1116    97.1837
 37      0.0000     0.0000E+00    0.0000E+00    5.010000E+06  0.02000  3.296E-02    0   0.9342   age055_m62            0.0000     2.5103E-05    36.3597   1.7238   101.2995
 38      0.0000     0.0000E+00    0.0000E+00    8.710000E+06  0.02000  1.154E-02    0   0.8861   age067_m62            0.0000     2.6238E-05    41.1118   0.9364   101.7856
 39     11.7180     3.2268E-02    5.3565E-02    1.445000E+07  0.02000  7.663E-03    0   0.8472   age078_m62            0.0000     2.5369E-05    38.8164   1.0409   103.6922
 40      0.0000     0.0000E+00    0.0000E+00    2.512000E+07  0.02000  4.532E-03    0   0.8099   age090_m62            0.0000     2.5559E-05    39.1518   1.0465   102.9407
 41      0.0000     0.0000E+00    0.0000E+00    5.500000E+07  0.02000  2.733E-03    0   0.7595   age110_m62            0.0000     2.5304E-05    37.5358   0.9985   104.5509
 42      0.0000     0.0000E+00    0.0000E+00    1.609000E+08  0.02000  1.369E-03    0   0.6985   age120_m62            0.0000     2.5550E-05    36.7268   0.7929   108.5926
 43      0.0000     0.0000E+00    0.0000E+00    2.861200E+08  0.02000  9.013E-04    0   0.6714   age125_m62            0.0000     2.5680E-05    36.1844   0.5064   112.8998
 44      0.0000     0.0000E+00    0.0000E+00    5.088000E+08  0.02000  5.028E-04    0   0.6449   age130_m62            0.0000     2.5427E-05    34.7765   0.0339   119.0345
 45      0.0000     0.0000E+00    0.0000E+00    9.047900E+08  0.02000  2.428E-04    0   0.6179   age135_m62            0.0000     2.5094E-05    33.7716  -0.5956   119.6814
 46      1.1200     1.8712E-01    2.1662E-01    1.434000E+09  0.02000  1.263E-04    0   0.5908   age139_m62            0.0000     2.5227E-05    33.3698  -1.0000   117.3012
 47      0.4653     1.6404E-01    1.8235E-01    2.500000E+09  0.02000  5.985E-05    0   0.5673   age150_m62            0.0000     2.6932E-05    36.4953  -1.0000   108.7773
 48      3.1166     2.0105E+00    2.1541E+00    4.250000E+09  0.02000  3.271E-05    0   0.5468   age158_m62            0.0000     3.0399E-05    40.9271  -1.0000   100.9648
 49      0.0000     0.0000E+00    0.0000E+00    1.000000E+10  0.02000  1.360E-05    0   0.5167   age181_m62            0.0000     3.6406E-05    46.1554  -1.0000    91.4940
 50      0.0000     0.0000E+00    0.0000E+00    1.800000E+10  0.02000  7.124E-06    0   0.5013   age213_m62            0.0000     4.1065E-05    48.9192  -1.0000    84.9220
 51      0.0000     0.0000E+00    0.0000E+00    1.000000E+06  0.05000  2.592E-02    0   0.9998   age020_m72            0.0000     2.5496E-05    36.4823   2.1737    96.0678
 52      0.0000     0.0000E+00    0.0000E+00    3.160000E+06  0.05000  4.845E-02    0   0.9577   age045_m72            0.0000     2.5191E-05    36.4211   1.9874    98.5457
 53      0.0000     0.0000E+00    0.0000E+00    5.010000E+06  0.05000  3.072E-02    0   0.9147   age055_m72            0.0000     2.5380E-05    38.1001   1.5863   100.7258
 54      0.1106     1.6042E-04    2.7904E-04    6.610000E+06  0.05000  1.455E-02    0   0.8877   age061_m72            0.0000     2.7057E-05    43.2138   1.0177   101.3336
 55      0.0000     0.0000E+00    0.0000E+00    1.000000E+07  0.05000  9.074E-03    0   0.8524   age070_m72            0.0000     2.5413E-05    38.5555   1.7590   100.5052
 56      0.0000     0.0000E+00    0.0000E+00    2.512000E+07  0.05000  4.250E-03    0   0.7902   age090_m72            0.0000     2.5459E-05    38.4283   1.4722   102.0567
 57      0.0000     0.0000E+00    0.0000E+00    4.000000E+07  0.05000  3.087E-03    0   0.7618   age104_m72            0.0000     2.5640E-05    38.6499   1.2579   103.3250
 58      0.0000     0.0000E+00    0.0000E+00    1.015200E+08  0.05000  1.700E-03    0   0.7096   age116_m72            0.0000     2.5645E-05    37.3615   0.9601   107.3483
 59      0.0000     0.0000E+00    0.0000E+00    2.861200E+08  0.05000  7.384E-04    0   0.6633   age125_m72            0.0000     2.5540E-05    35.5135   0.3259   116.0151
 60     17.2161     9.5125E-01    1.1877E+00    5.088000E+08  0.05000  3.819E-04    0   0.6372   age130_m72            0.0000     2.5156E-05    34.0247  -0.2442   120.4799
 61      0.0000     0.0000E+00    0.0000E+00    9.047900E+08  0.05000  1.676E-04    0   0.6110   age135_m72            0.0000     2.5285E-05    32.8389  -1.0000   120.4366
 62      0.0000     0.0000E+00    0.0000E+00    1.434000E+09  0.05000  8.837E-05    0   0.5874   age139_m72            0.0000     2.7027E-05    36.3090  -1.0000   110.5086
 63      1.5664     7.8085E-01    8.5651E-01    2.500000E+09  0.05000  4.233E-05    0   0.5598   age150_m72            0.0000     3.0745E-05    40.7254  -1.0000   101.9921
 64      6.7320     9.8993E+00    1.0181E+01    6.250000E+09  0.05000  1.435E-05    0   0.5249   age166_m72            0.0000     3.8086E-05    47.6047  -1.0000    88.5527
 65     24.2725     7.8640E+01    7.7599E+01    1.300000E+10  0.05000  6.513E-06    0   0.5036   age193_m72            0.0000     4.4620E-05    51.0819  -1.0000    81.2785
 66      0.0000     0.0000E+00    0.0000E+00    1.800000E+10  0.05000  4.527E-06    0   0.4945   age213_m72            0.0000     4.8661E-05    52.8480  -1.0000    76.4017


## Synthesis Results - Average & Chains ##

# j      x_j: min, <> & last-chain-values for 1 ...  7 chains
  1      0.0000     16.4927     14.1875     10.8600     12.3436     12.7263     12.5293      8.1446     12.1198
  2      0.0000      0.3815      0.0000      0.6708      1.2095      2.7673      0.9429      0.0000      0.3521
  3     10.6388      0.3823      0.4708      2.0300      1.0616      0.0000      0.6303      1.1330      0.9958
  4      0.0000      0.4665      0.0000      2.2422      0.0000      1.2435      1.5337      0.2000      0.0513
  5      0.0000      0.4270      0.8110      1.0684      0.3922      0.0000      0.4085      1.2729      2.2962
  6      0.0000      0.5260      2.3103      0.0632      0.2995      0.2688      0.4214      0.8834      2.0354
  7      0.0000      0.3743      0.1689      0.0000      0.7328      0.8540      0.7286      1.4961      0.8177
  8      0.0000      0.3272      0.2944      1.0990      0.6947      0.7413      0.0847      1.5486      0.7222
  9      2.2921      0.3259      0.8022      1.1085      1.6181      0.2729      1.8366      2.7922      1.8368
 10      0.0000      0.3900      0.0801      0.5513      0.5149      0.7416      3.2886      0.6043      0.9140
 11      0.0000      0.4243      0.0000      0.3022      0.6391      0.3874      0.1724      0.4343      0.7557
 12      0.0000      0.5667      0.0084      0.3687      2.1497      0.0000      5.8749      0.3004      1.1980
 13      0.0000      0.4609      0.0615      0.2589      1.3081      1.0879      0.0000      0.9264      0.8259
 14      0.0000      0.3373      0.0000      0.0000      0.5415      1.0638      1.2182      1.1110      0.0000
 15     10.4367      0.5524      1.2490      1.1306      0.0000      1.3193      1.8327      0.7694      0.8712
 16      0.0000      0.6971      1.1737      0.0000      1.2846      0.2419      0.0000      1.3053      2.0935
 17      0.0000      0.5155      1.7578      0.0000      0.6250      1.5945      0.3530      0.0000      0.6168
 18      0.0000      1.6341      0.0000      0.6867      1.2255      0.0000      0.0350      0.5492      1.8235
 19      0.0000      0.4707      0.0000      0.0725      0.6332      0.5546      0.0742      1.5603      0.3453
 20      0.0000      0.3946      0.7427      0.5368      0.0000      0.0000      0.0000      0.0613      0.4155
 21      0.0000      0.3185      0.3363      0.0000      0.1572      0.0000      0.2490      1.1350      0.0000
 22      0.0000      0.4936      1.8258      0.2516      1.0605      0.9591      2.9648      0.0000      0.4641
 23      0.0000      0.5609      1.2654      1.4765      0.5558      1.3609      1.2165      0.0000      0.8121
 24      0.9794      0.3940      0.9464      0.2136      0.0000      0.8960      0.6515      0.8218      0.0000
 25      1.1127      0.3350      2.4840      0.6299      2.6966      1.4025      1.1530      0.4519      0.1305
 26      0.0000      0.3544      0.3373      0.9889      0.0000      0.0000      0.0000      0.2363      1.0698
 27      0.0000      0.5160      0.6287      0.0000      2.2642      0.0000      0.2041      3.2541      0.6185
 28      0.0000      0.4825      0.0000      0.6838      1.1967      0.0000      0.0964      0.1456      0.8146
 29      1.1089      0.3722      3.1324      0.9583      0.0000      1.3743      0.2414      0.7813      0.7003
 30      0.0000      0.4170      3.2726      0.2378      0.7157      0.6931      2.0370      0.8895      0.3528
 31      1.2027      0.3728      2.1643      1.0214      2.2017      0.3261      0.0000      0.0000      0.3247
 32      0.4400      0.3777      0.4299      0.1390      0.0000      0.9192      0.5980      2.1261      1.8857
 33      0.0000      0.4236      0.0000      0.6936      0.0000      2.8003      0.7949      1.8787      0.6752
 34      0.0000      1.2563      0.8617      0.5103      0.6185      1.6747      1.5018      1.3003      0.8317
 35      0.0000      0.5246      1.1756      0.9880      1.3215      0.0000      0.0000      0.3465      1.8966
 36     19.0679      0.3318      0.7044      2.3543      2.2724      0.6477      0.2502      0.0000      0.0254
 37      0.0000      0.4931      0.5737      0.0000      0.0328      0.5045      1.2641      0.0000      0.1424
 38      0.0000      0.4067      0.0000      1.2232      0.0000      0.6771      0.2764      0.9301      0.5242
 39     11.7180      0.4781      5.2185      0.0000      1.8002      0.1315      0.7758      0.0000      0.6314
 40      0.0000      0.4923      1.9574      0.2310      1.0589      2.8738      2.7166      0.5361      0.0763
 41      0.0000      0.3808      0.0000      0.4559      0.0000      0.0000      0.2301      1.4679      4.0189
 42      0.0000      0.4353      0.0000      1.3045      0.0000      0.0000      0.0000      0.7381      1.4430
 43      0.0000      0.3919      0.8667      0.4574      1.9831      1.3687      1.8905      2.8784      0.0000
 44      0.0000      0.4261      0.2859      2.3493      3.0559      1.6782      2.2968      1.2849      1.8522
 45      0.0000      0.4388      0.6993      0.3681      0.0000      1.8103      1.0519      1.8757      0.0000
 46      1.1200      0.2870      0.6666      0.0000      0.4956      1.0617      0.0000      0.0000      1.4041
 47      0.4653      0.3501      0.7885      0.5284      0.0000      0.3340      0.0336      3.5132      0.2902
 48      3.1166      0.4494      0.4220      1.4441      1.2201      1.0097      1.6809      0.0000      0.8174
 49      0.0000      0.4409      0.3990      0.0000      0.9886      0.6127      0.5307      0.0000      0.6552
 50      0.0000      0.5264      2.1758      0.5098      0.0000      0.7343      0.5882      0.0915      1.6251
 51      0.0000      0.4252      1.6724      0.0000      2.2207      1.1680      1.2800      0.4316      0.6386
 52      0.0000      0.4379      1.1442      0.9042      0.7049      0.6517      1.0916      0.4406      1.6554
 53      0.0000      0.3260      1.3090      0.1633      0.0000      0.2339      0.2221      1.3415      0.4174
 54      0.1106      0.3263      1.0911      0.7911      0.0000      2.3100      0.6154      0.2516      1.6805
 55      0.0000      0.4466      1.3402      3.8447      1.2248      0.7215      0.1792      0.3367      0.6770
 56      0.0000      0.5020      0.3103      1.4988      0.8998      0.9904      0.5270      0.3726      0.0000
 57      0.0000      0.4549      1.2140      0.0000      0.0000      0.0000      0.6834      0.3523      0.7995
 58      0.0000      0.4786      0.0000      0.6516      0.0044      1.0558      0.0230      0.8573      1.1559
 59      0.0000      0.2991      0.5381      0.0000      1.6463      1.0243      0.0000      0.7907      0.4505
 60     17.2161      0.5241      1.0351      3.7502      0.4390      0.8719      1.2361      0.6224      0.0904
 61      0.0000      0.4988      0.0000      1.5337      0.6431      0.0000      1.0440      0.0000      1.0897
 62      0.0000      0.4644      2.2599      0.0000      0.0000      0.3328      1.7577      1.2266      0.0070
 63      1.5664      0.3845      1.1410      0.0000      1.5592      0.0000      0.0000      0.9380      0.0964
 64      6.7320      0.4546      0.6574      1.0159      0.0000      0.0000      0.3624      1.7399      0.0000
 65     24.2725     31.0730     26.0493     28.6665     29.9669     29.7192     28.3788     29.0637     29.4414
 66      0.0000     32.8550     12.7538     23.1367     17.3346     18.9679     14.6745     18.6406     15.2127

# j      m_j: min, <> & last-chain-values for 1 ...  7 chains
  1  0.0000E+00  2.4182E-02  3.3469E-02  2.0022E-02  2.5432E-02  2.4261E-02  2.7821E-02  1.5968E-02  2.5679E-02
  2  0.0000E+00  1.5271E-04  0.0000E+00  3.3762E-04  6.8031E-04  1.4402E-03  5.7157E-04  0.0000E+00  2.0366E-04
  3  1.6438E-02  2.2915E-04  4.5401E-04  1.5301E-03  8.9421E-04  0.0000E+00  5.7221E-04  9.0806E-04  8.6258E-04
  4  0.0000E+00  2.6333E-04  0.0000E+00  1.5915E-03  0.0000E+00  9.1263E-04  1.3111E-03  1.5095E-04  4.1830E-05
  5  0.0000E+00  4.5915E-04  1.4031E-03  1.4446E-03  5.9259E-04  0.0000E+00  6.6514E-04  1.8301E-03  3.5678E-03
  6  0.0000E+00  9.1746E-04  6.4829E-03  1.3864E-04  7.3410E-04  6.0943E-04  1.1130E-03  2.0600E-03  5.1295E-03
  7  0.0000E+00  9.3460E-04  6.7847E-04  0.0000E+00  2.5711E-03  2.7725E-03  2.7553E-03  4.9950E-03  2.9503E-03
  8  0.0000E+00  1.1291E-03  1.6347E-03  4.7694E-03  3.3690E-03  3.3264E-03  4.4261E-04  7.1462E-03  3.6015E-03
  9  2.3338E-02  1.2873E-03  5.0986E-03  5.5056E-03  8.9816E-03  1.4016E-03  1.0987E-02  1.4747E-02  1.0484E-02
 10  0.0000E+00  2.0237E-03  6.6885E-04  3.5971E-03  3.7544E-03  5.0027E-03  2.5841E-02  4.1924E-03  6.8529E-03
 11  0.0000E+00  4.1396E-03  0.0000E+00  3.7073E-03  8.7614E-03  4.9138E-03  2.5479E-03  5.6655E-03  1.0655E-02
 12  0.0000E+00  8.7709E-03  2.0874E-04  7.1759E-03  4.6751E-02  0.0000E+00  1.3769E-01  6.2161E-03  2.6791E-02
 13  0.0000E+00  2.0105E-02  4.3154E-03  1.4204E-02  8.0184E-02  6.1701E-02  0.0000E+00  5.4033E-02  5.2063E-02
 14  0.0000E+00  4.9357E-02  0.0000E+00  0.0000E+00  1.1133E-01  2.0237E-01  2.6991E-01  2.1735E-01  0.0000E+00
 15  6.4077E+00  1.3156E-01  4.7866E-01  3.3861E-01  0.0000E+00  4.0856E-01  6.6107E-01  2.4503E-01  2.9984E-01
 16  0.0000E+00  2.8076E-01  7.6051E-01  0.0000E+00  7.2695E-01  1.2667E-01  0.0000E+00  7.0287E-01  1.2183E+00
 17  0.0000E+00  2.6933E-01  1.4776E+00  0.0000E+00  4.5880E-01  1.0831E+00  2.7927E-01  0.0000E+00  4.6566E-01
 18  0.0000E+00  2.1173E-03  0.0000E+00  1.1187E-03  2.2313E-03  0.0000E+00  6.8653E-05  9.5147E-04  3.4142E-03
 19  0.0000E+00  2.4480E-04  0.0000E+00  4.7428E-05  4.6272E-04  3.7498E-04  5.8468E-05  1.0850E-03  2.5949E-04
 20  0.0000E+00  2.2406E-04  6.7844E-04  3.8320E-04  0.0000E+00  0.0000E+00  0.0000E+00  4.6515E-05  3.4088E-04
 21  0.0000E+00  2.1951E-04  3.7285E-04  0.0000E+00  1.5226E-04  0.0000E+00  2.5987E-04  1.0458E-03  0.0000E+00
 22  0.0000E+00  5.7525E-04  3.4234E-03  3.6864E-04  1.7366E-03  1.4531E-03  5.2324E-03  0.0000E+00  7.8144E-04
 23  0.0000E+00  8.8273E-04  3.2041E-03  2.9218E-03  1.2290E-03  2.7846E-03  2.8992E-03  0.0000E+00  1.8468E-03
 24  5.9106E-03  9.2237E-04  3.5649E-03  6.2893E-04  0.0000E+00  2.7276E-03  2.3101E-03  2.5728E-03  0.0000E+00
 25  9.2595E-03  1.0813E-03  1.2902E-02  2.5570E-03  1.2233E-02  5.8870E-03  5.6369E-03  1.9508E-03  6.0883E-04
 26  0.0000E+00  1.9122E-03  2.9285E-03  6.7097E-03  0.0000E+00  0.0000E+00  0.0000E+00  1.7052E-03  8.3419E-03
 27  0.0000E+00  5.5737E-03  1.0926E-02  0.0000E+00  3.4365E-02  0.0000E+00  3.3389E-03  4.6996E-02  9.6532E-03
 28  0.0000E+00  1.5124E-02  0.0000E+00  2.6953E-02  5.2711E-02  0.0000E+00  4.5770E-03  6.1035E-03  3.6899E-02
 29  1.5611E-01  2.0331E-02  2.7525E-01  6.5811E-02  0.0000E+00  9.7591E-02  1.9969E-02  5.7056E-02  5.5272E-02
 30  0.0000E+00  4.7589E-02  6.0083E-01  3.4124E-02  1.1477E-01  1.0283E-01  3.5201E-01  1.3571E-01  5.8167E-02
 31  6.2229E-01  7.4835E-02  6.9899E-01  2.5780E-01  6.2100E-01  8.5118E-02  0.0000E+00  0.0000E+00  9.4186E-02
 32  3.0631E-01  1.0202E-01  1.8680E-01  4.7207E-02  0.0000E+00  3.2280E-01  2.4458E-01  7.6781E-01  7.3596E-01
 33  0.0000E+00  2.5325E-01  0.0000E+00  5.2142E-01  0.0000E+00  2.1769E+00  7.1978E-01  1.5019E+00  5.8338E-01
 34  0.0000E+00  1.0172E+00  1.1225E+00  5.1956E-01  7.0369E-01  1.7629E+00  1.8415E+00  1.4077E+00  9.7311E-01
 35  0.0000E+00  5.4506E-04  1.9650E-03  1.2906E-03  1.9292E-03  0.0000E+00  0.0000E+00  4.8136E-04  2.8472E-03
 36  2.0659E-02  1.3947E-04  4.7638E-04  1.2443E-03  1.3421E-03  3.5395E-04  1.5925E-04  0.0000E+00  1.5455E-05
 37  0.0000E+00  2.2421E-04  4.1968E-04  0.0000E+00  2.0986E-05  2.9823E-04  8.7033E-04  0.0000E+00  9.3535E-05
 38  0.0000E+00  5.0091E-04  0.0000E+00  1.8943E-03  0.0000E+00  1.0844E-03  5.1552E-04  1.5317E-03  9.3303E-04
 39  5.3565E-02  8.4783E-04  1.4890E-02  0.0000E+00  4.4861E-03  3.0323E-04  2.0837E-03  0.0000E+00  1.6180E-03
 40  0.0000E+00  1.4113E-03  9.0276E-03  8.3272E-04  4.2653E-03  1.0711E-02  1.1793E-02  2.0547E-03  3.1603E-04
 41  0.0000E+00  1.6974E-03  0.0000E+00  2.5555E-03  0.0000E+00  0.0000E+00  1.5531E-03  8.7494E-03  2.5888E-02
 42  0.0000E+00  3.5629E-03  0.0000E+00  1.3425E-02  0.0000E+00  0.0000E+00  0.0000E+00  8.0772E-03  1.7066E-02
 43  0.0000E+00  4.6831E-03  1.6662E-02  6.8724E-03  3.3297E-02  2.1264E-02  3.4210E-02  4.5988E-02  0.0000E+00
 44  0.0000E+00  8.7673E-03  9.4643E-03  6.0777E-02  8.8347E-02  4.4891E-02  7.1563E-02  3.5348E-02  5.5065E-02
 45  0.0000E+00  1.7913E-02  4.5927E-02  1.8896E-02  0.0000E+00  9.6085E-02  6.5029E-02  1.0238E-01  0.0000E+00
 46  2.1662E-01  2.1533E-02  8.0471E-02  0.0000E+00  5.2259E-02  1.0358E-01  0.0000E+00  0.0000E+00  1.5224E-01
 47  1.8235E-01  5.3236E-02  1.9289E-01  1.0101E-01  0.0000E+00  6.6024E-02  7.7460E-03  7.1423E-01  6.3753E-02
 48  2.1541E+00  1.2050E-01  1.8205E-01  4.8692E-01  4.5971E-01  3.5202E-01  6.8258E-01  0.0000E+00  3.1670E-01
 49  0.0000E+00  2.6871E-01  3.9124E-01  0.0000E+00  8.4663E-01  4.8549E-01  4.8976E-01  0.0000E+00  5.7703E-01
 50  0.0000E+00  5.9422E-01  3.9514E+00  7.2352E-01  0.0000E+00  1.0777E+00  1.0055E+00  1.3803E-01  2.6507E+00
 51  0.0000E+00  2.6310E-04  1.6648E-03  0.0000E+00  1.9307E-03  9.3959E-04  1.1994E-03  3.5708E-04  5.7096E-04
 52  0.0000E+00  1.3883E-04  5.8370E-04  3.6048E-04  3.1404E-04  2.6868E-04  5.2418E-04  1.8678E-04  7.5847E-04
 53  0.0000E+00  1.5569E-04  1.0059E-03  9.8045E-05  0.0000E+00  1.4527E-04  1.6066E-04  8.5673E-04  2.8804E-04
 54  2.7904E-04  3.1930E-04  1.7180E-03  9.7349E-04  0.0000E+00  2.9393E-03  9.1202E-04  3.2921E-04  2.3765E-03
 55  0.0000E+00  6.7291E-04  3.2492E-03  7.2846E-03  2.5934E-03  1.4135E-03  4.0884E-04  6.7837E-04  1.4741E-03
 56  0.0000E+00  1.4971E-03  1.4892E-03  5.6208E-03  3.7709E-03  3.8404E-03  2.3804E-03  1.4860E-03  0.0000E+00
 57  0.0000E+00  1.8008E-03  7.7321E-03  0.0000E+00  0.0000E+00  0.0000E+00  4.0968E-03  1.8645E-03  4.5734E-03
 58  0.0000E+00  3.2045E-03  0.0000E+00  5.4860E-03  4.1810E-05  9.1911E-03  2.3278E-04  7.6748E-03  1.1184E-02
 59  0.0000E+00  4.3095E-03  1.2475E-02  0.0000E+00  3.3334E-02  1.9191E-02  0.0000E+00  1.5234E-02  9.3800E-03
 60  1.1877E+00  1.4026E-02  4.4571E-02  1.2621E-01  1.6511E-02  3.0341E-02  5.0100E-02  2.2274E-02  3.4980E-03
 61  0.0000E+00  2.9166E-02  0.0000E+00  1.1277E-01  5.2846E-02  0.0000E+00  9.2457E-02  0.0000E+00  9.2081E-02
 62  0.0000E+00  4.9519E-02  3.8769E-01  0.0000E+00  0.0000E+00  4.6140E-02  2.8381E-01  1.7487E-01  1.0767E-03
 63  8.5651E-01  8.1557E-02  3.8944E-01  0.0000E+00  4.6478E-01  0.0000E+00  0.0000E+00  2.6605E-01  2.9548E-02
 64  1.0181E+01  2.6674E-01  6.2059E-01  7.4950E-01  0.0000E+00  0.0000E+00  3.2201E-01  1.3650E+00  0.0000E+00
 65  7.7599E+01  3.8540E+01  5.1983E+01  4.4707E+01  5.2227E+01  4.7926E+01  5.3305E+01  4.8199E+01  5.2767E+01
 66  0.0000E+00  5.7568E+01  3.5955E+01  5.0975E+01  4.2680E+01  4.3212E+01  3.8939E+01  4.3671E+01  3.8517E+01

# AV, chi2 & Mass for <> & i_chain = 1 ...  7 solutions
AV      -0.8907     -0.9825     -1.0000     -1.0000     -1.0000     -1.0000     -1.0000     -1.0000     -1.0000
chi2 2.4436E-05  3.0691E-05  2.4783E-05  2.6174E-05  2.5327E-05  2.6424E-05  2.5098E-05  2.6817E-05  2.5199E-05
Mass 7.0340E-14  1.6026E-13  9.7298E-14  1.2450E-13  1.1141E-13  1.2040E-13  1.0337E-13  1.1708E-13  1.0833E-13
  78.00                                  [v0_min (km/s) before EX0s...]
 150.00                                  [vd_min (km/s) before EX0s...]


## Synthetic spectrum (Best Model) ##l_obs f_obs f_syn wei
 3478    [Nl_obs]
 3741.00    0.24077   0.84299    0.000
 3742.00    0.39144   0.86001    0.000
 3743.00    0.70121   0.85568    0.000
 3744.00    0.72074   0.83468    0.000
 3745.00    0.57118   0.80411   -1.000
 3746.00    0.67671   0.76791   -1.000
 3747.00    0.91178   0.72945   -1.000
 3748.00    0.90841   0.69308   -1.000
 3749.00    0.80020   0.66334   -1.000
 3750.00    0.74276   0.64912   -1.000
 3751.00    0.70448   0.65973   -1.000
 3752.00    0.55651   0.69559   -1.000
 3753.00    0.37339   0.74713   -1.000
 3754.00    0.38911   0.80131   -1.000
 3755.00    0.45812   0.84623   -1.000
 3756.00    0.87593   0.87279   -1.000
 3757.00    1.37029   0.87826   -1.000
 3758.00    1.24040   0.86827   -1.000
 3759.00    1.00153   0.85502   -1.000
 3760.00    0.62069   0.84899   -1.000
 3761.00    0.22098   0.85183   -1.000
 3762.00    0.34232   0.85882   -1.000
 3763.00    0.51262   0.86370   -1.000
 3764.00    0.59003   0.86157   -1.000
 3765.00    0.66209   0.85196   -1.000
 3766.00    0.65899   0.83628   -1.000
 3767.00    0.65376   0.81415   -1.000
 3768.00    0.60517   0.78890   -1.000
 3769.00    0.57623   0.76706   -1.000
 3770.00    1.02464   0.75227   -1.000
 3771.00    1.44158   0.74820   -1.000
 3772.00    1.44599   0.76012   -1.000
 3773.00    1.41742   0.78687   -1.000
 3774.00    1.09928   0.82052   -1.000
 3775.00    0.79636   0.85418   -1.000
 3776.00    0.59215   0.88472   -1.000
 3777.00    0.35496   0.91197   -1.000
 3778.00   -0.04915   0.93685    0.000
 3779.00   -0.31487   0.95975    0.000
 3780.00   -0.01421   0.98121    0.000
 3781.00    0.22752   0.99994   -1.000
 3782.00    0.26937   1.01295   -1.000
 3783.00    0.29190   1.01870   -1.000
 3784.00    0.25921   1.01632   -1.000
 3785.00    0.26568   1.00441   -1.000
 3786.00    0.36786   0.98207   -1.000
 3787.00    0.42727   0.95286   -1.000
 3788.00    0.39652   0.92453   -1.000
 3789.00    0.46018   0.90183   -1.000
 3790.00    0.69679   0.88526   -1.000
 3791.00    0.87841   0.87304   -1.000
 3792.00    0.97201   0.86042   -1.000
 3793.00    0.91848   0.84090   -1.000
 3794.00    0.65827   0.81103   -1.000
 3795.00    0.44991   0.77236   -1.000
 3796.00    0.30563   0.73033   -1.000
 3797.00    0.24625   0.69232   -1.000
 3798.00    0.27937   0.66607   -1.000
 3799.00    0.32528   0.66027   -1.000
 3800.00    0.38348   0.68048   -1.000
 3801.00    0.58719   0.72272   -1.000
 3802.00    0.91420   0.77554   -1.000
 3803.00    0.95360   0.82719   -1.000
 3804.00    0.77837   0.86915   -1.000
 3805.00    0.62630   0.89672   -1.000
 3806.00    0.48943   0.91114   -1.000
 3807.00    0.07149   0.91856    0.104
 3808.00   -0.50773   0.92693    0.000
 3809.00   -0.31601   0.94053    0.000
 3810.00    0.26104   0.95596    0.034
 3811.00    0.58582   0.96624    0.035
 3812.00    0.80152   0.96573    0.038
 3813.00    1.18932   0.95264    0.037
 3814.00    1.64096   0.93112    0.036
 3815.00    1.68919   0.90893    0.036
 3816.00    1.61061   0.89056    0.036
 3817.00    1.14661   0.87611    0.035
 3818.00    0.58151   0.86352    0.035
 3819.00    0.67344   0.84911    0.035
 3820.00    0.90614   0.83304    0.035
 3821.00    0.53543   0.82260    0.034
 3822.00    0.06231   0.82236    0.032
 3823.00    0.14817   0.82727    0.033
 3824.00    0.30576   0.82866    0.033
 3825.00    0.07065   0.82193    0.033
 3826.00   -0.19970   0.80926    0.000
 3827.00   -0.60588   0.79512    0.000
 3828.00   -1.01936   0.78176    0.000
 3829.00   -0.06490   0.76841    0.000
 3830.00    0.91374   0.75217    0.032
 3831.00    1.61964   0.72962    0.034
 3832.00    2.26266   0.69836    0.035
 3833.00    1.50868   0.66051    0.033
 3834.00    0.79002   0.62369    0.032
 3835.00    0.51052   0.59586    0.031
 3836.00    0.33709   0.58320    0.031
 3837.00    1.06027   0.58839    0.036
 3838.00    1.60321   0.60765    0.041
 3839.00    1.01224   0.63603    0.035
 3840.00    0.47585   0.67103    0.032
 3841.00    0.20872   0.71014    0.031
 3842.00    0.23076   0.75160    0.031
 3843.00    1.41034   0.79303    0.034
 3844.00    2.20051   0.82958    0.036
 3845.00    1.69607   0.85806    0.036
 3846.00    1.22194   0.87807    0.036
 3847.00    0.83293   0.89070    0.000
 3848.00    0.54896   0.89805    0.000
 3849.00    0.51729   0.90148    0.000
 3850.00    0.45087   0.90214    0.000
 3851.00    0.31237   0.90331    0.000
 3852.00    0.34108   0.90760    0.000
 3853.00    0.67137   0.91221    0.000
 3854.00    1.02114   0.91291    0.000
 3855.00    1.40164   0.90885    0.000
 3856.00    1.32919   0.90077    0.000
 3857.00    0.62969   0.89043    0.000
 3858.00    0.53987   0.88094    0.000
 3859.00    1.19294   0.87373    0.000
 3860.00    1.41666   0.87055    0.000
 3861.00    1.17920   0.87500    0.000
 3862.00    0.74120   0.88762    0.000
 3863.00    0.11318   0.90343    0.000
 3864.00   -0.18438   0.91614    0.000
 3865.00   -0.20589   0.92222    0.000
 3866.00   -0.02234   0.92200    0.000
 3867.00    0.31202   0.91800    0.000
 3868.00    0.55762   0.91203    0.000
 3869.00    0.74590   0.90454    0.000
 3870.00    0.49477   0.89483    0.000
 3871.00   -0.00469   0.88268    0.000
 3872.00   -0.01761   0.87120    0.000
 3873.00    0.20880   0.86541    0.000
 3874.00    0.54139   0.86815    0.000
 3875.00    0.91915   0.87600    0.000
 3876.00    0.49094   0.88112    0.000
 3877.00   -0.23083   0.87802    0.000
 3878.00   -0.23083   0.86674    0.000
 3879.00   -0.00832   0.85165    0.000
 3880.00    0.56904   0.83880    0.000
 3881.00    1.23748   0.82939    0.031
 3882.00    1.15735   0.81935    0.030
 3883.00    0.92071   0.80618    0.029
 3884.00    0.61446   0.78936    0.029
 3885.00    0.29673   0.76561    0.029
 3886.00    0.64430   0.73156    0.029
 3887.00    1.07425   0.69216    0.030
 3888.00    1.20523   0.65878    0.030
 3889.00    1.31062   0.64082    0.030
 3890.00    0.62149   0.64487    0.030
 3891.00   -0.10723   0.67269    0.000
 3892.00    0.24636   0.71609    0.029
 3893.00    0.61744   0.76223    0.029
 3894.00    0.97297   0.80180    0.029
 3895.00    1.26983   0.83156    0.029
 3896.00    0.36628   0.85257    0.028
 3897.00   -0.39643   0.86871    0.000
 3898.00    0.50621   0.88242    0.027
 3899.00    1.25719   0.89300    0.027
 3900.00    0.77257   0.90145    0.026
 3901.00    0.31962   0.91024    0.025
 3902.00    0.06020   0.91890    0.024
 3903.00   -0.16014   0.92349    0.000
 3904.00   -0.19243   0.92359    0.000
 3905.00   -0.18368   0.92286    0.000
 3906.00   -0.01422   0.92390    0.000
 3907.00    0.10461   0.93056    0.023
 3908.00    0.05843   0.94610    0.023
 3909.00    0.02029   0.96727    0.023
 3910.00    0.00436   0.98773    0.024
 3911.00    0.09049   1.00332    0.025
 3912.00    0.41765   1.01292    0.025
 3913.00    0.69034   1.01669    0.025
 3914.00    0.85182   1.01508    0.025
 3915.00    0.86132   1.00949    0.026
 3916.00    0.60086   1.00073    0.026
 3917.00    0.65474   0.98781    0.027
 3918.00    1.19704   0.97125    0.028
 3919.00    1.44623   0.95249    0.028
 3920.00    1.29549   0.93327    0.028
 3921.00    0.87588   0.91722    0.028
 3922.00    0.13330   0.90786    0.027
 3923.00   -0.12749   0.90486    0.000
 3924.00    0.12199   0.90371    0.027
 3925.00    0.60158   0.89950    0.028
 3926.00    1.29614   0.88781    0.029
 3927.00    0.96073   0.86707    0.029
 3928.00   -0.22294   0.83948    0.000
 3929.00   -0.81230   0.80742    0.000
 3930.00   -0.97083   0.77281    0.000
 3931.00   -0.50140   0.73774    0.000
 3932.00    0.36767   0.70460    0.028
 3933.00    0.90521   0.67702    0.028
 3934.00    1.25824   0.66011    0.028
 3935.00    1.39305   0.65880    0.028
 3936.00    1.42223   0.67482    0.028
 3937.00    0.91080   0.70545    0.028
 3938.00    0.17336   0.74429    0.028
 3939.00    0.52767   0.78407    0.028
 3940.00    1.27250   0.81889    0.028
 3941.00    1.20856   0.84480    0.027
 3942.00    0.90016   0.86079    0.026
 3943.00    0.60896   0.86981    0.026
 3944.00    0.32208   0.87637    0.026
 3945.00    0.43767   0.88491    0.026
 3946.00    0.63533   0.89862    0.025
 3947.00    0.43233   0.91560    0.025
 3948.00    0.16518   0.93054    0.025
 3949.00    0.42920   0.94167    0.025
 3950.00    0.75664   0.95084    0.025
 3951.00    1.00045   0.95869    0.025
 3952.00    1.23746   0.96356    0.026
 3953.00    1.12677   0.96433    0.026
 3954.00    1.00011   0.96269    0.025
 3955.00    1.14666   0.95982    0.025
 3956.00    1.28959   0.95351    0.025
 3957.00    1.06179   0.94285    0.025
 3958.00    0.84028   0.92994    0.025
 3959.00    0.73792   0.91468    0.025
 3960.00    0.64898   0.89330    0.000
 3961.00    0.71110   0.86220    0.000
 3962.00    0.76249   0.82224    0.000
 3963.00    0.72950   0.77879    0.000
 3964.00    0.71423   0.73532    0.000
 3965.00    0.80417   0.69048    0.000
 3966.00    0.90272   0.64262    0.000
 3967.00    1.04175   0.59281    0.000
 3968.00    1.19699   0.54520    0.000
 3969.00    1.41436   0.50718    0.000
 3970.00    1.38624   0.48713    0.000
 3971.00    0.57341   0.49116    0.000
 3972.00    0.10577   0.51995    0.000
 3973.00    0.57299   0.56763    0.000
 3974.00    0.78639   0.62536    0.000
 3975.00    0.41044   0.68595    0.000
 3976.00    0.56058   0.74441    0.000
 3977.00    1.76743   0.79737    0.000
 3978.00    2.25662   0.84387    0.000
 3979.00    1.49052   0.88382    0.000
 3980.00    0.94446   0.91613    0.000
 3981.00    0.73529   0.93953    0.025
 3982.00    0.86331   0.95399    0.025
 3983.00    1.44480   0.96238    0.025
 3984.00    1.55148   0.96957    0.024
 3985.00    1.09587   0.97909    0.024
 3986.00    0.84886   0.99138    0.024
 3987.00    0.81965   1.00452    0.024
 3988.00    0.89134   1.01703    0.024
 3989.00    1.05596   1.02810    0.024
 3990.00    1.08848   1.03607    0.023
 3991.00    1.01376   1.04153    0.023
 3992.00    1.11328   1.04671    0.023
 3993.00    1.33729   1.05111    0.023
 3994.00    1.28473   1.05212    0.023
 3995.00    1.05877   1.04814    0.023
 3996.00    0.91917   1.04107    0.023
 3997.00    0.82688   1.03492    0.023
 3998.00    1.03318   1.03351    0.023
 3999.00    1.38170   1.03988    0.023
 4000.00    1.56587   1.05392    0.023
 4001.00    1.68249   1.06969    0.023
 4002.00    1.46796   1.07958    0.023
 4003.00    1.13713   1.08026    0.023
 4004.00    1.10632   1.07151    0.023
 4005.00    1.16441   1.05484    0.023
 4006.00    1.24299   1.03656    0.023
 4007.00    1.32660   1.02644    0.023
 4008.00    1.01423   1.02869    0.023
 4009.00    0.62312   1.03916    0.023
 4010.00    0.82382   1.05227    0.023
 4011.00    1.11647   1.06539    0.024
 4012.00    0.86798   1.07729    0.024
 4013.00    0.55727   1.08703    0.024
 4014.00    1.02287   1.09461    0.024
 4015.00    1.54849   1.10034    0.024
 4016.00    1.81936   1.10464    0.025
 4017.00    2.07950   1.10731    0.025
 4018.00    1.60820   1.10837    0.024
 4019.00    1.14409   1.10963    0.024
 4020.00    1.28778   1.11128    0.024
 4021.00    1.44793   1.10970    0.024
 4022.00    1.89821   1.10222    0.024
 4023.00    2.26238   1.09000    0.024
 4024.00    1.70002   1.07560    0.023
 4025.00    1.16222   1.06213    0.023
 4026.00    0.81094   1.05400    0.023
 4027.00    0.53068   1.05366    0.022
 4028.00    0.65999   1.05808    0.023
 4029.00    0.76924   1.05954    0.023
 4030.00    0.78650   1.05079    0.022
 4031.00    0.81820   1.03126    0.022
 4032.00    0.90408   1.00900    0.022
 4033.00    0.85424   0.99407    0.021
 4034.00    0.37892   0.99211    0.021
 4035.00    0.09679   1.00475    0.021
 4036.00    0.32862   1.02982    0.021
 4037.00    0.53700   1.06107    0.021
 4038.00    0.69184   1.08990    0.021
 4039.00    0.72035   1.10880    0.021
 4040.00    0.49916   1.11468    0.021
 4041.00    0.40379   1.10867    0.021
 4042.00    0.52518   1.09379    0.021
 4043.00    0.79024   1.07233    0.021
 4044.00    1.27203   1.04476    0.022
 4045.00    1.32563   1.01400    0.022
 4046.00    0.81166   0.98954    0.021
 4047.00    0.59235   0.98304    0.021
 4048.00    0.71709   0.99821    0.021
 4049.00    1.00000   1.02657    0.022
 4050.00    1.44577   1.05553    0.022
 4051.00    1.52822   1.07661    0.022
 4052.00    1.28076   1.08588    0.022
 4053.00    1.23134   1.08315    0.022
 4054.00    1.34044   1.07192    0.022
 4055.00    1.38863   1.05705    0.022
 4056.00    1.39393   1.04293    0.022
 4057.00    1.38758   1.03253    0.022
 4058.00    1.37404   1.02633    0.022
 4059.00    1.14235   1.02389    0.022
 4060.00    0.79297   1.02403    0.022
 4061.00    0.79645   1.02272    0.022
 4062.00    0.96530   1.01499    0.022
 4063.00    0.94762   0.99988    0.022
 4064.00    0.85457   0.98336    0.023
 4065.00    1.01040   0.97518    0.022
 4066.00    1.25205   0.97971    0.022
 4067.00    1.22110   0.99170    0.022
 4068.00    1.11100   1.00397    0.022
 4069.00    1.09809   1.01331    0.022
 4070.00    1.10853   1.01753    0.022
 4071.00    1.17593   1.01433    0.022
 4072.00    1.25437   1.00587    0.022
 4073.00    1.37029   0.99887    0.022
 4074.00    1.49185   0.99655    0.022
 4075.00    1.49650   0.99394    0.022
 4076.00    1.48821   0.98560    0.021
 4077.00    1.09098   0.97378    0.021
 4078.00    0.66527   0.96665    0.021
 4079.00    0.91570   0.97163    0.021
 4080.00    1.19202   0.98935    0.022
 4081.00    1.39256   1.01304    0.021
 4082.00    1.57802   1.03317    0.021
 4083.00    1.21104   1.04306    0.021
 4084.00    0.85351   1.04291    0.020
 4085.00    0.65169   1.03893    0.020
 4086.00    0.47688   1.03784    0.020
 4087.00    0.57999   1.04283    0.020
 4088.00    0.71363   1.05232    0.020
 4089.00    1.07133   1.06113    0.020
 4090.00    1.35088   1.06424    0.020
 4091.00    1.19204   1.05985    0.020
 4092.00    1.08039   1.04869    0.000
 4093.00    1.17993   1.03206    0.000
 4094.00    1.27098   1.01116    0.000
 4095.00    1.33085   0.98573    0.000
 4096.00    1.26246   0.95435    0.000
 4097.00    0.79959   0.91794    0.000
 4098.00    0.45317   0.87940    0.000
 4099.00    0.41111   0.84029    0.000
 4100.00    0.46132   0.80140    0.000
 4101.00    0.71873   0.76573    0.000
 4102.00    0.91000   0.74071    0.000
 4103.00    0.97256   0.73594    0.000
 4104.00    1.03388   0.75511    0.000
 4105.00    1.09311   0.79212    0.000
 4106.00    1.15247   0.83628    0.000
 4107.00    1.21203   0.87785    0.000
 4108.00    1.17206   0.91011    0.000
 4109.00    1.00203   0.93113    0.000
 4110.00    0.73765   0.94355    0.000
 4111.00    0.36469   0.95204    0.000
 4112.00    0.30053   0.96106    0.000
 4113.00    0.54983   0.97304    0.020
 4114.00    0.94081   0.98742    0.020
 4115.00    1.45864   1.00099    0.020
 4116.00    1.49462   1.01013    0.020
 4117.00    1.15044   1.01305    0.020
 4118.00    0.84616   1.00961    0.029
 4119.00    0.56957   1.00121    0.106
 4120.00    0.76660   0.99203   -1.000
 4121.00    1.25183   0.98714   -1.000
 4122.00    1.39879   0.98832   -1.000
 4123.00    1.36605   0.99425   -1.000
 4124.00    1.30277   1.00288   -1.000
 4125.00    1.22542   1.01172   -1.000
 4126.00    1.07937   1.01745   -1.000
 4127.00    0.90604   1.01689   -1.000
 4128.00    1.09714   1.00972    0.053
 4129.00    1.41159   0.99833    0.023
 4130.00    1.07932   0.98543    0.020
 4131.00    0.56303   0.97254    0.020
 4132.00    0.56635   0.96109    0.020
 4133.00    0.69166   0.95407    0.020
 4134.00    0.99370   0.95540    0.020
 4135.00    1.32909   0.96663    0.020
 4136.00    1.42674   0.98529    0.020
 4137.00    1.48966   1.00605    0.020
 4138.00    1.37255   1.02280    0.020
 4139.00    1.23631   1.03169    0.020
 4140.00    1.16993   1.03069    0.020
 4141.00    1.10838   1.01843    0.020
 4142.00    1.21622   0.99577    0.020
 4143.00    1.32990   0.96758    0.020
 4144.00    1.41798   0.94306    0.020
 4145.00    1.50107   0.93261    0.020
 4146.00    1.42136   0.93957    0.020
 4147.00    1.33953   0.95671    0.020
 4148.00    1.22506   0.97329    0.020
 4149.00    1.11554   0.98294    0.019
 4150.00    1.05482   0.98467    0.019
 4151.00    1.03171   0.98100    0.019
 4152.00    1.27562   0.97547    0.019
 4153.00    1.46573   0.96989    0.020
 4154.00    1.36213   0.96474    0.019
 4155.00    1.26842   0.96102    0.019
 4156.00    1.21797   0.96045    0.019
 4157.00    1.17865   0.96438    0.019
 4158.00    1.17938   0.97303    0.019
 4159.00    1.13026   0.98573    0.019
 4160.00    0.93073   1.00012    0.018
 4161.00    0.83298   1.01297    0.018
 4162.00    0.99663   1.02236    0.018
 4163.00    1.17505   1.02790    0.019
 4164.00    1.38612   1.02907    0.019
 4165.00    1.39276   1.02508    0.019
 4166.00    1.00779   1.01708    0.019
 4167.00    0.70399   1.00769    0.019
 4168.00    0.53587   0.99889    0.019
 4169.00    0.49858   0.99163    0.018
 4170.00    0.65294   0.98508    0.019
 4171.00    0.88524   0.97618    0.019
 4172.00    1.21793   0.96280    0.019
 4173.00    1.37119   0.94706    0.019
 4174.00    1.32085   0.93453    0.019
 4175.00    1.19654   0.92941    0.019
 4176.00    0.99820   0.93106    0.019
 4177.00    0.90419   0.93588    0.019
 4178.00    0.90227   0.94113    0.019
 4179.00    1.02701   0.94632    0.019
 4180.00    1.25027   0.95215    0.019
 4181.00    1.39358   0.95834    0.019
 4182.00    1.48222   0.96366    0.019
 4183.00    1.40821   0.96794    0.019
 4184.00    1.23669   0.97204    0.019
 4185.00    1.13256   0.97560    0.019
 4186.00    1.06367   0.97669    0.019
 4187.00    1.26471   0.97393    0.019
 4188.00    1.58819   0.96894    0.019
 4189.00    1.59797   0.96669    0.019
 4190.00    1.48535   0.97066    0.019
 4191.00    1.23064   0.97900    0.018
 4192.00    0.92873   0.98765    0.018
 4193.00    0.92515   0.99398    0.018
 4194.00    1.00471   0.99577    0.018
 4195.00    1.02923   0.98981    0.019
 4196.00    1.04112   0.97502    0.019
 4197.00    0.91101   0.95518    0.019
 4198.00    0.75480   0.93619    0.019
 4199.00    0.67921   0.92202    0.019
 4200.00    0.61502   0.91443    0.019
 4201.00    0.84344   0.91364    0.018
 4202.00    1.10170   0.91804    0.018
 4203.00    0.81514   0.92621    0.018
 4204.00    0.49309   0.93857    0.018
 4205.00    0.65511   0.95467    0.018
 4206.00    0.83203   0.97184    0.018
 4207.00    1.02465   0.98762    0.018
 4208.00    1.20962   1.00009    0.018
 4209.00    1.17022   1.00777    0.018
 4210.00    1.12544   1.01040    0.018
 4211.00    1.00230   1.00897    0.018
 4212.00    0.88546   1.00505    0.018
 4213.00    0.82823   0.99913    0.018
 4214.00    0.81546   0.99054    0.018
 4215.00    1.10830   0.98061    0.018
 4216.00    1.31761   0.97404    0.018
 4217.00    1.08304   0.97656    0.018
 4218.00    0.90398   0.99016    0.018
 4219.00    0.96198   1.00953    0.018
 4220.00    1.01601   1.02539    0.018
 4221.00    1.05605   1.03070    0.018
 4222.00    1.00494   1.02197    0.018
 4223.00    0.68385   0.99806    0.018
 4224.00    0.59390   0.96118    0.018
 4225.00    1.08722   0.91796    0.018
 4226.00    1.43472   0.87810    0.018
 4227.00    1.46531   0.85229    0.018
 4228.00    1.45394   0.84918    0.018
 4229.00    1.36343   0.87050    0.018
 4230.00    1.11237   0.90744    0.017
 4231.00    0.59698   0.94459    0.017
 4232.00    0.40178   0.97010    0.017
 4233.00    0.66878   0.97998    0.017
 4234.00    0.85376   0.97680    0.017
 4235.00    0.93460   0.96766    0.017
 4236.00    1.07748   0.95921    0.017
 4237.00    1.28977   0.95426    0.017
 4238.00    1.13231   0.95427    0.017
 4239.00    0.60999   0.96017    0.016
 4240.00    0.54191   0.97071    0.016
 4241.00    0.86913   0.98444    0.017
 4242.00    1.03592   1.00037    0.017
 4243.00    1.07972   1.01618    0.017
 4244.00    1.04411   1.02874    0.017
 4245.00    0.95500   1.03564    0.017
 4246.00    0.94912   1.03432    0.017
 4247.00    0.99237   1.02273    0.018
 4248.00    1.11804   1.00281    0.018
 4249.00    1.28612   0.98022    0.018
 4250.00    1.11186   0.96040    0.018
 4251.00    0.78486   0.94627    0.018
 4252.00    0.66746   0.93892    0.018
 4253.00    0.63042   0.93815    0.018
 4254.00    0.71955   0.94114    0.018
 4255.00    0.84979   0.94502    0.017
 4256.00    0.97822   0.95014    0.017
 4257.00    1.10615   0.95684    0.018
 4258.00    1.04959   0.96166    0.018
 4259.00    0.95169   0.96015    0.017
 4260.00    1.08815   0.95326    0.018
 4261.00    1.26653   0.94843    0.018
 4262.00    0.98477   0.95342    0.018
 4263.00    0.64006   0.97056    0.018
 4264.00    0.81325   0.99484    0.018
 4265.00    1.03702   1.01650    0.018
 4266.00    0.79725   1.02761    0.017
 4267.00    0.52914   1.02517    0.017
 4268.00    0.60559   1.00949    0.017
 4269.00    0.69140   0.98325    0.017
 4270.00    0.78866   0.95120    0.017
 4271.00    0.88554   0.91815    0.017
 4272.00    0.97233   0.88902    0.017
 4273.00    1.02113   0.86994    0.017
 4274.00    0.54779   0.86592    0.017
 4275.00    0.14607   0.87664    0.017
 4276.00    0.39501   0.89755    0.017
 4277.00    0.65405   0.92435    0.017
 4278.00    0.98035   0.95158    0.017
 4279.00    1.28436   0.97198    0.017
 4280.00    1.47298   0.98126    0.018
 4281.00    1.57509   0.98027    0.018
 4282.00    1.31606   0.97390   -2.000
 4283.00    1.05385   0.96738   -2.000
 4284.00    0.78066   0.96206   -2.000
 4285.00    0.58530   0.95654   -2.000
 4286.00    0.61618   0.94878   -2.000
 4287.00    0.74359   0.93731   -2.000
 4288.00    1.11041   0.92289   -2.000
 4289.00    1.33898   0.90737   -2.000
 4290.00    1.27198   0.89335   -2.000
 4291.00    1.17321   0.88535   -2.000
 4292.00    1.01547   0.88752   -2.000
 4293.00    0.94454   0.89841   -2.000
 4294.00    1.01442   0.91084   -2.000
 4295.00    1.08518   0.91709   -2.000
 4296.00    1.15720   0.91352   -2.000
 4297.00    1.19321   0.90097   -2.000
 4298.00    1.18417   0.88087    0.018
 4299.00    1.05984   0.85547    0.017
 4300.00    0.80834   0.82964    0.017
 4301.00    0.78473   0.80898    0.017
 4302.00    0.98285   0.79759    0.017
 4303.00    0.98421   0.79485    0.017
 4304.00    0.81676   0.79575    0.017
 4305.00    0.70229   0.79602    0.017
 4306.00    0.62787   0.79325    0.017
 4307.00    0.64320   0.78652    0.017
 4308.00    0.71814   0.77852    0.017
 4309.00    0.86089   0.77433    0.017
 4310.00    1.04306   0.77881    0.017
 4311.00    1.16749   0.79442    0.017
 4312.00    1.26265   0.81950    0.017
 4313.00    1.21329   0.85051    0.017
 4314.00    1.10052   0.88512    0.017
 4315.00    1.15745   0.92238    0.017
 4316.00    1.27830   0.96095    0.017
 4317.00    1.25836   0.99789    0.017
 4318.00    1.19341   1.02755    0.017
 4319.00    1.31623   1.04326    0.017
 4320.00    1.48922   1.04296    0.017
 4321.00    1.43388   1.02884    0.017
 4322.00    1.32857   1.00361    0.017
 4323.00    1.09929   0.97007    0.017
 4324.00    0.84844   0.93256    0.017
 4325.00    0.78586   0.89746    0.017
 4326.00    0.74818   0.87411    0.017
 4327.00    0.88358   0.87069    0.017
 4328.00    1.03514   0.88834    0.017
 4329.00    1.15634   0.91942    0.018
 4330.00    1.27580   0.95070    0.000
 4331.00    1.36564   0.97228    0.000
 4332.00    1.45073   0.98244    0.000
 4333.00    1.06822   0.98437    0.000
 4334.00    0.71446   0.97962    0.000
 4335.00    1.05068   0.96578    0.000
 4336.00    1.36234   0.93952    0.000
 4337.00    1.35443   0.89934    0.000
 4338.00    1.33137   0.84754    0.000
 4339.00    1.17592   0.79285    0.000
 4340.00    1.04394   0.74884    0.000
 4341.00    1.06355   0.72600    0.000
 4342.00    1.11069   0.72786    0.000
 4343.00    1.29680   0.75273    0.000
 4344.00    1.35293   0.79241    0.000
 4345.00    0.87855   0.83531    0.000
 4346.00    0.61397   0.87454    0.000
 4347.00    1.05916   0.90799    0.000
 4348.00    1.35071   0.93300    0.000
 4349.00    1.20388   0.94745    0.000
 4350.00    1.12660   0.95111    0.000
 4351.00    1.21890   0.94470    0.018
 4352.00    1.23913   0.93155    0.021
 4353.00    1.10778   0.91987    0.054
 4354.00    1.03205   0.91900   -1.000
 4355.00    1.05801   0.93133   -1.000
 4356.00    1.04997   0.95045   -1.000
 4357.00    0.98761   0.96884   -1.000
 4358.00    0.99769   0.98297   -1.000
 4359.00    1.10932   0.99211   -1.000
 4360.00    1.17932   0.99801   -1.000
 4361.00    1.19793   1.00488   -1.000
 4362.00    1.25413   1.01589   -1.000
 4363.00    1.35123   1.02950   -1.000
 4364.00    1.37046   1.04123    0.069
 4365.00    1.31499   1.04770    0.023
 4366.00    1.24220   1.04773    0.018
 4367.00    1.15475   1.04086    0.018
 4368.00    1.10024   1.02820    0.018
 4369.00    1.07028   1.01394    0.018
 4370.00    1.00818   1.00262    0.018
 4371.00    0.92506   0.99483    0.018
 4372.00    0.84408   0.98750    0.018
 4373.00    0.76433   0.97814    0.018
 4374.00    0.81397   0.96694    0.018
 4375.00    0.92814   0.95673    0.018
 4376.00    1.01656   0.95215    0.018
 4377.00    1.09387   0.95641    0.018
 4378.00    1.08145   0.96744    0.018
 4379.00    1.03582   0.97737    0.017
 4380.00    1.01963   0.97682    0.017
 4381.00    1.01268   0.96068    0.018
 4382.00    0.97752   0.93043    0.017
 4383.00    0.93498   0.89291    0.017
 4384.00    1.03700   0.85786    0.017
 4385.00    1.16991   0.83539    0.017
 4386.00    1.20070   0.83252    0.017
 4387.00    1.21421   0.84755    0.017
 4388.00    1.14214   0.87071    0.017
 4389.00    1.05913   0.89213    0.017
 4390.00    0.86504   0.90850    0.017
 4391.00    0.66104   0.92130    0.017
 4392.00    0.75323   0.93221    0.017
 4393.00    0.86120   0.94235    0.017
 4394.00    1.04398   0.95228    0.017
 4395.00    1.22355   0.96201    0.017
 4396.00    1.02366   0.97191    0.017
 4397.00    0.82984   0.98233    0.017
 4398.00    0.76940   0.99165    0.017
 4399.00    0.71667   0.99575    0.017
 4400.00    0.75902   0.99152    0.017
 4401.00    0.81239   0.97997    0.017
 4402.00    0.95854   0.96431    0.017
 4403.00    1.07718   0.94724    0.017
 4404.00    1.02342   0.92990    0.017
 4405.00    0.98857   0.91270    0.017
 4406.00    1.04679   0.89936    0.017
 4407.00    1.12758   0.89641    0.017
 4408.00    1.29851   0.90643    0.017
 4409.00    1.34831   0.92575    0.017
 4410.00    0.99637   0.94946    0.017
 4411.00    0.75939   0.97351    0.017
 4412.00    0.84447   0.99225    0.017
 4413.00    0.93381   0.99974    0.017
 4414.00    1.03336   0.99452    0.017
 4415.00    1.05967   0.98064    0.017
 4416.00    0.93442   0.96577    0.017
 4417.00    0.85489   0.95875    0.017
 4418.00    0.85766   0.96439    0.017
 4419.00    0.92960   0.97916    0.017
 4420.00    1.11039   0.99488    0.017
 4421.00    1.25722   1.00472    0.016
 4422.00    1.35711   1.00581    0.016
 4423.00    1.26330   0.99998    0.017
 4424.00    0.93390   0.99221    0.017
 4425.00    0.80992   0.98721    0.017
 4426.00    0.90621   0.98629    0.016
 4427.00    1.01946   0.98740    0.017
 4428.00    1.14875   0.98843    0.017
 4429.00    1.19645   0.98846    0.017
 4430.00    1.17611   0.98705    0.017
 4431.00    1.06773   0.98346    0.017
 4432.00    0.89471   0.97722    0.017
 4433.00    0.86256   0.96933    0.017
 4434.00    0.92124   0.96097    0.017
 4435.00    1.17593   0.95372    0.017
 4436.00    1.54117   0.95144    0.017
 4437.00    1.57757   0.95799    0.017
 4438.00    1.45253   0.97301    0.017
 4439.00    1.24507   0.99050    0.017
 4440.00    1.00265   1.00217    0.016
 4441.00    1.09610   1.00314    0.017
 4442.00    1.31163   0.99480    0.017
 4443.00    1.28581   0.98390    0.017
 4444.00    1.18578   0.97846    0.017
 4445.00    1.14029   0.98278    0.017
 4446.00    1.10877   0.99538    0.017
 4447.00    1.38376   1.01065    0.017
 4448.00    1.72263   1.02241    0.017
 4449.00    1.51828   1.02763    0.017
 4450.00    1.22468   1.02694    0.017
 4451.00    1.18960   1.02138    0.017
 4452.00    1.18640   1.01083    0.017
 4453.00    1.14724   0.99567    0.016
 4454.00    1.10502   0.97703    0.016
 4455.00    1.04919   0.95663    0.016
 4456.00    0.99269   0.93758    0.016
 4457.00    0.92473   0.92328    0.016
 4458.00    0.85947   0.91510    0.016
 4459.00    0.97602   0.91145    0.016
 4460.00    1.09230   0.90991    0.016
 4461.00    1.20302   0.91035    0.000
 4462.00    1.30354   0.91444    0.000
 4463.00    1.28401   0.92312    0.000
 4464.00    1.27184   0.93554    0.000
 4465.00    1.31926   0.94913    0.000
 4466.00    1.34151   0.95968    0.000
 4467.00    1.21061   0.96401    0.000
 4468.00    1.08326   0.96272    0.000
 4469.00    0.97299   0.95886    0.000
 4470.00    0.89752   0.95591    0.000
 4471.00    0.95798   0.95718    0.000
 4472.00    1.00467   0.96514    0.000
 4473.00    1.00657   0.97996    0.000
 4474.00    1.00183   0.99909    0.000
 4475.00    0.97882   1.01858    0.000
 4476.00    0.95407   1.03437    0.000
 4477.00    0.92519   1.04329    0.000
 4478.00    0.93537   1.04370    0.000
 4479.00    1.02512   1.03516    0.000
 4480.00    1.09753   1.01888    0.000
 4481.00    1.13921   0.99939    0.000
 4482.00    1.12216   0.98431    0.016
 4483.00    1.01401   0.98056    0.016
 4484.00    0.97951   0.98987    0.016
 4485.00    1.04534   1.00747    0.016
 4486.00    1.18987   1.02474    0.016
 4487.00    1.42879   1.03399    0.016
 4488.00    1.49571   1.03239    0.016
 4489.00    1.38077   1.02242    0.016
 4490.00    1.24046   1.00952    0.016
 4491.00    1.07648   0.99901    0.016
 4492.00    0.94065   0.99329    0.016
 4493.00    0.82798   0.99097    0.016
 4494.00    0.72602   0.98897    0.016
 4495.00    0.63181   0.98590    0.016
 4496.00    0.72712   0.98363    0.016
 4497.00    0.94283   0.98574    0.016
 4498.00    1.01170   0.99402    0.016
 4499.00    0.99900   1.00661    0.016
 4500.00    0.93996   1.02003    0.016
 4501.00    0.85853   1.03218    0.016
 4502.00    0.91480   1.04334    0.016
 4503.00    1.02853   1.05498    0.016
 4504.00    0.99288   1.06759    0.016
 4505.00    0.90393   1.07951    0.016
 4506.00    1.00751   1.08724    0.016
 4507.00    1.16915   1.08868    0.016
 4508.00    1.34645   1.08520    0.016
 4509.00    1.52767   1.07984    0.016
 4510.00    1.39807   1.07449    0.016
 4511.00    1.20527   1.06900    0.016
 4512.00    1.06205   1.06200    0.016
 4513.00    0.92674   1.05262    0.016
 4514.00    0.98777   1.04165    0.016
 4515.00    1.07213   1.03147    0.016
 4516.00    1.10503   1.02449    0.016
 4517.00    1.13376   1.02171    0.016
 4518.00    1.12217   1.02274    0.016
 4519.00    1.10874   1.02628    0.016
 4520.00    0.94391   1.03046    0.016
 4521.00    0.78145   1.03340    0.016
 4522.00    0.83438   1.03289    0.016
 4523.00    0.88603   1.02662    0.016
 4524.00    0.91364   1.01380    0.016
 4525.00    0.94350   0.99545    0.016
 4526.00    0.99869   0.97411    0.016
 4527.00    1.05174   0.95254    0.016
 4528.00    1.08807   0.93311    0.016
 4529.00    1.13084   0.91874    0.016
 4530.00    1.21168   0.91163    0.016
 4531.00    1.29569   0.91159    0.016
 4532.00    1.39457   0.91627    0.016
 4533.00    1.41779   0.92258    0.016
 4534.00    1.15188   0.92879    0.016
 4535.00    0.96325   0.93587    0.016
 4536.00    1.02107   0.94591    0.016
 4537.00    1.03622   0.96019    0.016
 4538.00    0.93607   0.97713    0.016
 4539.00    0.85635   0.99237    0.016
 4540.00    0.82399   1.00155    0.015
 4541.00    0.91754   1.00333    0.015
 4542.00    1.26348   1.00062    0.016
 4543.00    1.42699   0.99724    0.016
 4544.00    1.27199   0.99479    0.016
 4545.00    1.11318   0.99274    0.016
 4546.00    0.94854   0.98962    0.016
 4547.00    0.88762   0.98474    0.016
 4548.00    0.96597   0.97907    0.016
 4549.00    1.02256   0.97382    0.016
 4550.00    1.05346   0.96935    0.000
 4551.00    1.11788   0.96577    0.000
 4552.00    1.21725   0.96323    0.000
 4553.00    1.23956   0.96200    0.000
 4554.00    1.19102   0.96207    0.000
 4555.00    1.15612   0.96415    0.000
 4556.00    1.13227   0.97050    0.000
 4557.00    1.10655   0.98231    0.000
 4558.00    1.07950   0.99805    0.000
 4559.00    0.96296   1.01428    0.000
 4560.00    0.79040   1.02688    0.000
 4561.00    0.79541   1.03281    0.000
 4562.00    0.89754   1.03144    0.000
 4563.00    0.89260   1.02423    0.000
 4564.00    0.83677   1.01419    0.000
 4565.00    0.82954   1.00520    0.000
 4566.00    0.84224   1.00075    0.000
 4567.00    0.75595   1.00269    0.000
 4568.00    0.63497   1.00957    0.000
 4569.00    0.68322   1.01717    0.000
 4570.00    0.78150   1.02137    0.000
 4571.00    1.18796   1.02085    0.000
 4572.00    1.66992   1.01784    0.000
 4573.00    1.47991   1.01580    0.000
 4574.00    1.15672   1.01648    0.000
 4575.00    0.92313   1.01934    0.000
 4576.00    0.70341   1.02157    0.000
 4577.00    0.86779   1.01961    0.000
 4578.00    1.07612   1.01223    0.000
 4579.00    0.94996   1.00075    0.000
 4580.00    0.79810   0.98749    0.000
 4581.00    0.87103   0.97526    0.000
 4582.00    0.95331   0.96654    0.000
 4583.00    1.04203   0.96251    0.000
 4584.00    1.12735   0.96270    0.000
 4585.00    1.06450   0.96578    0.000
 4586.00    1.00985   0.97079    0.000
 4587.00    1.09858   0.97765    0.000
 4588.00    1.17406   0.98605    0.000
 4589.00    1.10778   0.99420    0.000
 4590.00    1.03636   0.99940    0.000
 4591.00    0.92613   0.99945    0.000
 4592.00    0.84459   0.99409    0.000
 4593.00    0.92797   0.98527    0.000
 4594.00    0.99324   0.97600    0.000
 4595.00    0.97574   0.96878    0.000
 4596.00    0.98596   0.96468    0.000
 4597.00    1.09987   0.96341    0.000
 4598.00    1.18766   0.96405    0.000
 4599.00    1.19378   0.96567    0.000
 4600.00    1.16461   0.96731    0.000
 4601.00    1.04179   0.96839    0.000
 4602.00    0.92792   0.96903    0.000
 4603.00    0.83445   0.96977    0.000
 4604.00    0.72942   0.97156    0.000
 4605.00    0.60159   0.97551    0.000
 4606.00    0.53606   0.98239    0.000
 4607.00    0.57767   0.99262    0.000
 4608.00    0.69326   1.00552    0.000
 4609.00    0.92025   1.01879    0.000
 4610.00    1.14431   1.02917    0.000
 4611.00    1.36447   1.03415    0.000
 4612.00    1.43243   1.03351    0.000
 4613.00    1.32301   1.02946    0.000
 4614.00    1.14023   1.02526    0.000
 4615.00    0.88206   1.02320    0.000
 4616.00    0.84526   1.02343    0.000
 4617.00    1.00914   1.02467    0.000
 4618.00    1.14519   1.02553    0.000
 4619.00    1.25901   1.02541    0.000
 4620.00    1.16970   1.02492    0.000
 4621.00    0.93761   1.02501    0.000
 4622.00    0.97269   1.02585    0.000
 4623.00    1.17247   1.02694    0.000
 4624.00    1.17874   1.02739    0.000
 4625.00    1.08080   1.02633    0.000
 4626.00    0.97548   1.02380    0.000
 4627.00    0.86671   1.02067    0.000
 4628.00    0.84469   1.01770    0.000
 4629.00    0.85765   1.01531    0.000
 4630.00    0.91193   1.01368    0.000
 4631.00    0.98043   1.01236    0.000
 4632.00    1.09838   1.01032    0.000
 4633.00    1.23066   1.00671    0.000
 4634.00    1.06680   1.00120    0.000
 4635.00    0.83202   0.99387    0.000
 4636.00    0.91771   0.98522    0.000
 4637.00    1.06529   0.97623    0.000
 4638.00    1.05531   0.96792    0.000
 4639.00    1.02167   0.96113    0.000
 4640.00    1.00369   0.95673    0.000
 4641.00    0.98744   0.95515    0.000
 4642.00    1.07619   0.95549    0.000
 4643.00    1.17258   0.95534    0.000
 4644.00    0.98207   0.95190    0.000
 4645.00    0.78072   0.94381    0.000
 4646.00    0.86900   0.93198    0.000
 4647.00    0.95701   0.91977    0.000
 4648.00    0.98076   0.91163    0.000
 4649.00    0.99667   0.91062    0.000
 4650.00    0.88464   0.91709    0.000
 4651.00    0.79390   0.92877    0.000
 4652.00    0.92106   0.94159    0.000
 4653.00    1.03283   0.95156    0.000
 4654.00    1.03215   0.95684    0.000
 4655.00    1.02110   0.95844    0.000
 4656.00    0.95199   0.95958    0.000
 4657.00    0.91752   0.96376    0.000
 4658.00    1.03753   0.97259    0.000
 4659.00    1.14192   0.98474    0.000
 4660.00    1.18909   0.99611    0.000
 4661.00    1.15327   1.00194    0.000
 4662.00    0.86284   0.99932    0.000
 4663.00    0.64624   0.98807    0.000
 4664.00    0.62217   0.97025    0.000
 4665.00    0.64186   0.94881    0.000
 4666.00    0.75964   0.92679    0.000
 4667.00    0.88965   0.90737    0.000
 4668.00    1.04345   0.89410    0.000
 4669.00    1.11274   0.88993    0.000
 4670.00    1.03893   0.89548    0.000
 4671.00    0.91365   0.90848    0.000
 4672.00    0.71202   0.92447    0.000
 4673.00    0.63218   0.93893    0.000
 4674.00    0.71121   0.94941    0.000
 4675.00    0.81919   0.95592    0.000
 4676.00    0.96041   0.95937    0.000
 4677.00    1.08242   0.96014    0.000
 4678.00    1.18495   0.95790    0.000
 4679.00    1.19243   0.95259    0.000
 4680.00    1.11496   0.94536    0.000
 4681.00    1.06841   0.93847    0.000
 4682.00    1.04620   0.93428    0.000
 4683.00    1.02515   0.93395    0.000
 4684.00    1.00492   0.93680    0.000
 4685.00    0.98930   0.94089    0.000
 4686.00    0.97650   0.94425    0.000
 4687.00    0.96926   0.94583    0.000
 4688.00    0.96497   0.94559    0.000
 4689.00    0.98253   0.94426    0.000
 4690.00    1.01016   0.94284    0.000
 4691.00    1.01116   0.94212    0.000
 4692.00    1.00162   0.94274    0.000
 4693.00    0.90992   0.94511    0.000
 4694.00    0.79046   0.94896    0.000
 4695.00    0.93758   0.95307    0.000
 4696.00    1.16035   0.95543    0.000
 4697.00    1.23898   0.95399    0.000
 4698.00    1.28386   0.94784    0.000
 4699.00    1.20430   0.93788    0.000
 4700.00    1.10133   0.92646    0.000
 4701.00    0.90546   0.91612    0.000
 4702.00    0.69607   0.90863    0.000
 4703.00    0.75096   0.90469    0.000
 4704.00    0.83380   0.90401    0.000
 4705.00    0.82270   0.90545    0.000
 4706.00    0.80515   0.90754    0.000
 4707.00    0.94592   0.90915    0.000
 4708.00    1.09207   0.91012    0.000
 4709.00    0.96022   0.91123    0.000
 4710.00    0.83272   0.91344    0.000
 4711.00    0.86070   0.91695    0.000
 4712.00    0.89492   0.92090    0.000
 4713.00    1.02509   0.92415    0.000
 4714.00    1.13723   0.92660    0.000
 4715.00    1.07247   0.92978    0.000
 4716.00    1.03501   0.93583    0.000
 4717.00    1.19064   0.94576    0.000
 4718.00    1.32002   0.95872    0.000
 4719.00    1.30656   0.97232    0.000
 4720.00    1.26148   0.98386    0.000
 4721.00    1.07860   0.99161    0.000
 4722.00    0.92516   0.99524    0.000
 4723.00    0.87733   0.99545    0.000
 4724.00    0.85101   0.99293    0.000
 4725.00    0.88941   0.98735    0.000
 4726.00    0.94361   0.97774    0.000
 4727.00    1.03825   0.96367    0.000
 4728.00    1.11215   0.94648    0.000
 4729.00    1.14032   0.92949    0.000
 4730.00    1.18681   0.91660    0.000
 4731.00    1.26834   0.91048    0.000
 4732.00    1.23934   0.91140    0.000
 4733.00    1.02596   0.91742    0.000
 4734.00    0.90858   0.92551    0.000
 4735.00    0.93157   0.93305    0.000
 4736.00    0.98128   0.93885    0.000
 4737.00    1.06534   0.94315    0.000
 4738.00    1.05784   0.94687    0.000
 4739.00    0.94661   0.95064    0.000
 4740.00    0.96617   0.95439    0.000
 4741.00    1.11640   0.95764    0.000
 4742.00    1.08540   0.96022    0.000
 4743.00    0.89471   0.96245    0.000
 4744.00    0.77931   0.96479    0.000
 4745.00    0.72236   0.96757    0.000
 4746.00    0.73825   0.97081    0.000
 4747.00    0.80385   0.97418    0.000
 4748.00    0.92908   0.97702    0.000
 4749.00    1.08999   0.97852    0.000
 4750.00    1.10519   0.97797    0.000
 4751.00    1.04432   0.97493    0.000
 4752.00    0.98669   0.96944    0.000
 4753.00    0.93052   0.96216    0.000
 4754.00    0.95934   0.95437    0.000
 4755.00    1.02126   0.94755    0.000
 4756.00    1.00318   0.94291    0.000
 4757.00    0.95861   0.94091    0.000
 4758.00    0.95452   0.94104    0.000
 4759.00    0.96170   0.94187    0.000
 4760.00    1.03387   0.94147    0.000
 4761.00    1.12091   0.93811    0.016
 4762.00    1.03847   0.93104    0.016
 4763.00    0.92500   0.92094    0.016
 4764.00    0.85391   0.90976    0.016
 4765.00    0.78879   0.90007    0.016
 4766.00    0.77016   0.89427    0.016
 4767.00    0.75624   0.89385    0.016
 4768.00    0.68439   0.89887    0.016
 4769.00    0.60878   0.90781    0.015
 4770.00    0.62052   0.91810    0.016
 4771.00    0.63531   0.92744    0.016
 4772.00    0.85606   0.93489    0.016
 4773.00    1.07591   0.94100    0.015
 4774.00    1.26999   0.94691    0.016
 4775.00    1.44399   0.95322    0.016
 4776.00    1.32792   0.95945    0.016
 4777.00    1.22627   0.96438    0.016
 4778.00    1.26032   0.96690    0.016
 4779.00    1.27258   0.96638    0.016
 4780.00    1.13564   0.96280    0.016
 4781.00    1.01964   0.95658    0.015
 4782.00    1.01458   0.94857    0.015
 4783.00    0.98757   0.93984    0.015
 4784.00    0.86716   0.93153    0.015
 4785.00    0.81661   0.92456    0.015
 4786.00    1.01158   0.91942    0.015
 4787.00    1.12979   0.91622    0.015
 4788.00    1.02119   0.91494    0.015
 4789.00    0.98040   0.91571    0.015
 4790.00    1.11038   0.91888    0.015
 4791.00    1.14150   0.92488    0.015
 4792.00    0.95826   0.93385    0.015
 4793.00    0.84497   0.94513    0.015
 4794.00    0.86333   0.95701    0.015
 4795.00    0.85653   0.96686    0.015
 4796.00    0.80838   0.97215    0.015
 4797.00    0.77475   0.97159    0.015
 4798.00    0.76206   0.96596    0.015
 4799.00    0.82555   0.95796    0.015
 4800.00    0.98560   0.95097    0.016
 4801.00    0.96902   0.94741    0.016
 4802.00    0.75518   0.94755    0.015
 4803.00    0.79295   0.94953    0.015
 4804.00    1.07857   0.95058    0.016
 4805.00    1.10959   0.94874    0.015
 4806.00    0.91944   0.94388    0.015
 4807.00    0.84514   0.93756    0.015
 4808.00    0.85952   0.93197    0.015
 4809.00    0.86889   0.92879    0.015
 4810.00    0.87491   0.92853    0.015
 4811.00    0.90462   0.93065    0.015
 4812.00    0.94831   0.93406    0.015
 4813.00    1.00485   0.93791    0.015
 4814.00    1.06800   0.94190    0.015
 4815.00    1.14418   0.94630    0.015
 4816.00    1.22615   0.95136    0.015
 4817.00    1.12629   0.95693    0.015
 4818.00    0.95686   0.96217    0.015
 4819.00    0.88127   0.96572    0.015
 4820.00    0.83620   0.96611    0.015
 4821.00    0.89079   0.96236    0.015
 4822.00    0.97250   0.95462    0.015
 4823.00    1.11122   0.94447    0.015
 4824.00    1.26267   0.93451    0.015
 4825.00    1.23323   0.92723    0.015
 4826.00    1.17155   0.92372    0.015
 4827.00    1.06898   0.92319    0.015
 4828.00    0.96084   0.92368    0.015
 4829.00    0.81070   0.92337    0.015
 4830.00    0.65648   0.92156    0.015
 4831.00    0.64794   0.91877    0.015
 4832.00    0.64823   0.91622    0.015
 4833.00    0.70013   0.91509    0.015
 4834.00    0.75423   0.91589    0.014
 4835.00    0.95609   0.91806    0.015
 4836.00    1.14611   0.92019    0.015
 4837.00    1.02683   0.92063    0.014
 4838.00    0.91227   0.91838    0.014
 4839.00    0.86212   0.91357    0.014
 4840.00    0.81535   0.90741    0.015
 4841.00    0.79908   0.90160    0.014
 4842.00    0.78025   0.89765    0.014
 4843.00    0.74447   0.89630    0.014
 4844.00    0.73427   0.89740    0.014
 4845.00    0.85615   0.89989    0.014
 4846.00    0.96794   0.90219    0.015
 4847.00    1.03776   0.90276    0.015
 4848.00    1.06974   0.90089    0.000
 4849.00    0.97140   0.89697    0.000
 4850.00    0.90295   0.89198    0.000
 4851.00    0.92119   0.88648    0.000
 4852.00    0.94714   0.87993    0.000
 4853.00    0.99217   0.87100    0.000
 4854.00    1.01799   0.85864    0.000
 4855.00    1.00284   0.84281    0.000
 4856.00    0.97170   0.82430    0.000
 4857.00    0.91090   0.80379    0.000
 4858.00    0.84676   0.78118    0.000
 4859.00    0.77718   0.75623    0.000
 4860.00    0.82556   0.73020    0.000
 4861.00    1.04144   0.70689    0.000
 4862.00    1.18361   0.69179    0.000
 4863.00    1.23370   0.68940    0.000
 4864.00    1.09696   0.70061    0.000
 4865.00    0.75450   0.72214    0.000
 4866.00    0.71273   0.74815    0.000
 4867.00    0.96298   0.77264    0.000
 4868.00    1.02360   0.79130    0.000
 4869.00    0.92179   0.80219    0.000
 4870.00    0.82574   0.80578    0.000
 4871.00    0.73403   0.80463    0.000
 4872.00    0.74585   0.80259    0.000
 4873.00    0.82627   0.80336    0.000
 4874.00    0.82524   0.80912    0.000
 4875.00    0.77693   0.81977    0.015
 4876.00    0.77100   0.83356    0.015
 4877.00    0.78650   0.84824    0.015
 4878.00    0.93394   0.86195    0.015
 4879.00    1.13916   0.87325    0.015
 4880.00    1.26480   0.88104    0.015
 4881.00    1.36054   0.88460    0.015
 4882.00    1.29202   0.88387    0.015
 4883.00    1.17112   0.87950    0.015
 4884.00    1.15574   0.87259    0.015
 4885.00    1.16850   0.86429    0.015
 4886.00    0.90596   0.85569    0.015
 4887.00    0.58337   0.84764    0.015
 4888.00    0.63529   0.84072    0.015
 4889.00    0.75214   0.83532    0.015
 4890.00    0.81785   0.83221    0.015
 4891.00    0.87683   0.83303    0.015
 4892.00    0.99245   0.83995    0.015
 4893.00    1.11334   0.85427    0.016
 4894.00    1.15669   0.87495    0.016
 4895.00    1.19565   0.89835    0.016
 4896.00    0.96494   0.91955    0.016
 4897.00    0.73010   0.93450    0.015
 4898.00    0.71672   0.94134    0.015
 4899.00    0.71622   0.94072    0.016
 4900.00    1.02157   0.93500    0.016
 4901.00    1.28605   0.92712    0.016
 4902.00    1.02203   0.91976    0.016
 4903.00    0.78218   0.91471    0.016
 4904.00    0.75255   0.91273    0.015
 4905.00    0.73198   0.91336    0.015
 4906.00    0.76975   0.91497    0.016
 4907.00    0.82860   0.91521    0.016
 4908.00    0.99349   0.91213    0.016
 4909.00    1.14109   0.90542    0.016
 4910.00    1.21829   0.89687    0.016
 4911.00    1.22819   0.88958    0.016
 4912.00    1.01096   0.88631    0.016
 4913.00    0.77922   0.88790    0.016
 4914.00    0.50619   0.89265    0.016
 4915.00    0.41485   0.89687    0.016
 4916.00    0.76553   0.89627    0.016
 4917.00    0.98869   0.88767    0.016
 4918.00    0.94415   0.87060    0.016
 4919.00    0.97688   0.84797    0.016
 4920.00    1.15060   0.82527    0.016
 4921.00    1.25734   0.80852    0.015
 4922.00    1.25726   0.80169    0.015
 4923.00    1.16226   0.80547    0.015
 4924.00    0.93440   0.81771    0.015
 4925.00    0.81078   0.83516    0.015
 4926.00    0.81554   0.85496    0.015
 4927.00    0.84064   0.87509    0.015
 4928.00    0.88782   0.89388    0.015
 4929.00    0.94734   0.90958    0.015
 4930.00    1.01868   0.92033    0.015
 4931.00    1.03586   0.92475    0.015
 4932.00    1.00732   0.92251    0.015
 4933.00    0.87077   0.91472    0.015
 4934.00    0.65391   0.90352    0.015
 4935.00    0.60397   0.89119    0.015
 4936.00    0.66305   0.87928    0.015
 4937.00    0.68503   0.86865    0.015
 4938.00    0.68580   0.86024    0.014
 4939.00    0.85160   0.85565    0.014
 4940.00    1.09956   0.85677    0.000
 4941.00    1.18855   0.86441    0.000
 4942.00    1.20907   0.87730    0.000
 4943.00    1.12219   0.89231    0.000
 4944.00    0.99566   0.90603    0.000
 4945.00    1.01537   0.91631    0.000
 4946.00    1.08085   0.92292    0.000
 4947.00    1.18927   0.92705    0.000
 4948.00    1.30889   0.93019    0.000
 4949.00    1.13002   0.93315    0.000
 4950.00    0.88758   0.93566    0.000
 4951.00    0.87560   0.93661    0.000
 4952.00    0.90245   0.93461    0.000
 4953.00    1.08237   0.92842    0.000
 4954.00    1.28177   0.91733    0.000
 4955.00    1.09010   0.90162    0.000
 4956.00    0.86374   0.88300    0.000
 4957.00    0.66266   0.86489    0.000
 4958.00    0.46290   0.85169    0.000
 4959.00    0.66091   0.84700    0.000
 4960.00    0.86493   0.85162    0.000
 4961.00    0.94413   0.86283    0.000
 4962.00    1.01425   0.87559    0.000
 4963.00    0.88676   0.88504    0.000
 4964.00    0.77419   0.88842    0.000
 4965.00    0.84480   0.88577    0.000
 4966.00    0.90194   0.87923    0.000
 4967.00    0.84627   0.87191    0.000
 4968.00    0.79107   0.86658    0.000
 4969.00    0.73882   0.86495    0.000
 4970.00    0.70479   0.86739    0.000
 4971.00    0.76013   0.87320    0.000
 4972.00    0.82494   0.88097    0.000
 4973.00    0.92746   0.88898    0.000
 4974.00    0.98152   0.89545    0.000
 4975.00    0.87524   0.89877    0.000
 4976.00    0.77116   0.89787    0.000
 4977.00    0.67327   0.89233    0.000
 4978.00    0.56117   0.88246    0.000
 4979.00    0.41506   0.86906    0.000
 4980.00    0.38166   0.85317    0.000
 4981.00    0.58107   0.83609    0.000
 4982.00    0.71589   0.81961    0.000
 4983.00    0.73469   0.80612    0.000
 4984.00    0.70100   0.79823    0.000
 4985.00    0.58484   0.79772    0.000
 4986.00    0.59075   0.80454    0.000
 4987.00    0.76503   0.81655    0.000
 4988.00    0.93513   0.83026    0.000
 4989.00    1.10014   0.84231    0.000
 4990.00    1.09352   0.85070    0.000
 4991.00    0.90321   0.85528    0.000
 4992.00    0.75532   0.85720    0.000
 4993.00    0.64749   0.85803    0.000
 4994.00    0.62002   0.85881    0.000
 4995.00    0.65944   0.85967    0.000
 4996.00    0.74731   0.85992    0.000
 4997.00    0.87069   0.85838    0.000
 4998.00    1.00559   0.85402    0.000
 4999.00    1.14791   0.84650    0.000
 5000.00    1.07196   0.83652    0.000
 5001.00    0.87315   0.82553    0.000
 5002.00    0.71867   0.81504    0.000
 5003.00    0.58591   0.80593    0.000
 5004.00    0.73909   0.79845    0.000
 5005.00    1.01336   0.79275    0.000
 5006.00    1.09478   0.78942    0.000
 5007.00    1.10628   0.78932    0.000
 5008.00    0.99413   0.79258    0.000
 5009.00    0.84404   0.79778    0.000
 5010.00    0.73368   0.80211    0.000
 5011.00    0.63348   0.80266    0.000
 5012.00    0.80240   0.79811    0.000
 5013.00    1.02723   0.78947    0.000
 5014.00    0.83725   0.77954    0.000
 5015.00    0.57936   0.77147    0.000
 5016.00    0.56073   0.76728    0.000
 5017.00    0.57147   0.76732    0.000
 5018.00    0.86290   0.77060    0.000
 5019.00    1.17806   0.77564    0.000
 5020.00    0.92778   0.78121    0.000
 5021.00    0.64986   0.78666    0.000
 5022.00    0.80770   0.79187    0.000
 5023.00    0.96677   0.79699    0.000
 5024.00    0.78969   0.80209    0.000
 5025.00    0.62584   0.80694    0.000
 5026.00    0.72719   0.81121    0.000
 5027.00    0.82150   0.81489    0.000
 5028.00    0.83367   0.81865    0.000
 5029.00    0.84584   0.82354    0.014
 5030.00    0.85814   0.83030    0.014
 5031.00    0.86936   0.83855    0.014
 5032.00    0.87400   0.84669    0.014
 5033.00    0.87004   0.85236    0.015
 5034.00    0.82497   0.85343    0.014
 5035.00    0.81567   0.84879    0.014
 5036.00    0.94570   0.83877    0.014
 5037.00    0.99092   0.82477    0.015
 5038.00    0.76108   0.80866    0.015
 5039.00    0.58641   0.79242    0.015
 5040.00    0.56317   0.77830    0.014
 5041.00    0.57727   0.76913    0.014
 5042.00    0.67919   0.76770    0.014
 5043.00    0.82433   0.77534    0.014
 5044.00    1.05731   0.79061    0.014
 5045.00    1.11266   0.80931    0.014
 5046.00    0.85370   0.82591    0.014
 5047.00    0.72067   0.83590    0.014
 5048.00    0.78260   0.83755    0.013
 5049.00    0.79085   0.83234    0.013
 5050.00    0.72614   0.82397    0.014
 5051.00    0.70290   0.81667    0.014
 5052.00    0.72928   0.81351    0.014
 5053.00    0.82019   0.81563    0.014
 5054.00    0.97920   0.82231    0.014
 5055.00    0.98635   0.83172    0.014
 5056.00    0.85212   0.84186    0.014
 5057.00    0.74382   0.85124    0.013
 5058.00    0.65678   0.85911    0.014
 5059.00    0.61596   0.86526    0.014
 5060.00    0.60853   0.86941    0.014
 5061.00    0.64191   0.87094    0.014
 5062.00    0.70117   0.86892    0.014
 5063.00    0.67859   0.86268    0.014
 5064.00    0.61064   0.85260    0.014
 5065.00    0.56292   0.84033    0.014
 5066.00    0.52496   0.82838    0.014
 5067.00    0.64120   0.81908    0.014
 5068.00    0.82163   0.81361    0.014
 5069.00    0.91756   0.81172    0.014
 5070.00    0.98340   0.81219    0.015
 5071.00    0.91428   0.81357    0.014
 5072.00    0.80456   0.81480    0.014
 5073.00    0.73284   0.81543    0.014
 5074.00    0.67061   0.81536    0.014
 5075.00    0.69318   0.81442    0.014
 5076.00    0.73294   0.81202    0.015
 5077.00    0.70316   0.80729    0.014
 5078.00    0.66233   0.79970    0.014
 5079.00    0.64514   0.78975    0.014
 5080.00    0.63076   0.77923    0.014
 5081.00    0.86343   0.77075    0.014
 5082.00    1.11598   0.76662    0.014
 5083.00    1.03176   0.76788    0.014
 5084.00    0.93239   0.77397    0.014
 5085.00    0.79765   0.78322    0.014
 5086.00    0.66665   0.79366    0.013
 5087.00    0.74236   0.80373    0.014
 5088.00    0.81265   0.81253    0.014
 5089.00    0.78219   0.81992    0.014
 5090.00    0.74914   0.82615    0.014
 5091.00    0.68716   0.83152    0.014
 5092.00    0.62760   0.83594    0.014
 5093.00    0.58696   0.83874    0.014
 5094.00    0.55944   0.83880    0.014
 5095.00    0.60914   0.83507    0.014
 5096.00    0.67520   0.82721    0.015
 5097.00    0.81761   0.81615    0.014
 5098.00    0.91305   0.80410    0.014
 5099.00    0.82947   0.79391    0.014
 5100.00    0.75011   0.78793    0.014
 5101.00    0.68418   0.78701    0.014
 5102.00    0.65784   0.79007    0.014
 5103.00    0.73823   0.79466    0.014
 5104.00    0.77473   0.79817    0.014
 5105.00    0.70975   0.79888    0.014
 5106.00    0.69906   0.79652    0.014
 5107.00    0.79699   0.79197    0.014
 5108.00    0.85517   0.78685    0.014
 5109.00    0.84411   0.78287    0.014
 5110.00    0.87512   0.78143    0.014
 5111.00    0.97031   0.78327    0.014
 5112.00    0.97427   0.78837    0.014
 5113.00    0.85596   0.79599    0.014
 5114.00    0.71060   0.80499    0.014
 5115.00    0.53331   0.81421    0.014
 5116.00    0.47025   0.82259    0.014
 5117.00    0.52605   0.82915    0.014
 5118.00    0.64541   0.83288    0.014
 5119.00    0.82312   0.83280    0.014
 5120.00    0.85671   0.82823    0.014
 5121.00    0.77370   0.81920    0.014
 5122.00    0.74711   0.80666    0.014
 5123.00    0.76068   0.79241    0.013
 5124.00    0.75191   0.77862    0.013
 5125.00    0.72920   0.76720    0.013
 5126.00    0.78547   0.75931    0.013
 5127.00    0.88486   0.75521    0.014
 5128.00    0.90963   0.75448    0.014
 5129.00    0.89900   0.75651    0.014
 5130.00    0.89735   0.76074    0.014
 5131.00    0.89938   0.76671    0.014
 5132.00    0.92421   0.77377    0.014
 5133.00    0.95701   0.78102    0.013
 5134.00    0.87300   0.78728    0.013
 5135.00    0.75455   0.79133    0.013
 5136.00    0.72307   0.79224    0.014
 5137.00    0.71282   0.78979    0.014
 5138.00    0.74081   0.78462    0.014
 5139.00    0.77635   0.77813    0.014
 5140.00    0.72957   0.77189    0.014
 5141.00    0.67009   0.76696    0.014
 5142.00    0.73115   0.76366    0.014
 5143.00    0.80595   0.76165    0.014
 5144.00    0.76443   0.76036    0.014
 5145.00    0.71404   0.75933    0.014
 5146.00    0.69393   0.75832    0.014
 5147.00    0.67506   0.75733    0.014
 5148.00    0.58959   0.75647    0.014
 5149.00    0.50781   0.75582    0.014
 5150.00    0.60462   0.75530    0.014
 5151.00    0.69649   0.75483    0.014
 5152.00    0.70274   0.75459    0.014
 5153.00    0.70373   0.75528    0.014
 5154.00    0.64879   0.75788    0.014
 5155.00    0.62805   0.76317    0.014
 5156.00    0.86479   0.77116    0.014
 5157.00    1.04466   0.78089    0.014
 5158.00    0.89883   0.79059    0.015
 5159.00    0.77654   0.79823    0.015
 5160.00    0.76151   0.80201    0.015
 5161.00    0.76286   0.80066    0.015
 5162.00    0.82528   0.79339    0.015
 5163.00    0.84471   0.77978    0.014
 5164.00    0.73002   0.75987    0.014
 5165.00    0.62594   0.73457    0.014
 5166.00    0.54998   0.70604    0.014
 5167.00    0.50134   0.67766    0.014
 5168.00    0.51484   0.65311    0.014
 5169.00    0.50488   0.63498    0.014
 5170.00    0.44873   0.62393    0.014
 5171.00    0.39037   0.61909    0.014
 5172.00    0.32823   0.61950    0.014
 5173.00    0.42752   0.62523    0.015
 5174.00    0.76942   0.63706    0.015
 5175.00    0.93434   0.65509    0.015
 5176.00    0.86547   0.67729    0.014
 5177.00    0.88102   0.69972    0.014
 5178.00    0.99476   0.71756    0.014
 5179.00    1.02393   0.72686    0.014
 5180.00    0.96632   0.72562    0.014
 5181.00    0.88466   0.71444    0.014
 5182.00    0.78123   0.69663    0.014
 5183.00    0.77078   0.67773    0.013
 5184.00    0.83448   0.66408    0.013
 5185.00    0.77810   0.66065    0.013
 5186.00    0.63748   0.66898    0.013
 5187.00    0.58851   0.68654    0.013
 5188.00    0.59595   0.70788    0.013
 5189.00    0.52746   0.72704    0.013
 5190.00    0.41816   0.73977    0.000
 5191.00    0.50631   0.74477    0.000
 5192.00    0.68664   0.74360    0.000
 5193.00    0.77244   0.73955    0.000
 5194.00    0.82023   0.73617    0.000
 5195.00    0.80726   0.73602    0.000
 5196.00    0.77344   0.74002    0.000
 5197.00    0.79632   0.74755    0.000
 5198.00    0.83558   0.75697    0.000
 5199.00    0.85269   0.76620    0.000
 5200.00    0.86453   0.77309    0.000
 5201.00    0.94019   0.77582    0.000
 5202.00    1.02815   0.77315    0.000
 5203.00    0.91365   0.76476    0.000
 5204.00    0.76888   0.75141    0.000
 5205.00    0.74896   0.73506    0.000
 5206.00    0.74272   0.71848    0.000
 5207.00    0.68092   0.70477    0.000
 5208.00    0.61510   0.69663    0.000
 5209.00    0.61723   0.69576    0.000
 5210.00    0.62189   0.70239    0.000
 5211.00    0.69933   0.71517    0.013
 5212.00    0.77403   0.73133    0.013
 5213.00    0.73700   0.74748    0.014
 5214.00    0.70997   0.76071    0.014
 5215.00    0.84532   0.76966    0.014
 5216.00    0.95589   0.77491    0.014
 5217.00    0.81432   0.77837    0.014
 5218.00    0.69407   0.78209    0.014
 5219.00    0.72896   0.78692    0.014
 5220.00    0.75640   0.79207    0.014
 5221.00    0.74233   0.79536    0.014
 5222.00    0.73519   0.79434    0.014
 5223.00    0.75886   0.78737    0.014
 5224.00    0.79007   0.77459    0.014
 5225.00    0.84885   0.75823    0.014
 5226.00    0.85472   0.74215    0.014
 5227.00    0.69863   0.73060    0.014
 5228.00    0.62178   0.72660    0.014
 5229.00    0.75114   0.73055    0.014
 5230.00    0.85087   0.74016    0.014
 5231.00    0.88435   0.75160    0.014
 5232.00    0.86054   0.76146    0.014
 5233.00    0.72568   0.76828    0.014
 5234.00    0.72880   0.77283    0.014
 5235.00    0.96518   0.77714    0.014
 5236.00    1.02736   0.78299    0.014
 5237.00    0.83154   0.79086    0.014
 5238.00    0.77940   0.79980    0.014
 5239.00    0.91434   0.80825    0.014
 5240.00    0.98501   0.81487    0.014
 5241.00    0.98199   0.81912    0.014
 5242.00    0.90753   0.82109    0.014
 5243.00    0.76082   0.82106    0.013
 5244.00    0.79451   0.81902    0.013
 5245.00    0.98915   0.81466    0.013
 5246.00    1.00320   0.80776    0.014
 5247.00    0.87527   0.79865    0.014
 5248.00    0.73201   0.78845    0.013
 5249.00    0.57815   0.77878    0.013
 5250.00    0.63784   0.77119    0.013
 5251.00    0.82700   0.76665    0.013
 5252.00    0.91538   0.76536    0.013
 5253.00    0.95042   0.76701    0.014
 5254.00    0.89754   0.77111    0.013
 5255.00    0.80428   0.77726    0.013
 5256.00    0.80022   0.78501    0.013
 5257.00    0.83142   0.79342    0.013
 5258.00    0.86162   0.80068    0.013
 5259.00    0.89148   0.80429    0.013
 5260.00    0.89393   0.80176    0.013
 5261.00    0.88862   0.79167    0.014
 5262.00    0.90051   0.77442    0.014
 5263.00    0.91641   0.75220    0.014
 5264.00    0.68675   0.72835    0.014
 5265.00    0.41106   0.70626    0.014
 5266.00    0.49615   0.68834    0.014
 5267.00    0.63351   0.67551    0.014
 5268.00    0.59805   0.66762    0.014
 5269.00    0.54441   0.66429    0.014
 5270.00    0.63504   0.66552    0.014
 5271.00    0.73550   0.67158    0.014
 5272.00    0.70992   0.68245    0.014
 5273.00    0.68012   0.69718    0.014
 5274.00    0.66483   0.71410    0.014
 5275.00    0.64715   0.73147    0.014
 5276.00    0.55232   0.74808    0.014
 5277.00    0.47009   0.76310    0.014
 5278.00    0.57977   0.77564    0.014
 5279.00    0.68452   0.78458    0.014
 5280.00    0.74125   0.78901    0.014
 5281.00    0.79330   0.78896    0.014
 5282.00    0.81243   0.78597    0.014
 5283.00    0.81405   0.78281    0.014
 5284.00    0.72073   0.78242    0.014
 5285.00    0.65162   0.78666    0.014
 5286.00    0.68770   0.79555    0.014
 5287.00    0.74206   0.80741    0.014
 5288.00    0.86180   0.81976    0.014
 5289.00    0.95318   0.83034    0.014
 5290.00    0.95939   0.83770    0.014
 5291.00    0.96385   0.84126    0.014
 5292.00    0.96381   0.84090    0.014
 5293.00    0.95207   0.83665    0.014
 5294.00    0.91460   0.82858    0.014
 5295.00    0.86412   0.81701    0.014
 5296.00    0.78883   0.80297    0.014
 5297.00    0.76950   0.78832    0.014
 5298.00    0.84336   0.77553    0.014
 5299.00    0.86954   0.76698    0.014
 5300.00    0.82614   0.76416    0.014
 5301.00    0.87106   0.76729    0.014
 5302.00    1.02932   0.77542    0.014
 5303.00    1.04683   0.78686    0.014
 5304.00    0.90519   0.79969    0.013
 5305.00    0.85223   0.81209    0.013
 5306.00    0.88772   0.82272    0.013
 5307.00    0.84920   0.83088    0.013
 5308.00    0.74559   0.83654    0.013
 5309.00    0.70478   0.84014    0.013
 5310.00    0.71265   0.84212    0.013
 5311.00    0.67731   0.84265    0.013
 5312.00    0.61254   0.84166    0.013
 5313.00    0.68470   0.83908    0.013
 5314.00    0.83862   0.83503    0.013
 5315.00    0.97600   0.83000    0.013
 5316.00    1.10477   0.82471    0.013
 5317.00    1.03313   0.81984    0.013
 5318.00    0.87096   0.81580    0.013
 5319.00    0.77646   0.81247    0.013
 5320.00    0.70824   0.80924    0.013
 5321.00    0.76734   0.80521    0.013
 5322.00    0.86851   0.79942    0.013
 5323.00    0.88373   0.79115    0.012
 5324.00    0.87511   0.78016    0.012
 5325.00    0.78733   0.76673    0.012
 5326.00    0.68149   0.75175    0.013
 5327.00    0.82370   0.73690    0.013
 5328.00    1.01120   0.72471    0.013
 5329.00    0.89931   0.71789    0.013
 5330.00    0.74544   0.71843    0.013
 5331.00    0.72280   0.72656    0.013
 5332.00    0.71341   0.74055    0.013
 5333.00    0.72030   0.75743    0.013
 5334.00    0.72823   0.77391    0.013
 5335.00    0.74125   0.78734    0.015
 5336.00    0.75401   0.79606    0.016
 5337.00    0.60034   0.79949    0.016
 5338.00    0.45496   0.79798    0.016
 5339.00    0.54702   0.79283    0.016
 5340.00    0.63366   0.78607    0.016
 5341.00    0.64264   0.78000    0.015
 5342.00    0.65698   0.77642    0.013
 5343.00    0.72143   0.77594    0.013
 5344.00    0.76950   0.77780    0.013
 5345.00    0.70587   0.78048    0.013
 5346.00    0.65458   0.78261    0.013
 5347.00    0.66842   0.78360    0.013
 5348.00    0.66410   0.78392    0.013
 5349.00    0.58270   0.78477    0.013
 5350.00    0.53410   0.78749    0.013
 5351.00    0.60044   0.79290    0.013
 5352.00    0.69678   0.80101    0.013
 5353.00    0.88150   0.81108    0.013
 5354.00    1.00883   0.82194    0.013
 5355.00    0.99194   0.83233    0.013
 5356.00    0.96849   0.84113    0.013
 5357.00    0.93083   0.84749    0.013
 5358.00    0.88266   0.85085    0.013
 5359.00    0.81477   0.85094    0.013
 5360.00    0.80340   0.84781    0.013
 5361.00    0.88474   0.84181    0.013
 5362.00    0.90260   0.83367    0.012
 5363.00    0.82916   0.82427    0.013
 5364.00    0.78480   0.81450    0.013
 5365.00    0.77723   0.80491    0.013
 5366.00    0.78625   0.79561    0.012
 5367.00    0.81377   0.78631    0.013
 5368.00    0.85939   0.77675   -2.000
 5369.00    0.92282   0.76715   -2.000
 5370.00    0.91523   0.75860   -2.000
 5371.00    0.84606   0.75297   -2.000
 5372.00    0.91656   0.75219   -2.000
 5373.00    1.09376   0.75721   -2.000
 5374.00    1.08311   0.76740   -2.000
 5375.00    0.94633   0.78056   -2.000
 5376.00    0.83107   0.79383   -2.000
 5377.00    0.72845   0.80474   -2.000
 5378.00    0.66433   0.81193   -2.000
 5379.00    0.61995   0.81522   -2.000
 5380.00    0.67634   0.81533   -2.000
 5381.00    0.77751   0.81337   -2.000
 5382.00    0.92047   0.81048   -2.000
 5383.00    1.07940   0.80763    0.013
 5384.00    1.09212   0.80548    0.013
 5385.00    1.05743   0.80410    0.013
 5386.00    0.94590   0.80302    0.013
 5387.00    0.81350   0.80142    0.013
 5388.00    0.71612   0.79848    0.013
 5389.00    0.62653   0.79379    0.013
 5390.00    0.68406   0.78753    0.013
 5391.00    0.76772   0.78038    0.013
 5392.00    0.69689   0.77303    0.013
 5393.00    0.60509   0.76592    0.013
 5394.00    0.84017   0.75932    0.013
 5395.00    1.10683   0.75336    0.013
 5396.00    1.05736   0.74826    0.013
 5397.00    0.98886   0.74465    0.013
 5398.00    0.76876   0.74327    0.013
 5399.00    0.54701   0.74429    0.013
 5400.00    0.70838   0.74694    0.013
 5401.00    0.85878   0.74957    0.013
 5402.00    0.72597   0.75020    0.013
 5403.00    0.59714   0.74748    0.013
 5404.00    0.52218   0.74131    0.013
 5405.00    0.45718   0.73299    0.013
 5406.00    0.48176   0.72473    0.012
 5407.00    0.49468   0.71884    0.012
 5408.00    0.43058   0.71676    0.012
 5409.00    0.39496   0.71879    0.012
 5410.00    0.50585   0.72447    0.012
 5411.00    0.62582   0.73290    0.012
 5412.00    0.78346   0.74315    0.012
 5413.00    0.91308   0.75432    0.012
 5414.00    0.94643   0.76553    0.012
 5415.00    0.97627   0.77596    0.012
 5416.00    0.99594   0.78487    0.012
 5417.00    0.94705   0.79167    0.012
 5418.00    0.72886   0.79604    0.012
 5419.00    0.61124   0.79783    0.012
 5420.00    0.70774   0.79724    0.012
 5421.00    0.76659   0.79482    0.012
 5422.00    0.75580   0.79148    0.012
 5423.00    0.73775   0.78816    0.012
 5424.00    0.70797   0.78555    0.012
 5425.00    0.72789   0.78373    0.012
 5426.00    0.81823   0.78224    0.012
 5427.00    0.86503   0.78026    0.012
 5428.00    0.85754   0.77689    0.012
 5429.00    0.81390   0.77168    0.012
 5430.00    0.73052   0.76493    0.012
 5431.00    0.66363   0.75757    0.012
 5432.00    0.61273   0.75068    0.012
 5433.00    0.59195   0.74530    0.012
 5434.00    0.59692   0.74232    0.012
 5435.00    0.68295   0.74249    0.012
 5436.00    0.83002   0.74639    0.012
 5437.00    0.83136   0.75420    0.012
 5438.00    0.73628   0.76537    0.012
 5439.00    0.66898   0.77848    0.012
 5440.00    0.61777   0.79142    0.012
 5441.00    0.63469   0.80182    0.012
 5442.00    0.68599   0.80757    0.012
 5443.00    0.73327   0.80749    0.012
 5444.00    0.77878   0.80166    0.012
 5445.00    0.74440   0.79156    0.012
 5446.00    0.68007   0.77971    0.012
 5447.00    0.64148   0.76904    0.012
 5448.00    0.61108   0.76198    0.012
 5449.00    0.68050   0.75952    0.012
 5450.00    0.77645   0.76084    0.012
 5451.00    0.79231   0.76366    0.012
 5452.00    0.79077   0.76540    0.013
 5453.00    0.89659   0.76447    0.013
 5454.00    1.02095   0.76093    0.012
 5455.00    0.90902   0.75625    0.012
 5456.00    0.76609   0.75260    0.012
 5457.00    0.67981   0.75164    0.012
 5458.00    0.59875   0.75367    0.012
 5459.00    0.69315   0.75758    0.012
 5460.00    0.79741   0.76149    0.012
 5461.00    0.68389   0.76384    0.012
 5462.00    0.56755   0.76407    0.012
 5463.00    0.66366   0.76274    0.012
 5464.00    0.75419   0.76119    0.012
 5465.00    0.71354   0.76063    0.011
 5466.00    0.67145   0.76150    0.011
 5467.00    0.61078   0.76341    0.011
 5468.00    0.57900   0.76550    0.011
 5469.00    0.79715   0.76674    0.012
 5470.00    0.97279   0.76631    0.012
 5471.00    0.87593   0.76396    0.012
 5472.00    0.80791   0.75971    0.012
 5473.00    0.88453   0.75367    0.012
 5474.00    0.94496   0.74644    0.011
 5475.00    0.93973   0.73901    0.012
 5476.00    0.90542   0.73244    0.012
 5477.00    0.77325   0.72759    0.012
 5478.00    0.68951   0.72510   -2.000
 5479.00    0.74334   0.72516   -2.000
 5480.00    0.80687   0.72739   -2.000
 5481.00    0.89391   0.73121   -2.000
 5482.00    0.90299   0.73609   -2.000
 5483.00    0.74877   0.74151   -2.000
 5484.00    0.67361   0.74695   -2.000
 5485.00    0.74244   0.75198   -2.000
 5486.00    0.99807   0.75604   -2.000
 5487.00    1.55106   0.75867   -2.000
 5488.00    1.78641   0.75991   -2.000
 5489.00    1.57803   0.76023   -2.000
 5490.00    1.18500   0.76021   -2.000
 5491.00    0.56495   0.76035   -2.000
 5492.00    0.29671   0.76087   -2.000
 5493.00    0.40973   0.76151   -2.000
 5494.00    0.58722   0.76185   -2.000
 5495.00    0.82637   0.76186   -2.000
 5496.00    0.92371   0.76167   -2.000
 5497.00    0.90155   0.76135   -2.000
 5498.00    0.93998   0.76091   -2.000
 5499.00    1.02337   0.76032   -2.000
 5500.00    0.98626   0.75936   -2.000
 5501.00    0.87059   0.75776   -2.000
 5502.00    0.86766   0.75535    0.012
 5503.00    0.92906   0.75215    0.012
 5504.00    0.96152   0.74866    0.012
 5505.00    0.97960   0.74554    0.012
 5506.00    0.92374   0.74321    0.011
 5507.00    0.83611   0.74186    0.011
 5508.00    0.85272   0.74126    0.011
 5509.00    0.90773   0.74084    0.011
 5510.00    0.82439   0.73994    0.011
 5511.00    0.69789   0.73819    0.011
 5512.00    0.74117   0.73569    0.011
 5513.00    0.82863   0.73317    0.011
 5514.00    0.80715   0.73178    0.011
 5515.00    0.76254   0.73263    0.011
 5516.00    0.71702   0.73624    0.011
 5517.00    0.67134   0.74236    0.011
 5518.00    0.72203   0.75011    0.011
 5519.00    0.78494   0.75818    0.011
 5520.00    0.77705   0.76528    0.011
 5521.00    0.76292   0.77043    0.011
 5522.00    0.51852   0.77305    0.013
 5523.00    0.26208   0.77296    0.016
 5524.00    0.23643   0.77023    0.016
 5525.00    0.21464   0.76520    0.017
 5526.00    0.15967   0.75875    0.017
 5527.00    0.10896   0.75206    0.017
 5528.00    0.14995   0.74635    0.017
 5529.00    0.20818   0.74268    0.017
 5530.00    0.47671   0.74156    0.014
 5531.00    0.72236   0.74273    0.012
 5532.00    0.77724   0.74527    0.012
 5533.00    0.82019   0.74815    0.012
 5534.00    0.78889   0.75052    0.012
 5535.00    0.77124   0.75207    0.012
 5536.00    0.82029   0.75317    0.012
 5537.00    0.83807   0.75445    0.012
 5538.00    0.73170   0.75639    0.012
 5539.00    0.67514   0.75905    0.012
 5540.00    0.78293   0.76204    0.012
 5541.00    0.84300   0.76476    0.012
 5542.00    0.76998   0.76666    0.012
 5543.00    0.72065   0.76745    0.012
 5544.00    0.72787   0.76738    0.012
 5545.00    0.74937   0.76718    0.012
 5546.00    0.80029   0.76754    0.012
 5547.00    0.80674   0.76895    0.011
 5548.00    0.73347   0.77144    0.011
 5549.00    0.71444   0.77454    0.011
 5550.00    0.78047   0.77737    0.011
 5551.00    0.80207   0.77908    0.011
 5552.00    0.76249   0.77916    0.011
 5553.00    0.73868   0.77762    0.011
 5554.00    0.73399   0.77486    0.011
 5555.00    0.73215   0.77157    0.011
 5556.00    0.73335   0.76844    0.011
 5557.00    0.73398   0.76590    0.011
 5558.00    0.73408   0.76397    0.011
 5559.00    0.74392   0.76233    0.011
 5560.00    0.76186   0.76055    0.011
 5561.00    0.72311   0.75839    0.011
 5562.00    0.64289   0.75565    0.011
 5563.00    0.65807   0.75233    0.011
 5564.00    0.73452   0.74872    0.011
 5565.00    0.77642   0.74522    0.011
 5566.00    0.79889   0.74205    0.011
 5567.00    0.74177   0.73947    0.011
 5568.00    0.64572   0.73775    0.011
 5569.00    0.60490   0.73673    0.011
 5570.00    0.58741   0.73626    0.011
 5571.00    0.58500   0.73645    0.011
 5572.00    0.58804   0.73723    0.011
 5573.00    0.68290   0.73852    0.011
 5574.00    0.80586   0.74040    0.011
 5575.00    0.77890   0.74281    0.011
 5576.00    0.71376   0.74559    0.011
 5577.00    0.65960   0.74855    0.011
 5578.00    0.60771   0.75128    0.012
 5579.00    0.66890   0.75329    0.012
 5580.00    0.74853   0.75434    0.012
 5581.00    0.70823   0.75408    0.012
 5582.00    0.65328   0.75205    0.012
 5583.00    0.67690   0.74793    0.011
 5584.00    0.70711   0.74150    0.011
 5585.00    0.75839   0.73291    0.012
 5586.00    0.81069   0.72286    0.012
 5587.00    0.86482   0.71262    0.012
 5588.00    0.91758   0.70367    0.011
 5589.00    0.88764   0.69735    0.011
 5590.00    0.85232   0.69443    0.011
 5591.00    0.71026   0.69493    0.011
 5592.00    0.58253   0.69839    0.011
 5593.00    0.62128   0.70405    0.011
 5594.00    0.65661   0.71065    0.011
 5595.00    0.66439   0.71682    0.011
 5596.00    0.67619   0.72160    0.011
 5597.00    0.71225   0.72440    0.011
 5598.00    0.75565   0.72486    0.011
 5599.00    0.83405   0.72309    0.011
 5600.00    0.88738   0.71989    0.012
 5601.00    0.84335   0.71667    0.012
 5602.00    0.81066   0.71503    0.011
 5603.00    0.81466   0.71616    0.011
 5604.00    0.81928   0.72067    0.011
 5605.00    0.82556   0.72831    0.011
 5606.00    0.80900   0.73786    0.011
 5607.00    0.73883   0.74769    0.011
 5608.00    0.70077   0.75638    0.011
 5609.00    0.72788   0.76292    0.011
 5610.00    0.74242   0.76667    0.011
 5611.00    0.73478   0.76708    0.011
 5612.00    0.72635   0.76382    0.011
 5613.00    0.71670   0.75729    0.011
 5614.00    0.74488   0.74863    0.011
 5615.00    0.82441   0.73917    0.011
 5616.00    0.90776   0.73024    0.011
 5617.00    0.99565   0.72326    0.011
 5618.00    0.95523   0.71928    0.011
 5619.00    0.77964   0.71845    0.011
 5620.00    0.67699   0.71989    0.011
 5621.00    0.64212   0.72205    0.011
 5622.00    0.64157   0.72358    0.011
 5623.00    0.66916   0.72377    0.011
 5624.00    0.63478   0.72265    0.011
 5625.00    0.55573   0.72112    0.011
 5626.00    0.61974   0.72053    0.011
 5627.00    0.77430   0.72187    0.011
 5628.00    0.84605   0.72538    0.011
 5629.00    0.87197   0.73062    0.011
 5630.00    0.92392   0.73664    0.011
 5631.00    0.98839   0.74223    0.011
 5632.00    0.99614   0.74614    0.011
 5633.00    0.98031   0.74753    0.011
 5634.00    0.88962   0.74629    0.011
 5635.00    0.77233   0.74302    0.011
 5636.00    0.77130   0.73861    0.011
 5637.00    0.80514   0.73392    0.011
 5638.00    0.84300   0.72957    0.011
 5639.00    0.88185   0.72602    0.011
 5640.00    0.82512   0.72355    0.011
 5641.00    0.74909   0.72221    0.010
 5642.00    0.74676   0.72189    0.010
 5643.00    0.75609   0.72248    0.011
 5644.00    0.78145   0.72391    0.011
 5645.00    0.80869   0.72595    0.010
 5646.00    0.83904   0.72828    0.010
 5647.00    0.86963   0.73062    0.010
 5648.00    0.83765   0.73291    0.010
 5649.00    0.80289   0.73501    0.010
 5650.00    0.73315   0.73673    0.011
 5651.00    0.66360   0.73785    0.011
 5652.00    0.62270   0.73810    0.011
 5653.00    0.58650   0.73737    0.011
 5654.00    0.63684   0.73544    0.011
 5655.00    0.68666   0.73176    0.011
 5656.00    0.73063   0.72634    0.011
 5657.00    0.76353   0.72001    0.011
 5658.00    0.71062   0.71371    0.011
 5659.00    0.66277   0.70815    0.011
 5660.00    0.64465   0.70411    0.011
 5661.00    0.63409   0.70242    0.011
 5662.00    0.65876   0.70331    0.011
 5663.00    0.68720   0.70617    0.011
 5664.00    0.73002   0.71023    0.011
 5665.00    0.76414   0.71483    0.011
 5666.00    0.77065   0.71909    0.011
 5667.00    0.76969   0.72236    0.011
 5668.00    0.74862   0.72481    0.011
 5669.00    0.73302   0.72703    0.011
 5670.00    0.73005   0.72950    0.011
 5671.00    0.72332   0.73247    0.011
 5672.00    0.70909   0.73604    0.011
 5673.00    0.71480   0.74013    0.011
 5674.00    0.75519   0.74443    0.011
 5675.00    0.74420   0.74825    0.011
 5676.00    0.65496   0.75086    0.011
 5677.00    0.59553   0.75195    0.011
 5678.00    0.57596   0.75152    0.011
 5679.00    0.60466   0.74948    0.011
 5680.00    0.69022   0.74594    0.011
 5681.00    0.73367   0.74155    0.011
 5682.00    0.73339   0.73698    0.011
 5683.00    0.78129   0.73253    0.011
 5684.00    0.87333   0.72834    0.011
 5685.00    0.86377   0.72476    0.011
 5686.00    0.77215   0.72213    0.011
 5687.00    0.69504   0.72067    0.011
 5688.00    0.62823   0.72061    0.010
 5689.00    0.61246   0.72216    0.010
 5690.00    0.62852   0.72518    0.010
 5691.00    0.62831   0.72920    0.011
 5692.00    0.61925   0.73366    0.011
 5693.00    0.66008   0.73798    0.011
 5694.00    0.72452   0.74142    0.011
 5695.00    0.67736   0.74315    0.011
 5696.00    0.58462   0.74268    0.011
 5697.00    0.56339   0.74022    0.011
 5698.00    0.56709   0.73615    0.011
 5699.00    0.59006   0.73090    0.011
 5700.00    0.61869   0.72528    0.011
 5701.00    0.63844   0.72009    0.011
 5702.00    0.65604   0.71570    0.011
 5703.00    0.71261   0.71201    0.011
 5704.00    0.77685   0.70875    0.011
 5705.00    0.70281   0.70555    0.011
 5706.00    0.60752   0.70183    0.011
 5707.00    0.57292   0.69747    0.011
 5708.00    0.54520   0.69293    0.011
 5709.00    0.51198   0.68873    0.011
 5710.00    0.47835   0.68573    0.011
 5711.00    0.51620   0.68514    0.011
 5712.00    0.55695   0.68756    0.011
 5713.00    0.60180   0.69286    0.011
 5714.00    0.64798   0.70037    0.011
 5715.00    0.74755   0.70908    0.011
 5716.00    0.84146   0.71792    0.011
 5717.00    0.83828   0.72613    0.010
 5718.00    0.83362   0.73332    0.010
 5719.00    0.81340   0.73933    0.010
 5720.00    0.79573   0.74422    0.010
 5721.00    0.79724   0.74825    0.010
 5722.00    0.79722   0.75147    0.010
 5723.00    0.78848   0.75368    0.010
 5724.00    0.77913   0.75457    0.010
 5725.00    0.76702   0.75398    0.010
 5726.00    0.75344   0.75225    0.010
 5727.00    0.73445   0.74989    0.010
 5728.00    0.73284   0.74711    0.011
 5729.00    0.78532   0.74419    0.011
 5730.00    0.81607   0.74181    0.011
 5731.00    0.78943   0.74048    0.011
 5732.00    0.77371   0.74024    0.011
 5733.00    0.78278   0.74097    0.011
 5734.00    0.81381   0.74222    0.011
 5735.00    0.88801   0.74345    0.011
 5736.00    0.91815   0.74445    0.011
 5737.00    0.87285   0.74528    0.011
 5738.00    0.82824   0.74575    0.011
 5739.00    0.78467   0.74559    0.011
 5740.00    0.73381   0.74483    0.000
 5741.00    0.67333   0.74387    0.000
 5742.00    0.60385   0.74326    0.000
 5743.00    0.52391   0.74320    0.000
 5744.00    0.50174   0.74343    0.000
 5745.00    0.53873   0.74341    0.000
 5746.00    0.59079   0.74288    0.000
 5747.00    0.65646   0.74206    0.000
 5748.00    0.72042   0.74103    0.000
 5749.00    0.78302   0.73959    0.000
 5750.00    0.78114   0.73737    0.000
 5751.00    0.73409   0.73426    0.000
 5752.00    0.70613   0.73078    0.000
 5753.00    0.68989   0.72793    0.000
 5754.00    0.70636   0.72645    0.000
 5755.00    0.74037   0.72629    0.000
 5756.00    0.72995   0.72716    0.000
 5757.00    0.69883   0.72865    0.000
 5758.00    0.73100   0.73023    0.000
 5759.00    0.78856   0.73115    0.000
 5760.00    0.76811   0.73075    0.000
 5761.00    0.72095   0.72905    0.000
 5762.00    0.69080   0.72694    0.000
 5763.00    0.66555   0.72559    0.000
 5764.00    0.72224   0.72588    0.000
 5765.00    0.79844   0.72823    0.000
 5766.00    0.75446   0.73232    0.000
 5767.00    0.68743   0.73721    0.000
 5768.00    0.65303   0.74180    0.000
 5769.00    0.62349   0.74509    0.000
 5770.00    0.63225   0.74635    0.000
 5771.00    0.64518   0.74574    0.000
 5772.00    0.62365   0.74395    0.000
 5773.00    0.59966   0.74166    0.000
 5774.00    0.57175   0.73943    0.000
 5775.00    0.54371   0.73748    0.000
 5776.00    0.64138   0.73558    0.000
 5777.00    0.73975   0.73318    0.000
 5778.00    0.84395   0.72953    0.000
 5779.00    0.94191   0.72406    0.000
 5780.00    0.93974   0.71708    0.000
 5781.00    0.93407   0.70924    0.000
 5782.00    0.89302   0.70104    0.000
 5783.00    0.84645   0.69336    0.000
 5784.00    0.75989   0.68768    0.000
 5785.00    0.67812   0.68506    0.000
 5786.00    0.62298   0.68572    0.000
 5787.00    0.59628   0.68933    0.000
 5788.00    0.69572   0.69464    0.000
 5789.00    0.77708   0.70040    0.000
 5790.00    0.79253   0.70627    0.000
 5791.00    0.79646   0.71214   -2.000
 5792.00    0.76520   0.71748   -2.000
 5793.00    0.75778   0.72193   -2.000
 5794.00    0.81226   0.72547   -2.000
 5795.00    0.85400   0.72801   -2.000
 5796.00    0.86729   0.72995   -2.000
 5797.00    0.84617   0.73201   -2.000
 5798.00    0.75847   0.73413   -2.000
 5799.00    0.69401   0.73620   -2.000
 5800.00    0.66878   0.73838   -2.000
 5801.00    0.67186   0.74034   -2.000
 5802.00    0.71678   0.74165   -2.000
 5803.00    0.73295   0.74230   -2.000
 5804.00    0.71176   0.74216   -2.000
 5805.00    0.71664   0.74086   -2.000
 5806.00    0.75137   0.73867   -2.000
 5807.00    0.76529   0.73647   -2.000
 5808.00    0.75817   0.73496   -2.000
 5809.00    0.69821   0.73447   -2.000
 5810.00    0.59119   0.73497   -2.000
 5811.00    0.57097   0.73592    0.000
 5812.00    0.61888   0.73654    0.000
 5813.00    0.70497   0.73623    0.000
 5814.00    0.81741   0.73504    0.000
 5815.00    0.85823   0.73359    0.000
 5816.00    0.85570   0.73257    0.000
 5817.00    0.83257   0.73233    0.000
 5818.00    0.79855   0.73319    0.000
 5819.00    0.76257   0.73512    0.000
 5820.00    0.72569   0.73776    0.000
 5821.00    0.74565   0.74069    0.000
 5822.00    0.78803   0.74351    0.000
 5823.00    0.86027   0.74565    0.000
 5824.00    0.94254   0.74672    0.000
 5825.00    0.94063   0.74700    0.000
 5826.00    0.91494   0.74699    0.000
 5827.00    0.85744   0.74702    0.000
 5828.00    0.79254   0.74717    0.000
 5829.00    0.80942   0.74732    0.000
 5830.00    0.84158   0.74729    0.000
 5831.00    0.87040   0.74683    0.000
 5832.00    0.89873   0.74579    0.000
 5833.00    0.88388   0.74430    0.000
 5834.00    0.86451   0.74273    0.000
 5835.00    0.79665   0.74109    0.000
 5836.00    0.72550   0.73944    0.000
 5837.00    0.72943   0.73830    0.000
 5838.00    0.73584   0.73803    0.000
 5839.00    0.79935   0.73861    0.000
 5840.00    0.86119   0.73997    0.000
 5841.00    0.86908   0.74173    0.000
 5842.00    0.86899   0.74319    0.000
 5843.00    0.74852   0.74394    0.000
 5844.00    0.63867   0.74383    0.000
 5845.00    0.63176   0.74251    0.000
 5846.00    0.61585   0.73992    0.000
 5847.00    0.53681   0.73650    0.000
 5848.00    0.47316   0.73269    0.000
 5849.00    0.49266   0.72872    0.000
 5850.00    0.52624   0.72457    0.000
 5851.00    0.62078   0.72023    0.000
 5852.00    0.70195   0.71599    0.000
 5853.00    0.73544   0.71197    0.000
 5854.00    0.75145   0.70771    0.000
 5855.00    0.71508   0.70285    0.000
 5856.00    0.69475   0.69799    0.000
 5857.00    0.71532   0.69412    0.000
 5858.00    0.73902   0.69186    0.000
 5859.00    0.76959   0.69130    0.000
 5860.00    0.80080   0.69190    0.000
 5861.00    0.83324   0.69337    0.000
 5862.00    0.84500   0.69598    0.000
 5863.00    0.82242   0.69949    0.000
 5864.00    0.77178   0.70281    0.000
 5865.00    0.68026   0.70528    0.000
 5866.00    0.62154   0.70721    0.000
 5867.00    0.60482   0.70905    0.000
 5868.00    0.59652   0.71112    0.000
 5869.00    0.59771   0.71327    0.000
 5870.00    0.60869   0.71507    0.000
 5871.00    0.62943   0.71644    0.000
 5872.00    0.62667   0.71748    0.000
 5873.00    0.60328   0.71790    0.000
 5874.00    0.57160   0.71715    0.000
 5875.00    0.53350   0.71532    0.000
 5876.00    0.53444   0.71283    0.000
 5877.00    0.56192   0.70987    0.000
 5878.00    0.57517   0.70662    0.000
 5879.00    0.57994   0.70342    0.000
 5880.00    0.67045   0.70045    0.000
 5881.00    0.80555   0.69747    0.000
 5882.00    0.80982   0.69429    0.000
 5883.00    0.75513   0.69073    0.000
 5884.00    0.66033   0.68620    0.000
 5885.00    0.54998   0.67969    0.000
 5886.00    0.53265   0.66955    0.000
 5887.00    0.54600   0.65415    0.000
 5888.00    0.58698   0.63431    0.000
 5889.00    0.63561   0.61355    0.000
 5890.00    0.57953   0.59457    0.000
 5891.00    0.49964   0.57862    0.000
 5892.00    0.48330   0.56658    0.000
 5893.00    0.47851   0.55843    0.000
 5894.00    0.54066   0.55499    0.000
 5895.00    0.61215   0.55781    0.000
 5896.00    0.64721   0.56543    0.000
 5897.00    0.67862   0.57486    0.000
 5898.00    0.66335   0.58563    0.000
 5899.00    0.64512   0.59847    0.000
 5900.00    0.62168   0.61372    0.000
 5901.00    0.59805   0.63117    0.010
 5902.00    0.56164   0.64852    0.010
 5903.00    0.52852   0.66275    0.010
 5904.00    0.58817   0.67322    0.010
 5905.00    0.64494   0.68084    0.010
 5906.00    0.66071   0.68622    0.010
 5907.00    0.67676   0.68984    0.010
 5908.00    0.69539   0.69233    0.010
 5909.00    0.71120   0.69415    0.010
 5910.00    0.70789   0.69544    0.010
 5911.00    0.69531   0.69594    0.010
 5912.00    0.63397   0.69527    0.010
 5913.00    0.58759   0.69352    0.010
 5914.00    0.60450   0.69115    0.010
 5915.00    0.61880   0.68885    0.010
 5916.00    0.62398   0.68708    0.010
 5917.00    0.61838   0.68603    0.010
 5918.00    0.58110   0.68614    0.010
 5919.00    0.56335   0.68753    0.010
 5920.00    0.59454   0.68972    0.010
 5921.00    0.63347   0.69215    0.010
 5922.00    0.68908   0.69440    0.010
 5923.00    0.74141   0.69614    0.010
 5924.00    0.78758   0.69741    0.010
 5925.00    0.80932   0.69810    0.010
 5926.00    0.79106   0.69809    0.010
 5927.00    0.75875   0.69749    0.010
 5928.00    0.70629   0.69643    0.010
 5929.00    0.66227   0.69525    0.010
 5930.00    0.62894   0.69426    0.009
 5931.00    0.61103   0.69330    0.009
 5932.00    0.61030   0.69225    0.009
 5933.00    0.61325   0.69147    0.010
 5934.00    0.61981   0.69151    0.010
 5935.00    0.60571   0.69239    0.010
 5936.00    0.57372   0.69357    0.010
 5937.00    0.53553   0.69454    0.010
 5938.00    0.49261   0.69510    0.010
 5939.00    0.50415   0.69540    0.010
 5940.00    0.55219   0.69573    0.010
 5941.00    0.58851   0.69594    0.010
 5942.00    0.61794   0.69591    0.010
 5943.00    0.63909   0.69591    0.010
 5944.00    0.65599   0.69602    0.010
 5945.00    0.65347   0.69614    0.010
 5946.00    0.64233   0.69624    0.010
 5947.00    0.63931   0.69611    0.010
 5948.00    0.63938   0.69567    0.010
 5949.00    0.64353   0.69479    0.010
 5950.00    0.64900   0.69314    0.010
 5951.00    0.64252   0.69081    0.010
 5952.00    0.63282   0.68865    0.010
 5953.00    0.66133   0.68731    0.010
 5954.00    0.69834   0.68663    0.010
 5955.00    0.69097   0.68609    0.010
 5956.00    0.67576   0.68554    0.010
 5957.00    0.69440   0.68560    0.010
 5958.00    0.71762   0.68690    0.010
 5959.00    0.69141   0.68903    0.010
 5960.00    0.66044   0.69138    0.009
 5961.00    0.65035   0.69400    0.009
 5962.00    0.64150   0.69696    0.009
 5963.00    0.70503   0.69969    0.009
 5964.00    0.77026   0.70165    0.009
 5965.00    0.81087   0.70290    0.009
 5966.00    0.84922   0.70368    0.010
 5967.00    0.82995   0.70424    0.010
 5968.00    0.81041   0.70492    0.009
 5969.00    0.78724   0.70584    0.010
 5970.00    0.76377   0.70694    0.010
 5971.00    0.73766   0.70812    0.010
 5972.00    0.71761   0.70870    0.010
 5973.00    0.73751   0.70802    0.010
 5974.00    0.74864   0.70598    0.010
 5975.00    0.71472   0.70285    0.010
 5976.00    0.67572   0.69910    0.010
 5977.00    0.61562   0.69537    0.010
 5978.00    0.57464   0.69225    0.010
 5979.00    0.59914   0.68988    0.010
 5980.00    0.62579   0.68818    0.010
 5981.00    0.65862   0.68689    0.010
 5982.00    0.67960   0.68555    0.010
 5983.00    0.67135   0.68415    0.010
 5984.00    0.67365   0.68293    0.010
 5985.00    0.69834   0.68176    0.010
 5986.00    0.71347   0.68083    0.010
 5987.00    0.71096   0.68073    0.010
 5988.00    0.70641   0.68188    0.010
 5989.00    0.69859   0.68425    0.010
 5990.00    0.69755   0.68715    0.009
 5991.00    0.70612   0.68992    0.009
 5992.00    0.71035   0.69239    0.009
 5993.00    0.70917   0.69436    0.009
 5994.00    0.72195   0.69538    0.009
 5995.00    0.75005   0.69520    0.009
 5996.00    0.75278   0.69432    0.009
 5997.00    0.73096   0.69321    0.009
 5998.00    0.72888   0.69178    0.010
 5999.00    0.74363   0.68995    0.010
 6000.00    0.75405   0.68784    0.010
 6001.00    0.76123   0.68582    0.010
 6002.00    0.73204   0.68447    0.010
 6003.00    0.67883   0.68374    0.010
 6004.00    0.64651   0.68283    0.010
 6005.00    0.62627   0.68115    0.010
 6006.00    0.62023   0.67869    0.010
 6007.00    0.62134   0.67650    0.010
 6008.00    0.66704   0.67556    0.010
 6009.00    0.73218   0.67528    0.010
 6010.00    0.78154   0.67492    0.010
 6011.00    0.82499   0.67458    0.010
 6012.00    0.73605   0.67475    0.010
 6013.00    0.60509   0.67573    0.010
 6014.00    0.58088   0.67650    0.010
 6015.00    0.58498   0.67599    0.010
 6016.00    0.59897   0.67464    0.010
 6017.00    0.61511   0.67327    0.009
 6018.00    0.64319   0.67220    0.009
 6019.00    0.67333   0.67130    0.010
 6020.00    0.67333   0.67040    0.009
 6021.00    0.66940   0.67000    0.009
 6022.00    0.65686   0.67040    0.009
 6023.00    0.64354   0.67144    0.009
 6024.00    0.67484   0.67318    0.009
 6025.00    0.70863   0.67579    0.009
 6026.00    0.74634   0.67913    0.009
 6027.00    0.78353   0.68286    0.009
 6028.00    0.76032   0.68656    0.009
 6029.00    0.73774   0.69010    0.010
 6030.00    0.72994   0.69326    0.010
 6031.00    0.72724   0.69596    0.010
 6032.00    0.78951   0.69847    0.010
 6033.00    0.84371   0.70055    0.010
 6034.00    0.82839   0.70194    0.010
 6035.00    0.81520   0.70290    0.010
 6036.00    0.81559   0.70365    0.010
 6037.00    0.80817   0.70394    0.010
 6038.00    0.76164   0.70360    0.010
 6039.00    0.70858   0.70291    0.010
 6040.00    0.62910   0.70219    0.010
 6041.00    0.56811   0.70167    0.010
 6042.00    0.56918   0.70157    0.010
 6043.00    0.56972   0.70187    0.010
 6044.00    0.56878   0.70264    0.010
 6045.00    0.58350   0.70394    0.010
 6046.00    0.63617   0.70543    0.009
 6047.00    0.69700   0.70683    0.009
 6048.00    0.77491   0.70793    0.009
 6049.00    0.84191   0.70843    0.010
 6050.00    0.88909   0.70825    0.010
 6051.00    0.91148   0.70728    0.010
 6052.00    0.89449   0.70555    0.009
 6053.00    0.86057   0.70331    0.009
 6054.00    0.80304   0.70082    0.010
 6055.00    0.74613   0.69809    0.010
 6056.00    0.68998   0.69545    0.010
 6057.00    0.66683   0.69344    0.010
 6058.00    0.67936   0.69232    0.010
 6059.00    0.67432   0.69180    0.010
 6060.00    0.65251   0.69141    0.010
 6061.00    0.64988   0.69100    0.010
 6062.00    0.66339   0.69022    0.010
 6063.00    0.67708   0.68869    0.010
 6064.00    0.69092   0.68679    0.010
 6065.00    0.67967   0.68554    0.010
 6066.00    0.65209   0.68549    0.010
 6067.00    0.65825   0.68671    0.010
 6068.00    0.68362   0.68920    0.010
 6069.00    0.67418   0.69286    0.010
 6070.00    0.64748   0.69774    0.010
 6071.00    0.64463   0.70283    0.010
 6072.00    0.65199   0.70654    0.010
 6073.00    0.64337   0.70851    0.010
 6074.00    0.62888   0.70902    0.010
 6075.00    0.64562   0.70817    0.009
 6076.00    0.67208   0.70591    0.009
 6077.00    0.68613   0.70238    0.009
 6078.00    0.69695   0.69825    0.009
 6079.00    0.64096   0.69381    0.009
 6080.00    0.57082   0.68913    0.009
 6081.00    0.59358   0.68480    0.009
 6082.00    0.63188   0.68143    0.009
 6083.00    0.66720   0.67926    0.009
 6084.00    0.70215   0.67804    0.009
 6085.00    0.66482   0.67725    0.009
 6086.00    0.62115   0.67705    0.009
 6087.00    0.59844   0.67745    0.009
 6088.00    0.57681   0.67759    0.009
 6089.00    0.53727   0.67707    0.009
 6090.00    0.49889   0.67655    0.009
 6091.00    0.56862   0.67626    0.009
 6092.00    0.63896   0.67609    0.010
 6093.00    0.72233   0.67623    0.010
 6094.00    0.79842   0.67697    0.010
 6095.00    0.78632   0.67838    0.010
 6096.00    0.77043   0.68002    0.010
 6097.00    0.72323   0.68147    0.010
 6098.00    0.67650   0.68257    0.010
 6099.00    0.63272   0.68246    0.010
 6100.00    0.59687   0.67994    0.010
 6101.00    0.59962   0.67556    0.010
 6102.00    0.60731   0.67143    0.010
 6103.00    0.63454   0.66859    0.010
 6104.00    0.66971   0.66661    0.009
 6105.00    0.73104   0.66514    0.010
 6106.00    0.76391   0.66492    0.010
 6107.00    0.71760   0.66747    0.009
 6108.00    0.66880   0.67237    0.009
 6109.00    0.61408   0.67681    0.009
 6110.00    0.59040   0.67967    0.009
 6111.00    0.63061   0.68187    0.009
 6112.00    0.67478   0.68413    0.009
 6113.00    0.72605   0.68616    0.009
 6114.00    0.74528   0.68695    0.009
 6115.00    0.71439   0.68648    0.009
 6116.00    0.67290   0.68574    0.009
 6117.00    0.61686   0.68450    0.009
 6118.00    0.59586   0.68174    0.009
 6119.00    0.61725   0.67717    0.009
 6120.00    0.66545   0.67155    0.010
 6121.00    0.74226   0.66644    0.010
 6122.00    0.78248   0.66280    0.010
 6123.00    0.78830   0.66025    0.010
 6124.00    0.75220   0.65869    0.010
 6125.00    0.68133   0.65853    0.010
 6126.00    0.62948   0.66005    0.010
 6127.00    0.59152   0.66321    0.010
 6128.00    0.56167   0.66671    0.010
 6129.00    0.53703   0.66928    0.009
 6130.00    0.52732   0.67102    0.009
 6131.00    0.52597   0.67212    0.009
 6132.00    0.57059   0.67223    0.009
 6133.00    0.63764   0.67073    0.009
 6134.00    0.65904   0.66684    0.009
 6135.00    0.66119   0.66044    0.009
 6136.00    0.62410   0.65313    0.009
 6137.00    0.57285   0.64717    0.009
 6138.00    0.53001   0.64320    0.009
 6139.00    0.48975   0.64086    0.009
 6140.00    0.48668   0.64061    0.009
 6141.00    0.49305   0.64399    0.009
 6142.00    0.51763   0.65110    0.009
 6143.00    0.54597   0.65900    0.009
 6144.00    0.56374   0.66493    0.009
 6145.00    0.57978   0.66884    0.009
 6146.00    0.60600   0.67196    0.009
 6147.00    0.63346   0.67426    0.009
 6148.00    0.63698   0.67474    0.009
 6149.00    0.63850   0.67345    0.009
 6150.00    0.61785   0.67151    0.009
 6151.00    0.59614   0.66960    0.009
 6152.00    0.57049   0.66769    0.009
 6153.00    0.54543   0.66575    0.009
 6154.00    0.55745   0.66409    0.009
 6155.00    0.57203   0.66266    0.009
 6156.00    0.63719   0.66064    0.010
 6157.00    0.70006   0.65722    0.010
 6158.00    0.73652   0.65200    0.010
 6159.00    0.75962   0.64490    0.010
 6160.00    0.67574   0.63612    0.010
 6161.00    0.60383   0.62665    0.009
 6162.00    0.60395   0.61808    0.009
 6163.00    0.61224   0.61126    0.009
 6164.00    0.65940   0.60625    0.009
 6165.00    0.70176   0.60383    0.009
 6166.00    0.72552   0.60487    0.009
 6167.00    0.73958   0.60817    0.009
 6168.00    0.72234   0.61162    0.009
 6169.00    0.70528   0.61477    0.009
 6170.00    0.68873   0.61803    0.009
 6171.00    0.67122   0.62107    0.009
 6172.00    0.65148   0.62336    0.009
 6173.00    0.62943   0.62584    0.009
 6174.00    0.60270   0.62975    0.009
 6175.00    0.58252   0.63442    0.009
 6176.00    0.57388   0.63839    0.009
 6177.00    0.57066   0.64154    0.010
 6178.00    0.57577   0.64434    0.009
 6179.00    0.59627   0.64680    0.009
 6180.00    0.63761   0.64899    0.009
 6181.00    0.64816   0.65105    0.009
 6182.00    0.62200   0.65270    0.009
 6183.00    0.61599   0.65342    0.009
 6184.00    0.63117   0.65302    0.009
 6185.00    0.65074   0.65152    0.009
 6186.00    0.67438   0.64879    0.010
 6187.00    0.66007   0.64499    0.010
 6188.00    0.61471   0.64042    0.010
 6189.00    0.60229   0.63494    0.010
 6190.00    0.61356   0.62925    0.009
 6191.00    0.62757   0.62530    0.009
 6192.00    0.64329   0.62387    0.009
 6193.00    0.62766   0.62409    0.009
 6194.00    0.59472   0.62535    0.009
 6195.00    0.66066   0.62819    0.009
 6196.00    0.77410   0.63283   -2.000
 6197.00    1.03033   0.63733   -2.000
 6198.00    1.34577   0.63990   -2.000
 6199.00    1.43023   0.64120   -2.000
 6200.00    1.43281   0.64240   -2.000
 6201.00    1.14813   0.64345   -2.000
 6202.00    0.77748   0.64400   -2.000
 6203.00    0.55203   0.64468   -2.000
 6204.00    0.36265   0.64646   -2.000
 6205.00    0.38305   0.64907   -2.000
 6206.00    0.44568   0.65123   -2.000
 6207.00    0.54021   0.65220   -2.000
 6208.00    0.63978   0.65203    0.010
 6209.00    0.63986   0.65079    0.010
 6210.00    0.62829   0.64834    0.010
 6211.00    0.60412   0.64434    0.010
 6212.00    0.57894   0.63880    0.010
 6213.00    0.56823   0.63235    0.009
 6214.00    0.55815   0.62585    0.009
 6215.00    0.57893   0.62010    0.009
 6216.00    0.59843   0.61537    0.009
 6217.00    0.54070   0.61163    0.009
 6218.00    0.48461   0.60922    0.009
 6219.00    0.45865   0.60852    0.009
 6220.00    0.44284   0.60943    0.009
 6221.00    0.53883   0.61111    0.009
 6222.00    0.62970   0.61251    0.009
 6223.00    0.68095   0.61367    0.009
 6224.00    0.72123   0.61531    0.009
 6225.00    0.69735   0.61717    0.009
 6226.00    0.68150   0.61829    0.009
 6227.00    0.70283   0.61794    0.009
 6228.00    0.72037   0.61601    0.009
 6229.00    0.72353   0.61308    0.010
 6230.00    0.70979   0.61003    0.010
 6231.00    0.64255   0.60756    0.010
 6232.00    0.59236   0.60603    0.010
 6233.00    0.58788   0.60583    0.009
 6234.00    0.59814   0.60747    0.009
 6235.00    0.64234   0.61084    0.009
 6236.00    0.70007   0.61464    0.009
 6237.00    0.78480   0.61752    0.009
 6238.00    0.83513   0.61872    0.009
 6239.00    0.82573   0.61793    0.009
 6240.00    0.78486   0.61549    0.009
 6241.00    0.69613   0.61176    0.009
 6242.00    0.64089   0.60748    0.009
 6243.00    0.63036   0.60386    0.009
 6244.00    0.63158   0.60166    0.009
 6245.00    0.64659   0.60081    0.009
 6246.00    0.64447   0.60108    0.009
 6247.00    0.62456   0.60265    0.009
 6248.00    0.63083   0.60517    0.009
 6249.00    0.66102   0.60745    0.009
 6250.00    0.67089   0.60869    0.009
 6251.00    0.66438   0.60859    0.009
 6252.00    0.63414   0.60698    0.009
 6253.00    0.58707   0.60392    0.009
 6254.00    0.59980   0.59974    0.009
 6255.00    0.64975   0.59479    0.009
 6256.00    0.70091   0.59012    0.009
 6257.00    0.75273   0.58697    0.009
 6258.00    0.79802   0.58591    0.010
 6259.00    0.84024   0.58661    0.010
 6260.00    0.90563   0.58868    0.011
 6261.00    0.98046   0.59249    0.012
 6262.00    0.87819   0.59799    0.012
 6263.00    0.71429   0.60398    0.012
 6264.00    0.59820   0.60914    0.012
 6265.00    0.49612   0.61349    0.012
 6266.00    0.50778   0.61717    0.011
 6267.00    0.54706   0.61935    0.010
 6268.00    0.62747   0.61994    0.010
 6269.00    0.71596   0.62036    0.009
 6270.00    0.75642   0.62148    0.009
 6271.00    0.78953   0.62271    0.009
 6272.00    0.78397   0.62351    0.009
 6273.00    0.77403   0.62424    0.009
 6274.00    0.72274   0.62526    0.009
 6275.00    0.66833   0.62632    0.009
 6276.00    0.65407   0.62687    0.009
 6277.00    0.64142   0.62665    0.009
 6278.00    0.64283   0.62569    0.009
 6279.00    0.64420   0.62433    0.009
 6280.00    0.63979   0.62303    0.000
 6281.00    0.63692   0.62220    0.000
 6282.00    0.66023   0.62194    0.000
 6283.00    0.68225   0.62220    0.000
 6284.00    0.69074   0.62331    0.000
 6285.00    0.69670   0.62565    0.000
 6286.00    0.68375   0.62879    0.000
 6287.00    0.67462   0.63191    0.000
 6288.00    0.68722   0.63426    0.000
 6289.00    0.69502   0.63566    0.000
 6290.00    0.68105   0.63629    0.000
 6291.00    0.66718   0.63603    0.000
 6292.00    0.65370   0.63479    0.000
 6293.00    0.62771   0.63269    0.000
 6294.00    0.56286   0.62980    0.000
 6295.00    0.51467   0.62637    0.000
 6296.00    0.51040   0.62296    0.000
 6297.00    0.51380   0.62021    0.000
 6298.00    0.53459   0.61790    0.000
 6299.00    0.55303   0.61523    0.000
 6300.00    0.56688   0.61251    0.000
 6301.00    0.59168   0.61106    0.000
 6302.00    0.63523   0.61132    0.000
 6303.00    0.67081   0.61230    0.000
 6304.00    0.69445   0.61329    0.000
 6305.00    0.70180   0.61518    0.000
 6306.00    0.68768   0.61869    0.000
 6307.00    0.66733   0.62274    0.000
 6308.00    0.63974   0.62574    0.000
 6309.00    0.61685   0.62748    0.000
 6310.00    0.59875   0.62851    0.000
 6311.00    0.59194   0.62866    0.000
 6312.00    0.59530   0.62724    0.000
 6313.00    0.58659   0.62411    0.000
 6314.00    0.56830   0.62020    0.000
 6315.00    0.56883   0.61674    0.000
 6316.00    0.58252   0.61359    0.000
 6317.00    0.59285   0.61026    0.000
 6318.00    0.60112   0.60773    0.000
 6319.00    0.60060   0.60719    0.000
 6320.00    0.59536   0.60797    0.000
 6321.00    0.58145   0.60917    0.009
 6322.00    0.56350   0.61167    0.009
 6323.00    0.56204   0.61581    0.009
 6324.00    0.56720   0.62014    0.009
 6325.00    0.53493   0.62365    0.009
 6326.00    0.48989   0.62667    0.008
 6327.00    0.45793   0.62968    0.008
 6328.00    0.42973   0.63203    0.008
 6329.00    0.42631   0.63305    0.008
 6330.00    0.42878   0.63323    0.009
 6331.00    0.46487   0.63325    0.009
 6332.00    0.50739   0.63283    0.009
 6333.00    0.53544   0.63087    0.009
 6334.00    0.56135   0.62764    0.009
 6335.00    0.61218   0.62454    0.009
 6336.00    0.66571   0.62210    0.009
 6337.00    0.71212   0.61962    0.009
 6338.00    0.75803   0.61697    0.009
 6339.00    0.70981   0.61567    0.009
 6340.00    0.65817   0.61634    0.009
 6341.00    0.62265   0.61748    0.009
 6342.00    0.58758   0.61786    0.009
 6343.00    0.56616   0.61811    0.009
 6344.00    0.54594   0.61884    0.009
 6345.00    0.54469   0.61937    0.009
 6346.00    0.54713   0.61948    0.009
 6347.00    0.58659   0.62009    0.009
 6348.00    0.61730   0.62190    0.009
 6349.00    0.58483   0.62418    0.009
 6350.00    0.54116   0.62608    0.009
 6351.00    0.43551   0.62751    0.009
 6352.00    0.35125   0.62801    0.008
 6353.00    0.36160   0.62701    0.009
 6354.00    0.38660   0.62487    0.009
 6355.00    0.46492   0.62212    0.009
 6356.00    0.52781   0.61827    0.009
 6357.00    0.54374   0.61301    0.009
 6358.00    0.55459   0.60756    0.009
 6359.00    0.55234   0.60313    0.009
 6360.00    0.54298   0.59905    0.009
 6361.00    0.51782   0.59483    0.009
 6362.00    0.50317   0.59188    0.009
 6363.00    0.50882   0.59126    0.009
 6364.00    0.51207   0.59234    0.010
 6365.00    0.51130   0.59456    0.010
 6366.00    0.52104   0.59839    0.010
 6367.00    0.54630   0.60375    0.009
 6368.00    0.55169   0.60940    0.009
 6369.00    0.53131   0.61453    0.009
 6370.00    0.51137   0.61943    0.009
 6371.00    0.49192   0.62423    0.009
 6372.00    0.49805   0.62807    0.009
 6373.00    0.52996   0.63054    0.009
 6374.00    0.55764   0.63241    0.008
 6375.00    0.58157   0.63417    0.008
 6376.00    0.60844   0.63513    0.008
 6377.00    0.63763   0.63466    0.008
 6378.00    0.63847   0.63337    0.008
 6379.00    0.61980   0.63211    0.008
 6380.00    0.58114   0.63084    0.008
 6381.00    0.53041   0.62944    0.009
 6382.00    0.51587   0.62826    0.009
 6383.00    0.52040   0.62765    0.009
 6384.00    0.55002   0.62773    0.009
 6385.00    0.59110   0.62852    0.009
 6386.00    0.61402   0.62941    0.009
 6387.00    0.62978   0.62981    0.009
 6388.00    0.60593   0.63006    0.009
 6389.00    0.56879   0.63033    0.009
 6390.00    0.53297   0.62982    0.009
 6391.00    0.49752   0.62778    0.009
 6392.00    0.47865   0.62485    0.009
 6393.00    0.46364   0.62242    0.009
 6394.00    0.44503   0.62065    0.009
 6395.00    0.42575   0.61886    0.009
 6396.00    0.39307   0.61724    0.009
 6397.00    0.35847   0.61672    0.009
 6398.00    0.36626   0.61682    0.009
 6399.00    0.37846   0.61671    0.009
 6400.00    0.44749   0.61714    0.009
 6401.00    0.52034   0.61814    0.009
 6402.00    0.54927   0.61863    0.009
 6403.00    0.57676   0.61921    0.009
 6404.00    0.53261   0.62151    0.009
 6405.00    0.49000   0.62434    0.009
 6406.00    0.49556   0.62542    0.009
 6407.00    0.50316   0.62514    0.009
 6408.00    0.54133   0.62475    0.009
 6409.00    0.57534   0.62378    0.009
 6410.00    0.56918   0.62160    0.009
 6411.00    0.56620   0.61961    0.009
 6412.00    0.58545   0.61922    0.009
 6413.00    0.60514   0.61927    0.009
 6414.00    0.62714   0.61874    0.009
 6415.00    0.64051   0.61871    0.009
 6416.00    0.61655   0.61947    0.009
 6417.00    0.59810   0.61980    0.009
 6418.00    0.59928   0.61921    0.009
 6419.00    0.59484   0.61814    0.009
 6420.00    0.57362   0.61719    0.009
 6421.00    0.55707   0.61698    0.009
 6422.00    0.55239   0.61750    0.009
 6423.00    0.55251   0.61830    0.009
 6424.00    0.56316   0.61996    0.009
 6425.00    0.57702   0.62307    0.009
 6426.00    0.59701   0.62661    0.009
 6427.00    0.61746   0.62867    0.009
 6428.00    0.63868   0.62880    0.009
 6429.00    0.65302   0.62768    0.009
 6430.00    0.65733   0.62608    0.009
 6431.00    0.64147   0.62439    0.009
 6432.00    0.59981   0.62242    0.009
 6433.00    0.56555   0.62032    0.009
 6434.00    0.53964   0.61924    0.009
 6435.00    0.54387   0.61992    0.009
 6436.00    0.57805   0.62101    0.009
 6437.00    0.60712   0.62112    0.009
 6438.00    0.63172   0.62095    0.009
 6439.00    0.62721   0.62175    0.009
 6440.00    0.60021   0.62313    0.009
 6441.00    0.59983   0.62408    0.009
 6442.00    0.61750   0.62548    0.009
 6443.00    0.63801   0.62846    0.009
 6444.00    0.66021   0.63175    0.009
 6445.00    0.68445   0.63357    0.009
 6446.00    0.70975   0.63357    0.009
 6447.00    0.70576   0.63159    0.009
 6448.00    0.68860   0.62750    0.009
 6449.00    0.64711   0.62249    0.009
 6450.00    0.59620   0.61804    0.009
 6451.00    0.57460   0.61406    0.009
 6452.00    0.56265   0.61048    0.009
 6453.00    0.56726   0.60882    0.009
 6454.00    0.57643   0.61009    0.009
 6455.00    0.58677   0.61299    0.009
 6456.00    0.59736   0.61621    0.009
 6457.00    0.56666   0.61913    0.009
 6458.00    0.52848   0.62128    0.009
 6459.00    0.52286   0.62288    0.009
 6460.00    0.52177   0.62380    0.009
 6461.00    0.56432   0.62328    0.009
 6462.00    0.61122   0.62193    0.009
 6463.00    0.67441   0.62093    0.009
 6464.00    0.73862   0.61986    0.009
 6465.00    0.73720   0.61850    0.009
 6466.00    0.73373   0.61860    0.009
 6467.00    0.68467   0.62075    0.009
 6468.00    0.63755   0.62295    0.009
 6469.00    0.64423   0.62419    0.009
 6470.00    0.65295   0.62496    0.009
 6471.00    0.69052   0.62561    0.009
 6472.00    0.72083   0.62583    0.009
 6473.00    0.68392   0.62535    0.009
 6474.00    0.64031   0.62447    0.009
 6475.00    0.55137   0.62427    0.009
 6476.00    0.46884   0.62479    0.009
 6477.00    0.42002   0.62456    0.009
 6478.00    0.38434   0.62348    0.009
 6479.00    0.40415   0.62251    0.009
 6480.00    0.43546   0.62118    0.009
 6481.00    0.50685   0.61870    0.009
 6482.00    0.57944   0.61617    0.009
 6483.00    0.65556   0.61448    0.009
 6484.00    0.71451   0.61294    0.009
 6485.00    0.73048   0.61165    0.009
 6486.00    0.72690   0.61166    0.009
 6487.00    0.68120   0.61271    0.009
 6488.00    0.63838   0.61299    0.009
 6489.00    0.60095   0.61162    0.009
 6490.00    0.57458   0.60891    0.009
 6491.00    0.56628   0.60467    0.009
 6492.00    0.55317   0.59783    0.009
 6493.00    0.53316   0.58853    0.008
 6494.00    0.52069   0.57901    0.008
 6495.00    0.51772   0.57079    0.008
 6496.00    0.51411   0.56368    0.008
 6497.00    0.50980   0.55814    0.008
 6498.00    0.50684   0.55616    0.008
 6499.00    0.50520   0.55859    0.009
 6500.00    0.50357   0.56399    0.009
 6501.00    0.50197   0.57084    0.009
 6502.00    0.49492   0.57833    0.009
 6503.00    0.48371   0.58643    0.009
 6504.00    0.50618   0.59435    0.009
 6505.00    0.55117   0.60093    0.009
 6506.00    0.58430   0.60587    0.009
 6507.00    0.61049   0.60941    0.009
 6508.00    0.62439   0.61199    0.009
 6509.00    0.63201   0.61389    0.009
 6510.00    0.62986   0.61481    0.009
 6511.00    0.62340   0.61482    0.009
 6512.00    0.63141   0.61466    0.009
 6513.00    0.64492   0.61453    0.009
 6514.00    0.65005   0.61375    0.009
 6515.00    0.65247   0.61225    0.009
 6516.00    0.61313   0.61068    0.009
 6517.00    0.56251   0.60908    0.008
 6518.00    0.53811   0.60748    0.008
 6519.00    0.51952   0.60678    0.008
 6520.00    0.52527   0.60707    0.008
 6521.00    0.53531   0.60766    0.008
 6522.00    0.55139   0.60873    0.008
 6523.00    0.56828   0.61077    0.008
 6524.00    0.57812   0.61267    0.009
 6525.00    0.58728   0.61340    0.009
 6526.00    0.57776   0.61334    0.009
 6527.00    0.56713   0.61338    0.009
 6528.00    0.53544   0.61330    0.000
 6529.00    0.50360   0.61239    0.000
 6530.00    0.52494   0.61114    0.000
 6531.00    0.54737   0.61040    0.000
 6532.00    0.59721   0.61017    0.000
 6533.00    0.64094   0.61016    0.000
 6534.00    0.60283   0.61037    0.000
 6535.00    0.56597   0.61066    0.000
 6536.00    0.54018   0.61115    0.000
 6537.00    0.52309   0.61232    0.000
 6538.00    0.56315   0.61395    0.000
 6539.00    0.59697   0.61495    0.000
 6540.00    0.59897   0.61472    0.000
 6541.00    0.59783   0.61392    0.000
 6542.00    0.58379   0.61288    0.000
 6543.00    0.57559   0.61090    0.000
 6544.00    0.58733   0.60742    0.000
 6545.00    0.60616   0.60321    0.000
 6546.00    0.64538   0.59956    0.000
 6547.00    0.67492   0.59672    0.000
 6548.00    0.68067   0.59393    0.000
 6549.00    0.67147   0.59109    0.000
 6550.00    0.63057   0.58911    0.000
 6551.00    0.60194   0.58783    0.000
 6552.00    0.59587   0.58600    0.000
 6553.00    0.58968   0.58290    0.000
 6554.00    0.58330   0.57900    0.000
 6555.00    0.56412   0.57494    0.000
 6556.00    0.52688   0.57033    0.000
 6557.00    0.53111   0.56418    0.000
 6558.00    0.58686   0.55673    0.000
 6559.00    0.64772   0.54877    0.000
 6560.00    0.71418   0.53938    0.000
 6561.00    0.77684   0.52741    0.000
 6562.00    0.83583   0.51577    0.000
 6563.00    0.84592   0.50848    0.000
 6564.00    0.81436   0.50440    0.000
 6565.00    0.78144   0.50203    0.000
 6566.00    0.74751   0.50506    0.000
 6567.00    0.71670   0.51534    0.000
 6568.00    0.68796   0.52755    0.000
 6569.00    0.67414   0.53795    0.000
 6570.00    0.66893   0.54737    0.000
 6571.00    0.65040   0.55534    0.000
 6572.00    0.62517   0.56049    0.000
 6573.00    0.60397   0.56374    0.000
 6574.00    0.58454   0.56640    0.000
 6575.00    0.59667   0.56871    0.000
 6576.00    0.62058   0.57093    0.000
 6577.00    0.64675   0.57369    0.000
 6578.00    0.67364   0.57698    0.000
 6579.00    0.72250   0.58043    0.000
 6580.00    0.77717   0.58342    0.000
 6581.00    0.78094   0.58592    0.000
 6582.00    0.77371   0.58794    0.000
 6583.00    0.77490   0.58935    0.000
 6584.00    0.77754   0.59034    0.000
 6585.00    0.71783   0.59152    0.000
 6586.00    0.65002   0.59295    0.000
 6587.00    0.61245   0.59401    0.000
 6588.00    0.57765   0.59427    0.000
 6589.00    0.59380   0.59401    0.000
 6590.00    0.61277   0.59324    0.000
 6591.00    0.60420   0.59111    0.000
 6592.00    0.59477   0.58763    0.000
 6593.00    0.56018   0.58451    0.000
 6594.00    0.52557   0.58218    0.000
 6595.00    0.49062   0.57977    0.000
 6596.00    0.46021   0.57809    0.000
 6597.00    0.48726   0.57877    0.000
 6598.00    0.51836   0.58126    0.000
 6599.00    0.58409   0.58396    0.000
 6600.00    0.64615   0.58648    0.000
 6601.00    0.68480   0.58896    0.000
 6602.00    0.70683   0.59119    0.000
 6603.00    0.64599   0.59266    0.000
 6604.00    0.59258   0.59288    0.000
 6605.00    0.56913   0.59194    0.000
 6606.00    0.54374   0.59035    0.000
 6607.00    0.51187   0.58819    0.000
 6608.00    0.48407   0.58583    0.000
 6609.00    0.46777   0.58442    0.008
 6610.00    0.46979   0.58429    0.008
 6611.00    0.51610   0.58462    0.008
 6612.00    0.55657   0.58537    0.008
 6613.00    0.58488   0.58756    0.008
 6614.00    0.59089   0.59093    0.008
 6615.00    0.55645   0.59362    0.008
 6616.00    0.53678   0.59521    0.009
 6617.00    0.54053   0.59687    0.009
 6618.00    0.54740   0.59880    0.009
 6619.00    0.55861   0.59975    0.009
 6620.00    0.54783   0.59952    0.009
 6621.00    0.51011   0.59896    0.009
 6622.00    0.51005   0.59807    0.009
 6623.00    0.55065   0.59628    0.009
 6624.00    0.57157   0.59400    0.009
 6625.00    0.57374   0.59198    0.009
 6626.00    0.55572   0.58988    0.009
 6627.00    0.52075   0.58755    0.009
 6628.00    0.49707   0.58569    0.009
 6629.00    0.48172   0.58456    0.008
 6630.00    0.46466   0.58331    0.008
 6631.00    0.44648   0.58154    0.008
 6632.00    0.44761   0.57958    0.008
 6633.00    0.45971   0.57792    0.008
 6634.00    0.48445   0.57688    0.008
 6635.00    0.51543   0.57629    0.008
 6636.00    0.53767   0.57609    0.008
 6637.00    0.55616   0.57672    0.009
 6638.00    0.54565   0.57807    0.009
 6639.00    0.52451   0.57955    0.008
 6640.00    0.52396   0.58095    0.009
 6641.00    0.52980   0.58172    0.009
 6642.00    0.53656   0.58140    0.009
 6643.00    0.54356   0.58102    0.009
 6644.00    0.51774   0.58134    0.009
 6645.00    0.48499   0.58120    0.009
 6646.00    0.47969   0.58026    0.009
 6647.00    0.47897   0.58018    0.009
 6648.00    0.48628   0.58129    0.009
 6649.00    0.49460   0.58201    0.009
 6650.00    0.50732   0.58199    0.008
 6651.00    0.52043   0.58219    0.008
 6652.00    0.53478   0.58270    0.008
 6653.00    0.54919   0.58278    0.008
 6654.00    0.58252   0.58243    0.008
 6655.00    0.61556   0.58198    0.008
 6656.00    0.60393   0.58156    0.008
 6657.00    0.59097   0.58106    0.008
 6658.00    0.54995   0.58019    0.008
 6659.00    0.51032   0.57879    0.008
 6660.00    0.48738   0.57715    0.008
 6661.00    0.47015   0.57525    0.008
 6662.00    0.50021   0.57269    0.009
 6663.00    0.52848   0.57019    0.009
 6664.00    0.54564   0.56847    0.009
 6665.00    0.54949   0.56705    0.009
 6666.00    0.48869   0.56589    0.009
 6667.00    0.43308   0.56612    0.009
 6668.00    0.39799   0.56773    0.009
 6669.00    0.38011   0.56964    0.009
 6670.00    0.41877   0.57158    0.009
 6671.00    0.46082   0.57379    0.009
 6672.00    0.51226   0.57582    0.009
 6673.00    0.54786   0.57700    0.008
 6674.00    0.54578   0.57720    0.008
 6675.00    0.53978   0.57635    0.008
 6676.00    0.52575   0.57405    0.008
 6677.00    0.53362   0.57099    0.008
 6678.00    0.58061   0.56859    0.008
 6679.00    0.61579   0.56667    0.008
 6680.00    0.63252   0.56447    0.008
 6681.00    0.63102   0.56343    0.008
 6682.00    0.60452   0.56475    0.008
 6683.00    0.57757   0.56693    0.008
 6684.00    0.55007   0.56863    0.009
 6685.00    0.51492   0.57051    0.009
 6686.00    0.47162   0.57268    0.008
 6687.00    0.44827   0.57426    0.008
 6688.00    0.44366   0.57515    0.008
 6689.00    0.45448   0.57574    0.009
 6690.00    0.47807   0.57590    0.009
 6691.00    0.47521   0.57558    0.009
 6692.00    0.45309   0.57509    0.009
 6693.00    0.44186   0.57435    0.009
 6694.00    0.43762   0.57297    0.008
 6695.00    0.46591   0.57114    0.008
 6696.00    0.51241   0.56950    0.000
 6697.00    0.54308   0.56813    0.000
 6698.00    0.56602   0.56683    0.000
 6699.00    0.58065   0.56601    0.000
 6700.00    0.59178   0.56599    0.000
 6701.00    0.59769   0.56637    0.000
 6702.00    0.60173   0.56674    0.000
 6703.00    0.57711   0.56709    0.000
 6704.00    0.54377   0.56739    0.000
 6705.00    0.52257   0.56744    0.000
 6706.00    0.50445   0.56714    0.000
 6707.00    0.51698   0.56681    0.000
 6708.00    0.53582   0.56663    0.000
 6709.00    0.58113   0.56619    0.000
 6710.00    0.63072   0.56540    0.000
 6711.00    0.63169   0.56439    0.000
 6712.00    0.62677   0.56278    0.000
 6713.00    0.62119   0.56048    0.000
 6714.00    0.61555   0.55802    0.000
 6715.00    0.60772   0.55535    0.000
 6716.00    0.59979   0.55234    0.000
 6717.00    0.61469   0.54999    0.000
 6718.00    0.62951   0.54897    0.000
 6719.00    0.62180   0.54867    0.000
 6720.00    0.61055   0.54885    0.000
 6721.00    0.53042   0.55028    0.000
 6722.00    0.45752   0.55291    0.000
 6723.00    0.46755   0.55536    0.000
 6724.00    0.48562   0.55702    0.000
 6725.00    0.56779   0.55855    0.000
 6726.00    0.63158   0.56029    0.000
 6727.00    0.58516   0.56154    0.000
 6728.00    0.54272   0.56201    0.000
 6729.00    0.51911   0.56249    0.000
 6730.00    0.51302   0.56334    0.000
 6731.00    0.57458   0.56397    0.000
 6732.00    0.62483   0.56412    0.000
 6733.00    0.63871   0.56418    0.000
 6734.00    0.62583   0.56415    0.000
 6735.00    0.53999   0.56376    0.000
 6736.00    0.48457   0.56286    0.000
 6737.00    0.50026   0.56165    0.000
 6738.00    0.50848   0.56043    0.000
 6739.00    0.50158   0.55935    0.000
 6740.00    0.49245   0.55814    0.000
 6741.00    0.47939   0.55665    0.000
 6742.00    0.48871   0.55543    0.000
 6743.00    0.53250   0.55489    0.000
 6744.00    0.55581   0.55442    0.000
 6745.00    0.55146   0.55346    0.000
 6746.00    0.52025   0.55266    0.000
 6747.00    0.45705   0.55232    0.000
 6748.00    0.43399   0.55169    0.000
 6749.00    0.45306   0.55069    0.000
 6750.00    0.48135   0.55013    0.000
 6751.00    0.51818   0.54986    0.000
 6752.00    0.56337   0.54955    0.000
 6753.00    0.61538   0.54993    0.010
 6754.00    0.62139   0.55110    0.010
 6755.00    0.59435   0.55248    0.010
 6756.00    0.54686   0.55427    0.010
 6757.00    0.48648   0.55670    0.010
 6758.00    0.44666   0.55910    0.010
 6759.00    0.41819   0.56128    0.010
 6760.00    0.45746   0.56322    0.010
 6761.00    0.52920   0.56450    0.010
 6762.00    0.55699   0.56511    0.010
 6763.00    0.56661   0.56521    0.010
 6764.00    0.58263   0.56457    0.010
 6765.00    0.60092   0.56311    0.010
 6766.00    0.60477   0.56127    0.010
 6767.00    0.60431   0.55951    0.010
 6768.00    0.61817   0.55787    0.010
 6769.00    0.63558   0.55616    0.010
 6770.00    0.62321   0.55479    0.010
 6771.00    0.60487   0.55456    0.010
 6772.00    0.59874   0.55533    0.010
 6773.00    0.59453   0.55636    0.009
 6774.00    0.62907   0.55785    0.009
 6775.00    0.66813   0.56007    0.009
 6776.00    0.69331   0.56235    0.009
 6777.00    0.71740   0.56412    0.009
 6778.00    0.72068   0.56543    0.010
 6779.00    0.72305   0.56599    0.010
 6780.00    0.60296   0.56548    0.010
 6781.00    0.48331   0.56402    0.009
 6782.00    0.44403   0.56173    0.009
 6783.00    0.40625   0.55886    0.009
 6784.00    0.39562   0.55586    0.009
 6785.00    0.38584   0.55309    0.009
 6786.00    0.38545   0.55099    0.009
 6787.00    0.39251   0.54995    0.009
 6788.00    0.45683   0.54967    0.009
 6789.00    0.51674   0.54997    0.009
 6790.00    0.55092   0.55101    0.009
 6791.00    0.57429   0.55215    0.010
 6792.00    0.54763   0.55260    0.010
 6793.00    0.52483   0.55285    0.010
 6794.00    0.51660   0.55320    0.010
 6795.00    0.51356   0.55309    0.010
 6796.00    0.52691   0.55275    0.009
 6797.00    0.53877   0.55285    0.009
 6798.00    0.54667   0.55320    0.009
 6799.00    0.54723   0.55364    0.009
 6800.00    0.53095   0.55436    0.009
 6801.00    0.50602   0.55520    0.009
 6802.00    0.46393   0.55570    0.009
 6803.00    0.41778   0.55602    0.009
 6804.00    0.36460   0.55640    0.009
 6805.00    0.33632   0.55633    0.009
 6806.00    0.34579   0.55576    0.009
 6807.00    0.36029   0.55543    0.009
 6808.00    0.38151   0.55518    0.008
 6809.00    0.39848   0.55446    0.009
 6810.00    0.41045   0.55389    0.009
 6811.00    0.44867   0.55383    0.009
 6812.00    0.51407   0.55358    0.010
 6813.00    0.57464   0.55307    0.010
 6814.00    0.63083   0.55288    0.010
 6815.00    0.65222   0.55312    0.010
 6816.00    0.64563   0.55336    0.010
 6817.00    0.60944   0.55349    0.010
 6818.00    0.55229   0.55381    0.009
 6819.00    0.53121   0.55447    0.009
 6820.00    0.53255   0.55525    0.009
 6821.00    0.53084   0.55597    0.009
 6822.00    0.52748   0.55665    0.009
 6823.00    0.54679   0.55728    0.009
 6824.00    0.57679   0.55793    0.009
 6825.00    0.60198   0.55843    0.009
 6826.00    0.62521   0.55844    0.009
 6827.00    0.57645   0.55791    0.009
 6828.00    0.50269   0.55737    0.009
 6829.00    0.47620   0.55697    0.009
 6830.00    0.46354   0.55643    0.009
 6831.00    0.48162   0.55580    0.009
 6832.00    0.50716   0.55562    0.009
 6833.00    0.52999   0.55594    0.009
 6834.00    0.55228   0.55609    0.009
 6835.00    0.53950   0.55566    0.010
 6836.00    0.52137   0.55487    0.010
 6837.00    0.57260   0.55375    0.010
 6838.00    0.63161   0.55181    0.010
 6839.00    0.60188   0.54912    0.010
 6840.00    0.56551   0.54628    0.010
 6841.00    0.53345   0.54369    0.010
 6842.00    0.50156   0.54167    0.010
 6843.00    0.44201   0.54057    0.009
 6844.00    0.38631   0.54054    0.009
 6845.00    0.49152   0.54145    0.009
 6846.00    0.58866   0.54328    0.008
 6847.00    0.54951   0.54560    0.009
 6848.00    0.51525   0.54775    0.009
 6849.00    0.53210   0.54942    0.009
 6850.00    0.54669   0.55054    0.009
 6851.00    0.54449   0.55101    0.009
 6852.00    0.53581   0.55072    0.009
 6853.00    0.49050   0.54949    0.009
 6854.00    0.45496   0.54760    0.009
 6855.00    0.46355   0.54579    0.009
 6856.00    0.47528   0.54395    0.009
 6857.00    0.49865   0.54171    0.009
 6858.00    0.50753   0.54001    0.009
 6859.00    0.47156   0.53918    0.009
 6860.00    0.44913   0.53836    0.009
 6861.00    0.46229   0.53789    0.009
 6862.00    0.47257   0.53855    0.009
 6863.00    0.47634   0.53935    0.009
 6864.00    0.48455   0.53971    0.009
 6865.00    0.50149   0.54052    0.009
 6866.00    0.49633   0.54137    0.009
 6867.00    0.45346   0.54127    0.009
 6868.00    0.40615   0.54097    0.009
 6869.00    0.35219   0.54100    0.009
 6870.00    0.32492   0.54041    0.009
 6871.00    0.33271   0.53943    0.009
 6872.00    0.37749   0.53938    0.009
 6873.00    0.46506   0.53982    0.009
 6874.00    0.51126   0.53978    0.009
 6875.00    0.51525   0.54004    0.009
 6876.00    0.49276   0.54121    0.009
 6877.00    0.44644   0.54229    0.009
 6878.00    0.42848   0.54274    0.009
 6879.00    0.43301   0.54328    0.009
 6880.00    0.43555   0.54384    0.009
 6881.00    0.43670   0.54366    0.009
 6882.00    0.47002   0.54314    0.009
 6883.00    0.52302   0.54307    0.009
 6884.00    0.50709   0.54310    0.009
 6885.00    0.45433   0.54299    0.009
 6886.00    0.45063   0.54379    0.009
 6887.00    0.46968   0.54555    0.009
 6888.00    0.48716   0.54709    0.009
 6889.00    0.50402   0.54867    0.009
 6890.00    0.49561   0.55087    0.009
 6891.00    0.47859   0.55259    0.009
 6892.00    0.47527   0.55339    0.009
 6893.00    0.47587   0.55420    0.009
 6894.00    0.53908   0.55469    0.009
 6895.00    0.61711   0.55426    0.009
 6896.00    0.67996   0.55379    0.009
 6897.00    0.73991   0.55376    0.009
 6898.00    0.70770   0.55335    0.009
 6899.00    0.66186   0.55273    0.009
 6900.00    0.62248   0.55281    0.009
 6901.00    0.58379   0.55335    0.009
 6902.00    0.52917   0.55351    0.009
 6903.00    0.47342   0.55367    0.009
 6904.00    0.47821   0.55437    0.009
 6905.00    0.48517   0.55516    0.009
 6906.00    0.50908   0.55566    0.009
 6907.00    0.53310   0.55597    0.009
 6908.00    0.55932   0.55637    0.009
 6909.00    0.58149   0.55657    0.009
 6910.00    0.53946   0.55620    0.009
 6911.00    0.50002   0.55538    0.009
 6912.00    0.48646   0.55428    0.009
 6913.00    0.47336   0.55277    0.009
 6914.00    0.46353   0.55125    0.009
 6915.00    0.45326   0.54996    0.009
 6916.00    0.44057   0.54867    0.009
 6917.00    0.43734   0.54800    0.009
 6918.00    0.47588   0.54818    0.009
 6919.00    0.50521   0.54855    0.009
 6920.00    0.50117   0.54894    0.009
 6921.00    0.50766   0.54961    0.009
 6922.00    0.54616   0.55003    0.009
 6923.00    0.58056   0.54962    0.009
 6924.00    0.60434   0.54883    0.009
 6925.00    0.61509   0.54795    0.009
 6926.00    0.59686   0.54699    0.009
 6927.00    0.57397   0.54602    0.009
 6928.00    0.54206   0.54537    0.009
 6929.00    0.53450   0.54533    0.009
 6930.00    0.56784   0.54567    0.009
 6931.00    0.57577   0.54595    0.009
 6932.00    0.54630   0.54614    0.009
 6933.00    0.52558   0.54667    0.009
 6934.00    0.51622   0.54733    0.009
 6935.00    0.48795   0.54755    0.009
 6936.00    0.43810   0.54780    0.009
 6937.00    0.39261   0.54855    0.009
 6938.00    0.35150   0.54931    0.009
 6939.00    0.35466   0.54973    0.009
 6940.00    0.39711   0.55005    0.009
 6941.00    0.44243   0.55014    0.009
 6942.00    0.49000   0.54975    0.009
 6943.00    0.54147   0.54885    0.009
 6944.00    0.59564   0.54752    0.009
 6945.00    0.57578   0.54638    0.009
 6946.00    0.51131   0.54554    0.009
 6947.00    0.46388   0.54465    0.009
 6948.00    0.42542   0.54423    0.009
 6949.00    0.42230   0.54444    0.009
 6950.00    0.43532   0.54442    0.009
 6951.00    0.46139   0.54432    0.009
 6952.00    0.49259   0.54454    0.009
 6953.00    0.49126   0.54443    0.009
 6954.00    0.47904   0.54416    0.009
 6955.00    0.44517   0.54449    0.009
 6956.00    0.40523   0.54502    0.009
 6957.00    0.43131   0.54556    0.009
 6958.00    0.47267   0.54669    0.009
 6959.00    0.48866   0.54814    0.009
 6960.00    0.49994   0.54941    0.010
 6961.00    0.41002   0.55059    0.009
 6962.00    0.30562   0.55175    0.009
 6963.00    0.35529   0.55277    0.009
 6964.00    0.42091   0.55341    0.009
 6965.00    0.44105   0.55374    0.009
 6966.00    0.45815   0.55419    0.009
 6967.00    0.47061   0.55471    0.009
 6968.00    0.48291   0.55483    0.009
 6969.00    0.48090   0.55478    0.009
 6970.00    0.47879   0.55466    0.009
 6971.00    0.47339   0.55433    0.009
 6972.00    0.46428   0.55363    0.009
 6973.00    0.40010   0.55213    0.009
 6974.00    0.34569   0.54988    0.009
 6975.00    0.38518   0.54749    0.009
 6976.00    0.42901   0.54460    0.009
 6977.00    0.50298   0.54065    0.009
 6978.00    0.55476   0.53722    0.010
 6979.00    0.48743   0.53552    0.010
 6980.00    0.42893   0.53441    0.010
 6981.00    0.40847   0.53407    0.009
 6982.00    0.41217   0.53592    0.009
 6983.00    0.50170   0.53916    0.009
 6984.00    0.57190   0.54223    0.009
 6985.00    0.58446   0.54536    0.009
 6986.00    0.57478   0.54859    0.009
 6987.00    0.50858   0.55085    0.009
 6988.00    0.47257   0.55188    0.009
 6989.00    0.50255   0.55240    0.009
 6990.00    0.50330   0.55267    0.009
 6991.00    0.44863   0.55257    0.009
 6992.00    0.43396   0.55231    0.009
 6993.00    0.48551   0.55217    0.009
 6994.00    0.50777   0.55216    0.009
 6995.00    0.48749   0.55204    0.009
 6996.00    0.47973   0.55164    0.009
 6997.00    0.48795   0.55104    0.009
 6998.00    0.50719   0.55006    0.009
 6999.00    0.53882   0.54868    0.009
 7000.00    0.52502   0.54735    0.009
 7001.00    0.46615   0.54610    0.009
 7002.00    0.43591   0.54468    0.009
 7003.00    0.43070   0.54341    0.009
 7004.00    0.44418   0.54275    0.009
 7005.00    0.47206   0.54234    0.009
 7006.00    0.52075   0.54186    0.009
 7007.00    0.58354   0.54179    0.009
 7008.00    0.55940   0.54227    0.009
 7009.00    0.48365   0.54272    0.009
 7010.00    0.44229   0.54278    0.009
 7011.00    0.41874   0.54285    0.009
 7012.00    0.42448   0.54286    0.009
 7013.00    0.44336   0.54233    0.009
 7014.00    0.41947   0.54110    0.009
 7015.00    0.37906   0.53948    0.009
 7016.00    0.39102   0.53825    0.009
 7017.00    0.42015   0.53767    0.009
 7018.00    0.42696   0.53709    0.009
 7019.00    0.42761   0.53698    0.010
 7020.00    0.41543   0.53814    0.010
 7021.00    0.40035   0.53947    0.010
 7022.00    0.39121   0.53993    0.010
 7023.00    0.38316   0.54030    0.010
 7024.00    0.33521   0.54100    0.009
 7025.00    0.28174   0.54120    0.009
 7026.00    0.32375   0.54088    0.009
 7027.00    0.37525   0.54100    0.009
 7028.00    0.39733   0.54180    0.009
 7029.00    0.41757   0.54273    0.009
 7030.00    0.41602   0.54366    0.009
 7031.00    0.41382   0.54480    0.009
 7032.00    0.40218   0.54601    0.009
 7033.00    0.39404   0.54673    0.010
 7034.00    0.48234   0.54694    0.010
 7035.00    0.56597   0.54729    0.010
 7036.00    0.58419   0.54748    0.010
 7037.00    0.59828   0.54698    0.010
 7038.00    0.57424   0.54712    0.010
 7039.00    0.54857   0.54845    0.010
 7040.00    0.51199   0.54962    0.010
 7041.00    0.48128   0.55102    0.010
 7042.00    0.48128   0.55372    0.010
 7043.00    0.48652   0.55647    0.010
 7044.00    0.51380   0.55829    0.010
 7045.00    0.52616   0.56028    0.010
 7046.00    0.48664   0.56220    0.010
 7047.00    0.46223   0.56301    0.010
 7048.00    0.48206   0.56303    0.010
 7049.00    0.49017   0.56256    0.010
 7050.00    0.46903   0.56117   -2.000
 7051.00    0.47167   0.55843   -2.000
 7052.00    0.52545   0.55467   -2.000
 7053.00    0.53277   0.55045   -2.000
 7054.00    0.45336   0.54563   -2.000
 7055.00    0.42475   0.54051   -2.000
 7056.00    0.47902   0.53591   -2.000
 7057.00    0.51490   0.53205   -2.000
 7058.00    0.52449   0.52855   -2.000
 7059.00    0.53712   0.52564   -2.000
 7060.00    0.55357   0.52372   -2.000
 7061.00    0.55636   0.52220   -2.000
 7062.00    0.54399   0.52062   -2.000
 7063.00    0.47045   0.51965   -2.000
 7064.00    0.33708   0.51908   -2.000
 7065.00    0.31623   0.51816   -2.000
 7066.00    0.39243   0.51733   -2.000
 7067.00    0.44659   0.51681   -2.000
 7068.00    0.48401   0.51636   -2.000
 7069.00    0.50877   0.51641   -2.000
 7070.00    0.52508   0.51703   -2.000
 7071.00    0.54329   0.51791   -2.000
 7072.00    0.56262   0.51952   -2.000
 7073.00    0.49939   0.52178   -2.000
 7074.00    0.39408   0.52378   -2.000
 7075.00    0.43873   0.52560   -2.000
 7076.00    0.54961   0.52749   -2.000
 7077.00    0.54710   0.52891   -2.000
 7078.00    0.50159   0.52948   -2.000
 7079.00    0.48169   0.52962   -2.000
 7080.00    0.47005   0.52931   -2.000
 7081.00    0.46641   0.52800   -2.000
 7082.00    0.46492   0.52572   -2.000
 7083.00    0.48752   0.52257   -2.000
 7084.00    0.51544   0.51877   -2.000
 7085.00    0.53838   0.51476   -2.000
 7086.00    0.56045   0.51032   -2.000
 7087.00    0.50174   0.50585   -2.000
 7088.00    0.43221   0.50231   -2.000
 7089.00    0.42747   0.49925   -2.000
 7090.00    0.42889   0.49653   -2.000
 7091.00    0.32512   0.49483   -2.000
 7092.00    0.21518   0.49370   -2.000
 7093.00    0.38644   0.49297   -2.000
 7094.00    0.56366   0.49290   -2.000
 7095.00    0.61035   0.49323   -2.000
 7096.00    0.65337   0.49386   -2.000
 7097.00    0.60545   0.49489   -2.000
 7098.00    0.55455   0.49626   -2.000
 7099.00    0.46396   0.49758   -2.000
 7100.00    0.38338   0.49887   -2.000
 7101.00    0.39147   0.50010   -2.000
 7102.00    0.40105   0.50101   -2.000
 7103.00    0.42031   0.50173   -2.000
 7104.00    0.43967   0.50233   -2.000
 7105.00    0.45960   0.50245   -2.000
 7106.00    0.48779   0.50216   -2.000
 7107.00    0.55002   0.50198   -2.000
 7108.00    0.59924   0.50168   -2.000
 7109.00    0.60408   0.50080   -2.000
 7110.00    0.61319   0.49988   -2.000
 7111.00    0.63452   0.49942   -2.000
 7112.00    0.60908   0.49908   -2.000
 7113.00    0.46890   0.49872   -2.000
 7114.00    0.38296   0.49880   -2.000
 7115.00    0.41181   0.49948   -2.000
 7116.00    0.42219   0.50016   -2.000
 7117.00    0.39860   0.50066   -2.000
 7118.00    0.42895   0.50119   -2.000
 7119.00    0.54595   0.50157   -2.000
 7120.00    0.61712   0.50150   -2.000
 7121.00    0.62367   0.50082   -2.000
 7122.00    0.59790   0.50002   -2.000
 7123.00    0.53203   0.49921   -2.000
 7124.00    0.61552   0.49770   -2.000
 7125.00    0.86229   0.49580   -2.000
 7126.00    0.92070   0.49410   -2.000
 7127.00    0.79745   0.49235   -2.000
 7128.00    0.65254   0.49020   -2.000
 7129.00    0.48920   0.48800   -2.000
 7130.00    0.41295   0.48641   -2.000
 7131.00    0.40193   0.48544   -2.000
 7132.00    0.43195   0.48471   -2.000
 7133.00    0.48898   0.48479   -2.000
 7134.00    0.47861   0.48584   -2.000
 7135.00    0.42941   0.48711   -2.000
 7136.00    0.45686   0.48885   -2.000
 7137.00    0.52278   0.49082   -2.000
 7138.00    0.53828   0.49214   -2.000
 7139.00    0.53191   0.49335   -2.000
 7140.00    0.51388   0.49472   -2.000
 7141.00    0.49151   0.49515   -2.000
 7142.00    0.55034   0.49509   -2.000
 7143.00    0.63482   0.49531   -2.000
 7144.00    0.61568   0.49498   -2.000
 7145.00    0.56920   0.49418   -2.000
 7146.00    0.59125   0.49335   -2.000
 7147.00    0.62808   0.49206   -2.000
 7148.00    0.56860   0.49106   -2.000
 7149.00    0.49266   0.49062   -2.000
 7150.00    0.52820   0.49008   -2.000
 7151.00    0.57817   0.49031   -2.000
 7152.00    0.43958   0.49181   -2.000
 7153.00    0.28386   0.49340   -2.000
 7154.00    0.39712   0.49482   -2.000
 7155.00    0.52510   0.49686   -2.000
 7156.00    0.52069   0.49903   -2.000
 7157.00    0.51424   0.50008   -2.000
 7158.00    0.57369   0.50054   -2.000
 7159.00    0.63198   0.50096   -2.000
 7160.00    0.66389   0.50058   -2.000
 7161.00    0.68603   0.49952   -2.000
 7162.00    0.58500   0.49828   -2.000
 7163.00    0.50530   0.49664   -2.000
 7164.00    0.60762   0.49495   -2.000
 7165.00    0.69058   0.49392   -2.000
 7166.00    0.65089   0.49332   -2.000
 7167.00    0.62803   0.49324   -2.000
 7168.00    0.68877   0.49413   -2.000
 7169.00    0.72898   0.49565   -2.000
 7170.00    0.68659   0.49755   -2.000
 7171.00    0.60129   0.49971   -2.000
 7172.00    0.37259   0.50159   -2.000
 7173.00    0.23482   0.50307   -2.000
 7174.00    0.35354   0.50415   -2.000
 7175.00    0.44007   0.50429   -2.000
 7176.00    0.44897   0.50387   -2.000
 7177.00    0.44628   0.50337   -2.000
 7178.00    0.41948   0.50218   -2.000
 7179.00    0.45211   0.50048   -2.000
 7180.00    0.59234   0.49905   -2.000
 7181.00    0.63259   0.49789   -2.000
 7182.00    0.51455   0.49688   -2.000
 7183.00    0.46092   0.49589   -2.000
 7184.00    0.49675   0.49519   -2.000
 7185.00    0.49922   0.49483   -2.000
 7186.00    0.46088   0.49398   -2.000
 7187.00    0.46570   0.49287   -2.000
 7188.00    0.51705   0.49200   -2.000
 7189.00    0.55481   0.49089   -2.000
 7190.00    0.57966   0.48989   -2.000
 7191.00    0.56466   0.48936   -2.000
 7192.00    0.51625   0.48903   -2.000
 7193.00    0.49454   0.48926   -2.000
 7194.00    0.49253   0.49012   -2.000
 7195.00    0.48529   0.49086   -2.000
 7196.00    0.47468   0.49147   -2.000
 7197.00    0.53329   0.49254   -2.000
 7198.00    0.63118   0.49351   -2.000
 7199.00    0.71610   0.49396   -2.000
 7200.00    0.79461   0.49447   -2.000
 7201.00    0.69900   0.49499   -2.000
 7202.00    0.52902   0.49523   -2.000
 7203.00    0.44681   0.49523   -2.000
 7204.00    0.39670   0.49503   -2.000
 7205.00    0.36530   0.49446   -2.000
 7206.00    0.33970   0.49334   -2.000
 7207.00    0.42896   0.49238   -2.000
 7208.00    0.54788   0.49157   -2.000
 7209.00    0.51966   0.49062   -2.000
 7210.00    0.46049   0.49054   -2.000
 7211.00    0.38811   0.49112   -2.000
 7212.00    0.31353   0.49172   -2.000
 7213.00    0.34224   0.49298   -2.000
 7214.00    0.38385   0.49458   -2.000
 7215.00    0.31998   0.49576   -2.000
 7216.00    0.24696   0.49700   -2.000
 7217.00    0.25588   0.49841   -2.000
 7218.00    0.26895   0.49929   -2.000
