###################################################################
## OUTPUT of StarlightChains_v04.for    [Cid@UFSC - 01/Apr/2007] ##
###################################################################

## Some input info
KUG0210-078._41_37.txt                   [arq_obs]
Base.CB07.vall.4m                        [arq_base]
Masks.EmLines.NEW.gm                     [arq_masks]
StCv04.C11.config                        [arq_config]
   66                                    [N_base]
    0                                    [N_YAV_components = # of components with extra extinction!]
    0                                    [i_FitPowerLaw (1/0 = Yes/No)]
-9.99                                    [alpha_PowerLaw]
CCM                                      [red_law_option]
 1.458241                                [q_norm = A(l_norm)/A(V)]

## (Re)Sampling Parameters
 3741.00                                 [l_ini (A)]
 7218.00                                 [l_fin (A)]
    1.00                                 [dl    (A)]     (OBS: dl_cushion =    50.00 A)

## Normalization info
 4020.00                                 [l_norm (A) - for base]
 4010.00                                 [llow_norm (A) - window for f_obs]
 4060.00                                 [lupp_norm (A) - window for f_obs]
1.224329E-17                             [fobs_norm (in input units)]

## S/N
 3691.00                                 [llow_SN (A) - window for S/N]
 7268.00                                 [lupp_SN (A) - window for S/N]
   4.445                                 [S/N in S/N window]
   3.538                                 [S/N in norm. window]
   0.017                                 [S/N_err in S/N window]
   0.014                                 [S/N_err in norm. window]
  1.0000                                 [fscale_chi2]

## etc...
    -2007750                             [idum_orig]
  2425                                   [NOl_eff]
  2383                                   [Nl_eff]
    42    NSIGMA                         [Ntot_cliped & clip_method]
  6023010                                [Nglobal_steps]
   7                                     [N_chains]
  30                                     [NEX0s_base = N_base in EX0s-fits]
 0   0   1       42   2.0   3.354E+03    [Clip-Bug, RC-Crash & Burn-In warning-flags, n_censored_weights, wei_nsig_threshold & wei_limit]
    59     57.587     56.546      1.042  [idt_all, wdt_TotTime, wdt_UsrTime & wdt_SysTime (sec)]

## Synthesis Results - Best model ##

 1.00659E-05                             [chi2/Nl_eff]
    28.11472                             [adev (%)]

   120.88846                             [sum-of-x (%)]
 5.67484E-18                             [Flux_tot (units of input spectrum!)]
 6.21949E-13                             [Mini_tot (???)]
 3.12213E-13                             [Mcor_tot (???)]

 -60.41                                  [v0_min  (km/s)]
 426.80                                  [vd_min  (km/s)]
-0.7138                                  [AV_min  (mag)]
 0.0000                                  [YAV_min (mag)]

# j     x_j(%)      Mini_j(%)     Mcor_j(%)     age_j(yr)     Z_j      (L/M)_j    YAV?  Mstars   component_j        a/Fe...       SSP_chi2r SSP_adev(%)   SSP_AV   SSP_x(%)
  1      0.0000     0.0000E+00    0.0000E+00    1.000000E+06  0.00400  1.094E-02    0   1.0000   age020_m42            0.0000     1.9491E-05    40.7714   3.5432    97.0548
  2      0.0000     0.0000E+00    0.0000E+00    3.160000E+06  0.00400  4.007E-02    0   0.9999   age045_m42            0.0000     1.7332E-05    36.7887   2.7982   104.4125
  3      0.0000     0.0000E+00    0.0000E+00    5.010000E+06  0.00400  2.539E-02    0   0.9488   age055_m42            0.0000     1.8415E-05    38.5068   3.1303   101.4240
  4      0.2357     6.7887E-05    1.2469E-04    6.610000E+06  0.00400  2.620E-02    0   0.9220   age061_m42            0.0000     1.7487E-05    36.4887   2.7274   104.5409
  5      0.0000     0.0000E+00    0.0000E+00    1.000000E+07  0.00400  1.322E-02    0   0.8862   age070_m42            0.0000     1.9669E-05    39.1713   2.4583   105.6374
  6      0.0000     0.0000E+00    0.0000E+00    1.445000E+07  0.00400  7.883E-03    0   0.8571   age078_m42            0.0000     2.0033E-05    40.0070   2.7886   102.9732
  7      0.0000     0.0000E+00    0.0000E+00    2.512000E+07  0.00400  5.251E-03    0   0.8174   age090_m42            0.0000     1.9984E-05    39.3971   2.3282   106.1139
  8      0.0000     0.0000E+00    0.0000E+00    4.000000E+07  0.00400  3.649E-03    0   0.7851   age104_m42            0.0000     1.9303E-05    38.5167   2.0938   107.3408
  9      0.0000     0.0000E+00    0.0000E+00    5.500000E+07  0.00400  3.098E-03    0   0.7629   age110_m42            0.0000     1.7982E-05    36.4119   2.2409   107.9841
 10      0.0000     0.0000E+00    0.0000E+00    1.015200E+08  0.00400  2.228E-03    0   0.7207   age116_m42            0.0000     1.7151E-05    34.7281   2.2550   108.6186
 11      0.0000     0.0000E+00    0.0000E+00    2.861200E+08  0.00400  1.093E-03    0   0.6648   age125_m42            0.0000     1.7454E-05    34.8028   1.6777   111.7979
 12      0.0000     0.0000E+00    0.0000E+00    5.088000E+08  0.00400  6.597E-04    0   0.6365   age130_m42            0.0000     1.6010E-05    32.5980   1.6562   113.5095
 13      0.0000     0.0000E+00    0.0000E+00    1.434000E+09  0.00400  2.132E-04    0   0.5798   age139_m42            0.0000     1.4362E-05    32.0247   0.6656   116.3864
 14      0.0000     0.0000E+00    0.0000E+00    4.250000E+09  0.00400  5.895E-05    0   0.5377   age158_m42            0.0000     1.3225E-05    33.2061   0.2219   112.4739
 15      0.0000     0.0000E+00    0.0000E+00    7.500000E+09  0.00400  3.510E-05    0   0.5212   age171_m42            0.0000     1.2722E-05    33.1208   0.0284   112.1385
 16     11.2757     4.2447E+00    4.2566E+00    1.300000E+10  0.00400  2.005E-05    0   0.5034   age193_m42            0.0000     1.2418E-05    33.1883  -0.1386   111.8019
 17      0.0000     0.0000E+00    0.0000E+00    1.800000E+10  0.00400  1.525E-05    0   0.4967   age213_m42            0.0000     1.2594E-05    33.4176  -0.1633   111.2595
 18      0.2702     1.6473E-04    3.2816E-04    1.000000E+06  0.00800  1.238E-02    0   1.0000   age020_m52            0.0000     1.9474E-05    40.7022   3.5396    97.2264
 19      0.0000     0.0000E+00    0.0000E+00    3.160000E+06  0.00800  3.074E-02    0   0.9966   age045_m52            0.0000     1.9288E-05    40.1714   3.4596    98.1755
 20      0.0000     0.0000E+00    0.0000E+00    5.010000E+06  0.00800  2.668E-02    0   0.9443   age055_m52            0.0000     1.8766E-05    38.9454   3.2121   100.4437
 21      0.0000     0.0000E+00    0.0000E+00    6.610000E+06  0.00800  2.136E-02    0   0.9177   age061_m52            0.0000     1.8994E-05    40.1258   1.9549   106.9950
 22      0.0000     0.0000E+00    0.0000E+00    1.000000E+07  0.00800  1.215E-02    0   0.8827   age070_m52            0.0000     2.0757E-05    40.5540   2.6356   105.1114
 23      0.0000     0.0000E+00    0.0000E+00    1.445000E+07  0.00800  8.717E-03    0   0.8552   age078_m52            0.0000     1.9906E-05    39.6591   2.7480   104.4288
 24      0.0000     0.0000E+00    0.0000E+00    2.512000E+07  0.00800  5.592E-03    0   0.8162   age090_m52            0.0000     2.0051E-05    39.2493   2.3821   107.4725
 25      0.0000     0.0000E+00    0.0000E+00    4.000000E+07  0.00800  3.896E-03    0   0.7841   age104_m52            0.0000     1.9098E-05    37.9040   2.2898   108.7023
 26      0.0000     0.0000E+00    0.0000E+00    1.015200E+08  0.00800  2.148E-03    0   0.7226   age116_m52            0.0000     1.7590E-05    35.5321   2.2203   109.2562
 27      0.0000     0.0000E+00    0.0000E+00    2.861200E+08  0.00800  9.925E-04    0   0.6683   age125_m52            0.0000     1.5944E-05    32.1927   1.7206   114.6046
 28      0.0000     0.0000E+00    0.0000E+00    9.047900E+08  0.00800  3.141E-04    0   0.6138   age135_m52            0.0000     1.3466E-05    30.4972   0.8920   120.7959
 29      0.0000     0.0000E+00    0.0000E+00    1.434000E+09  0.00800  1.719E-04    0   0.5853   age139_m52            0.0000     1.3326E-05    32.3011   0.3054   118.3061
 30      0.0000     0.0000E+00    0.0000E+00    2.500000E+09  0.00800  7.872E-05    0   0.5600   age150_m52            0.0000     1.2004E-05    31.5363   0.0341   115.9150
 31      0.0000     0.0000E+00    0.0000E+00    4.250000E+09  0.00800  4.336E-05    0   0.5426   age158_m52            0.0000     1.2083E-05    32.0425   0.0231   114.8065
 32      0.0000     0.0000E+00    0.0000E+00    6.250000E+09  0.00800  3.159E-05    0   0.5319   age166_m52            0.0000     1.1411E-05    31.0892  -0.1878   115.5050
 33      5.0420     2.7962E+00    2.8257E+00    1.300000E+10  0.00800  1.361E-05    0   0.5073   age193_m52            0.0000     1.0837E-05    29.8982  -0.6718   115.6367
 34      3.1137     2.3773E+00    2.3631E+00    1.800000E+10  0.00800  9.886E-06    0   0.4990   age213_m52            0.0000     1.0441E-05    28.7925  -0.7907   115.8586
 35      0.0000     0.0000E+00    0.0000E+00    1.000000E+06  0.02000  1.544E-02    0   1.0000   age020_m62            0.0000     1.9536E-05    40.7134   3.5359    97.4317
 36      0.0000     0.0000E+00    0.0000E+00    3.160000E+06  0.02000  3.762E-02    0   0.9858   age045_m62            0.0000     1.9527E-05    40.4327   3.4738    98.3045
 37      1.0404     2.3825E-04    4.4337E-04    5.010000E+06  0.02000  3.296E-02    0   0.9342   age055_m62            0.0000     1.7762E-05    37.0730   3.0835   102.9781
 38      0.0000     0.0000E+00    0.0000E+00    8.710000E+06  0.02000  1.154E-02    0   0.8861   age067_m62            0.0000     2.7300E-05    47.3380   2.1034   105.7918
 39      0.0000     0.0000E+00    0.0000E+00    1.445000E+07  0.02000  7.663E-03    0   0.8472   age078_m62            0.0000     2.2334E-05    42.6335   2.2816   106.9235
 40      0.0000     0.0000E+00    0.0000E+00    2.512000E+07  0.02000  4.532E-03    0   0.8099   age090_m62            0.0000     2.2648E-05    42.4108   2.2720   106.5902
 41      0.0000     0.0000E+00    0.0000E+00    5.500000E+07  0.02000  2.733E-03    0   0.7595   age110_m62            0.0000     1.9206E-05    38.1157   2.2756   107.8496
 42      0.0000     0.0000E+00    0.0000E+00    1.609000E+08  0.02000  1.369E-03    0   0.6985   age120_m62            0.0000     1.6992E-05    33.6355   2.0984   112.0175
 43      0.0000     0.0000E+00    0.0000E+00    2.861200E+08  0.02000  9.013E-04    0   0.6714   age125_m62            0.0000     1.5787E-05    30.9501   1.8307   116.1157
 44      0.0000     0.0000E+00    0.0000E+00    5.088000E+08  0.02000  5.028E-04    0   0.6449   age130_m62            0.0000     1.3750E-05    28.6473   1.4324   120.4958
 45      0.0000     0.0000E+00    0.0000E+00    9.047900E+08  0.02000  2.428E-04    0   0.6179   age135_m62            0.0000     1.2388E-05    29.8815   0.8373   120.3437
 46      0.0000     0.0000E+00    0.0000E+00    1.434000E+09  0.02000  1.263E-04    0   0.5908   age139_m62            0.0000     1.2005E-05    30.8577   0.3895   118.7844
 47      2.6863     3.3877E-01    3.8284E-01    2.500000E+09  0.02000  5.985E-05    0   0.5673   age150_m62            0.0000     1.1260E-05    30.5207   0.0150   117.9397
 48      0.0000     0.0000E+00    0.0000E+00    4.250000E+09  0.02000  3.271E-05    0   0.5468   age158_m62            0.0000     1.0495E-05    29.2432  -0.3014   117.9190
 49      0.0000     0.0000E+00    0.0000E+00    1.000000E+10  0.02000  1.360E-05    0   0.5167   age181_m62            0.0000     1.0011E-05    27.4127  -0.6699   118.7703
 50     61.3778     6.5028E+01    6.4939E+01    1.800000E+10  0.02000  7.124E-06    0   0.5013   age213_m62            0.0000     9.8698E-06    25.9711  -0.8955   118.8928
 51      0.0000     0.0000E+00    0.0000E+00    1.000000E+06  0.05000  2.592E-02    0   0.9998   age020_m72            0.0000     1.9803E-05    41.0138   3.5277    97.4113
 52      0.0000     0.0000E+00    0.0000E+00    3.160000E+06  0.05000  4.845E-02    0   0.9577   age045_m72            0.0000     1.8734E-05    38.9254   3.3496    99.9463
 53      0.5238     1.2870E-04    2.3452E-04    5.010000E+06  0.05000  3.072E-02    0   0.9147   age055_m72            0.0000     2.1356E-05    41.9497   2.8676   103.3675
 54      0.0000     0.0000E+00    0.0000E+00    6.610000E+06  0.05000  1.455E-02    0   0.8877   age061_m72            0.0000     3.1925E-05    51.1887   2.1390   106.0394
 55      0.0000     0.0000E+00    0.0000E+00    1.000000E+07  0.05000  9.074E-03    0   0.8524   age070_m72            0.0000     2.2039E-05    42.4901   3.0575   103.1882
 56      0.0000     0.0000E+00    0.0000E+00    2.512000E+07  0.05000  4.250E-03    0   0.7902   age090_m72            0.0000     2.0928E-05    40.2211   2.7420   105.3602
 57      0.0000     0.0000E+00    0.0000E+00    4.000000E+07  0.05000  3.087E-03    0   0.7618   age104_m72            0.0000     2.1023E-05    39.6191   2.5040   107.1804
 58      0.0000     0.0000E+00    0.0000E+00    1.015200E+08  0.05000  1.700E-03    0   0.7096   age116_m72            0.0000     1.8068E-05    34.7012   2.2373   111.2208
 59      0.0000     0.0000E+00    0.0000E+00    2.861200E+08  0.05000  7.384E-04    0   0.6633   age125_m72            0.0000     1.4605E-05    29.4240   1.6850   118.4529
 60      0.0000     0.0000E+00    0.0000E+00    5.088000E+08  0.05000  3.819E-04    0   0.6372   age130_m72            0.0000     1.2646E-05    28.7882   1.1775   121.4606
 61     15.6826     7.0625E-01    8.5962E-01    9.047900E+08  0.05000  1.676E-04    0   0.6110   age135_m72            0.0000     1.1129E-05    29.2547   0.4691   120.3709
 62      0.0000     0.0000E+00    0.0000E+00    1.434000E+09  0.05000  8.837E-05    0   0.5874   age139_m72            0.0000     1.1093E-05    29.9424   0.0039   120.0769
 63      0.0000     0.0000E+00    0.0000E+00    2.500000E+09  0.05000  4.233E-05    0   0.5598   age150_m72            0.0000     1.0321E-05    28.7254  -0.3149   119.4970
 64      7.2174     3.7962E+00    3.9694E+00    6.250000E+09  0.05000  1.435E-05    0   0.5249   age166_m72            0.0000     9.9191E-06    27.1234  -0.7790   118.7724
 65      0.0000     0.0000E+00    0.0000E+00    1.300000E+10  0.05000  6.513E-06    0   0.5036   age193_m72            0.0000     1.0075E-05    24.9384  -1.0000   117.4592
 66     12.4227     2.0712E+01    2.0403E+01    1.800000E+10  0.05000  4.527E-06    0   0.4945   age213_m72            0.0000     1.1637E-05    23.5609  -1.0000   109.8778


## Synthesis Results - Average & Chains ##

# j      x_j: min, <> & last-chain-values for 1 ...  7 chains
  1      0.0000      0.5027      0.0000      0.0425      0.0000      0.0000      0.0000      0.3767      0.4946
  2      0.0000      0.4550      0.6235      0.1735      0.2327      0.2214      0.0000      0.2391      0.0000
  3      0.0000      0.6412      0.0172      0.0000      0.4415      0.4817      0.0000      0.8077      0.0260
  4      0.2357      0.4910      0.0000      0.0000      0.0000      0.2338      0.8192      0.0000      0.4729
  5      0.0000      0.6691      0.0000      0.0000      0.2134      0.0000      0.1206      0.1129      0.8761
  6      0.0000      0.5587      0.0863      0.0373      0.0198      0.1617      0.0118      0.1513      0.0846
  7      0.0000      0.4904      0.5846      0.0000      0.4893      0.2275      0.0000      0.1995      0.2847
  8      0.0000      0.5068      0.0000      0.2051      0.2906      0.3337      0.0469      0.4563      0.5715
  9      0.0000      0.4999      0.0000      0.2346      0.1771      0.1744      0.0000      0.2621      0.0011
 10      0.0000      0.6879      0.0562      0.3067      0.1523      0.5447      0.0703      0.4161      0.1451
 11      0.0000      0.6699      0.1399      0.0000      0.4797      0.0000      0.2095      0.2732      0.4235
 12      0.0000      0.5879      0.0088      0.5941      0.0580      0.7868      0.0650      0.1112      0.0554
 13      0.0000      0.6050      0.0193      0.1169      0.0998      0.2121      0.0000      0.6843      0.1484
 14      0.0000      0.4936      0.0723      0.0000      0.3574      0.2396      0.4606      0.0315      0.0000
 15      0.0000      0.6046      0.1119      0.4367      0.0000      0.2859      0.1789      0.1817      0.1605
 16     11.2757      0.4972      0.2151      0.3232      0.0000      0.3359      0.2924      0.4578      0.6761
 17      0.0000      0.7166      0.1866      0.5409      0.0000      0.2219      0.0344      0.4308      0.0000
 18      0.2702      0.6739      0.0526      0.5421      0.0520      0.0000      0.6471      0.0000      0.4072
 19      0.0000      0.5041      0.0280      0.1499      0.1116      0.0000      0.0314      0.0000      0.3686
 20      0.0000      0.5797      0.0000      0.7226      0.0934      0.0000      0.0000      0.1835      0.1281
 21      0.0000      0.5713      0.1117      0.0627      0.0000      0.0000      0.1433      0.3908      0.1321
 22      0.0000      0.5329      0.2898      0.4267      0.2885      0.4026      0.1091      0.0000      0.0000
 23      0.0000      0.5193      0.0474      0.1869      0.0000      0.2180      0.0000      0.1096      0.0000
 24      0.0000      0.5213      0.2034      0.5472      0.2185      0.2125      0.0000      0.0000      0.0559
 25      0.0000      0.4896      0.2371      0.3450      0.2300      0.2809      0.1570      0.1486      0.0113
 26      0.0000      0.5413      0.0589      0.0030      0.4570      0.2597      0.1487      0.2072      0.3935
 27      0.0000      0.5865      0.3094      0.0000      0.0545      0.1230      0.0000      0.0664      0.9102
 28      0.0000      1.0992      0.0000      0.0538      0.3023      0.0932      0.3949      0.1554      0.8214
 29      0.0000      0.3687      0.6565      0.2087      0.1046      0.0940      0.1041      0.0409      0.0727
 30      0.0000      0.5353      0.2751      0.1137      0.0000      0.0219      0.1941      0.1242      0.2130
 31      0.0000      0.6201      0.0000      0.6133      0.0503      0.0484      0.3130      0.1271      0.0312
 32      0.0000      0.5481      0.4407      0.0856      0.0889      0.2849      0.4992      0.0984      0.0713
 33      5.0420      0.5974      0.0107      0.0000      0.0431      0.1360      0.2135      0.5768      0.1969
 34      3.1137      0.5556      0.0000      0.2016      0.2811      0.1810      0.2373      0.1604      0.3852
 35      0.0000      0.4985      0.2182      0.0681      0.0000      0.0000      0.0000      0.0000      0.6283
 36      0.0000      0.6477      0.0012      0.0405      0.1864      0.0000      0.0000      0.0000      0.1128
 37      1.0404      0.4462      0.0000      0.1142      0.0434      0.0000      0.2101      0.0000      0.0617
 38      0.0000      0.5131      0.0273      0.0510      0.2352      0.0528      0.0000      0.7685      0.1991
 39      0.0000      0.5004      0.4935      0.0744      0.1677      0.3119      0.0000      0.2031      0.0000
 40      0.0000      0.7400      0.0000      0.1007      0.7365      0.0000      0.2383      0.3060      0.0000
 41      0.0000      0.5299      0.0000      0.0000      0.0831      0.2775      0.3573      0.1530      0.4356
 42      0.0000      0.5233      0.0293      0.5162      0.0198      0.5599      0.2182      0.2065      0.5290
 43      0.0000      0.6457      0.6415      0.0044      0.0000      0.2181      0.0000      0.4405      0.0340
 44      0.0000      0.6609      0.3071      0.0185      0.3479      0.0000      0.0000      0.0000      0.3474
 45      0.0000      0.4865      0.1970      0.0630      0.0607      0.0000      0.3555      0.1212      0.2041
 46      0.0000      0.6011      0.1384      0.3983      0.1066      0.3671      0.3610      0.0000      0.0391
 47      2.6863      0.6093      0.0608      0.2934      0.1778      0.2944      0.2116      0.5377      0.3301
 48      0.0000      0.5469      0.0419      0.2000      0.1994      0.4321      0.1478      0.2524      0.0000
 49      0.0000      0.4286      0.0715      0.1496      0.2424      0.2606      0.1688      0.0251      0.0000
 50     61.3778     25.1967     35.2406     35.2861     35.5155     34.7797     35.7264     33.1465     35.4245
 51      0.0000      0.5850      0.0000      0.0000      0.1104      0.1872      0.1731      0.2270      0.1346
 52      0.0000      0.4988      0.3081      0.0000      0.0000      0.1997      0.8685      0.0979      0.2568
 53      0.5238      0.7491      0.6414      0.0000      0.2303      0.0000      0.2154      0.4515      0.0000
 54      0.0000      0.4560      0.2400      0.0419      0.1709      0.1780      0.4077      0.0000      0.1322
 55      0.0000      0.4991      0.1429      0.0000      0.1173      0.1009      0.2509      0.3595      0.1092
 56      0.0000      0.5436      0.2223      0.3356      0.1403      0.1381      0.2020      0.2691      0.0000
 57      0.0000      0.4039      0.1029      0.3013      0.0457      0.0000      0.6239      0.1927      0.0000
 58      0.0000      0.5671      0.0624      0.0000      0.1358      0.0136      0.0013      0.0000      0.0278
 59      0.0000      0.4539      0.0000      0.2094      0.2311      0.0056      0.1347      0.1001      0.8115
 60      0.0000      0.5690      0.0141      0.0438      0.2215      0.6165      0.0467      0.1449      0.1252
 61     15.6826      1.0749      1.3267      1.2671      0.5355      0.7824      1.2227      0.9998      1.1400
 62      0.0000      0.9466      0.2811      0.7722      0.2403      0.1963      0.0000      0.1724      0.1068
 63      0.0000     12.5932     18.2475     16.4004     17.1921     14.2017     16.6039     15.9778     16.5492
 64      7.2174      0.7999      0.5429      0.0022      0.5417      1.4559      0.1919      1.0264      0.2601
 65      0.0000      6.6945      8.5626      8.8096      9.7283      8.4875      9.2923      8.5758      7.9221
 66     12.4227     21.3968     28.8488     28.8897     28.6908     30.8787     28.1211     29.4547     27.3496

# j      m_j: min, <> & last-chain-values for 1 ...  7 chains
  1  0.0000E+00  9.1879E-04  0.0000E+00  5.8748E-05  0.0000E+00  0.0000E+00  0.0000E+00  5.2617E-04  7.0805E-04
  2  0.0000E+00  2.2705E-04  2.3597E-04  6.5429E-05  8.6978E-05  8.1354E-05  0.0000E+00  9.1164E-05  0.0000E+00
  3  0.0000E+00  4.7913E-04  9.7432E-06  0.0000E+00  2.4712E-04  2.6510E-04  0.0000E+00  4.6125E-04  1.5237E-05
  4  1.2469E-04  3.4547E-04  0.0000E+00  0.0000E+00  0.0000E+00  1.2116E-04  4.3679E-04  0.0000E+00  2.6064E-04
  5  0.0000E+00  8.9678E-04  0.0000E+00  0.0000E+00  2.1429E-04  0.0000E+00  1.2247E-04  1.1563E-04  9.1984E-04
  6  0.0000E+00  1.2146E-03  1.4236E-04  6.1356E-05  3.2228E-05  2.5891E-04  1.9486E-05  2.5135E-04  1.4406E-04
  7  0.0000E+00  1.5264E-03  1.3801E-03  0.0000E+00  1.1409E-03  5.2160E-04  0.0000E+00  4.7457E-04  6.9413E-04
  8  0.0000E+00  2.1802E-03  0.0000E+00  6.6699E-04  9.3658E-04  1.0574E-03  1.5298E-04  1.5002E-03  1.9259E-03
  9  0.0000E+00  2.4616E-03  0.0000E+00  8.7331E-04  6.5327E-04  6.3242E-04  0.0000E+00  9.8645E-04  4.1304E-06
 10  0.0000E+00  4.4495E-03  2.7586E-04  1.4994E-03  7.3817E-04  2.5953E-03  3.4456E-04  2.0567E-03  7.3527E-04
 11  0.0000E+00  8.1474E-03  1.2909E-03  0.0000E+00  4.3711E-03  0.0000E+00  1.9308E-03  2.5393E-03  4.0342E-03
 12  0.0000E+00  1.1342E-02  1.2839E-04  8.6647E-03  8.3869E-04  1.1181E-02  9.4955E-04  1.6390E-03  8.3669E-04
 13  0.0000E+00  3.2897E-02  7.9773E-04  4.8066E-03  4.0673E-03  8.4963E-03  0.0000E+00  2.8440E-02  6.3203E-03
 14  0.0000E+00  9.0021E-02  9.9989E-03  0.0000E+00  4.8839E-02  3.2190E-02  6.3651E-02  4.3977E-03  0.0000E+00
 15  0.0000E+00  1.7951E-01  2.5210E-02  9.8016E-02  0.0000E+00  6.2526E-02  4.0240E-02  4.1232E-02  3.7321E-02
 16  4.2566E+00  2.4960E-01  8.1891E-02  1.2267E-01  0.0000E+00  1.2421E-01  1.1125E-01  1.7564E-01  2.6587E-01
 17  0.0000E+00  4.6666E-01  9.2196E-02  2.6629E-01  0.0000E+00  1.0646E-01  1.6971E-02  2.1445E-01  0.0000E+00
 18  3.2816E-04  1.0884E-03  6.4439E-05  6.6185E-04  6.2970E-05  0.0000E+00  7.9192E-04  0.0000E+00  5.1514E-04
 19  0.0000E+00  3.2677E-04  1.3766E-05  7.3460E-05  5.4208E-05  0.0000E+00  1.5411E-05  0.0000E+00  1.8715E-04
 20  0.0000E+00  4.1024E-04  0.0000E+00  3.8661E-04  4.9521E-05  0.0000E+00  0.0000E+00  9.9225E-05  7.1012E-05
 21  0.0000E+00  4.9081E-04  7.2754E-05  4.0742E-05  0.0000E+00  0.0000E+00  9.3260E-05  2.5657E-04  8.8876E-05
 22  0.0000E+00  7.7415E-04  3.1927E-04  4.6855E-04  3.1402E-04  4.3084E-04  1.2010E-04  0.0000E+00  0.0000E+00
 23  0.0000E+00  1.0186E-03  7.0482E-05  2.7713E-04  0.0000E+00  3.1500E-04  0.0000E+00  1.6437E-04  0.0000E+00
 24  0.0000E+00  1.5215E-03  4.5027E-04  1.2072E-03  4.7774E-04  4.5674E-04  0.0000E+00  0.0000E+00  1.2778E-04
 25  0.0000E+00  1.9700E-03  7.2356E-04  1.0494E-03  6.9352E-04  8.3267E-04  4.7881E-04  4.5696E-04  3.5712E-05
 26  0.0000E+00  3.6411E-03  3.0067E-04  1.5229E-05  2.3029E-03  1.2868E-03  7.5777E-04  1.0650E-03  2.0734E-03
 27  0.0000E+00  7.8970E-03  3.1600E-03  0.0000E+00  5.4974E-04  1.2200E-03  0.0000E+00  6.8324E-04  9.5987E-03
 28  0.0000E+00  4.2950E-02  0.0000E+00  1.5886E-03  8.8491E-03  2.6823E-03  1.1693E-02  4.6400E-03  2.5139E-02
 29  0.0000E+00  2.5102E-02  3.3902E-02  1.0739E-02  5.3336E-03  4.7142E-03  5.3710E-03  2.1295E-03  3.8760E-03
 30  0.0000E+00  7.6140E-02  2.9676E-02  1.2229E-02  0.0000E+00  2.2988E-03  2.0924E-02  1.3498E-02  2.3737E-02
 31  0.0000E+00  1.5515E-01  0.0000E+00  1.1601E-01  9.4341E-03  8.9243E-03  5.9349E-02  2.4315E-02  6.1091E-03
 32  0.0000E+00  1.8453E-01  1.1254E-01  2.1793E-02  2.2425E-02  7.0645E-02  1.2736E-01  2.5314E-02  1.8811E-02
 33  2.8257E+00  4.4525E-01  6.0548E-03  0.0000E+00  2.4064E-02  7.4638E-02  1.2056E-01  3.2857E-01  1.1495E-01
 34  2.3631E+00  5.6072E-01  0.0000E+00  1.5383E-01  2.1255E-01  1.3456E-01  1.8150E-01  1.2371E-01  3.0452E-01
 35  0.0000E+00  6.4551E-04  2.1437E-04  6.6659E-05  0.0000E+00  0.0000E+00  0.0000E+00  0.0000E+00  6.3736E-04
 36  0.0000E+00  3.3938E-04  4.5915E-07  1.6037E-05  7.3169E-05  0.0000E+00  0.0000E+00  0.0000E+00  4.6296E-05
 37  4.4337E-04  2.5289E-04  0.0000E+00  4.8923E-05  1.8421E-05  0.0000E+00  9.0237E-05  0.0000E+00  2.7403E-05
 38  0.0000E+00  7.8783E-04  3.1785E-05  5.9238E-05  2.7052E-04  5.9716E-05  0.0000E+00  9.0183E-04  2.3950E-04
 39  0.0000E+00  1.1061E-03  8.2749E-04  1.2430E-04  2.7782E-04  5.0790E-04  0.0000E+00  3.4322E-04  0.0000E+00
 40  0.0000E+00  2.6441E-03  0.0000E+00  2.7198E-04  1.9716E-03  0.0000E+00  6.4536E-04  8.3581E-04  0.0000E+00
 41  0.0000E+00  2.9442E-03  0.0000E+00  0.0000E+00  3.4597E-04  1.1359E-03  1.5045E-03  6.4974E-04  1.8958E-03
 42  0.0000E+00  5.3385E-03  2.2652E-04  3.9813E-03  1.5137E-04  4.2076E-03  1.6869E-03  1.6098E-03  4.2275E-03
 43  0.0000E+00  9.6181E-03  7.2473E-03  4.9249E-05  0.0000E+00  2.3926E-03  0.0000E+00  5.0142E-03  3.9688E-04
 44  0.0000E+00  1.6950E-02  5.9744E-03  3.5839E-04  6.6845E-03  0.0000E+00  0.0000E+00  0.0000E+00  6.9798E-03
 45  0.0000E+00  2.4756E-02  7.6038E-03  2.4231E-03  2.3154E-03  0.0000E+00  1.3708E-02  4.7123E-03  8.1367E-03
 46  0.0000E+00  5.6226E-02  9.8170E-03  2.8162E-02  7.4662E-03  2.5293E-02  2.5586E-02  0.0000E+00  2.8618E-03
 47  3.8284E-01  1.1547E-01  8.7448E-03  4.2035E-02  2.5239E-02  4.1096E-02  3.0383E-02  7.7881E-02  4.9004E-02
 48  0.0000E+00  1.8279E-01  1.0632E-02  5.0542E-02  4.9944E-02  1.0640E-01  3.7424E-02  6.4477E-02  0.0000E+00
 49  0.0000E+00  3.2559E-01  4.1203E-02  8.5904E-02  1.3793E-01  1.4583E-01  9.7197E-02  1.4552E-02  0.0000E+00
 50  6.4939E+01  3.5452E+01  3.7608E+01  3.7532E+01  3.7437E+01  3.6046E+01  3.8091E+01  3.5644E+01  3.9042E+01
 51  0.0000E+00  4.5117E-04  0.0000E+00  0.0000E+00  6.3810E-05  1.0637E-04  1.0114E-04  1.3381E-04  8.1295E-05
 52  0.0000E+00  1.9714E-04  9.2360E-05  0.0000E+00  0.0000E+00  5.8141E-05  2.6011E-04  2.9567E-05  7.9504E-05
 53  2.3452E-04  4.4596E-04  2.8962E-04  0.0000E+00  1.0272E-04  0.0000E+00  9.7171E-05  2.0546E-04  0.0000E+00
 54  0.0000E+00  5.5633E-04  2.2205E-04  3.8653E-05  1.5618E-04  1.5999E-04  3.7683E-04  0.0000E+00  1.2631E-04
 55  0.0000E+00  9.3750E-04  2.0357E-04  0.0000E+00  1.6511E-04  1.3962E-04  3.5713E-04  5.1602E-04  1.6067E-04
 56  0.0000E+00  2.0208E-03  6.2678E-04  9.4309E-04  3.9085E-04  3.7809E-04  5.6901E-04  7.6448E-04  0.0000E+00
 57  0.0000E+00  1.9929E-03  3.8497E-04  1.1237E-03  1.6906E-04  0.0000E+00  2.3327E-03  7.2664E-04  0.0000E+00
 58  0.0000E+00  4.7332E-03  3.9484E-04  0.0000E+00  8.4914E-04  8.3896E-05  8.4336E-06  0.0000E+00  1.8196E-04
 59  0.0000E+00  8.1534E-03  0.0000E+00  2.8431E-03  3.1092E-03  7.3497E-05  1.8339E-03  1.3738E-03  1.1417E-02
 60  0.0000E+00  1.8983E-02  3.5597E-04  1.1045E-03  5.5357E-03  1.5150E-02  1.1802E-03  3.6950E-03  3.2731E-03
 61  8.5962E-01  7.8355E-02  7.3351E-02  6.9823E-02  2.9244E-02  4.2009E-02  6.7536E-02  5.5698E-02  6.5092E-02
 62  0.0000E+00  1.2581E-01  2.8340E-02  7.7585E-02  2.3924E-02  1.9220E-02  0.0000E+00  1.7514E-02  1.1115E-02
 63  0.0000E+00  3.3300E+00  3.6598E+00  3.2784E+00  3.4058E+00  2.7662E+00  3.3270E+00  3.2291E+00  3.4278E+00
 64  3.9694E+00  5.8500E-01  3.0115E-01  1.2365E-03  2.9681E-01  7.8436E-01  1.0638E-01  5.7377E-01  1.4901E-01
 65  0.0000E+00  1.0350E+01  1.0041E+01  1.0296E+01  1.1268E+01  9.6659E+00  1.0886E+01  1.0133E+01  9.5941E+00
 66  2.0403E+01  4.6733E+01  4.7792E+01  4.7700E+01  4.6947E+01  4.9679E+01  4.6542E+01  4.9168E+01  4.6791E+01

# AV, chi2 & Mass for <> & i_chain = 1 ...  7 solutions
AV      -0.7138     -0.4531     -0.4696     -0.4655     -0.4766     -0.4832     -0.4643     -0.4451     -0.4152
chi2 1.0066E-05  2.7346E-05  1.3386E-05  1.3419E-05  1.3393E-05  1.3388E-05  1.3383E-05  1.3452E-05  1.3462E-05
Mass 3.1221E-13  3.3319E-13  4.2963E-13  4.3347E-13  4.3091E-13  4.3441E-13  4.3311E-13  4.4063E-13  4.4756E-13
 -60.41                                  [v0_min (km/s) before EX0s...]
 426.80                                  [vd_min (km/s) before EX0s...]


## Synthetic spectrum (Best Model) ##l_obs f_obs f_syn wei
 3478    [Nl_obs]
 3741.00    0.47352   0.49608    0.000
 3742.00    0.39542   0.49625    0.000
 3743.00    0.12461   0.49484    0.000
 3744.00    0.01356   0.49489    0.000
 3745.00   -0.00441   0.49550    0.000
 3746.00    0.22212   0.49899   -1.000
 3747.00    0.57280   0.50410   -1.000
 3748.00    0.44801   0.51170   -1.000
 3749.00    0.11414   0.52170   -1.000
 3750.00    0.17377   0.53270   -1.000
 3751.00    0.38195   0.54462   -1.000
 3752.00    0.44756   0.55511   -1.000
 3753.00    0.46748   0.56487   -1.000
 3754.00    0.57120   0.57315   -1.000
 3755.00    0.69737   0.57988   -1.000
 3756.00    0.47538   0.58485   -1.000
 3757.00    0.17697   0.58816   -1.000
 3758.00   -0.00028   0.59000    0.000
 3759.00   -0.15637   0.59104    0.000
 3760.00    0.07061   0.59274    0.070
 3761.00    0.34847   0.59412    0.033
 3762.00    0.80468   0.59727    0.031
 3763.00    1.27764   0.60171    0.030
 3764.00    0.73695   0.60833    0.029
 3765.00    0.13779   0.61637    0.029
 3766.00    0.00170   0.62672    0.029
 3767.00   -0.12068   0.63833    0.000
 3768.00    0.08734   0.65131    0.028
 3769.00    0.28966   0.66524    0.028
 3770.00    0.35344   0.67943    0.028
 3771.00    0.42919   0.69370    0.029
 3772.00    0.66196   0.70753    0.029
 3773.00    0.87783   0.72060    0.028
 3774.00    0.94540   0.73284    0.028
 3775.00    1.01133   0.74354    0.028
 3776.00    1.06662   0.75226    0.028
 3777.00    1.05651   0.75882    0.028
 3778.00    0.71534   0.76256    0.028
 3779.00    0.42155   0.76365    0.027
 3780.00    0.32169   0.76119    0.028
 3781.00    0.25733   0.75522    0.028
 3782.00    0.31337   0.74646    0.028
 3783.00    0.31405   0.73396    0.028
 3784.00    0.15637   0.72019    0.028
 3785.00    0.08155   0.70415    0.028
 3786.00    0.20916   0.68818    0.028
 3787.00    0.34205   0.67119    0.028
 3788.00    0.48608   0.65508    0.028
 3789.00    0.50212   0.63954    0.028
 3790.00    0.28369   0.62499    0.028
 3791.00    0.20087   0.61306    0.027
 3792.00    0.33514   0.60255    0.027
 3793.00    0.55200   0.59580    0.027
 3794.00    0.88490   0.59095    0.028
 3795.00    0.92588   0.58992    0.028
 3796.00    0.60605   0.59171    0.027
 3797.00    0.35897   0.59705    0.027
 3798.00    0.19116   0.60512    0.026
 3799.00    0.02847   0.61437    0.027
 3800.00   -0.12931   0.62557    0.000
 3801.00   -0.03664   0.63621    0.000
 3802.00    0.26827   0.64676    0.027
 3803.00    0.32923   0.65587    0.027
 3804.00    0.20815   0.66323    0.027
 3805.00    0.32573   0.66908    0.027
 3806.00    0.59977   0.67182    0.027
 3807.00    0.63615   0.67171    0.027
 3808.00    0.53615   0.66753    0.026
 3809.00    0.48078   0.66075    0.026
 3810.00    0.44773   0.65015    0.026
 3811.00    0.39000   0.63787    0.026
 3812.00    0.32158   0.62370    0.027
 3813.00    0.38352   0.60807    0.027
 3814.00    0.49380   0.59242    0.026
 3815.00    0.58753   0.57555    0.026
 3816.00    0.67606   0.55909    0.026
 3817.00    0.79100   0.54251    0.026
 3818.00    0.91288   0.52780    0.027
 3819.00    1.10073   0.51372    0.027
 3820.00    1.30272   0.50075    0.027
 3821.00    1.00932   0.48765    0.027
 3822.00    0.63185   0.47635    0.026
 3823.00    0.41691   0.46618    0.026
 3824.00    0.22283   0.45736    0.025
 3825.00    0.21189   0.44964    0.026
 3826.00    0.21739   0.44267    0.026
 3827.00    0.19380   0.43668    0.026
 3828.00    0.16864   0.43133    0.026
 3829.00    0.21740   0.42682    0.026
 3830.00    0.26556   0.42388    0.026
 3831.00    0.13750   0.42248    0.026
 3832.00    0.03659   0.42265    0.026
 3833.00    0.53888   0.42466    0.026
 3834.00    0.99996   0.42830    0.027
 3835.00    0.94848   0.43358    0.026
 3836.00    0.89249   0.44126    0.026
 3837.00    0.79842   0.45120    0.027
 3838.00    0.71146   0.46271    0.027
 3839.00    0.66922   0.47678    0.027
 3840.00    0.63739   0.49068    0.026
 3841.00    0.65694   0.50521    0.026
 3842.00    0.68663   0.51930    0.026
 3843.00    0.75688   0.53242    0.027
 3844.00    0.79816   0.54465    0.027
 3845.00    0.74315   0.55462    0.026
 3846.00    0.67730   0.56217    0.026
 3847.00    0.58101   0.56748    0.000
 3848.00    0.51732   0.57179    0.000
 3849.00    0.53194   0.57396    0.000
 3850.00    0.53850   0.57372    0.000
 3851.00    0.52833   0.57183    0.000
 3852.00    0.48921   0.56904    0.000
 3853.00    0.39790   0.56510    0.000
 3854.00    0.30917   0.56182    0.000
 3855.00    0.22449   0.55848    0.000
 3856.00    0.20568   0.55542    0.000
 3857.00    0.27804   0.55391    0.000
 3858.00    0.29586   0.55391    0.000
 3859.00    0.24724   0.55609    0.000
 3860.00    0.19569   0.55811    0.000
 3861.00    0.14098   0.56047    0.000
 3862.00    0.22149   0.56260    0.000
 3863.00    0.43012   0.56520    0.000
 3864.00    0.60815   0.56770    0.000
 3865.00    0.76063   0.56932    0.000
 3866.00    0.84818   0.57087    0.000
 3867.00    0.88799   0.57071    0.000
 3868.00    0.75115   0.57083    0.000
 3869.00    0.50020   0.57046    0.000
 3870.00    0.51937   0.57055    0.000
 3871.00    0.69119   0.57113    0.000
 3872.00    0.73108   0.57117    0.000
 3873.00    0.70606   0.57039    0.000
 3874.00    0.62324   0.56927    0.000
 3875.00    0.51583   0.56756    0.000
 3876.00    0.59895   0.56745    0.000
 3877.00    0.75148   0.56770    0.000
 3878.00    0.71228   0.56714    0.000
 3879.00    0.61398   0.56682    0.000
 3880.00    0.41653   0.56832    0.000
 3881.00    0.19362   0.57139    0.024
 3882.00    0.38930   0.57310    0.024
 3883.00    0.67249   0.57544    0.024
 3884.00    0.55293   0.58061    0.024
 3885.00    0.36695   0.58783    0.024
 3886.00    0.14160   0.59617    0.024
 3887.00   -0.08863   0.60755    0.000
 3888.00    0.17953   0.61968    0.024
 3889.00    0.49035   0.63336    0.024
 3890.00    0.66440   0.64569    0.024
 3891.00    0.83163   0.65840    0.024
 3892.00    0.72643   0.66950    0.025
 3893.00    0.61932   0.68040    0.025
 3894.00    0.67642   0.69167    0.024
 3895.00    0.73159   0.69923    0.024
 3896.00    0.74722   0.70736    0.024
 3897.00    0.75445   0.71280    0.024
 3898.00    0.66246   0.72006    0.024
 3899.00    0.57876   0.72458    0.023
 3900.00    0.56261   0.72809    0.023
 3901.00    0.57646   0.73373    0.023
 3902.00    0.77351   0.73741    0.022
 3903.00    0.91214   0.74335    0.022
 3904.00    0.76957   0.75030    0.022
 3905.00    0.63634   0.75852    0.021
 3906.00    0.53970   0.76653    0.021
 3907.00    0.49074   0.77370    0.021
 3908.00    0.59720   0.78061    0.022
 3909.00    0.70796   0.78587    0.023
 3910.00    0.83053   0.78934    0.023
 3911.00    0.86605   0.78968    0.024
 3912.00    0.69601   0.78844    0.024
 3913.00    0.64417   0.78313    0.024
 3914.00    0.83360   0.77564    0.025
 3915.00    0.97203   0.76471    0.025
 3916.00    1.01988   0.75042    0.025
 3917.00    0.93113   0.73327    0.025
 3918.00    0.63013   0.71373    0.025
 3919.00    0.52975   0.69352    0.025
 3920.00    0.70310   0.67037    0.025
 3921.00    0.80813   0.64763    0.025
 3922.00    0.83109   0.62162    0.025
 3923.00    0.77986   0.59503    0.025
 3924.00    0.65003   0.56782    0.025
 3925.00    0.56279   0.53935    0.025
 3926.00    0.51534   0.51262    0.025
 3927.00    0.38612   0.48625    0.024
 3928.00    0.18956   0.46306    0.024
 3929.00    0.14810   0.44218    0.024
 3930.00    0.21908   0.42567    0.024
 3931.00    0.40132   0.41364    0.024
 3932.00    0.65438   0.40649    0.024
 3933.00    0.78849   0.40600    0.025
 3934.00    0.85639   0.41082    0.025
 3935.00    0.77888   0.42154    0.025
 3936.00    0.63097   0.43710    0.024
 3937.00    0.46789   0.45690    0.024
 3938.00    0.29847   0.47941    0.024
 3939.00    0.35416   0.50475    0.024
 3940.00    0.49037   0.53114    0.025
 3941.00    0.82583   0.55822    0.025
 3942.00    1.22152   0.58718    0.025
 3943.00    1.07830   0.61591    0.025
 3944.00    0.79972   0.64260    0.026
 3945.00    0.66010   0.66710    0.026
 3946.00    0.54881   0.69023    0.025
 3947.00    0.51614   0.71092    0.026
 3948.00    0.49607   0.72881    0.026
 3949.00    0.78050   0.74193    0.026
 3950.00    1.10130   0.75160    0.026
 3951.00    0.99119   0.75912    0.026
 3952.00    0.84600   0.76100    0.026
 3953.00    0.80243   0.75703    0.026
 3954.00    0.76353   0.74842    0.026
 3955.00    0.69888   0.73573    0.026
 3956.00    0.63949   0.71889    0.026
 3957.00    0.87273   0.69702    0.026
 3958.00    1.07265   0.66979    0.026
 3959.00    0.64139   0.64080    0.026
 3960.00    0.23585   0.61166    0.000
 3961.00    0.12028   0.58159    0.000
 3962.00    0.04662   0.55195    0.000
 3963.00    0.30238   0.52443    0.000
 3964.00    0.51091   0.50107    0.000
 3965.00    0.43923   0.48254    0.000
 3966.00    0.40303   0.47000    0.000
 3967.00    0.53349   0.46431    0.000
 3968.00    0.63259   0.46676    0.000
 3969.00    0.61157   0.47753    0.000
 3970.00    0.60431   0.49500    0.000
 3971.00    0.64105   0.51837    0.000
 3972.00    0.65241   0.54761    0.000
 3973.00    0.59507   0.58062    0.000
 3974.00    0.60555   0.61709    0.000
 3975.00    0.77349   0.65592    0.000
 3976.00    0.85514   0.69494    0.000
 3977.00    0.76345   0.73382    0.000
 3978.00    0.73161   0.77026    0.000
 3979.00    0.80442   0.80351    0.000
 3980.00    0.89255   0.83460    0.000
 3981.00    1.00415   0.86257    0.025
 3982.00    1.01301   0.88843    0.025
 3983.00    0.88372   0.91092    0.025
 3984.00    0.85699   0.93028    0.025
 3985.00    0.95173   0.94892    0.026
 3986.00    0.94309   0.96253    0.026
 3987.00    0.82651   0.97479    0.026
 3988.00    0.77039   0.98540    0.025
 3989.00    0.76996   0.99478    0.025
 3990.00    0.87688   1.00448    0.025
 3991.00    1.07096   1.01099    0.025
 3992.00    1.13992   1.01791    0.025
 3993.00    1.11950   1.02249    0.025
 3994.00    1.01877   1.02700    0.025
 3995.00    0.86768   1.03041    0.025
 3996.00    0.86925   1.03443    0.025
 3997.00    0.95449   1.04008    0.025
 3998.00    1.22029   1.04415    0.025
 3999.00    1.57210   1.04887    0.026
 4000.00    1.35644   1.05242    0.026
 4001.00    0.90754   1.05543    0.025
 4002.00    0.82539   1.05691    0.025
 4003.00    0.87204   1.06050    0.026
 4004.00    0.93476   1.06513    0.026
 4005.00    1.00223   1.07167    0.026
 4006.00    0.92312   1.07907    0.026
 4007.00    0.80800   1.08488    0.025
 4008.00    0.84233   1.09232    0.025
 4009.00    0.90637   1.09940    0.025
 4010.00    1.06614   1.10751    0.025
 4011.00    1.24079   1.11395    0.026
 4012.00    1.16627   1.12226    0.026
 4013.00    1.06310   1.13099    0.026
 4014.00    1.06159   1.13605    0.026
 4015.00    1.06795   1.14143    0.026
 4016.00    0.97113   1.14555    0.025
 4017.00    0.86997   1.14829    0.025
 4018.00    0.98464   1.15012    0.025
 4019.00    1.09870   1.14991    0.025
 4020.00    1.09939   1.14800    0.025
 4021.00    1.10958   1.14359    0.026
 4022.00    1.28748   1.13910    0.026
 4023.00    1.44580   1.13337    0.026
 4024.00    1.39345   1.12655    0.026
 4025.00    1.32869   1.12069    0.026
 4026.00    1.16976   1.11340    0.026
 4027.00    1.02244   1.10376    0.025
 4028.00    0.94210   1.09494    0.025
 4029.00    0.87610   1.08737    0.025
 4030.00    0.87584   1.08000    0.025
 4031.00    0.86245   1.07652    0.025
 4032.00    0.79977   1.07502    0.024
 4033.00    0.77540   1.07575    0.024
 4034.00    0.87112   1.07650    0.024
 4035.00    0.92852   1.07663    0.024
 4036.00    0.88395   1.07706    0.024
 4037.00    0.87620   1.07683    0.024
 4038.00    0.95249   1.07725    0.024
 4039.00    0.96804   1.07779    0.024
 4040.00    0.86350   1.07671    0.024
 4041.00    0.79467   1.07441    0.024
 4042.00    0.78735   1.06989    0.024
 4043.00    0.83116   1.06525    0.025
 4044.00    0.95212   1.06332    0.025
 4045.00    0.95001   1.06185    0.025
 4046.00    0.78478   1.06338    0.024
 4047.00    0.72338   1.06457    0.024
 4048.00    0.78322   1.06553    0.024
 4049.00    0.89676   1.06596    0.025
 4050.00    1.06559   1.06612    0.025
 4051.00    1.18407   1.06662    0.026
 4052.00    1.25683   1.06554    0.026
 4053.00    1.21472   1.06506    0.025
 4054.00    1.08068   1.06100    0.025
 4055.00    1.01594   1.05651    0.025
 4056.00    1.00000   1.05102    0.025
 4057.00    1.03963   1.04549    0.025
 4058.00    1.11357   1.04060    0.025
 4059.00    1.24799   1.03440    0.026
 4060.00    1.41503   1.02856    0.026
 4061.00    1.21022   1.02214    0.026
 4062.00    0.83114   1.01939    0.025
 4063.00    0.74254   1.01780    0.025
 4064.00    0.77130   1.01839    0.025
 4065.00    0.82286   1.02097    0.025
 4066.00    0.88227   1.02254    0.025
 4067.00    0.88429   1.02394    0.025
 4068.00    0.86964   1.02408    0.025
 4069.00    0.93852   1.02607    0.026
 4070.00    1.02746   1.03037    0.026
 4071.00    0.94605   1.03524    0.026
 4072.00    0.83163   1.04195    0.026
 4073.00    1.01319   1.04670    0.026
 4074.00    1.23935   1.05042    0.026
 4075.00    1.19298   1.05579    0.026
 4076.00    1.11646   1.06288    0.026
 4077.00    1.01222   1.07432    0.025
 4078.00    0.90594   1.08776    0.025
 4079.00    0.92125   1.10128    0.025
 4080.00    0.94122   1.11391    0.025
 4081.00    0.86716   1.12522    0.025
 4082.00    0.79414   1.13627    0.025
 4083.00    0.77976   1.14873    0.025
 4084.00    0.76542   1.16097    0.025
 4085.00    0.75153   1.17167    0.025
 4086.00    0.73199   1.17946    0.025
 4087.00    0.65419   1.18182    0.024
 4088.00    0.60220   1.18194    0.024
 4089.00    0.73969   1.17756    0.024
 4090.00    0.87756   1.17202    0.025
 4091.00    1.01760   1.16444    0.025
 4092.00    1.15568   1.15209    0.000
 4093.00    1.28493   1.13891    0.000
 4094.00    1.36015   1.12260    0.000
 4095.00    1.23690   1.10741    0.000
 4096.00    1.12700   1.09301    0.000
 4097.00    1.05818   1.07954    0.000
 4098.00    1.01244   1.06834    0.000
 4099.00    1.02701   1.05819    0.000
 4100.00    1.03345   1.05180    0.000
 4101.00    1.02163   1.04885    0.000
 4102.00    1.00496   1.05009    0.000
 4103.00    0.97885   1.05440    0.000
 4104.00    0.95837   1.05933    0.000
 4105.00    0.94742   1.06664    0.000
 4106.00    0.94500   1.07428    0.000
 4107.00    0.95525   1.08286    0.000
 4108.00    0.92681   1.09169    0.000
 4109.00    0.84782   1.09996    0.000
 4110.00    0.84625   1.10867    0.000
 4111.00    0.93381   1.11462    0.000
 4112.00    1.03882   1.12103    0.000
 4113.00    1.16153   1.12552    0.024
 4114.00    1.31847   1.12829    0.024
 4115.00    1.50604   1.12965    0.024
 4116.00    1.45029   1.12983    0.024
 4117.00    1.20254   1.13076    0.024
 4118.00    1.00735   1.12883    0.024
 4119.00    0.84861   1.12764    0.024
 4120.00    0.87091   1.12487    0.024
 4121.00    1.00338   1.12155    0.024
 4122.00    1.03357   1.11726    0.024
 4123.00    1.00942   1.11195    0.024
 4124.00    0.97878   1.10720    0.024
 4125.00    0.94515   1.10153    0.024
 4126.00    0.93160   1.09593    0.024
 4127.00    0.92603   1.09064    0.025
 4128.00    1.07166   1.08706    0.025
 4129.00    1.26845   1.08127    0.025
 4130.00    1.35915   1.07845    0.025
 4131.00    1.41966   1.07447    0.025
 4132.00    1.35832   1.07321    0.024
 4133.00    1.26836   1.07387    0.024
 4134.00    1.36531   1.07126    0.024
 4135.00    1.49754   1.07183    0.025
 4136.00    1.38792   1.06874    0.025
 4137.00    1.24299   1.06921    0.025
 4138.00    1.29338   1.06894    0.025
 4139.00    1.36452   1.06563    0.025
 4140.00    1.15639   1.06349    0.025
 4141.00    0.92894   1.05724    0.025
 4142.00    0.96339   1.05336    0.025
 4143.00    1.00687   1.05101    0.025
 4144.00    1.02635   1.04945    0.025
 4145.00    1.05453   1.04886    0.025
 4146.00    1.37156   1.04461    0.025
 4147.00    1.63241   1.04245    0.025
 4148.00    1.02446   1.04188    0.025
 4149.00    0.50996   1.04310    0.025
 4150.00    0.91658   1.04789    0.025
 4151.00    1.24073   1.05022    0.025
 4152.00    0.97935   1.05495    0.025
 4153.00    0.76793   1.05770    0.024
 4154.00    0.82921   1.06255    0.024
 4155.00    0.92329   1.07079    0.024
 4156.00    1.16071   1.07623    0.024
 4157.00    1.25018   1.08438    0.024
 4158.00    0.80758   1.08938    0.024
 4159.00    0.59930   1.09419    0.023
 4160.00    1.09815   1.09843    0.024
 4161.00    1.44274   1.10098    0.024
 4162.00    1.39122   1.10401    0.024
 4163.00    1.34416   1.10233    0.024
 4164.00    1.30698   1.09715    0.024
 4165.00    1.26440   1.09194    0.024
 4166.00    1.21148   1.08634    0.024
 4167.00    1.09354   1.08037    0.024
 4168.00    0.86691   1.07333    0.023
 4169.00    0.74941   1.06334    0.023
 4170.00    0.79174   1.05496    0.023
 4171.00    0.82960   1.04622    0.023
 4172.00    0.86172   1.04015    0.023
 4173.00    0.85510   1.03776    0.023
 4174.00    0.80450   1.03390    0.023
 4175.00    0.87857   1.03262    0.023
 4176.00    1.07743   1.03118    0.023
 4177.00    1.25745   1.03316    0.023
 4178.00    1.42084   1.03706    0.023
 4179.00    1.42388   1.03921    0.023
 4180.00    1.30222   1.04450    0.023
 4181.00    1.19713   1.04909    0.022
 4182.00    1.10338   1.05505    0.022
 4183.00    1.07138   1.05940    0.023
 4184.00    1.07639   1.06350    0.023
 4185.00    1.09577   1.06845    0.023
 4186.00    1.12266   1.06888    0.022
 4187.00    1.21786   1.07126    0.022
 4188.00    1.34403   1.07229    0.022
 4189.00    1.28257   1.07284    0.022
 4190.00    1.14791   1.07088    0.022
 4191.00    0.95549   1.06604    0.022
 4192.00    0.74388   1.06512    0.022
 4193.00    0.70154   1.06115    0.022
 4194.00    0.70636   1.05590    0.022
 4195.00    0.73484   1.05108    0.022
 4196.00    0.76874   1.04799    0.022
 4197.00    0.89831   1.04816    0.022
 4198.00    1.04546   1.04722    0.022
 4199.00    1.01914   1.04837    0.022
 4200.00    0.96830   1.05159    0.022
 4201.00    0.92573   1.05527    0.022
 4202.00    0.88400   1.06173    0.022
 4203.00    1.09894   1.07038    0.022
 4204.00    1.33060   1.08067    0.022
 4205.00    1.12338   1.09037    0.022
 4206.00    0.90314   1.09778    0.022
 4207.00    0.97511   1.10514    0.022
 4208.00    1.04414   1.11293    0.022
 4209.00    1.02699   1.11977    0.022
 4210.00    1.01740   1.12636    0.022
 4211.00    1.11796   1.13174    0.023
 4212.00    1.20860   1.13277    0.023
 4213.00    1.20551   1.13273    0.022
 4214.00    1.21440   1.12981    0.022
 4215.00    1.30557   1.12776    0.022
 4216.00    1.36550   1.12738    0.023
 4217.00    1.25943   1.12083    0.023
 4218.00    1.16271   1.11115    0.023
 4219.00    1.10592   1.09812    0.023
 4220.00    1.05425   1.08853    0.022
 4221.00    1.02058   1.08079    0.022
 4222.00    0.97904   1.07038    0.022
 4223.00    0.91419   1.06020    0.022
 4224.00    0.83061   1.04905    0.022
 4225.00    0.69977   1.04209    0.022
 4226.00    0.67122   1.03861    0.023
 4227.00    0.86497   1.03985    0.023
 4228.00    1.03533   1.04480    0.023
 4229.00    1.16158   1.04850    0.023
 4230.00    1.21488   1.05335    0.022
 4231.00    1.14809   1.06175    0.022
 4232.00    1.07355   1.07331    0.022
 4233.00    0.98784   1.08808    0.022
 4234.00    1.00524   1.10008    0.021
 4235.00    1.15358   1.11006    0.022
 4236.00    1.19201   1.12262    0.022
 4237.00    1.10750   1.13144    0.022
 4238.00    1.11704   1.14278    0.022
 4239.00    1.21940   1.15216    0.021
 4240.00    1.31764   1.15748    0.021
 4241.00    1.41231   1.16408    0.021
 4242.00    1.31762   1.16483    0.022
 4243.00    1.07778   1.16760    0.022
 4244.00    0.97840   1.16802    0.022
 4245.00    0.97369   1.16427    0.022
 4246.00    0.99148   1.15937    0.022
 4247.00    1.02256   1.14986    0.023
 4248.00    1.24244   1.14603    0.023
 4249.00    1.55953   1.14174    0.024
 4250.00    1.54550   1.13476    0.024
 4251.00    1.38372   1.13102    0.023
 4252.00    1.19656   1.12453    0.023
 4253.00    0.99965   1.12101    0.023
 4254.00    1.00254   1.12060    0.023
 4255.00    1.07053   1.12289    0.023
 4256.00    0.97587   1.13078    0.022
 4257.00    0.83680   1.13240    0.022
 4258.00    0.92498   1.13156    0.022
 4259.00    1.06409   1.13457    0.022
 4260.00    1.06628   1.14067    0.022
 4261.00    1.04398   1.14854    0.023
 4262.00    1.15847   1.14941    0.023
 4263.00    1.29168   1.14534    0.023
 4264.00    1.12319   1.14061    0.022
 4265.00    0.92521   1.13719    0.022
 4266.00    1.01889   1.13266    0.022
 4267.00    1.13039   1.12644    0.022
 4268.00    1.07021   1.11768    0.022
 4269.00    1.00502   1.10777    0.021
 4270.00    0.86521   1.10226    0.021
 4271.00    0.73073   1.09531    0.022
 4272.00    0.73702   1.09237    0.022
 4273.00    0.74533   1.09184    0.022
 4274.00    0.78140   1.08886    0.022
 4275.00    0.82953   1.09223    0.022
 4276.00    0.98713   1.09543    0.022
 4277.00    1.15206   1.10010    0.022
 4278.00    1.36585   1.10436    0.022
 4279.00    1.52069   1.10171    0.022
 4280.00    1.37035   1.10608    0.022
 4281.00    1.24716   1.10797    0.022
 4282.00    1.23725   1.10527   -2.000
 4283.00    1.18413   1.10196   -2.000
 4284.00    0.98183   1.09171   -2.000
 4285.00    0.77912   1.08694   -2.000
 4286.00    0.57518   1.08034   -2.000
 4287.00    0.56012   1.07162   -2.000
 4288.00    1.01356   1.06038   -2.000
 4289.00    1.37538   1.04616   -2.000
 4290.00    1.54134   1.03806   -2.000
 4291.00    1.59867   1.02681   -2.000
 4292.00    1.45433   1.01626   -2.000
 4293.00    1.27187   0.99930   -2.000
 4294.00    1.02761   0.98178   -2.000
 4295.00    0.90229   0.97231   -2.000
 4296.00    0.94617   0.95745   -2.000
 4297.00    0.99645   0.94364   -2.000
 4298.00    1.05472   0.92717    0.022
 4299.00    1.13447   0.91103    0.022
 4300.00    1.23793   0.90428    0.021
 4301.00    1.21794   0.89521    0.021
 4302.00    1.07785   0.88765    0.021
 4303.00    0.94532   0.88635    0.021
 4304.00    0.81929   0.88697    0.021
 4305.00    0.65507   0.89683    0.021
 4306.00    0.46199   0.90880    0.021
 4307.00    0.51756   0.92226    0.021
 4308.00    0.73824   0.94582    0.021
 4309.00    1.06816   0.97126    0.021
 4310.00    1.46159   1.00192    0.021
 4311.00    1.40962   1.03263    0.021
 4312.00    1.13190   1.06070    0.021
 4313.00    1.03921   1.09257    0.020
 4314.00    1.02770   1.12283    0.020
 4315.00    1.02626   1.15231    0.020
 4316.00    1.02862   1.17726    0.020
 4317.00    1.06818   1.19281    0.021
 4318.00    1.11964   1.20558    0.021
 4319.00    1.14722   1.21667    0.021
 4320.00    1.16840   1.22529    0.021
 4321.00    1.18585   1.23453    0.021
 4322.00    1.20249   1.23514    0.021
 4323.00    1.23151   1.23369    0.021
 4324.00    1.26270   1.23481    0.021
 4325.00    1.10408   1.23588    0.021
 4326.00    0.92035   1.24473    0.021
 4327.00    1.15621   1.24880    0.021
 4328.00    1.43127   1.24994    0.021
 4329.00    1.39318   1.25086    0.021
 4330.00    1.33718   1.25160    0.000
 4331.00    1.24821   1.25681    0.000
 4332.00    1.15950   1.25780    0.000
 4333.00    1.18889   1.25552    0.000
 4334.00    1.21393   1.24963    0.000
 4335.00    1.13445   1.24415    0.000
 4336.00    1.05510   1.24030    0.000
 4337.00    0.97738   1.23517    0.000
 4338.00    0.92135   1.23189    0.000
 4339.00    1.05487   1.22872    0.000
 4340.00    1.15677   1.22740    0.000
 4341.00    1.05442   1.22908    0.000
 4342.00    0.97553   1.23244    0.000
 4343.00    1.01501   1.23754    0.000
 4344.00    1.04577   1.24402    0.000
 4345.00    1.04098   1.24942    0.000
 4346.00    1.07417   1.25631    0.000
 4347.00    1.23592   1.26604    0.000
 4348.00    1.35915   1.27407    0.000
 4349.00    1.37252   1.28084    0.000
 4350.00    1.33651   1.28503    0.000
 4351.00    1.18013   1.29039    0.022
 4352.00    1.07419   1.29982    0.022
 4353.00    1.07435   1.30838    0.022
 4354.00    1.13101   1.31550    0.022
 4355.00    1.29100   1.32143    0.022
 4356.00    1.31256   1.32841    0.022
 4357.00    1.11297   1.33680    0.021
 4358.00    1.06580   1.34542    0.021
 4359.00    1.23235   1.35325    0.021
 4360.00    1.37235   1.35892    0.022
 4361.00    1.47959   1.36304    0.022
 4362.00    1.50307   1.36375    0.022
 4363.00    1.43544   1.36482    0.022
 4364.00    1.30350   1.36508    0.022
 4365.00    1.10987   1.36160    0.022
 4366.00    1.09192   1.35587    0.022
 4367.00    1.22259   1.34541    0.022
 4368.00    1.28008   1.33626    0.022
 4369.00    1.28308   1.32663    0.022
 4370.00    1.33244   1.31521    0.022
 4371.00    1.41214   1.30376    0.022
 4372.00    1.38396   1.28730    0.022
 4373.00    1.29400   1.27219    0.022
 4374.00    1.25671   1.25812    0.022
 4375.00    1.24570   1.24551    0.022
 4376.00    1.26835   1.23350    0.022
 4377.00    1.30553   1.21510    0.022
 4378.00    1.21569   1.19932    0.022
 4379.00    1.07886   1.18737    0.022
 4380.00    0.95661   1.17966    0.022
 4381.00    0.83893   1.17259    0.021
 4382.00    0.95136   1.16001    0.021
 4383.00    1.12398   1.15364    0.021
 4384.00    1.12816   1.15328    0.021
 4385.00    1.09637   1.15886    0.021
 4386.00    1.17728   1.16570    0.021
 4387.00    1.27724   1.16751    0.021
 4388.00    1.34730   1.17456    0.021
 4389.00    1.41354   1.18443    0.021
 4390.00    1.23444   1.19896    0.021
 4391.00    1.03345   1.21513    0.021
 4392.00    0.96644   1.22220    0.021
 4393.00    0.90656   1.22850    0.021
 4394.00    1.27372   1.23420    0.021
 4395.00    1.64223   1.24284    0.021
 4396.00    1.44153   1.25436    0.021
 4397.00    1.25122   1.25364    0.021
 4398.00    1.28935   1.24803    0.021
 4399.00    1.30452   1.24528    0.021
 4400.00    1.03592   1.24694    0.021
 4401.00    0.84921   1.25186    0.021
 4402.00    1.35139   1.24786    0.021
 4403.00    1.77226   1.24019    0.021
 4404.00    1.68355   1.24010    0.021
 4405.00    1.57895   1.24694    0.021
 4406.00    1.39627   1.25415    0.021
 4407.00    1.21109   1.25779    0.021
 4408.00    1.01590   1.26004    0.021
 4409.00    0.92132   1.26663    0.021
 4410.00    1.16039   1.27977    0.021
 4411.00    1.36217   1.28926    0.021
 4412.00    1.45949   1.29709    0.021
 4413.00    1.55754   1.30527    0.021
 4414.00    1.65732   1.31025    0.022
 4415.00    1.65087   1.32037    0.022
 4416.00    1.42453   1.32623    0.021
 4417.00    1.28027   1.33057    0.021
 4418.00    1.28375   1.33841    0.021
 4419.00    1.31245   1.33787    0.021
 4420.00    1.38083   1.34104    0.021
 4421.00    1.39665   1.34318    0.021
 4422.00    1.33982   1.34317    0.021
 4423.00    1.33398   1.34774    0.021
 4424.00    1.39015   1.34191    0.021
 4425.00    1.39215   1.34059    0.021
 4426.00    1.33608   1.34308    0.021
 4427.00    1.34033   1.34061    0.021
 4428.00    1.40164   1.34221    0.021
 4429.00    1.38611   1.33553    0.021
 4430.00    1.30651   1.33424    0.021
 4431.00    1.29883   1.34038    0.021
 4432.00    1.34394   1.33925    0.021
 4433.00    1.40630   1.34178    0.021
 4434.00    1.47980   1.34177    0.021
 4435.00    1.45248   1.34360    0.021
 4436.00    1.36830   1.35122    0.021
 4437.00    1.37829   1.35447    0.021
 4438.00    1.43450   1.35994    0.021
 4439.00    1.40329   1.36562    0.021
 4440.00    1.33498   1.36986    0.021
 4441.00    1.29560   1.37356    0.021
 4442.00    1.26673   1.37783    0.021
 4443.00    1.25873   1.38229    0.021
 4444.00    1.25714   1.38261    0.020
 4445.00    1.40784   1.38402    0.021
 4446.00    1.59752   1.38134    0.021
 4447.00    1.65685   1.37810    0.021
 4448.00    1.68901   1.37450    0.021
 4449.00    1.51211   1.36324    0.021
 4450.00    1.30086   1.35665    0.020
 4451.00    1.33813   1.34890    0.020
 4452.00    1.40603   1.33789    0.020
 4453.00    1.41464   1.32789    0.020
 4454.00    1.41820   1.31554    0.020
 4455.00    1.47052   1.30713    0.020
 4456.00    1.52524   1.30091    0.020
 4457.00    1.32748   1.29761    0.020
 4458.00    1.13032   1.29443    0.020
 4459.00    1.22239   1.29274    0.020
 4460.00    1.30779   1.29517    0.020
 4461.00    1.25807   1.29880    0.000
 4462.00    1.21390   1.30991    0.000
 4463.00    1.23510   1.31812    0.000
 4464.00    1.26933   1.32628    0.000
 4465.00    1.40930   1.34022    0.000
 4466.00    1.53717   1.35251    0.000
 4467.00    1.59143   1.36966    0.000
 4468.00    1.61848   1.38279    0.000
 4469.00    1.51501   1.39234    0.000
 4470.00    1.41558   1.40730    0.000
 4471.00    1.33197   1.42066    0.000
 4472.00    1.28531   1.43426    0.000
 4473.00    1.35879   1.44314    0.000
 4474.00    1.47424   1.44698    0.000
 4475.00    1.70517   1.45461    0.000
 4476.00    1.81256   1.46091    0.000
 4477.00    1.62883   1.46662    0.000
 4478.00    1.48445   1.46896    0.000
 4479.00    1.42021   1.46691    0.000
 4480.00    1.43089   1.46859    0.000
 4481.00    1.57440   1.46888    0.000
 4482.00    1.65967   1.46780    0.020
 4483.00    1.65463   1.46540    0.019
 4484.00    1.61260   1.46160    0.019
 4485.00    1.52020   1.46218    0.019
 4486.00    1.47466   1.46235    0.020
 4487.00    1.48533   1.45972    0.020
 4488.00    1.51902   1.45509    0.020
 4489.00    1.57707   1.45358    0.020
 4490.00    1.53131   1.45572    0.020
 4491.00    1.38875   1.45885    0.019
 4492.00    1.37247   1.46256    0.019
 4493.00    1.45999   1.46359    0.019
 4494.00    1.61145   1.46970    0.020
 4495.00    1.80917   1.47630    0.020
 4496.00    1.84532   1.48390    0.020
 4497.00    1.77886   1.49838    0.020
 4498.00    1.62727   1.50799    0.020
 4499.00    1.42841   1.51932    0.020
 4500.00    1.42723   1.52922    0.020
 4501.00    1.52155   1.53682    0.020
 4502.00    1.64364   1.55166    0.019
 4503.00    1.77732   1.55954    0.019
 4504.00    1.72615   1.56566    0.019
 4505.00    1.60901   1.57230    0.020
 4506.00    1.59235   1.57195    0.020
 4507.00    1.60598   1.57481    0.019
 4508.00    1.55720   1.57348    0.019
 4509.00    1.49277   1.56953    0.019
 4510.00    1.52000   1.57003    0.019
 4511.00    1.56586   1.56152    0.019
 4512.00    1.56236   1.55277    0.019
 4513.00    1.55099   1.54696    0.019
 4514.00    1.49731   1.53673    0.019
 4515.00    1.43860   1.53212    0.019
 4516.00    1.34926   1.52001    0.019
 4517.00    1.25743   1.50381    0.019
 4518.00    1.38320   1.49792    0.019
 4519.00    1.51885   1.48456    0.019
 4520.00    1.41345   1.47187    0.019
 4521.00    1.30667   1.45891    0.019
 4522.00    1.28052   1.43965    0.019
 4523.00    1.25617   1.43218    0.019
 4524.00    1.26573   1.41961    0.019
 4525.00    1.28234   1.40304    0.019
 4526.00    1.37790   1.39678    0.019
 4527.00    1.47420   1.38527    0.019
 4528.00    1.57626   1.37977    0.019
 4529.00    1.63347   1.37631    0.019
 4530.00    1.42556   1.36949    0.019
 4531.00    1.25550   1.37770    0.019
 4532.00    1.26261   1.38077    0.019
 4533.00    1.27628   1.38138    0.019
 4534.00    1.31494   1.38823    0.019
 4535.00    1.36234   1.39153    0.018
 4536.00    1.43756   1.40593    0.018
 4537.00    1.48791   1.41663    0.019
 4538.00    1.47103   1.41765    0.019
 4539.00    1.44578   1.42546    0.019
 4540.00    1.40111   1.43018    0.019
 4541.00    1.37490   1.43658    0.019
 4542.00    1.38570   1.44428    0.019
 4543.00    1.34014   1.44098    0.019
 4544.00    1.19615   1.44302    0.019
 4545.00    1.14106   1.44926    0.019
 4546.00    1.22184   1.44841    0.019
 4547.00    1.24146   1.45059    0.019
 4548.00    1.17899   1.44968    0.019
 4549.00    1.15874   1.45019    0.019
 4550.00    1.18843   1.45976    0.000
 4551.00    1.25904   1.46161    0.000
 4552.00    1.37230   1.46369    0.000
 4553.00    1.45632   1.47135    0.000
 4554.00    1.51345   1.47406    0.000
 4555.00    1.53157   1.48245    0.000
 4556.00    1.51807   1.49165    0.000
 4557.00    1.56814   1.49385    0.000
 4558.00    1.66355   1.50178    0.000
 4559.00    1.67332   1.50689    0.000
 4560.00    1.62947   1.50997    0.000
 4561.00    1.44169   1.51964    0.000
 4562.00    1.17517   1.51990    0.000
 4563.00    1.27799   1.52062    0.000
 4564.00    1.55639   1.52712    0.000
 4565.00    1.68125   1.52451    0.000
 4566.00    1.74314   1.52746    0.000
 4567.00    1.59629   1.53094    0.000
 4568.00    1.37631   1.52732    0.000
 4569.00    1.32230   1.53017    0.000
 4570.00    1.31735   1.52565    0.000
 4571.00    1.41074   1.52031    0.000
 4572.00    1.52822   1.52431    0.000
 4573.00    1.51792   1.51911    0.000
 4574.00    1.48231   1.51258    0.000
 4575.00    1.40689   1.51056    0.000
 4576.00    1.32531   1.50598    0.000
 4577.00    1.26429   1.50217    0.000
 4578.00    1.20562   1.49622    0.000
 4579.00    1.39895   1.48962    0.000
 4580.00    1.61163   1.48740    0.000
 4581.00    1.51362   1.48726    0.000
 4582.00    1.40268   1.48376    0.000
 4583.00    1.42805   1.48035    0.000
 4584.00    1.45750   1.48076    0.000
 4585.00    1.61124   1.47857    0.000
 4586.00    1.75464   1.47734    0.000
 4587.00    1.71733   1.47902    0.000
 4588.00    1.67609   1.47792    0.000
 4589.00    1.59285   1.47777    0.000
 4590.00    1.51531   1.47800    0.000
 4591.00    1.48082   1.47420    0.000
 4592.00    1.47252   1.47481    0.000
 4593.00    1.61476   1.47654    0.000
 4594.00    1.72538   1.47263    0.000
 4595.00    1.69147   1.47524    0.000
 4596.00    1.60593   1.47703    0.000
 4597.00    1.32715   1.47627    0.000
 4598.00    1.17915   1.48335    0.000
 4599.00    1.44014   1.48344    0.000
 4600.00    1.63660   1.48767    0.000
 4601.00    1.66178   1.49853    0.000
 4602.00    1.67899   1.50186    0.000
 4603.00    1.67802   1.51210    0.000
 4604.00    1.63847   1.51933    0.000
 4605.00    1.52278   1.52470    0.000
 4606.00    1.44300   1.53847    0.000
 4607.00    1.42500   1.54445    0.000
 4608.00    1.47039   1.55330    0.000
 4609.00    1.61124   1.56340    0.000
 4610.00    1.65448   1.56505    0.000
 4611.00    1.56855   1.57460    0.000
 4612.00    1.50858   1.57962    0.000
 4613.00    1.47886   1.58011    0.000
 4614.00    1.48158   1.58874    0.000
 4615.00    1.51764   1.58969    0.000
 4616.00    1.49379   1.59100    0.000
 4617.00    1.41563   1.59582    0.000
 4618.00    1.40932   1.59169    0.000
 4619.00    1.46040   1.59263    0.000
 4620.00    1.56117   1.59507    0.000
 4621.00    1.69686   1.59042    0.000
 4622.00    1.68751   1.59142    0.000
 4623.00    1.58874   1.58961    0.000
 4624.00    1.53181   1.58345    0.000
 4625.00    1.49741   1.58194    0.000
 4626.00    1.50346   1.57719    0.000
 4627.00    1.52843   1.57238    0.000
 4628.00    1.48139   1.56652    0.000
 4629.00    1.40532   1.55768    0.000
 4630.00    1.40659   1.55472    0.000
 4631.00    1.43446   1.54648    0.000
 4632.00    1.52442   1.53503    0.000
 4633.00    1.63236   1.52869    0.000
 4634.00    1.58531   1.51906    0.000
 4635.00    1.50114   1.51224    0.000
 4636.00    1.54370   1.50314    0.000
 4637.00    1.61075   1.49059    0.000
 4638.00    1.64951   1.48625    0.000
 4639.00    1.68403   1.47740    0.000
 4640.00    1.66022   1.46834    0.000
 4641.00    1.62998   1.46625    0.000
 4642.00    1.58553   1.45826    0.000
 4643.00    1.54004   1.45456    0.000
 4644.00    1.44193   1.45537    0.000
 4645.00    1.34183   1.44869    0.000
 4646.00    1.33808   1.44877    0.000
 4647.00    1.33597   1.45206    0.000
 4648.00    1.37664   1.45216    0.000
 4649.00    1.41495   1.45922    0.000
 4650.00    1.41473   1.46250    0.000
 4651.00    1.40953   1.46527    0.000
 4652.00    1.35345   1.47458    0.000
 4653.00    1.30711   1.47544    0.000
 4654.00    1.33199   1.47738    0.000
 4655.00    1.36271   1.48340    0.000
 4656.00    1.42605   1.48454    0.000
 4657.00    1.48784   1.48656    0.000
 4658.00    1.54270   1.48555    0.000
 4659.00    1.57373   1.48322    0.000
 4660.00    1.51753   1.48159    0.000
 4661.00    1.47290   1.47499    0.000
 4662.00    1.46384   1.46894    0.000
 4663.00    1.45621   1.46433    0.000
 4664.00    1.45233   1.46065    0.000
 4665.00    1.44926   1.45594    0.000
 4666.00    1.44802   1.44848    0.000
 4667.00    1.46254   1.44759    0.000
 4668.00    1.50769   1.44815    0.000
 4669.00    1.60091   1.44538    0.000
 4670.00    1.77555   1.44723    0.000
 4671.00    1.78245   1.44909    0.000
 4672.00    1.54044   1.45096    0.000
 4673.00    1.37653   1.45377    0.000
 4674.00    1.31446   1.45484    0.000
 4675.00    1.31360   1.45967    0.000
 4676.00    1.38306   1.46370    0.000
 4677.00    1.40063   1.46467    0.000
 4678.00    1.36562   1.46700    0.000
 4679.00    1.38648   1.46873    0.000
 4680.00    1.45727   1.47011    0.000
 4681.00    1.53399   1.46978    0.000
 4682.00    1.61538   1.47119    0.000
 4683.00    1.64867   1.47420    0.000
 4684.00    1.64864   1.47321    0.000
 4685.00    1.62295   1.47399    0.000
 4686.00    1.58165   1.47456    0.000
 4687.00    1.63312   1.47325    0.000
 4688.00    1.73377   1.47535    0.000
 4689.00    1.68506   1.47327    0.000
 4690.00    1.56763   1.47033    0.000
 4691.00    1.53194   1.47224    0.000
 4692.00    1.52865   1.46948    0.000
 4693.00    1.50817   1.46569    0.000
 4694.00    1.48189   1.46348    0.000
 4695.00    1.46767   1.46031    0.000
 4696.00    1.45688   1.45886    0.000
 4697.00    1.43513   1.45230    0.000
 4698.00    1.41081   1.44584    0.000
 4699.00    1.47137   1.44636    0.000
 4700.00    1.54790   1.44227    0.000
 4701.00    1.46553   1.43793    0.000
 4702.00    1.36005   1.43767    0.000
 4703.00    1.38105   1.43710    0.000
 4704.00    1.41543   1.44002    0.000
 4705.00    1.33087   1.43924    0.000
 4706.00    1.23815   1.43865    0.000
 4707.00    1.31572   1.44801    0.000
 4708.00    1.39908   1.45206    0.000
 4709.00    1.46597   1.45558    0.000
 4710.00    1.52569   1.46686    0.000
 4711.00    1.35298   1.47374    0.000
 4712.00    1.20455   1.48268    0.000
 4713.00    1.42846   1.49036    0.000
 4714.00    1.62619   1.49491    0.000
 4715.00    1.56713   1.50785    0.000
 4716.00    1.52257   1.51525    0.000
 4717.00    1.58056   1.51792    0.000
 4718.00    1.63953   1.52506    0.000
 4719.00    1.70384   1.52736    0.000
 4720.00    1.73444   1.52931    0.000
 4721.00    1.61812   1.52880    0.000
 4722.00    1.52950   1.52470    0.000
 4723.00    1.54027   1.52574    0.000
 4724.00    1.52863   1.52244    0.000
 4725.00    1.44955   1.51610    0.000
 4726.00    1.41375   1.51322    0.000
 4727.00    1.48887   1.50584    0.000
 4728.00    1.57496   1.50178    0.000
 4729.00    1.68527   1.50166    0.000
 4730.00    1.73117   1.49637    0.000
 4731.00    1.65394   1.49730    0.000
 4732.00    1.59851   1.49905    0.000
 4733.00    1.57945   1.49641    0.000
 4734.00    1.56494   1.50405    0.000
 4735.00    1.55708   1.50622    0.000
 4736.00    1.53486   1.50402    0.000
 4737.00    1.49419   1.51596    0.000
 4738.00    1.54063   1.52156    0.000
 4739.00    1.68572   1.52199    0.000
 4740.00    1.74977   1.52964    0.000
 4741.00    1.73283   1.53325    0.000
 4742.00    1.67682   1.53869    0.000
 4743.00    1.58639   1.54296    0.000
 4744.00    1.59879   1.54052    0.000
 4745.00    1.69104   1.54524    0.000
 4746.00    1.72122   1.54877    0.000
 4747.00    1.70904   1.54404    0.000
 4748.00    1.67517   1.54329    0.000
 4749.00    1.62832   1.54313    0.000
 4750.00    1.60110   1.53869    0.000
 4751.00    1.58414   1.53465    0.000
 4752.00    1.57720   1.52967    0.000
 4753.00    1.57479   1.52325    0.000
 4754.00    1.63035   1.51883    0.000
 4755.00    1.70848   1.51256    0.000
 4756.00    1.68694   1.50553    0.000
 4757.00    1.63236   1.50064    0.000
 4758.00    1.58132   1.49480    0.000
 4759.00    1.53126   1.49033    0.000
 4760.00    1.64262   1.48657    0.000
 4761.00    1.79091   1.48087    0.017
 4762.00    1.69158   1.47892    0.018
 4763.00    1.54689   1.47936    0.018
 4764.00    1.56458   1.47675    0.018
 4765.00    1.60513   1.47806    0.018
 4766.00    1.58118   1.48301    0.017
 4767.00    1.55068   1.48451    0.017
 4768.00    1.59686   1.48947    0.017
 4769.00    1.64799   1.49674    0.017
 4770.00    1.66196   1.49966    0.017
 4771.00    1.67489   1.50409    0.017
 4772.00    1.73285   1.50961    0.017
 4773.00    1.78772   1.51567    0.017
 4774.00    1.75309   1.51919    0.017
 4775.00    1.71918   1.51948    0.017
 4776.00    1.69587   1.52423    0.017
 4777.00    1.67533   1.52566    0.017
 4778.00    1.68098   1.52353    0.017
 4779.00    1.67378   1.52352    0.017
 4780.00    1.57864   1.52253    0.017
 4781.00    1.49854   1.52291    0.016
 4782.00    1.49817   1.51843    0.016
 4783.00    1.47297   1.51645    0.016
 4784.00    1.34206   1.52214    0.016
 4785.00    1.28224   1.51741    0.016
 4786.00    1.47224   1.51640    0.016
 4787.00    1.60801   1.52399    0.016
 4788.00    1.58357   1.52191    0.016
 4789.00    1.59276   1.52433    0.016
 4790.00    1.68666   1.53091    0.017
 4791.00    1.72049   1.53186    0.017
 4792.00    1.62407   1.53676    0.017
 4793.00    1.54605   1.54136    0.017
 4794.00    1.50266   1.54394    0.017
 4795.00    1.48266   1.54725    0.017
 4796.00    1.50108   1.54775    0.017
 4797.00    1.50558   1.54964    0.017
 4798.00    1.49003   1.55071    0.017
 4799.00    1.51194   1.54936    0.017
 4800.00    1.58130   1.55055    0.017
 4801.00    1.64104   1.55071    0.017
 4802.00    1.69003   1.55062    0.017
 4803.00    1.69441   1.54979    0.017
 4804.00    1.65485   1.54685    0.017
 4805.00    1.63431   1.54917    0.017
 4806.00    1.63029   1.54924    0.017
 4807.00    1.55772   1.54654    0.017
 4808.00    1.43268   1.54959    0.017
 4809.00    1.43491   1.55170    0.016
 4810.00    1.52276   1.55245    0.016
 4811.00    1.63413   1.55379    0.016
 4812.00    1.75937   1.55532    0.016
 4813.00    1.75435   1.55881    0.016
 4814.00    1.68239   1.55864    0.016
 4815.00    1.69173   1.55932    0.017
 4816.00    1.73727   1.56133    0.017
 4817.00    1.69095   1.55913    0.017
 4818.00    1.60948   1.56072    0.017
 4819.00    1.55499   1.55820    0.017
 4820.00    1.50926   1.55319    0.017
 4821.00    1.60755   1.55554    0.017
 4822.00    1.74505   1.54893    0.017
 4823.00    1.73958   1.54209    0.017
 4824.00    1.70216   1.54415    0.017
 4825.00    1.65426   1.53868    0.017
 4826.00    1.60449   1.53452    0.017
 4827.00    1.61181   1.53250    0.017
 4828.00    1.62690   1.52544    0.017
 4829.00    1.55899   1.52652    0.017
 4830.00    1.48301   1.52468    0.017
 4831.00    1.58475   1.51570    0.017
 4832.00    1.69727   1.51746    0.016
 4833.00    1.65749   1.51813    0.016
 4834.00    1.61406   1.51227    0.017
 4835.00    1.64086   1.51195    0.017
 4836.00    1.66149   1.51108    0.017
 4837.00    1.52088   1.50889    0.017
 4838.00    1.38335   1.50844    0.017
 4839.00    1.28776   1.50320    0.017
 4840.00    1.21916   1.50262    0.017
 4841.00    1.39445   1.50499    0.017
 4842.00    1.56907   1.49673    0.017
 4843.00    1.73929   1.49312    0.017
 4844.00    1.85167   1.49453    0.017
 4845.00    1.66558   1.48697    0.017
 4846.00    1.53482   1.48149    0.017
 4847.00    1.63436   1.47537    0.017
 4848.00    1.69974   1.46386    0.000
 4849.00    1.64751   1.45800    0.000
 4850.00    1.59891   1.44837    0.000
 4851.00    1.56084   1.43308    0.000
 4852.00    1.54244   1.42463    0.000
 4853.00    1.57273   1.41397    0.000
 4854.00    1.55923   1.39589    0.000
 4855.00    1.45230   1.38494    0.000
 4856.00    1.39374   1.37778    0.000
 4857.00    1.42484   1.36350    0.000
 4858.00    1.47248   1.35426    0.000
 4859.00    1.54693   1.34860    0.000
 4860.00    1.54695   1.33670    0.000
 4861.00    1.44127   1.33503    0.000
 4862.00    1.42858   1.33880    0.000
 4863.00    1.53205   1.33300    0.000
 4864.00    1.54899   1.33516    0.000
 4865.00    1.47063   1.34313    0.000
 4866.00    1.46381   1.34426    0.000
 4867.00    1.52647   1.34875    0.000
 4868.00    1.50250   1.35826    0.000
 4869.00    1.40435   1.36539    0.000
 4870.00    1.34576   1.36957    0.000
 4871.00    1.31701   1.37519    0.000
 4872.00    1.36392   1.38719    0.000
 4873.00    1.46100   1.39609    0.000
 4874.00    1.49892   1.39725    0.000
 4875.00    1.50250   1.40652    0.017
 4876.00    1.52758   1.41586    0.017
 4877.00    1.56352   1.41448    0.017
 4878.00    1.55096   1.42088    0.017
 4879.00    1.51716   1.42821    0.017
 4880.00    1.54700   1.42553    0.017
 4881.00    1.60076   1.42695    0.017
 4882.00    1.56190   1.43203    0.017
 4883.00    1.49350   1.43413    0.017
 4884.00    1.44028   1.43336    0.017
 4885.00    1.39110   1.43544    0.017
 4886.00    1.45630   1.44268    0.017
 4887.00    1.54646   1.44407    0.017
 4888.00    1.57597   1.44954    0.017
 4889.00    1.59497   1.46007    0.017
 4890.00    1.60745   1.46067    0.017
 4891.00    1.61908   1.47123    0.017
 4892.00    1.63253   1.48527    0.017
 4893.00    1.64616   1.48814    0.017
 4894.00    1.65907   1.50061    0.017
 4895.00    1.67195   1.50998    0.017
 4896.00    1.64047   1.51124    0.017
 4897.00    1.60818   1.52326    0.017
 4898.00    1.59729   1.52727    0.017
 4899.00    1.58608   1.52452    0.017
 4900.00    1.56722   1.53230    0.017
 4901.00    1.55622   1.53306    0.017
 4902.00    1.64693   1.52813    0.017
 4903.00    1.72474   1.52797    0.017
 4904.00    1.69038   1.52518    0.017
 4905.00    1.66096   1.52161    0.017
 4906.00    1.66337   1.51568    0.017
 4907.00    1.65712   1.50868    0.017
 4908.00    1.60729   1.50436    0.017
 4909.00    1.57508   1.49482    0.017
 4910.00    1.61457   1.48613    0.017
 4911.00    1.65284   1.48258    0.017
 4912.00    1.68698   1.47361    0.016
 4913.00    1.70950   1.46470    0.016
 4914.00    1.69891   1.46065    0.016
 4915.00    1.65372   1.45398    0.016
 4916.00    1.52436   1.44827    0.016
 4917.00    1.45351   1.44415    0.016
 4918.00    1.50549   1.43957    0.016
 4919.00    1.54735   1.43914    0.017
 4920.00    1.57077   1.43924    0.016
 4921.00    1.56711   1.44088    0.016
 4922.00    1.52028   1.44819    0.016
 4923.00    1.49250   1.44962    0.016
 4924.00    1.49138   1.45111    0.016
 4925.00    1.51277   1.46441    0.016
 4926.00    1.56185   1.46811    0.016
 4927.00    1.57280   1.46817    0.016
 4928.00    1.54233   1.48195    0.016
 4929.00    1.52377   1.48342    0.016
 4930.00    1.51660   1.48187    0.016
 4931.00    1.50611   1.49407    0.016
 4932.00    1.49281   1.49172    0.016
 4933.00    1.52255   1.48869    0.016
 4934.00    1.58430   1.49985    0.016
 4935.00    1.62830   1.49876    0.016
 4936.00    1.66072   1.49837    0.016
 4937.00    1.59453   1.50617    0.016
 4938.00    1.47197   1.50417    0.016
 4939.00    1.43174   1.50901    0.016
 4940.00    1.43250   1.51999    0.000
 4941.00    1.45529   1.51895    0.000
 4942.00    1.48757   1.52285    0.000
 4943.00    1.52593   1.53324    0.000
 4944.00    1.56655   1.53339    0.000
 4945.00    1.63853   1.53375    0.000
 4946.00    1.72033   1.54023    0.000
 4947.00    1.71194   1.54025    0.000
 4948.00    1.68002   1.53740    0.000
 4949.00    1.60610   1.53821    0.000
 4950.00    1.52324   1.53451    0.000
 4951.00    1.57348   1.52935    0.000
 4952.00    1.64615   1.52709    0.000
 4953.00    1.61945   1.51800    0.000
 4954.00    1.58011   1.51254    0.000
 4955.00    1.57727   1.51260    0.000
 4956.00    1.57766   1.49978    0.000
 4957.00    1.59452   1.49279    0.000
 4958.00    1.61224   1.49650    0.000
 4959.00    1.55556   1.49074    0.000
 4960.00    1.49820   1.48603    0.000
 4961.00    1.49842   1.48517    0.000
 4962.00    1.50076   1.48392    0.000
 4963.00    1.54930   1.48424    0.000
 4964.00    1.59722   1.48047    0.000
 4965.00    1.63749   1.48057    0.000
 4966.00    1.66956   1.48281    0.000
 4967.00    1.63308   1.47917    0.000
 4968.00    1.59400   1.47972    0.000
 4969.00    1.53871   1.47920    0.000
 4970.00    1.49056   1.47553    0.000
 4971.00    1.47739   1.47469    0.000
 4972.00    1.45918   1.46971    0.000
 4973.00    1.42094   1.46589    0.000
 4974.00    1.39765   1.46227    0.000
 4975.00    1.42381   1.45303    0.000
 4976.00    1.46008   1.44874    0.000
 4977.00    1.52462   1.44404    0.000
 4978.00    1.54851   1.43273    0.000
 4979.00    1.47520   1.42857    0.000
 4980.00    1.42414   1.42725    0.000
 4981.00    1.41902   1.41669    0.000
 4982.00    1.42886   1.41229    0.000
 4983.00    1.46558   1.41600    0.000
 4984.00    1.45886   1.40985    0.000
 4985.00    1.38388   1.40826    0.000
 4986.00    1.38042   1.41463    0.000
 4987.00    1.47560   1.41009    0.000
 4988.00    1.53067   1.41177    0.000
 4989.00    1.53703   1.41693    0.000
 4990.00    1.58195   1.41022    0.000
 4991.00    1.66815   1.41476    0.000
 4992.00    1.64616   1.41720    0.000
 4993.00    1.52202   1.40701    0.000
 4994.00    1.46048   1.41065    0.000
 4995.00    1.45103   1.40884    0.000
 4996.00    1.43036   1.39687    0.000
 4997.00    1.40147   1.39791    0.000
 4998.00    1.44655   1.39184    0.000
 4999.00    1.53925   1.37912    0.000
 5000.00    1.54634   1.37790    0.000
 5001.00    1.50525   1.37123    0.000
 5002.00    1.50764   1.35954    0.000
 5003.00    1.53134   1.35713    0.000
 5004.00    1.54602   1.35190    0.000
 5005.00    1.55688   1.34079    0.000
 5006.00    1.55922   1.33795    0.000
 5007.00    1.55847   1.33672    0.000
 5008.00    1.47611   1.32882    0.000
 5009.00    1.36872   1.32645    0.000
 5010.00    1.37350   1.32592    0.000
 5011.00    1.40693   1.32067    0.000
 5012.00    1.40236   1.32107    0.000
 5013.00    1.38989   1.32152    0.000
 5014.00    1.37069   1.31988    0.000
 5015.00    1.35037   1.32402    0.000
 5016.00    1.42733   1.32716    0.000
 5017.00    1.51622   1.32795    0.000
 5018.00    1.52131   1.33257    0.000
 5019.00    1.51932   1.34001    0.000
 5020.00    1.49083   1.34430    0.000
 5021.00    1.46105   1.34723    0.000
 5022.00    1.49618   1.35721    0.000
 5023.00    1.53216   1.36303    0.000
 5024.00    1.55847   1.36521    0.000
 5025.00    1.57723   1.37605    0.000
 5026.00    1.44448   1.37881    0.000
 5027.00    1.32139   1.37955    0.000
 5028.00    1.31121   1.38866    0.000
 5029.00    1.32109   1.38820    0.015
 5030.00    1.49285   1.38869    0.015
 5031.00    1.64327   1.39195    0.015
 5032.00    1.66434   1.38755    0.015
 5033.00    1.65906   1.38996    0.015
 5034.00    1.52773   1.38743    0.015
 5035.00    1.42878   1.37967    0.015
 5036.00    1.45590   1.38470    0.016
 5037.00    1.47302   1.38046    0.016
 5038.00    1.45772   1.37459    0.016
 5039.00    1.43987   1.38156    0.016
 5040.00    1.41504   1.37659    0.016
 5041.00    1.38560   1.37518    0.015
 5042.00    1.34533   1.38597    0.015
 5043.00    1.35739   1.38466    0.015
 5044.00    1.47579   1.38585    0.016
 5045.00    1.58464   1.39639    0.016
 5046.00    1.67658   1.39935    0.016
 5047.00    1.68313   1.40239    0.015
 5048.00    1.55752   1.41056    0.015
 5049.00    1.48580   1.41621    0.015
 5050.00    1.48733   1.42142    0.016
 5051.00    1.48755   1.42808    0.016
 5052.00    1.48620   1.43293    0.016
 5053.00    1.46006   1.43807    0.016
 5054.00    1.40774   1.44361    0.016
 5055.00    1.41954   1.44518    0.016
 5056.00    1.49102   1.44813    0.016
 5057.00    1.47562   1.45151    0.016
 5058.00    1.38892   1.44897    0.016
 5059.00    1.36968   1.44961    0.016
 5060.00    1.39915   1.44970    0.016
 5061.00    1.49105   1.44285    0.016
 5062.00    1.62252   1.44165    0.016
 5063.00    1.56473   1.43881    0.016
 5064.00    1.40202   1.42840    0.016
 5065.00    1.47264   1.42521    0.016
 5066.00    1.65576   1.42249    0.016
 5067.00    1.64707   1.41251    0.016
 5068.00    1.55851   1.40596    0.016
 5069.00    1.48027   1.40286    0.016
 5070.00    1.40571   1.39646    0.016
 5071.00    1.45019   1.38877    0.016
 5072.00    1.53047   1.38361    0.016
 5073.00    1.43041   1.38071    0.016
 5074.00    1.28530   1.37625    0.016
 5075.00    1.33673   1.36968    0.016
 5076.00    1.42799   1.36788    0.016
 5077.00    1.47089   1.36868    0.016
 5078.00    1.50610   1.36403    0.016
 5079.00    1.43433   1.36227    0.016
 5080.00    1.34991   1.36693    0.016
 5081.00    1.44959   1.36750    0.016
 5082.00    1.56407   1.36789    0.015
 5083.00    1.52151   1.37345    0.015
 5084.00    1.47189   1.37696    0.015
 5085.00    1.46521   1.37987    0.015
 5086.00    1.45973   1.38502    0.015
 5087.00    1.48872   1.38838    0.015
 5088.00    1.51551   1.39153    0.015
 5089.00    1.50155   1.39495    0.015
 5090.00    1.48806   1.39665    0.015
 5091.00    1.47974   1.39763    0.015
 5092.00    1.47834   1.39768    0.015
 5093.00    1.53080   1.39789    0.015
 5094.00    1.56012   1.39606    0.015
 5095.00    1.45308   1.39213    0.015
 5096.00    1.37433   1.39186    0.015
 5097.00    1.42761   1.38856    0.015
 5098.00    1.46246   1.38278    0.015
 5099.00    1.42702   1.38332    0.015
 5100.00    1.39439   1.37946    0.015
 5101.00    1.37067   1.37514    0.015
 5102.00    1.36422   1.37767    0.015
 5103.00    1.40433   1.37248    0.015
 5104.00    1.42055   1.37099    0.015
 5105.00    1.38152   1.37685    0.015
 5106.00    1.37714   1.37102    0.015
 5107.00    1.44209   1.37230    0.015
 5108.00    1.49678   1.38042    0.015
 5109.00    1.53361   1.37460    0.015
 5110.00    1.52143   1.37748    0.015
 5111.00    1.43448   1.38507    0.015
 5112.00    1.39269   1.37956    0.015
 5113.00    1.41144   1.38196    0.015
 5114.00    1.47318   1.38589    0.015
 5115.00    1.58567   1.38060    0.015
 5116.00    1.63046   1.38070    0.016
 5117.00    1.60481   1.37945    0.016
 5118.00    1.53660   1.37468    0.016
 5119.00    1.42933   1.37206    0.015
 5120.00    1.41560   1.36598    0.015
 5121.00    1.47755   1.36245    0.016
 5122.00    1.49146   1.35933    0.015
 5123.00    1.47116   1.35073    0.015
 5124.00    1.44247   1.34869    0.015
 5125.00    1.40853   1.34782    0.015
 5126.00    1.42129   1.33905    0.015
 5127.00    1.45954   1.33818    0.015
 5128.00    1.57114   1.34111    0.015
 5129.00    1.71753   1.33257    0.016
 5130.00    1.18018   1.33178    0.015
 5131.00    0.36301   1.33908    0.015
 5132.00    0.55154   1.32965    0.015
 5133.00    1.09167   1.32741    0.015
 5134.00    1.29870   1.33789    0.015
 5135.00    1.40752   1.32627    0.015
 5136.00    1.42564   1.32255    0.015
 5137.00    1.42161   1.33484    0.015
 5138.00    1.40826   1.32099    0.015
 5139.00    1.39307   1.31639    0.015
 5140.00    1.44080   1.32922    0.015
 5141.00    1.49822   1.31556    0.015
 5142.00    1.46637   1.31136    0.015
 5143.00    1.42435   1.32253    0.015
 5144.00    1.42346   1.31148    0.015
 5145.00    1.42571   1.31000    0.015
 5146.00    1.36897   1.31831    0.015
 5147.00    1.30981   1.31035    0.015
 5148.00    1.38206   1.31198    0.015
 5149.00    1.45354   1.31689    0.015
 5150.00    1.44682   1.31135    0.015
 5151.00    1.43949   1.31443    0.015
 5152.00    1.42182   1.31447    0.015
 5153.00    1.41182   1.30946    0.015
 5154.00    1.48352   1.31138    0.016
 5155.00    1.54563   1.30451    0.016
 5156.00    1.53556   1.29702    0.016
 5157.00    1.51818   1.29525    0.016
 5158.00    1.45894   1.28093    0.016
 5159.00    1.41502   1.26888    0.016
 5160.00    1.44097   1.26245    0.015
 5161.00    1.45381   1.24338    0.015
 5162.00    1.41779   1.22744    0.015
 5163.00    1.38037   1.21754    0.015
 5164.00    1.33862   1.19884    0.015
 5165.00    1.28904   1.18314    0.015
 5166.00    1.21876   1.17408    0.015
 5167.00    1.16659   1.16103    0.015
 5168.00    1.15557   1.14905    0.015
 5169.00    1.16134   1.14323    0.015
 5170.00    1.20015   1.13884    0.015
 5171.00    1.23038   1.13474    0.015
 5172.00    1.24588   1.13338    0.015
 5173.00    1.27573   1.13468    0.015
 5174.00    1.32716   1.13788    0.015
 5175.00    1.31712   1.14121    0.015
 5176.00    1.22590   1.14422    0.015
 5177.00    1.21590   1.15206    0.015
 5178.00    1.30038   1.15920    0.015
 5179.00    1.35347   1.16079    0.015
 5180.00    1.37436   1.17109    0.015
 5181.00    1.37194   1.18163    0.015
 5182.00    1.34844   1.18229    0.014
 5183.00    1.28877   1.19512    0.014
 5184.00    1.20027   1.20706    0.014
 5185.00    1.17414   1.20576    0.014
 5186.00    1.19179   1.22116    0.014
 5187.00    1.23511   1.23468    0.014
 5188.00    1.29423   1.23105    0.015
 5189.00    1.33562   1.24629    0.015
 5190.00    1.36747   1.26123    0.000
 5191.00    1.40883   1.25631    0.000
 5192.00    1.45463   1.26782    0.000
 5193.00    1.45074   1.28200    0.000
 5194.00    1.42686   1.27667    0.000
 5195.00    1.47644   1.28178    0.000
 5196.00    1.55124   1.29354    0.000
 5197.00    1.54207   1.28900    0.000
 5198.00    1.50865   1.28672    0.000
 5199.00    1.46475   1.29528    0.000
 5200.00    1.41836   1.29353    0.000
 5201.00    1.39070   1.28577    0.000
 5202.00    1.36664   1.29155    0.000
 5203.00    1.34043   1.29438    0.000
 5204.00    1.31389   1.28545    0.000
 5205.00    1.29718   1.29005    0.000
 5206.00    1.28156   1.29780    0.000
 5207.00    1.26102   1.29158    0.000
 5208.00    1.24012   1.29636    0.000
 5209.00    1.30756   1.30775    0.000
 5210.00    1.37829   1.30555    0.000
 5211.00    1.48295   1.31046    0.015
 5212.00    1.58285   1.32328    0.015
 5213.00    1.50366   1.32369    0.015
 5214.00    1.42539   1.32695    0.015
 5215.00    1.36215   1.33894    0.015
 5216.00    1.31995   1.33958    0.015
 5217.00    1.49189   1.33898    0.015
 5218.00    1.62682   1.34931    0.015
 5219.00    1.49235   1.34899    0.015
 5220.00    1.38186   1.34373    0.015
 5221.00    1.40495   1.35352    0.015
 5222.00    1.42206   1.35323    0.015
 5223.00    1.41254   1.34465    0.015
 5224.00    1.39725   1.35550    0.015
 5225.00    1.36086   1.35718    0.015
 5226.00    1.35830   1.34806    0.015
 5227.00    1.45928   1.36099    0.015
 5228.00    1.52186   1.36607    0.015
 5229.00    1.48451   1.35903    0.015
 5230.00    1.42166   1.37315    0.015
 5231.00    1.30175   1.38106    0.015
 5232.00    1.28571   1.37744    0.015
 5233.00    1.47098   1.39044    0.015
 5234.00    1.59078   1.39867    0.015
 5235.00    1.59991   1.39823    0.015
 5236.00    1.57583   1.40762    0.015
 5237.00    1.50254   1.41305    0.015
 5238.00    1.46371   1.41462    0.015
 5239.00    1.46973   1.41917    0.015
 5240.00    1.46640   1.41960    0.015
 5241.00    1.45234   1.42186    0.015
 5242.00    1.43356   1.42222    0.015
 5243.00    1.41000   1.41746    0.015
 5244.00    1.42755   1.41947    0.015
 5245.00    1.48178   1.41740    0.015
 5246.00    1.51041   1.40914    0.015
 5247.00    1.51892   1.41018    0.015
 5248.00    1.48258   1.40717    0.015
 5249.00    1.41524   1.39769    0.015
 5250.00    1.41061   1.39673    0.015
 5251.00    1.44402   1.39296    0.015
 5252.00    1.48398   1.38366    0.015
 5253.00    1.52743   1.37909    0.015
 5254.00    1.56760   1.37372    0.015
 5255.00    1.60628   1.36510    0.015
 5256.00    1.56381   1.35527    0.015
 5257.00    1.48926   1.34770    0.015
 5258.00    1.42441   1.34070    0.015
 5259.00    1.36282   1.32546    0.015
 5260.00    1.36384   1.31639    0.015
 5261.00    1.38257   1.31360    0.015
 5262.00    1.34751   1.29546    0.015
 5263.00    1.29990   1.28685    0.015
 5264.00    1.27581   1.29182    0.015
 5265.00    1.25614   1.27544    0.015
 5266.00    1.17416   1.26943    0.015
 5267.00    1.08315   1.28425    0.015
 5268.00    1.21968   1.27423    0.016
 5269.00    1.38016   1.27207    0.016
 5270.00    1.40439   1.29544    0.016
 5271.00    1.41934   1.29377    0.016
 5272.00    1.43942   1.29548    0.016
 5273.00    1.45967   1.32313    0.016
 5274.00    1.46628   1.32839    0.016
 5275.00    1.47067   1.33314    0.016
 5276.00    1.40476   1.36005    0.015
 5277.00    1.34449   1.36879    0.015
 5278.00    1.37023   1.37535    0.015
 5279.00    1.39871   1.39802    0.015
 5280.00    1.45390   1.40672    0.015
 5281.00    1.49665   1.41361    0.015
 5282.00    1.45174   1.43054    0.015
 5283.00    1.42592   1.43703    0.015
 5284.00    1.50361   1.44261    0.015
 5285.00    1.55875   1.45353    0.015
 5286.00    1.51585   1.45714    0.015
 5287.00    1.47886   1.46017    0.015
 5288.00    1.46301   1.46532    0.015
 5289.00    1.47234   1.46667    0.015
 5290.00    1.55728   1.46710    0.015
 5291.00    1.60103   1.46735    0.015
 5292.00    1.53947   1.46803    0.015
 5293.00    1.50562   1.46751    0.015
 5294.00    1.53273   1.46467    0.015
 5295.00    1.54679   1.46653    0.015
 5296.00    1.53593   1.46762    0.015
 5297.00    1.50719   1.46397    0.015
 5298.00    1.44865   1.46814    0.015
 5299.00    1.41690   1.47263    0.015
 5300.00    1.42427   1.46983    0.014
 5301.00    1.44077   1.47583    0.014
 5302.00    1.46898   1.48349    0.014
 5303.00    1.52221   1.48163    0.014
 5304.00    1.60372   1.48754    0.015
 5305.00    1.66094   1.49619    0.014
 5306.00    1.69392   1.49403    0.014
 5307.00    1.71156   1.49750    0.014
 5308.00    1.71570   1.50427    0.015
 5309.00    1.66164   1.50019    0.015
 5310.00    1.56247   1.49965    0.014
 5311.00    1.52044   1.50232    0.014
 5312.00    1.51735   1.49537    0.014
 5313.00    1.50286   1.49076    0.014
 5314.00    1.48158   1.48836    0.014
 5315.00    1.48310   1.47851    0.014
 5316.00    1.49651   1.47143    0.014
 5317.00    1.52261   1.46463    0.014
 5318.00    1.55444   1.45275    0.014
 5319.00    1.49709   1.44585    0.014
 5320.00    1.40509   1.43680    0.014
 5321.00    1.38146   1.42428    0.014
 5322.00    1.38043   1.42034    0.014
 5323.00    1.36302   1.41230    0.014
 5324.00    1.34107   1.40088    0.015
 5325.00    1.35931   1.40164    0.014
 5326.00    1.38671   1.39743    0.014
 5327.00    1.42596   1.38854    0.014
 5328.00    1.46736   1.39406    0.015
 5329.00    1.47980   1.39484    0.014
 5330.00    1.48817   1.38872    0.014
 5331.00    1.40498   1.39761    0.014
 5332.00    1.31256   1.40271    0.014
 5333.00    1.44684   1.39824    0.014
 5334.00    1.59567   1.40816    0.014
 5335.00    1.55159   1.41588    0.014
 5336.00    1.50177   1.41229    0.014
 5337.00    1.45740   1.42186    0.014
 5338.00    1.41278   1.43028    0.014
 5339.00    1.36134   1.42632    0.014
 5340.00    1.31954   1.43552    0.014
 5341.00    1.41598   1.44512    0.014
 5342.00    1.50713   1.44092    0.014
 5343.00    1.54874   1.44957    0.014
 5344.00    1.58110   1.46088    0.014
 5345.00    1.55044   1.45784    0.014
 5346.00    1.50680   1.46572    0.014
 5347.00    1.39467   1.47820    0.014
 5348.00    1.32924   1.47728    0.014
 5349.00    1.46209   1.48371    0.014
 5350.00    1.57107   1.49563    0.014
 5351.00    1.59639   1.49580    0.014
 5352.00    1.61520   1.49912    0.014
 5353.00    1.61486   1.50893    0.014
 5354.00    1.59829   1.50876    0.014
 5355.00    1.54095   1.50723    0.014
 5356.00    1.51305   1.51334    0.014
 5357.00    1.54886   1.51136    0.014
 5358.00    1.57028   1.50477    0.014
 5359.00    1.56466   1.50705    0.014
 5360.00    1.54577   1.50256    0.014
 5361.00    1.50511   1.49219    0.014
 5362.00    1.50910   1.49260    0.014
 5363.00    1.57729   1.48697    0.014
 5364.00    1.61348   1.47473    0.014
 5365.00    1.60920   1.47578    0.014
 5366.00    1.58824   1.47181    0.014
 5367.00    1.54868   1.45997    0.014
 5368.00    1.50525   1.46327   -2.000
 5369.00    1.45802   1.46317   -2.000
 5370.00    1.46825   1.45324   -2.000
 5371.00    1.52830   1.45876   -2.000
 5372.00    1.59995   1.46294   -2.000
 5373.00    1.68046   1.45463   -2.000
 5374.00    1.67612   1.46079   -2.000
 5375.00    1.61481   1.46829   -2.000
 5376.00    1.58132   1.46073   -2.000
 5377.00    1.56418   1.46495   -2.000
 5378.00    1.55369   1.47290   -2.000
 5379.00    1.54661   1.46490   -2.000
 5380.00    1.45845   1.46522   -2.000
 5381.00    1.33427   1.47126   -2.000
 5382.00    1.41998   1.46266   -2.000
 5383.00    1.58581   1.45826    0.015
 5384.00    1.63101   1.46077    0.014
 5385.00    1.63710   1.45257    0.014
 5386.00    1.56949   1.44441    0.014
 5387.00    1.48187   1.44239    0.014
 5388.00    1.47217   1.43608    0.014
 5389.00    1.47983   1.42651    0.014
 5390.00    1.46281   1.41939    0.014
 5391.00    1.44140   1.41568    0.014
 5392.00    1.40690   1.40781    0.014
 5393.00    1.37062   1.39631    0.014
 5394.00    1.42560   1.39493    0.014
 5395.00    1.48939   1.39143    0.014
 5396.00    1.43764   1.37759    0.014
 5397.00    1.37895   1.37728    0.014
 5398.00    1.43530   1.37921    0.014
 5399.00    1.49420   1.36600    0.014
 5400.00    1.47927   1.36555    0.014
 5401.00    1.46260   1.37270    0.013
 5402.00    1.40123   1.36403    0.014
 5403.00    1.34757   1.36326    0.014
 5404.00    1.39845   1.37316    0.013
 5405.00    1.44451   1.37073    0.013
 5406.00    1.44719   1.37128    0.013
 5407.00    1.45070   1.38178    0.013
 5408.00    1.45971   1.38443    0.013
 5409.00    1.46495   1.38783    0.013
 5410.00    1.45081   1.39842    0.013
 5411.00    1.44855   1.40382    0.013
 5412.00    1.49561   1.40848    0.013
 5413.00    1.53773   1.41667    0.013
 5414.00    1.56286   1.42256    0.013
 5415.00    1.56564   1.42859    0.013
 5416.00    1.50377   1.43236    0.013
 5417.00    1.46303   1.43497    0.013
 5418.00    1.47448   1.44147    0.013
 5419.00    1.48942   1.44109    0.013
 5420.00    1.51181   1.43962    0.013
 5421.00    1.52684   1.44589    0.013
 5422.00    1.52828   1.44150    0.013
 5423.00    1.54915   1.43643    0.013
 5424.00    1.60143   1.44356    0.014
 5425.00    1.61563   1.43734    0.014
 5426.00    1.57585   1.43006    0.014
 5427.00    1.53374   1.43808    0.013
 5428.00    1.48872   1.43227    0.013
 5429.00    1.43152   1.42578    0.013
 5430.00    1.36094   1.43508    0.013
 5431.00    1.35747   1.43054    0.013
 5432.00    1.41909   1.42479    0.013
 5433.00    1.45806   1.43463    0.013
 5434.00    1.47765   1.43467    0.013
 5435.00    1.53785   1.43083    0.014
 5436.00    1.62864   1.43699    0.014
 5437.00    1.64422   1.43945    0.013
 5438.00    1.61002   1.43853    0.013
 5439.00    1.54799   1.44089    0.013
 5440.00    1.46983   1.44303    0.013
 5441.00    1.47184   1.44380    0.013
 5442.00    1.51432   1.44252    0.013
 5443.00    1.51918   1.44177    0.013
 5444.00    1.50758   1.44332    0.013
 5445.00    1.47999   1.43983    0.013
 5446.00    1.44639   1.43628    0.013
 5447.00    1.43657   1.43853    0.013
 5448.00    1.43431   1.43413    0.013
 5449.00    1.47765   1.42856    0.013
 5450.00    1.53312   1.43175    0.013
 5451.00    1.55047   1.42923    0.013
 5452.00    1.55953   1.42409    0.013
 5453.00    1.54633   1.42615    0.013
 5454.00    1.52930   1.42463    0.013
 5455.00    1.49104   1.42116    0.013
 5456.00    1.45000   1.42198    0.013
 5457.00    1.43476   1.42150    0.013
 5458.00    1.42191   1.42019    0.013
 5459.00    1.46631   1.41876    0.013
 5460.00    1.51392   1.41938    0.013
 5461.00    1.48068   1.42125    0.013
 5462.00    1.44638   1.41608    0.013
 5463.00    1.48988   1.41401    0.013
 5464.00    1.53109   1.41862    0.013
 5465.00    1.51837   1.41306    0.013
 5466.00    1.50708   1.40653    0.013
 5467.00    1.51418   1.41167    0.013
 5468.00    1.51352   1.40984    0.013
 5469.00    1.44569   1.39912    0.013
 5470.00    1.38418   1.40073    0.013
 5471.00    1.36310   1.40460    0.013
 5472.00    1.34888   1.39383    0.013
 5473.00    1.36908   1.39028    0.013
 5474.00    1.38962   1.39840    0.013
 5475.00    1.41157   1.39255    0.013
 5476.00    1.43927   1.38542    0.013
 5477.00    1.48628   1.39362    0.013
 5478.00    1.51496   1.39539   -2.000
 5479.00    1.49158   1.38848   -2.000
 5480.00    1.49943   1.39230   -2.000
 5481.00    1.58312   1.40099   -2.000
 5482.00    1.64263   1.39936   -2.000
 5483.00    1.65148   1.39650   -2.000
 5484.00    1.61633   1.40573   -2.000
 5485.00    1.50106   1.41091   -2.000
 5486.00    1.49599   1.40488   -2.000
 5487.00    1.66634   1.41064   -2.000
 5488.00    1.70206   1.42038   -2.000
 5489.00    1.54973   1.41326   -2.000
 5490.00    1.37491   1.41275   -2.000
 5491.00    1.17244   1.42432   -2.000
 5492.00    1.14956   1.41976   -2.000
 5493.00    1.32129   1.41360   -2.000
 5494.00    1.44541   1.42295   -2.000
 5495.00    1.52399   1.42215   -2.000
 5496.00    1.57797   1.41231   -2.000
 5497.00    1.61119   1.41705   -2.000
 5498.00    1.60825   1.42031   -2.000
 5499.00    1.57847   1.40994   -2.000
 5500.00    1.55103   1.40941   -2.000
 5501.00    1.52511   1.41486   -2.000
 5502.00    1.47909   1.40671    0.013
 5503.00    1.42159   1.40333    0.013
 5504.00    1.46652   1.40891    0.013
 5505.00    1.56234   1.40269    0.013
 5506.00    1.59536   1.39952    0.013
 5507.00    1.60140   1.40625    0.013
 5508.00    1.55423   1.40166    0.013
 5509.00    1.48746   1.39886    0.012
 5510.00    1.46356   1.40638    0.012
 5511.00    1.45303   1.40494    0.013
 5512.00    1.48069   1.40314    0.013
 5513.00    1.51828   1.40939    0.013
 5514.00    1.56223   1.41039    0.013
 5515.00    1.60753   1.40981    0.013
 5516.00    1.57614   1.41447    0.013
 5517.00    1.53188   1.41735    0.013
 5518.00    1.49189   1.41724    0.013
 5519.00    1.45244   1.41999    0.013
 5520.00    1.42130   1.42309    0.013
 5521.00    1.39089   1.42214    0.013
 5522.00    1.40226   1.42385    0.013
 5523.00    1.41581   1.42669    0.013
 5524.00    1.43911   1.42390    0.013
 5525.00    1.46256   1.42514    0.013
 5526.00    1.48445   1.42904    0.013
 5527.00    1.50681   1.42519    0.013
 5528.00    1.53939   1.42539    0.013
 5529.00    1.56899   1.43104    0.013
 5530.00    1.56226   1.42842    0.013
 5531.00    1.55329   1.42726    0.013
 5532.00    1.52564   1.43417    0.013
 5533.00    1.50242   1.43504    0.013
 5534.00    1.50667   1.43302    0.013
 5535.00    1.52043   1.43874    0.013
 5536.00    1.58063   1.44207    0.013
 5537.00    1.62938   1.44101    0.013
 5538.00    1.63270   1.44559    0.013
 5539.00    1.61392   1.44925    0.014
 5540.00    1.52219   1.44984    0.033
 5541.00    1.46505   1.45368   -1.000
 5542.00    1.50436   1.45537   -1.000
 5543.00    1.52876   1.45664   -1.000
 5544.00    1.51756   1.46069   -1.000
 5545.00    1.50739   1.46001   -1.000
 5546.00    1.49936   1.45954   -1.000
 5547.00    1.50901   1.46374   -1.000
 5548.00    1.55039   1.46274   -1.000
 5549.00    1.58489   1.45959   -1.000
 5550.00    1.60863   1.46185   -1.000
 5551.00    1.59706   1.46164   -1.000
 5552.00    1.53690   1.45661   -1.000
 5553.00    1.48587   1.45525    0.053
 5554.00    1.44591   1.45575    0.017
 5555.00    1.43524   1.45038    0.012
 5556.00    1.45586   1.44539    0.012
 5557.00    1.46392   1.44654    0.012
 5558.00    1.46013   1.44220    0.012
 5559.00    1.45016   1.43449    0.012
 5560.00    1.43506   1.43648    0.012
 5561.00    1.45857   1.43372    0.012
 5562.00    1.51034   1.42358    0.012
 5563.00    1.51851   1.42663    0.012
 5564.00    1.49867   1.42739    0.012
 5565.00    1.52249   1.41520    0.012
 5566.00    1.57085   1.41726    0.012
 5567.00    1.51726   1.42361    0.012
 5568.00    1.41383   1.41155    0.012
 5569.00    1.40738   1.40929    0.012
 5570.00    1.44191   1.42035    0.012
 5571.00    1.43166   1.41118    0.012
 5572.00    1.40520   1.40306    0.012
 5573.00    1.43208   1.41533    0.012
 5574.00    1.47527   1.41074    0.012
 5575.00    1.50812   1.39797    0.012
 5576.00    1.53834   1.40690    0.012
 5577.00    1.52351   1.40611    0.012
 5578.00    1.49936   1.39225    0.012
 5579.00    1.50658   1.39603    0.012
 5580.00    1.51893   1.39619    0.013
 5581.00    1.50072   1.38356    0.013
 5582.00    1.47879   1.38352    0.013
 5583.00    1.47523   1.38365    0.012
 5584.00    1.47321   1.37358    0.012
 5585.00    1.43979   1.37130    0.012
 5586.00    1.40484   1.37172    0.012
 5587.00    1.36158   1.36523    0.012
 5588.00    1.31917   1.36265    0.012
 5589.00    1.33520   1.36468    0.012
 5590.00    1.35063   1.36172    0.013
 5591.00    1.35392   1.36000    0.013
 5592.00    1.36162   1.36540    0.012
 5593.00    1.42041   1.36551    0.012
 5594.00    1.47091   1.36386    0.012
 5595.00    1.45480   1.37180    0.012
 5596.00    1.43719   1.37503    0.012
 5597.00    1.41051   1.37321    0.013
 5598.00    1.38049   1.38109    0.013
 5599.00    1.33451   1.38786    0.013
 5600.00    1.31245   1.38719    0.013
 5601.00    1.38331   1.39104    0.013
 5602.00    1.43684   1.39833    0.013
 5603.00    1.43429   1.40149    0.013
 5604.00    1.43638   1.40235    0.013
 5605.00    1.45121   1.40660    0.012
 5606.00    1.46443   1.41160    0.012
 5607.00    1.47389   1.41070    0.012
 5608.00    1.47350   1.41094    0.012
 5609.00    1.45312   1.41543    0.012
 5610.00    1.43530   1.41332    0.012
 5611.00    1.42202   1.40881    0.012
 5612.00    1.42456   1.41246    0.012
 5613.00    1.45153   1.41189    0.012
 5614.00    1.46555   1.40347    0.012
 5615.00    1.46201   1.40524    0.012
 5616.00    1.44399   1.40795    0.012
 5617.00    1.40866   1.39879    0.012
 5618.00    1.39396   1.39793    0.012
 5619.00    1.40098   1.40350    0.012
 5620.00    1.41948   1.39778    0.012
 5621.00    1.44864   1.39582    0.012
 5622.00    1.46281   1.40176    0.012
 5623.00    1.46473   1.39817    0.012
 5624.00    1.44061   1.39561    0.012
 5625.00    1.39773   1.40301    0.012
 5626.00    1.36531   1.40175    0.012
 5627.00    1.33951   1.39694    0.012
 5628.00    1.35707   1.40392    0.012
 5629.00    1.39861   1.40630    0.012
 5630.00    1.46015   1.40070    0.012
 5631.00    1.53131   1.40442    0.012
 5632.00    1.52604   1.40823    0.012
 5633.00    1.48902   1.40322    0.012
 5634.00    1.46163   1.40353    0.012
 5635.00    1.43765   1.40741    0.012
 5636.00    1.38448   1.40374    0.012
 5637.00    1.32254   1.40139    0.012
 5638.00    1.37061   1.40521    0.012
 5639.00    1.44608   1.40418    0.012
 5640.00    1.51036   1.39960    0.012
 5641.00    1.57238   1.40156    0.012
 5642.00    1.47997   1.40403    0.012
 5643.00    1.36310   1.39988    0.012
 5644.00    1.37453   1.39773    0.012
 5645.00    1.40108   1.40078    0.012
 5646.00    1.39966   1.40027    0.012
 5647.00    1.39602   1.39561    0.012
 5648.00    1.36793   1.39550    0.012
 5649.00    1.33875   1.39806    0.012
 5650.00    1.37622   1.39344    0.012
 5651.00    1.41371   1.38939    0.012
 5652.00    1.41578   1.39382    0.012
 5653.00    1.41884   1.39128    0.012
 5654.00    1.44032   1.38333    0.012
 5655.00    1.45505   1.38823    0.012
 5656.00    1.39502   1.39080    0.012
 5657.00    1.33680   1.38038    0.012
 5658.00    1.29253   1.38233    0.012
 5659.00    1.25843   1.39169    0.012
 5660.00    1.28398   1.38499    0.012
 5661.00    1.31001   1.38189    0.012
 5662.00    1.33828   1.39310    0.012
 5663.00    1.36077   1.39457    0.012
 5664.00    1.36126   1.39025    0.012
 5665.00    1.36259   1.39792    0.012
 5666.00    1.36658   1.40426    0.012
 5667.00    1.37426   1.40223    0.012
 5668.00    1.39187   1.40625    0.012
 5669.00    1.39847   1.41349    0.012
 5670.00    1.37968   1.41347    0.012
 5671.00    1.36569   1.41414    0.012
 5672.00    1.36129   1.42062    0.012
 5673.00    1.37427   1.42263    0.012
 5674.00    1.41748   1.42023    0.012
 5675.00    1.44646   1.42331    0.012
 5676.00    1.45376   1.42707    0.012
 5677.00    1.44640   1.42383    0.012
 5678.00    1.41943   1.42212    0.012
 5679.00    1.40509   1.42573    0.012
 5680.00    1.40562   1.42456    0.012
 5681.00    1.37617   1.42014    0.012
 5682.00    1.31558   1.42134    0.012
 5683.00    1.29987   1.42214    0.012
 5684.00    1.32527   1.41782    0.012
 5685.00    1.35179   1.41718    0.012
 5686.00    1.37921   1.41864    0.012
 5687.00    1.42167   1.41482    0.012
 5688.00    1.47480   1.41328    0.012
 5689.00    1.46357   1.41510    0.012
 5690.00    1.41222   1.41104    0.012
 5691.00    1.39381   1.40775    0.012
 5692.00    1.39336   1.40980    0.012
 5693.00    1.43812   1.40682    0.012
 5694.00    1.50430   1.40057    0.012
 5695.00    1.50513   1.40029    0.012
 5696.00    1.47927   1.39966    0.012
 5697.00    1.46118   1.39124    0.012
 5698.00    1.44580   1.38722    0.012
 5699.00    1.45305   1.38966    0.012
 5700.00    1.46695   1.38273    0.012
 5701.00    1.43390   1.37511    0.012
 5702.00    1.38940   1.37852    0.012
 5703.00    1.39541   1.37723    0.012
 5704.00    1.41136   1.36936    0.012
 5705.00    1.42660   1.37091    0.012
 5706.00    1.44173   1.37582    0.012
 5707.00    1.36414   1.37139    0.012
 5708.00    1.27605   1.37073    0.011
 5709.00    1.33046   1.38000    0.011
 5710.00    1.39567   1.38068    0.012
 5711.00    1.42420   1.37969    0.012
 5712.00    1.45123   1.39118    0.012
 5713.00    1.39007   1.39629    0.012
 5714.00    1.32988   1.39620    0.011
 5715.00    1.33854   1.40701    0.012
 5716.00    1.34752   1.41382    0.012
 5717.00    1.36199   1.41445    0.012
 5718.00    1.37903   1.42366    0.012
 5719.00    1.42322   1.43068    0.012
 5720.00    1.46241   1.43017    0.012
 5721.00    1.46423   1.43662    0.012
 5722.00    1.46162   1.44391    0.011
 5723.00    1.43381   1.44237    0.012
 5724.00    1.40750   1.44547    0.012
 5725.00    1.38799   1.45233    0.012
 5726.00    1.38052   1.44989    0.012
 5727.00    1.41790   1.44928    0.012
 5728.00    1.44282   1.45568    0.012
 5729.00    1.42897   1.45465    0.012
 5730.00    1.42816   1.45077    0.012
 5731.00    1.46179   1.45498    0.012
 5732.00    1.50192   1.45689    0.012
 5733.00    1.55678   1.45236    0.012
 5734.00    1.57803   1.45317    0.012
 5735.00    1.53324   1.45647    0.012
 5736.00    1.48099   1.45341    0.012
 5737.00    1.41595   1.45128    0.012
 5738.00    1.37912   1.45356    0.012
 5739.00    1.38460   1.45236    0.012
 5740.00    1.39076   1.44952    0.000
 5741.00    1.39783   1.45015    0.000
 5742.00    1.41285   1.44936    0.000
 5743.00    1.43711   1.44589    0.000
 5744.00    1.45323   1.44548    0.000
 5745.00    1.46103   1.44619    0.000
 5746.00    1.47182   1.44326    0.000
 5747.00    1.48531   1.44103    0.000
 5748.00    1.47839   1.44174    0.000
 5749.00    1.45520   1.44007    0.000
 5750.00    1.45073   1.43716    0.000
 5751.00    1.45935   1.43687    0.000
 5752.00    1.46591   1.43610    0.000
 5753.00    1.47121   1.43516    0.000
 5754.00    1.44102   1.43559    0.000
 5755.00    1.39179   1.43494    0.000
 5756.00    1.39670   1.43460    0.000
 5757.00    1.42682   1.43622    0.000
 5758.00    1.46406   1.43637    0.000
 5759.00    1.50414   1.43637    0.000
 5760.00    1.49409   1.43815    0.000
 5761.00    1.46685   1.43754    0.000
 5762.00    1.43770   1.43720    0.000
 5763.00    1.40799   1.43993    0.000
 5764.00    1.41649   1.43947    0.000
 5765.00    1.43409   1.43796    0.000
 5766.00    1.45505   1.43984    0.000
 5767.00    1.47665   1.43938    0.000
 5768.00    1.50613   1.43722    0.000
 5769.00    1.53677   1.43678    0.000
 5770.00    1.48987   1.43352    0.000
 5771.00    1.43452   1.42957    0.000
 5772.00    1.43544   1.42926    0.000
 5773.00    1.44039   1.42486    0.000
 5774.00    1.45303   1.41778    0.000
 5775.00    1.46596   1.41791    0.000
 5776.00    1.45060   1.41519    0.000
 5777.00    1.43664   1.40652    0.000
 5778.00    1.47747   1.40668    0.000
 5779.00    1.51516   1.40643    0.000
 5780.00    1.50246   1.39703    0.000
 5781.00    1.48878   1.39641    0.000
 5782.00    1.46513   1.40088    0.000
 5783.00    1.44341   1.39462    0.000
 5784.00    1.43558   1.39200    0.000
 5785.00    1.42949   1.40035    0.000
 5786.00    1.43301   1.40029    0.000
 5787.00    1.44436   1.39613    0.000
 5788.00    1.49046   1.40558    0.000
 5789.00    1.53476   1.41099    0.000
 5790.00    1.57253   1.40677    0.000
 5791.00    1.59454   1.41521   -2.000
 5792.00    1.56841   1.42395   -2.000
 5793.00    1.54540   1.42020   -2.000
 5794.00    1.53049   1.42487   -2.000
 5795.00    1.51641   1.43575   -2.000
 5796.00    1.50417   1.43495   -2.000
 5797.00    1.48331   1.43435   -2.000
 5798.00    1.44579   1.44380   -2.000
 5799.00    1.41616   1.44674   -2.000
 5800.00    1.39986   1.44332   -2.000
 5801.00    1.40174   1.44903   -2.000
 5802.00    1.43049   1.45408   -2.000
 5803.00    1.46117   1.45080   -2.000
 5804.00    1.49435   1.45190   -2.000
 5805.00    1.51008   1.45601   -2.000
 5806.00    1.50583   1.45534   -2.000
 5807.00    1.49856   1.45490   -2.000
 5808.00    1.48825   1.45679   -2.000
 5809.00    1.48113   1.45813   -2.000
 5810.00    1.47686   1.45879   -2.000
 5811.00    1.46554   1.45920    0.000
 5812.00    1.44868   1.46039    0.000
 5813.00    1.45333   1.46229    0.000
 5814.00    1.47283   1.46305    0.000
 5815.00    1.46958   1.46283    0.000
 5816.00    1.45257   1.46458    0.000
 5817.00    1.45138   1.46722    0.000
 5818.00    1.45854   1.46735    0.000
 5819.00    1.45927   1.46819    0.000
 5820.00    1.45705   1.47094    0.000
 5821.00    1.48929   1.47229    0.000
 5822.00    1.53511   1.47267    0.000
 5823.00    1.53288   1.47321    0.000
 5824.00    1.51450   1.47440    0.000
 5825.00    1.49201   1.47580    0.000
 5826.00    1.46837   1.47519    0.000
 5827.00    1.49504   1.47435    0.000
 5828.00    1.53343   1.47642    0.000
 5829.00    1.54108   1.47696    0.000
 5830.00    1.54299   1.47384    0.000
 5831.00    1.51615   1.47424    0.000
 5832.00    1.48515   1.47646    0.000
 5833.00    1.45543   1.47307    0.000
 5834.00    1.42584   1.47012    0.000
 5835.00    1.42066   1.47227    0.000
 5836.00    1.41714   1.47055    0.000
 5837.00    1.47051   1.46519    0.000
 5838.00    1.52576   1.46502    0.000
 5839.00    1.58599   1.46469    0.000
 5840.00    1.64239   1.45948    0.000
 5841.00    1.57727   1.45622    0.000
 5842.00    1.51638   1.45478    0.000
 5843.00    1.51921   1.45082    0.000
 5844.00    1.51780   1.44625    0.000
 5845.00    1.47520   1.44227    0.000
 5846.00    1.43835   1.43756    0.000
 5847.00    1.44186   1.43377    0.000
 5848.00    1.45018   1.42964    0.000
 5849.00    1.48454   1.42369    0.000
 5850.00    1.50978   1.42060    0.000
 5851.00    1.49551   1.41785    0.000
 5852.00    1.48185   1.41184    0.000
 5853.00    1.47045   1.40946    0.000
 5854.00    1.46429   1.40914    0.000
 5855.00    1.47385   1.40399    0.000
 5856.00    1.48282   1.40054    0.000
 5857.00    1.49029   1.40299    0.000
 5858.00    1.48939   1.40160    0.000
 5859.00    1.47010   1.39774    0.000
 5860.00    1.45179   1.40106    0.000
 5861.00    1.43534   1.40280    0.000
 5862.00    1.43194   1.39932    0.000
 5863.00    1.45022   1.40231    0.000
 5864.00    1.47625   1.40638    0.000
 5865.00    1.51359   1.40246    0.000
 5866.00    1.52292   1.40191    0.000
 5867.00    1.49636   1.40738    0.000
 5868.00    1.46545   1.40501    0.000
 5869.00    1.42964   1.40008    0.000
 5870.00    1.39894   1.40306    0.000
 5871.00    1.37331   1.40133    0.000
 5872.00    1.37908   1.39173    0.000
 5873.00    1.41243   1.38996    0.000
 5874.00    1.43968   1.38904    0.000
 5875.00    1.46221   1.37687    0.000
 5876.00    1.49748   1.36840    0.000
 5877.00    1.54141   1.36528    0.000
 5878.00    1.52340   1.35149    0.000
 5879.00    1.46848   1.33716    0.000
 5880.00    1.44717   1.33247    0.000
 5881.00    1.44334   1.31825    0.000
 5882.00    1.47479   1.29770    0.000
 5883.00    1.52213   1.29294    0.000
 5884.00    1.48704   1.28437    0.000
 5885.00    1.41998   1.26320    0.000
 5886.00    1.34746   1.25762    0.000
 5887.00    1.27312   1.25403    0.000
 5888.00    1.24692   1.23227    0.000
 5889.00    1.23403   1.22475    0.000
 5890.00    1.23647   1.23432    0.000
 5891.00    1.24240   1.22348    0.000
 5892.00    1.20820   1.21263    0.000
 5893.00    1.16671   1.22880    0.000
 5894.00    1.15942   1.23232    0.000
 5895.00    1.15690   1.22170    0.000
 5896.00    1.21595   1.23792    0.000
 5897.00    1.28117   1.25425    0.000
 5898.00    1.31800   1.24737    0.000
 5899.00    1.35303   1.25696    0.000
 5900.00    1.37297   1.28217    0.000
 5901.00    1.39241   1.28667    0.011
 5902.00    1.39220   1.28905    0.011
 5903.00    1.39258   1.30985    0.011
 5904.00    1.40953   1.32102    0.011
 5905.00    1.42676   1.31988    0.011
 5906.00    1.44784   1.33221    0.011
 5907.00    1.46647   1.34663    0.011
 5908.00    1.46220   1.34741    0.011
 5909.00    1.45717   1.35187    0.011
 5910.00    1.44702   1.36319    0.011
 5911.00    1.43691   1.36673    0.011
 5912.00    1.42711   1.36721    0.011
 5913.00    1.41994   1.37265    0.011
 5914.00    1.42386   1.37661    0.011
 5915.00    1.41967   1.37642    0.011
 5916.00    1.38705   1.37868    0.011
 5917.00    1.36536   1.38236    0.011
 5918.00    1.37581   1.38307    0.011
 5919.00    1.38007   1.38385    0.011
 5920.00    1.36882   1.38605    0.011
 5921.00    1.34656   1.38701    0.011
 5922.00    1.30052   1.38661    0.011
 5923.00    1.27267   1.38740    0.011
 5924.00    1.27894   1.38942    0.011
 5925.00    1.30712   1.39013    0.011
 5926.00    1.37120   1.38881    0.011
 5927.00    1.41830   1.38947    0.011
 5928.00    1.44105   1.39229    0.011
 5929.00    1.45006   1.39082    0.011
 5930.00    1.44171   1.38931    0.011
 5931.00    1.41963   1.39281    0.011
 5932.00    1.38226   1.39335    0.011
 5933.00    1.33394   1.38917    0.011
 5934.00    1.27488   1.39005    0.011
 5935.00    1.23623   1.39454    0.011
 5936.00    1.21524   1.39191    0.011
 5937.00    1.24648   1.38875    0.011
 5938.00    1.31756   1.39281    0.011
 5939.00    1.37015   1.39401    0.011
 5940.00    1.41034   1.38927    0.011
 5941.00    1.42357   1.38873    0.011
 5942.00    1.42097   1.39271    0.011
 5943.00    1.40904   1.39183    0.011
 5944.00    1.39234   1.38760    0.011
 5945.00    1.38661   1.38856    0.011
 5946.00    1.38574   1.39229    0.011
 5947.00    1.40552   1.39039    0.011
 5948.00    1.43317   1.38680    0.011
 5949.00    1.42639   1.38981    0.011
 5950.00    1.40847   1.39217    0.011
 5951.00    1.38381   1.38807    0.011
 5952.00    1.35732   1.38812    0.011
 5953.00    1.37591   1.39431    0.011
 5954.00    1.40452   1.39428    0.011
 5955.00    1.41655   1.39066    0.011
 5956.00    1.42565   1.39521    0.011
 5957.00    1.42953   1.39883    0.011
 5958.00    1.43270   1.39537    0.011
 5959.00    1.45030   1.39748    0.011
 5960.00    1.46930   1.40320    0.011
 5961.00    1.47971   1.40226    0.011
 5962.00    1.48960   1.40132    0.011
 5963.00    1.44774   1.40592    0.011
 5964.00    1.40478   1.40702    0.011
 5965.00    1.39798   1.40464    0.011
 5966.00    1.39180   1.40686    0.011
 5967.00    1.40150   1.40811    0.011
 5968.00    1.41293   1.40506    0.011
 5969.00    1.44761   1.40496    0.011
 5970.00    1.47859   1.40637    0.011
 5971.00    1.47639   1.40439    0.011
 5972.00    1.46981   1.40229    0.011
 5973.00    1.43439   1.40225    0.011
 5974.00    1.40187   1.40108    0.011
 5975.00    1.38426   1.39784    0.011
 5976.00    1.36613   1.39486    0.011
 5977.00    1.34584   1.39427    0.011
 5978.00    1.32168   1.39422    0.011
 5979.00    1.28424   1.39152    0.011
 5980.00    1.25380   1.38917    0.011
 5981.00    1.24358   1.39043    0.011
 5982.00    1.24501   1.39021    0.011
 5983.00    1.27514   1.38557    0.011
 5984.00    1.30836   1.38528    0.011
 5985.00    1.34814   1.38870    0.011
 5986.00    1.36764   1.38613    0.011
 5987.00    1.34972   1.38336    0.011
 5988.00    1.34774   1.38687    0.011
 5989.00    1.37148   1.38804    0.011
 5990.00    1.40938   1.38380    0.011
 5991.00    1.46730   1.38370    0.011
 5992.00    1.48652   1.38723    0.011
 5993.00    1.45756   1.38479    0.011
 5994.00    1.42639   1.38115    0.011
 5995.00    1.39281   1.38319    0.011
 5996.00    1.37346   1.38444    0.011
 5997.00    1.36789   1.38057    0.011
 5998.00    1.33114   1.37817    0.011
 5999.00    1.26777   1.37964    0.011
 6000.00    1.24739   1.37739    0.011
 6001.00    1.25931   1.37286    0.011
 6002.00    1.28241   1.37348    0.011
 6003.00    1.31287   1.37519    0.011
 6004.00    1.31005   1.37111    0.011
 6005.00    1.28798   1.36671    0.011
 6006.00    1.29399   1.36856    0.011
 6007.00    1.31415   1.36849    0.011
 6008.00    1.33384   1.36334    0.011
 6009.00    1.35333   1.36321    0.011
 6010.00    1.36214   1.36713    0.011
 6011.00    1.36697   1.36444    0.011
 6012.00    1.37092   1.35969    0.011
 6013.00    1.37459   1.36401    0.011
 6014.00    1.36022   1.36757    0.011
 6015.00    1.34108   1.36261    0.011
 6016.00    1.34652   1.36228    0.011
 6017.00    1.35729   1.36991    0.011
 6018.00    1.35312   1.37059    0.011
 6019.00    1.34638   1.36657    0.011
 6020.00    1.32029   1.37287    0.011
 6021.00    1.29167   1.37984    0.011
 6022.00    1.31480   1.37697    0.011
 6023.00    1.34269   1.37760    0.011
 6024.00    1.37840   1.38713    0.011
 6025.00    1.41454   1.39058    0.010
 6026.00    1.43420   1.38811    0.010
 6027.00    1.45333   1.39401    0.010
 6028.00    1.45609   1.40161    0.011
 6029.00    1.45888   1.40138    0.011
 6030.00    1.46242   1.40229    0.011
 6031.00    1.46581   1.40897    0.010
 6032.00    1.46721   1.41282    0.011
 6033.00    1.46921   1.41210    0.011
 6034.00    1.47637   1.41452    0.011
 6035.00    1.48258   1.41955    0.011
 6036.00    1.48263   1.42095    0.011
 6037.00    1.48002   1.42045    0.011
 6038.00    1.46412   1.42270    0.011
 6039.00    1.44810   1.42573    0.011
 6040.00    1.43157   1.42539    0.011
 6041.00    1.41415   1.42400    0.011
 6042.00    1.39370   1.42633    0.011
 6043.00    1.37593   1.42789    0.011
 6044.00    1.36575   1.42543    0.011
 6045.00    1.36393   1.42491    0.011
 6046.00    1.38238   1.42686    0.011
 6047.00    1.40625   1.42554    0.011
 6048.00    1.44142   1.42222    0.011
 6049.00    1.46663   1.42280    0.011
 6050.00    1.47373   1.42261    0.011
 6051.00    1.47191   1.41942    0.011
 6052.00    1.45592   1.41890    0.011
 6053.00    1.42980   1.41917    0.010
 6054.00    1.38958   1.41693    0.011
 6055.00    1.36540   1.41505    0.011
 6056.00    1.36093   1.41532    0.011
 6057.00    1.37218   1.41311    0.011
 6058.00    1.40044   1.41165    0.011
 6059.00    1.43487   1.41376    0.011
 6060.00    1.47520   1.41270    0.011
 6061.00    1.48312   1.41089    0.011
 6062.00    1.46377   1.41287    0.011
 6063.00    1.43296   1.41357    0.011
 6064.00    1.39368   1.41044    0.011
 6065.00    1.37265   1.41159    0.011
 6066.00    1.36351   1.41492    0.011
 6067.00    1.35937   1.41208    0.011
 6068.00    1.35810   1.41122    0.011
 6069.00    1.37096   1.41487    0.011
 6070.00    1.39084   1.41307    0.011
 6071.00    1.41369   1.40897    0.011
 6072.00    1.43783   1.41143    0.011
 6073.00    1.41412   1.41180    0.011
 6074.00    1.37281   1.40532    0.010
 6075.00    1.35470   1.40481    0.010
 6076.00    1.34382   1.40774    0.010
 6077.00    1.33731   1.40188    0.010
 6078.00    1.33194   1.39623    0.010
 6079.00    1.33073   1.39943    0.010
 6080.00    1.33040   1.39810    0.010
 6081.00    1.33310   1.38941    0.018
 6082.00    1.33631   1.38868    0.182
 6083.00    1.34884   1.39224   -1.000
 6084.00    1.36256   1.38656   -1.000
 6085.00    1.36887   1.38063   -1.000
 6086.00    1.37454   1.38413   -1.000
 6087.00    1.39866   1.38454   -1.000
 6088.00    1.42374   1.37742   -1.000
 6089.00    1.43736   1.37669   -1.000
 6090.00    1.45005   1.38061   -1.000
 6091.00    1.41045   1.37744   -1.000
 6092.00    1.37110   1.37357    0.456
 6093.00    1.33701   1.37644    0.020
 6094.00    1.30539   1.37677    0.010
 6095.00    1.30350   1.37244    0.011
 6096.00    1.30210   1.37336    0.011
 6097.00    1.30464   1.37552    0.011
 6098.00    1.30993   1.37304    0.011
 6099.00    1.33223   1.37270    0.011
 6100.00    1.35100   1.37494    0.011
 6101.00    1.35256   1.37378    0.011
 6102.00    1.34984   1.37228    0.011
 6103.00    1.33019   1.37438    0.011
 6104.00    1.30958   1.37446    0.010
 6105.00    1.28582   1.37341    0.010
 6106.00    1.27594   1.37506    0.010
 6107.00    1.30468   1.37486    0.010
 6108.00    1.33526   1.37376    0.010
 6109.00    1.37023   1.37520    0.010
 6110.00    1.39531   1.37460    0.010
 6111.00    1.40003   1.37191    0.010
 6112.00    1.40081   1.37343    0.010
 6113.00    1.39454   1.37433    0.010
 6114.00    1.39276   1.36911    0.010
 6115.00    1.39801   1.36806    0.010
 6116.00    1.39912   1.37141    0.010
 6117.00    1.39455   1.36700    0.010
 6118.00    1.38836   1.36179    0.010
 6119.00    1.38023   1.36502    0.010
 6120.00    1.38095   1.36488    0.010
 6121.00    1.39112   1.35681    0.010
 6122.00    1.37690   1.35548    0.010
 6123.00    1.33976   1.35946    0.010
 6124.00    1.30322   1.35468    0.010
 6125.00    1.26719   1.34918    0.010
 6126.00    1.26310   1.35197    0.010
 6127.00    1.28233   1.35258    0.011
 6128.00    1.32507   1.34649    0.011
 6129.00    1.38288   1.34338    0.011
 6130.00    1.40664   1.34611    0.011
 6131.00    1.41131   1.34579    0.010
 6132.00    1.39161   1.34171    0.010
 6133.00    1.36002   1.34106    0.010
 6134.00    1.35194   1.34390    0.010
 6135.00    1.35377   1.34354    0.011
 6136.00    1.35482   1.33866    0.011
 6137.00    1.35560   1.33904    0.011
 6138.00    1.34529   1.34426    0.011
 6139.00    1.33161   1.34314    0.011
 6140.00    1.33442   1.33949    0.011
 6141.00    1.34141   1.34282    0.011
 6142.00    1.36653   1.34582    0.010
 6143.00    1.39540   1.34079    0.010
 6144.00    1.40127   1.33928    0.010
 6145.00    1.40341   1.34422    0.010
 6146.00    1.38065   1.34207    0.010
 6147.00    1.35487   1.33640    0.010
 6148.00    1.33609   1.33776    0.010
 6149.00    1.31790   1.33693    0.010
 6150.00    1.31168   1.32855    0.010
 6151.00    1.30605   1.32571    0.010
 6152.00    1.30319   1.32787    0.010
 6153.00    1.30046   1.32030    0.010
 6154.00    1.30244   1.31069    0.010
 6155.00    1.30553   1.31164    0.010
 6156.00    1.33060   1.30934    0.011
 6157.00    1.35059   1.29677    0.011
 6158.00    1.31198   1.29200    0.011
 6159.00    1.27725   1.29741    0.011
 6160.00    1.27345   1.29165    0.011
 6161.00    1.27419   1.27850    0.011
 6162.00    1.30221   1.28058    0.010
 6163.00    1.32790   1.28703    0.010
 6164.00    1.34251   1.27788    0.010
 6165.00    1.34893   1.27050    0.010
 6166.00    1.32363   1.28180    0.010
 6167.00    1.29818   1.28679    0.010
 6168.00    1.27229   1.27465    0.010
 6169.00    1.25725   1.27557    0.010
 6170.00    1.27184   1.29089    0.010
 6171.00    1.28379   1.28990    0.010
 6172.00    1.28958   1.28052    0.010
 6173.00    1.30217   1.29129    0.010
 6174.00    1.32854   1.30312    0.010
 6175.00    1.34207   1.29447    0.010
 6176.00    1.33295   1.29139    0.010
 6177.00    1.32443   1.30570    0.010
 6178.00    1.31682   1.30893    0.010
 6179.00    1.31176   1.29843    0.010
 6180.00    1.31016   1.30245    0.010
 6181.00    1.30909   1.31328    0.010
 6182.00    1.30866   1.30814    0.010
 6183.00    1.30155   1.30089    0.010
 6184.00    1.28742   1.30842    0.010
 6185.00    1.28289   1.31349    0.010
 6186.00    1.28729   1.30475    0.011
 6187.00    1.29427   1.30210    0.011
 6188.00    1.30335   1.31013    0.011
 6189.00    1.30993   1.31070    0.011
 6190.00    1.31472   1.30341    0.011
 6191.00    1.29842   1.30472    0.010
 6192.00    1.26880   1.31143    0.010
 6193.00    1.24824   1.30909    0.010
 6194.00    1.23269   1.30449    0.010
 6195.00    1.20238   1.30835    0.010
 6196.00    1.16499   1.31305   -2.000
 6197.00    1.25055   1.31018   -2.000
 6198.00    1.38708   1.30763   -2.000
 6199.00    1.49162   1.31120   -2.000
 6200.00    1.58482   1.31295   -2.000
 6201.00    1.54895   1.30946   -2.000
 6202.00    1.47445   1.30790   -2.000
 6203.00    1.34140   1.30997   -2.000
 6204.00    1.19380   1.30885   -2.000
 6205.00    1.21771   1.30440   -2.000
 6206.00    1.27616   1.30275   -2.000
 6207.00    1.34514   1.30230   -2.000
 6208.00    1.41579   1.29810    0.011
 6209.00    1.39950   1.29411    0.011
 6210.00    1.37302   1.29290    0.011
 6211.00    1.36147   1.28948    0.011
 6212.00    1.35110   1.28407    0.011
 6213.00    1.31927   1.28201    0.010
 6214.00    1.28649   1.27981    0.010
 6215.00    1.27850   1.27423    0.010
 6216.00    1.27066   1.27188    0.010
 6217.00    1.25628   1.27214    0.010
 6218.00    1.24254   1.26748    0.010
 6219.00    1.24061   1.26223    0.010
 6220.00    1.24018   1.26340    0.010
 6221.00    1.25642   1.26267    0.010
 6222.00    1.26956   1.25772    0.010
 6223.00    1.25884   1.25765    0.010
 6224.00    1.25388   1.25976    0.010
 6225.00    1.28259   1.25574    0.010
 6226.00    1.30865   1.25227    0.010
 6227.00    1.32243   1.25500    0.010
 6228.00    1.32911   1.25451    0.011
 6229.00    1.30882   1.25163    0.010
 6230.00    1.28706   1.25260    0.010
 6231.00    1.26063   1.25286    0.010
 6232.00    1.24309   1.24970    0.010
 6233.00    1.24938   1.24963    0.010
 6234.00    1.24393   1.25079    0.010
 6235.00    1.21142   1.24775    0.010
 6236.00    1.18580   1.24740    0.010
 6237.00    1.17389   1.24906    0.010
 6238.00    1.18261   1.24553    0.010
 6239.00    1.22713   1.24238    0.010
 6240.00    1.26554   1.24511    0.010
 6241.00    1.29465   1.24445    0.010
 6242.00    1.31353   1.23889    0.010
 6243.00    1.31877   1.23995    0.010
 6244.00    1.32284   1.24233    0.010
 6245.00    1.32552   1.23703    0.010
 6246.00    1.31816   1.23314    0.010
 6247.00    1.30039   1.23684    0.010
 6248.00    1.27853   1.23759    0.010
 6249.00    1.25293   1.23196    0.010
 6250.00    1.23202   1.23227    0.010
 6251.00    1.21489   1.23649    0.010
 6252.00    1.21331   1.23424    0.010
 6253.00    1.22277   1.22970    0.010
 6254.00    1.24094   1.23353    0.010
 6255.00    1.26455   1.23958    0.010
 6256.00    1.26390   1.23691    0.010
 6257.00    1.25006   1.23491    0.010
 6258.00    1.24767   1.24137    0.011
 6259.00    1.25069   1.24608    0.011
 6260.00    1.30871   1.24266    0.012
 6261.00    1.38915   1.24508    0.012
 6262.00    1.44832   1.25482    0.013
 6263.00    1.50008   1.25672    0.013
 6264.00    1.46630   1.25326    0.013
 6265.00    1.40743   1.25851    0.013
 6266.00    1.33080   1.26711    0.012
 6267.00    1.24987   1.26654    0.011
 6268.00    1.23668   1.26605    0.011
 6269.00    1.23680   1.27288    0.010
 6270.00    1.24145   1.27718    0.010
 6271.00    1.24679   1.27528    0.010
 6272.00    1.25259   1.27735    0.010
 6273.00    1.25845   1.28281    0.010
 6274.00    1.26806   1.28416    0.010
 6275.00    1.27795   1.28350    0.010
 6276.00    1.27025   1.28602    0.010
 6277.00    1.26184   1.28902    0.010
 6278.00    1.24365   1.28915    0.010
 6279.00    1.22543   1.28977    0.010
 6280.00    1.20843   1.29111    0.000
 6281.00    1.19432   1.29186    0.000
 6282.00    1.22933   1.29231    0.000
 6283.00    1.26263   1.29384    0.000
 6284.00    1.27797   1.29400    0.000
 6285.00    1.29179   1.29268    0.000
 6286.00    1.29419   1.29279    0.000
 6287.00    1.29869   1.29374    0.000
 6288.00    1.31513   1.29285    0.000
 6289.00    1.32815   1.29102    0.000
 6290.00    1.32575   1.29180    0.000
 6291.00    1.32784   1.29161    0.000
 6292.00    1.34659   1.28842    0.000
 6293.00    1.36520   1.28669    0.000
 6294.00    1.38340   1.28847    0.000
 6295.00    1.39074   1.28820    0.000
 6296.00    1.36948   1.28407    0.000
 6297.00    1.34526   1.28313    0.000
 6298.00    1.31437   1.28501    0.000
 6299.00    1.28559   1.28317    0.000
 6300.00    1.26096   1.28031    0.000
 6301.00    1.24892   1.28216    0.000
 6302.00    1.25840   1.28320    0.000
 6303.00    1.27877   1.27949    0.000
 6304.00    1.31545   1.27925    0.000
 6305.00    1.33937   1.28243    0.000
 6306.00    1.34651   1.28020    0.000
 6307.00    1.33310   1.27731    0.000
 6308.00    1.29586   1.28117    0.000
 6309.00    1.27442   1.28245    0.000
 6310.00    1.26914   1.27705    0.000
 6311.00    1.26403   1.27810    0.000
 6312.00    1.25908   1.28401    0.000
 6313.00    1.23888   1.28066    0.000
 6314.00    1.20658   1.27621    0.000
 6315.00    1.19277   1.28225    0.000
 6316.00    1.19189   1.28626    0.000
 6317.00    1.20704   1.28011    0.000
 6318.00    1.23201   1.27952    0.000
 6319.00    1.24244   1.28742    0.000
 6320.00    1.24509   1.28770    0.000
 6321.00    1.24499   1.28345    0.010
 6322.00    1.24360   1.28683    0.010
 6323.00    1.25043   1.29147    0.010
 6324.00    1.26055   1.28909    0.010
 6325.00    1.26996   1.28831    0.010
 6326.00    1.27912   1.29215    0.010
 6327.00    1.27213   1.29302    0.010
 6328.00    1.26049   1.29251    0.010
 6329.00    1.26065   1.29411    0.010
 6330.00    1.26360   1.29366    0.010
 6331.00    1.27790   1.29134    0.010
 6332.00    1.29436   1.29325    0.010
 6333.00    1.29894   1.29551    0.010
 6334.00    1.30176   1.29213    0.010
 6335.00    1.30151   1.29053    0.010
 6336.00    1.30093   1.29408    0.010
 6337.00    1.28626   1.29420    0.010
 6338.00    1.27059   1.28891    0.010
 6339.00    1.24988   1.28843    0.010
 6340.00    1.22898   1.29362    0.010
 6341.00    1.22375   1.29191    0.010
 6342.00    1.21890   1.28518    0.010
 6343.00    1.22548   1.28590    0.010
 6344.00    1.23338   1.29122    0.010
 6345.00    1.26245   1.28804    0.010
 6346.00    1.28828   1.28137    0.010
 6347.00    1.28153   1.28380    0.010
 6348.00    1.27434   1.28771    0.010
 6349.00    1.26404   1.28130    0.010
 6350.00    1.25504   1.27420    0.010
 6351.00    1.25318   1.27875    0.010
 6352.00    1.24690   1.28221    0.010
 6353.00    1.22099   1.27392    0.010
 6354.00    1.19507   1.26897    0.010
 6355.00    1.16909   1.27488    0.010
 6356.00    1.15017   1.27601    0.010
 6357.00    1.15276   1.26798    0.010
 6358.00    1.16139   1.26708    0.010
 6359.00    1.18572   1.27411    0.010
 6360.00    1.19763   1.27376    0.010
 6361.00    1.18185   1.26822    0.010
 6362.00    1.17148   1.27127    0.010
 6363.00    1.17156   1.27897    0.010
 6364.00    1.18555   1.27857    0.010
 6365.00    1.22297   1.27574    0.010
 6366.00    1.24965   1.28058    0.010
 6367.00    1.26047   1.28769    0.010
 6368.00    1.27161   1.28822    0.010
 6369.00    1.28313   1.28720    0.010
 6370.00    1.29634   1.29238    0.010
 6371.00    1.31148   1.29856    0.010
 6372.00    1.30496   1.29872    0.010
 6373.00    1.27661   1.29767    0.010
 6374.00    1.25565   1.30282    0.010
 6375.00    1.24125   1.30738    0.010
 6376.00    1.25162   1.30497    0.010
 6377.00    1.28138   1.30371    0.010
 6378.00    1.28426   1.30904    0.010
 6379.00    1.26861   1.31133    0.010
 6380.00    1.24552   1.30663    0.010
 6381.00    1.21793   1.30602    0.010
 6382.00    1.23065   1.31118    0.010
 6383.00    1.26463   1.31023    0.010
 6384.00    1.29015   1.30345    0.010
 6385.00    1.31179   1.30500    0.010
 6386.00    1.29934   1.31070    0.010
 6387.00    1.27346   1.30587    0.010
 6388.00    1.26431   1.29793    0.010
 6389.00    1.26076   1.30243    0.010
 6390.00    1.28571   1.30761    0.010
 6391.00    1.31868   1.29949    0.010
 6392.00    1.35584   1.29474    0.010
 6393.00    1.39397   1.30339    0.011
 6394.00    1.39157   1.30409    0.011
 6395.00    1.38162   1.29107    0.011
 6396.00    1.38174   1.29202    0.020
 6397.00    1.38331   1.30490    0.233
 6398.00    1.36763   1.30067   -1.000
 6399.00    1.35016   1.28766   -1.000
 6400.00    1.34109   1.29382   -1.000
 6401.00    1.33259   1.30443   -1.000
 6402.00    1.33932   1.29528   -1.000
 6403.00    1.34654   1.28791   -1.000
 6404.00    1.32513   1.29938   -1.000
 6405.00    1.30318   1.30326   -1.000
 6406.00    1.26495   1.28986   -1.000
 6407.00    1.22929   1.28931    0.313
 6408.00    1.23228   1.30192    0.018
 6409.00    1.23651   1.30011    0.010
 6410.00    1.25278   1.29060    0.010
 6411.00    1.26523   1.29481    0.010
 6412.00    1.25109   1.30188    0.010
 6413.00    1.23891   1.29700    0.010
 6414.00    1.23733   1.29259    0.010
 6415.00    1.23893   1.29763    0.010
 6416.00    1.25427   1.29999    0.010
 6417.00    1.26430   1.29648    0.010
 6418.00    1.25545   1.29737    0.010
 6419.00    1.24496   1.30036    0.010
 6420.00    1.22954   1.29994    0.010
 6421.00    1.22212   1.29954    0.010
 6422.00    1.23506   1.30071    0.010
 6423.00    1.25501   1.30124    0.010
 6424.00    1.29033   1.30309    0.010
 6425.00    1.31233   1.30365    0.010
 6426.00    1.30906   1.30053    0.010
 6427.00    1.29765   1.30112    0.010
 6428.00    1.27277   1.30645    0.010
 6429.00    1.26485   1.30665    0.010
 6430.00    1.28159   1.30212    0.010
 6431.00    1.29901   1.30510    0.010
 6432.00    1.31730   1.31062    0.010
 6433.00    1.32646   1.30569    0.010
 6434.00    1.32534   1.30065    0.010
 6435.00    1.30143   1.30810    0.010
 6436.00    1.25488   1.31217    0.010
 6437.00    1.23309   1.30411    0.010
 6438.00    1.23302   1.30251    0.010
 6439.00    1.23662   1.31035    0.010
 6440.00    1.24307   1.30959    0.010
 6441.00    1.22684   1.30207    0.010
 6442.00    1.19522   1.30515    0.010
 6443.00    1.18141   1.31161    0.010
 6444.00    1.17819   1.30542    0.010
 6445.00    1.19566   1.29781    0.010
 6446.00    1.22387   1.30302    0.010
 6447.00    1.25112   1.30754    0.010
 6448.00    1.27792   1.30331    0.010
 6449.00    1.28276   1.30072    0.010
 6450.00    1.27910   1.30236    0.010
 6451.00    1.25633   1.30204    0.010
 6452.00    1.22727   1.30108    0.010
 6453.00    1.23003   1.30201    0.010
 6454.00    1.24155   1.30218    0.010
 6455.00    1.24974   1.30180    0.010
 6456.00    1.25717   1.30184    0.010
 6457.00    1.25699   1.30060    0.010
 6458.00    1.25544   1.29947    0.010
 6459.00    1.26739   1.30368    0.010
 6460.00    1.28121   1.30614    0.010
 6461.00    1.27714   1.30245    0.010
 6462.00    1.27128   1.30047    0.010
 6463.00    1.25478   1.30509    0.010
 6464.00    1.23761   1.30716    0.010
 6465.00    1.25705   1.30359    0.010
 6466.00    1.27747   1.30190    0.010
 6467.00    1.27911   1.30486    0.010
 6468.00    1.28034   1.30630    0.010
 6469.00    1.27005   1.30219    0.010
 6470.00    1.26041   1.30006    0.010
 6471.00    1.25971   1.30285    0.010
 6472.00    1.25785   1.30428    0.010
 6473.00    1.24525   1.29852    0.010
 6474.00    1.23369   1.29469    0.010
 6475.00    1.22925   1.29798    0.010
 6476.00    1.22433   1.29782    0.010
 6477.00    1.21692   1.28883    0.010
 6478.00    1.21087   1.28401    0.010
 6479.00    1.21057   1.28810    0.010
 6480.00    1.21770   1.28610    0.010
 6481.00    1.25075   1.27573    0.010
 6482.00    1.27617   1.27166    0.010
 6483.00    1.27926   1.27459    0.010
 6484.00    1.27695   1.26996    0.010
 6485.00    1.26114   1.25935    0.010
 6486.00    1.26209   1.25662    0.010
 6487.00    1.29916   1.25886    0.010
 6488.00    1.31979   1.25300    0.010
 6489.00    1.30969   1.24302    0.010
 6490.00    1.28376   1.24149    0.010
 6491.00    1.23200   1.24416    0.010
 6492.00    1.18774   1.24011    0.010
 6493.00    1.15422   1.23484    0.010
 6494.00    1.14284   1.23538    0.010
 6495.00    1.15938   1.23788    0.010
 6496.00    1.17692   1.23600    0.010
 6497.00    1.19555   1.23485    0.010
 6498.00    1.19851   1.23868    0.010
 6499.00    1.18610   1.24132    0.010
 6500.00    1.17369   1.24106    0.010
 6501.00    1.16129   1.24344    0.010
 6502.00    1.16027   1.24863    0.010
 6503.00    1.16790   1.25094    0.010
 6504.00    1.19086   1.25346    0.010
 6505.00    1.22406   1.25790    0.010
 6506.00    1.23474   1.26136    0.010
 6507.00    1.23221   1.26298    0.010
 6508.00    1.23018   1.26739    0.010
 6509.00    1.22840   1.27172    0.010
 6510.00    1.21689   1.27169    0.010
 6511.00    1.20106   1.27284    0.010
 6512.00    1.17192   1.27829    0.010
 6513.00    1.13771   1.28020    0.010
 6514.00    1.14296   1.27751    0.010
 6515.00    1.16093   1.28005    0.010
 6516.00    1.20123   1.28558    0.010
 6517.00    1.24755   1.28461    0.010
 6518.00    1.25690   1.28107    0.010
 6519.00    1.25807   1.28487    0.010
 6520.00    1.25863   1.28937    0.010
 6521.00    1.25908   1.28612    0.010
 6522.00    1.26677   1.28323    0.010
 6523.00    1.27543   1.28769    0.010
 6524.00    1.27834   1.29001    0.010
 6525.00    1.28070   1.28628    0.010
 6526.00    1.27573   1.28581    0.010
 6527.00    1.27032   1.28958    0.010
 6528.00    1.25332   1.28893    0.000
 6529.00    1.23624   1.28511    0.000
 6530.00    1.24933   1.28641    0.000
 6531.00    1.26187   1.28961    0.000
 6532.00    1.26037   1.28688    0.000
 6533.00    1.25903   1.28247    0.000
 6534.00    1.25968   1.28336    0.000
 6535.00    1.26187   1.28511    0.000
 6536.00    1.27774   1.28188    0.000
 6537.00    1.29266   1.27718    0.000
 6538.00    1.30135   1.27573    0.000
 6539.00    1.30895   1.27507    0.000
 6540.00    1.31099   1.27197    0.000
 6541.00    1.30647   1.26681    0.000
 6542.00    1.27486   1.26203    0.000
 6543.00    1.25028   1.25898    0.000
 6544.00    1.24971   1.25664    0.000
 6545.00    1.25957   1.25085    0.000
 6546.00    1.29950   1.24233    0.000
 6547.00    1.32694   1.23845    0.000
 6548.00    1.32372   1.23718    0.000
 6549.00    1.30305   1.22834    0.000
 6550.00    1.24540   1.21650    0.000
 6551.00    1.20089   1.21559    0.000
 6552.00    1.18062   1.21648    0.000
 6553.00    1.17713   1.20273    0.000
 6554.00    1.20066   1.18915    0.000
 6555.00    1.21876   1.19541    0.000
 6556.00    1.22919   1.19909    0.000
 6557.00    1.25556   1.17994    0.000
 6558.00    1.30173   1.16772    0.000
 6559.00    1.36332   1.18169    0.000
 6560.00    1.44181   1.18598    0.000
 6561.00    1.49787   1.16819    0.000
 6562.00    1.53225   1.16525    0.000
 6563.00    1.51424   1.18156    0.000
 6564.00    1.45158   1.18089    0.000
 6565.00    1.36542   1.16775    0.000
 6566.00    1.26164   1.17526    0.000
 6567.00    1.20346   1.19174    0.000
 6568.00    1.17535   1.18757    0.000
 6569.00    1.16018   1.17964    0.000
 6570.00    1.15248   1.19276    0.000
 6571.00    1.15669   1.20692    0.000
 6572.00    1.16688   1.20273    0.000
 6573.00    1.17969   1.20045    0.000
 6574.00    1.19364   1.21339    0.000
 6575.00    1.20959   1.22198    0.000
 6576.00    1.22630   1.21868    0.000
 6577.00    1.26974   1.22043    0.000
 6578.00    1.32165   1.23071    0.000
 6579.00    1.38010   1.23461    0.000
 6580.00    1.44028   1.23124    0.000
 6581.00    1.47025   1.23343    0.000
 6582.00    1.49369   1.24169    0.000
 6583.00    1.49590   1.24302    0.000
 6584.00    1.49447   1.23820    0.000
 6585.00    1.42894   1.24019    0.000
 6586.00    1.35508   1.24746    0.000
 6587.00    1.30288   1.24658    0.000
 6588.00    1.25265   1.24048    0.000
 6589.00    1.24247   1.24237    0.000
 6590.00    1.23449   1.24861    0.000
 6591.00    1.22442   1.24704    0.000
 6592.00    1.21450   1.24176    0.000
 6593.00    1.22272   1.24358    0.000
 6594.00    1.23087   1.24810    0.000
 6595.00    1.23740   1.24634    0.000
 6596.00    1.24256   1.24242    0.000
 6597.00    1.23023   1.24487    0.000
 6598.00    1.21693   1.24889    0.000
 6599.00    1.19524   1.24674    0.000
 6600.00    1.17524   1.24287    0.000
 6601.00    1.16597   1.24590    0.000
 6602.00    1.16164   1.25118    0.000
 6603.00    1.18198   1.24949    0.000
 6604.00    1.20022   1.24449    0.000
 6605.00    1.21000   1.24713    0.000
 6606.00    1.21821   1.25421    0.000
 6607.00    1.22113   1.25351    0.000
 6608.00    1.22173   1.24795    0.000
 6609.00    1.21571   1.24996    0.010
 6610.00    1.21406   1.25672    0.010
 6611.00    1.22299   1.25538    0.010
 6612.00    1.22011   1.25054    0.010
 6613.00    1.19263   1.25365    0.010
 6614.00    1.17403   1.25864    0.010
 6615.00    1.17157   1.25483    0.010
 6616.00    1.17672   1.25062    0.010
 6617.00    1.19391   1.25518    0.010
 6618.00    1.19455   1.25842    0.010
 6619.00    1.17213   1.25250    0.010
 6620.00    1.16431   1.24849    0.010
 6621.00    1.17439   1.25307    0.010
 6622.00    1.18900   1.25480    0.010
 6623.00    1.20850   1.24871    0.010
 6624.00    1.21656   1.24532    0.010
 6625.00    1.21372   1.24824    0.010
 6626.00    1.21414   1.24822    0.010
 6627.00    1.21729   1.24320    0.010
 6628.00    1.20970   1.24177    0.010
 6629.00    1.19415   1.24366    0.010
 6630.00    1.17909   1.24145    0.010
 6631.00    1.16436   1.23728    0.010
 6632.00    1.16569   1.23896    0.010
 6633.00    1.17615   1.24117    0.010
 6634.00    1.18875   1.23657    0.010
 6635.00    1.20240   1.23270    0.010
 6636.00    1.19936   1.23712    0.010
 6637.00    1.18917   1.23977    0.009
 6638.00    1.19191   1.23411    0.010
 6639.00    1.19939   1.23141    0.010
 6640.00    1.21064   1.23676    0.010
 6641.00    1.22308   1.23850    0.010
 6642.00    1.22447   1.23294    0.010
 6643.00    1.22300   1.23187    0.010
 6644.00    1.21310   1.23688    0.010
 6645.00    1.20141   1.23687    0.010
 6646.00    1.18737   1.23190    0.010
 6647.00    1.17292   1.23242    0.010
 6648.00    1.19721   1.23667    0.010
 6649.00    1.22636   1.23490    0.010
 6650.00    1.21710   1.22994    0.010
 6651.00    1.20450   1.23101    0.010
 6652.00    1.17617   1.23473    0.010
 6653.00    1.14703   1.23227    0.009
 6654.00    1.14529   1.22690    0.010
 6655.00    1.14383   1.22768    0.010
 6656.00    1.12788   1.23137    0.010
 6657.00    1.11234   1.22902    0.009
 6658.00    1.10545   1.22360    0.009
 6659.00    1.10142   1.22424    0.009
 6660.00    1.13190   1.22755    0.010
 6661.00    1.16170   1.22506    0.010
 6662.00    1.18580   1.22081    0.010
 6663.00    1.20605   1.22238    0.010
 6664.00    1.20254   1.22441    0.010
 6665.00    1.19792   1.22085    0.010
 6666.00    1.18788   1.21898    0.010
 6667.00    1.17645   1.22259    0.010
 6668.00    1.15953   1.22243    0.010
 6669.00    1.14424   1.21695    0.010
 6670.00    1.13428   1.21804    0.010
 6671.00    1.12300   1.22359    0.010
 6672.00    1.10807   1.22121    0.010
 6673.00    1.10418   1.21540    0.010
 6674.00    1.12655   1.21877    0.010
 6675.00    1.14085   1.22386    0.010
 6676.00    1.13857   1.22006    0.010
 6677.00    1.13732   1.21643    0.010
 6678.00    1.13794   1.22088    0.010
 6679.00    1.15503   1.22323    0.010
 6680.00    1.19785   1.21906    0.010
 6681.00    1.22504   1.21848    0.010
 6682.00    1.23081   1.22291    0.010
 6683.00    1.21902   1.22227    0.010
 6684.00    1.18604   1.21843    0.010
 6685.00    1.16798   1.22023    0.010
 6686.00    1.16580   1.22350    0.010
 6687.00    1.19184   1.22065    0.010
 6688.00    1.24437   1.21783    0.010
 6689.00    1.25010   1.22041    0.010
 6690.00    1.21707   1.22163    0.010
 6691.00    1.17037   1.21855    0.010
 6692.00    1.11371   1.21744    0.010
 6693.00    1.09967   1.21917    0.010
 6694.00    1.11289   1.21797    0.010
 6695.00    1.13962   1.21526    0.010
 6696.00    1.17389   1.21534    0.000
 6697.00    1.17104   1.21581    0.000
 6698.00    1.15010   1.21344    0.000
 6699.00    1.15414   1.21169    0.000
 6700.00    1.16867   1.21174    0.000
 6701.00    1.18072   1.21048    0.000
 6702.00    1.19189   1.20840    0.000
 6703.00    1.17213   1.20781    0.000
 6704.00    1.14296   1.20661    0.000
 6705.00    1.11704   1.20411    0.000
 6706.00    1.09195   1.20356    0.000
 6707.00    1.09895   1.20369    0.000
 6708.00    1.11254   1.20062    0.000
 6709.00    1.15474   1.19752    0.000
 6710.00    1.20156   1.19952    0.000
 6711.00    1.24650   1.20041    0.000
 6712.00    1.29120   1.19594    0.000
 6713.00    1.33619   1.19304    0.000
 6714.00    1.38122   1.19686    0.000
 6715.00    1.39862   1.19812    0.000
 6716.00    1.41471   1.19327    0.000
 6717.00    1.37345   1.19149    0.000
 6718.00    1.33066   1.19636    0.000
 6719.00    1.24678   1.19749    0.000
 6720.00    1.16520   1.19299    0.000
 6721.00    1.12825   1.19272    0.000
 6722.00    1.09633   1.19767    0.000
 6723.00    1.12211   1.19836    0.000
 6724.00    1.15050   1.19456    0.000
 6725.00    1.19971   1.19493    0.000
 6726.00    1.24136   1.19881    0.000
 6727.00    1.23766   1.19936    0.000
 6728.00    1.23426   1.19665    0.000
 6729.00    1.23227   1.19644    0.000
 6730.00    1.22570   1.19842    0.000
 6731.00    1.20144   1.19916    0.000
 6732.00    1.17804   1.19754    0.000
 6733.00    1.15737   1.19602    0.000
 6734.00    1.13849   1.19644    0.000
 6735.00    1.12449   1.19766    0.000
 6736.00    1.10899   1.19652    0.000
 6737.00    1.08996   1.19370    0.000
 6738.00    1.08007   1.19374    0.000
 6739.00    1.08865   1.19552    0.000
 6740.00    1.09575   1.19415    0.000
 6741.00    1.10025   1.19100    0.000
 6742.00    1.09749   1.19174    0.000
 6743.00    1.08356   1.19394    0.000
 6744.00    1.08342   1.19223    0.000
 6745.00    1.10193   1.18986    0.000
 6746.00    1.10324   1.19154    0.000
 6747.00    1.08406   1.19380    0.000
 6748.00    1.08015   1.19234    0.000
 6749.00    1.09229   1.19107    0.000
 6750.00    1.10890   1.19317    0.000
 6751.00    1.12965   1.19533    0.000
 6752.00    1.15643   1.19475    0.000
 6753.00    1.18814   1.19433    0.010
 6754.00    1.21297   1.19577    0.011
 6755.00    1.23286   1.19759    0.011
 6756.00    1.18885   1.19847    0.011
 6757.00    1.10456   1.19846    0.011
 6758.00    1.06619   1.19843    0.011
 6759.00    1.05314   1.19974    0.011
 6760.00    1.10685   1.20188    0.011
 6761.00    1.19256   1.20180    0.012
 6762.00    1.24396   1.20049    0.012
 6763.00    1.28115   1.20162    0.012
 6764.00    1.30372   1.20412    0.012
 6765.00    1.32111   1.20341    0.012
 6766.00    1.32247   1.20165    0.011
 6767.00    1.31904   1.20301    0.011
 6768.00    1.29757   1.20512    0.011
 6769.00    1.27163   1.20353    0.011
 6770.00    1.27755   1.20183    0.011
 6771.00    1.28988   1.20349    0.011
 6772.00    1.25643   1.20473    0.011
 6773.00    1.21578   1.20247    0.011
 6774.00    1.20401   1.20122    0.011
 6775.00    1.19560   1.20296    0.010
 6776.00    1.17908   1.20306    0.010
 6777.00    1.16192   1.20042    0.010
 6778.00    1.15628   1.19983    0.011
 6779.00    1.15114   1.20140    0.011
 6780.00    1.12066   1.20046    0.011
 6781.00    1.09075   1.19786    0.011
 6782.00    1.09994   1.19786    0.011
 6783.00    1.10883   1.19900    0.011
 6784.00    1.11214   1.19765    0.011
 6785.00    1.11646   1.19567    0.010
 6786.00    1.13187   1.19605    0.011
 6787.00    1.14775   1.19673    0.011
 6788.00    1.16713   1.19561    0.011
 6789.00    1.18792   1.19453    0.011
 6790.00    1.21687   1.19494    0.011
 6791.00    1.23531   1.19534    0.011
 6792.00    1.20513   1.19496    0.011
 6793.00    1.18110   1.19449    0.011
 6794.00    1.18031   1.19449    0.011
 6795.00    1.17416   1.19518    0.011
 6796.00    1.15103   1.19574    0.010
 6797.00    1.14248   1.19512    0.010
 6798.00    1.17299   1.19452    0.010
 6799.00    1.19750   1.19578    0.010
 6800.00    1.20826   1.19722    0.011
 6801.00    1.20960   1.19611    0.011
 6802.00    1.19222   1.19480    0.011
 6803.00    1.18508   1.19662    0.011
 6804.00    1.19568   1.19868    0.011
 6805.00    1.17720   1.19716    0.011
 6806.00    1.11460   1.19553    0.010
 6807.00    1.07167   1.19752    0.010
 6808.00    1.05494   1.19966    0.010
 6809.00    1.07578   1.19819    0.010
 6810.00    1.14071   1.19675    0.010
 6811.00    1.20436   1.19843    0.010
 6812.00    1.26666   1.20028    0.011
 6813.00    1.30134   1.19939    0.011
 6814.00    1.31078   1.19841    0.011
 6815.00    1.30340   1.19917    0.011
 6816.00    1.28247   1.20045    0.011
 6817.00    1.24336   1.20055    0.011
 6818.00    1.19137   1.20000    0.011
 6819.00    1.15811   1.19954    0.010
 6820.00    1.13648   1.20010    0.010
 6821.00    1.14839   1.20104    0.010
 6822.00    1.17851   1.20058    0.010
 6823.00    1.21047   1.19891    0.010
 6824.00    1.24330   1.19881    0.010
 6825.00    1.24537   1.20014    0.010
 6826.00    1.23492   1.19938    0.010
 6827.00    1.21216   1.19693    0.010
 6828.00    1.18513   1.19638    0.010
 6829.00    1.18783   1.19751    0.010
 6830.00    1.19922   1.19628    0.010
 6831.00    1.17016   1.19371    0.010
 6832.00    1.13130   1.19304    0.010
 6833.00    1.13907   1.19350    0.010
 6834.00    1.15595   1.19187    0.010
 6835.00    1.15539   1.18986    0.010
 6836.00    1.15217   1.18939    0.011
 6837.00    1.17033   1.18897    0.011
 6838.00    1.19089   1.18715    0.011
 6839.00    1.17935   1.18623    0.011
 6840.00    1.16541   1.18604    0.011
 6841.00    1.13208   1.18468    0.011
 6842.00    1.09798   1.18312    0.011
 6843.00    1.09414   1.18344    0.010
 6844.00    1.09255   1.18322    0.010
 6845.00    1.17246   1.18099    0.010
 6846.00    1.24630   1.17993    0.010
 6847.00    1.21754   1.18120    0.010
 6848.00    1.18965   1.18073    0.010
 6849.00    1.17089   1.17802    0.010
 6850.00    1.15167   1.17745    0.010
 6851.00    1.12904   1.17896    0.010
 6852.00    1.10979   1.17808    0.010
 6853.00    1.10970   1.17562    0.010
 6854.00    1.10827   1.17550    0.010
 6855.00    1.10079   1.17656    0.010
 6856.00    1.10090   1.17550    0.010
 6857.00    1.12906   1.17400    0.010
 6858.00    1.14643   1.17408    0.010
 6859.00    1.13036   1.17429    0.010
 6860.00    1.11599   1.17361    0.010
 6861.00    1.10607   1.17349    0.010
 6862.00    1.10264   1.17338    0.010
 6863.00    1.11387   1.17281    0.010
 6864.00    1.12239   1.17313    0.010
 6865.00    1.12563   1.17420    0.010
 6866.00    1.12950   1.17360    0.010
 6867.00    1.13447   1.17282    0.010
 6868.00    1.13349   1.17436    0.010
 6869.00    1.12361   1.17598    0.011
 6870.00    1.09538   1.17496    0.011
 6871.00    1.04304   1.17469    0.010
 6872.00    1.01859   1.17717    0.010
 6873.00    1.02640   1.17861    0.010
 6874.00    1.03836   1.17761    0.010
 6875.00    1.05457   1.17835    0.010
 6876.00    1.07262   1.18116    0.010
 6877.00    1.09231   1.18212    0.010
 6878.00    1.09225   1.18167    0.010
 6879.00    1.07650   1.18332    0.010
 6880.00    1.06050   1.18583    0.010
 6881.00    1.04432   1.18657    0.010
 6882.00    1.07720   1.18692    0.010
 6883.00    1.14010   1.18878    0.010
 6884.00    1.18208   1.19071    0.010
 6885.00    1.21289   1.19179    0.010
 6886.00    1.21594   1.19271    0.010
 6887.00    1.20612   1.19389    0.010
 6888.00    1.18561   1.19534    0.010
 6889.00    1.16083   1.19717    0.010
 6890.00    1.13952   1.19812    0.010
 6891.00    1.11939   1.19804    0.010
 6892.00    1.12605   1.19925    0.010
 6893.00    1.14039   1.20184    0.010
 6894.00    1.12891   1.20235    0.010
 6895.00    1.11132   1.20097    0.010
 6896.00    1.11423   1.20203    0.010
 6897.00    1.12106   1.20497    0.010
 6898.00    1.14276   1.20492    0.010
 6899.00    1.16665   1.20269    0.010
 6900.00    1.14688   1.20341    0.010
 6901.00    1.12241   1.20609    0.011
 6902.00    1.12089   1.20576    0.011
 6903.00    1.12099   1.20322    0.010
 6904.00    1.11867   1.20324    0.010
 6905.00    1.11626   1.20526    0.010
 6906.00    1.08887   1.20510    0.010
 6907.00    1.06234   1.20262    0.010
 6908.00    1.06857   1.20164    0.010
 6909.00    1.07408   1.20298    0.010
 6910.00    1.06794   1.20339    0.010
 6911.00    1.06262   1.20106    0.010
 6912.00    1.06555   1.19903    0.010
 6913.00    1.07101   1.20003    0.010
 6914.00    1.09475   1.20126    0.010
 6915.00    1.11264   1.19897    0.010
 6916.00    1.09829   1.19609    0.010
 6917.00    1.08854   1.19721    0.010
 6918.00    1.09901   1.19930    0.010
 6919.00    1.11915   1.19692    0.010
 6920.00    1.17426   1.19350    0.010
 6921.00    1.20819   1.19508    0.010
 6922.00    1.17773   1.19790    0.010
 6923.00    1.14288   1.19536    0.010
 6924.00    1.09667   1.19173    0.010
 6925.00    1.06466   1.19380    0.010
 6926.00    1.06419   1.19710    0.010
 6927.00    1.07795   1.19445    0.010
 6928.00    1.11913   1.19086    0.010
 6929.00    1.14509   1.19323    0.010
 6930.00    1.14549   1.19662    0.010
 6931.00    1.13512   1.19401    0.010
 6932.00    1.10890   1.19067    0.010
 6933.00    1.10655   1.19299    0.010
 6934.00    1.13512   1.19607    0.010
 6935.00    1.15517   1.19367    0.010
 6936.00    1.16550   1.19080    0.010
 6937.00    1.14485   1.19275    0.010
 6938.00    1.09304   1.19520    0.011
 6939.00    1.05534   1.19329    0.011
 6940.00    1.03015   1.19110    0.011
 6941.00    1.02703   1.19244    0.010
 6942.00    1.04114   1.19422    0.010
 6943.00    1.06017   1.19314    0.010
 6944.00    1.08258   1.19177    0.010
 6945.00    1.10744   1.19238    0.010
 6946.00    1.13377   1.19367    0.010
 6947.00    1.10503   1.19378    0.010
 6948.00    1.04731   1.19321    0.010
 6949.00    1.03392   1.19300    0.010
 6950.00    1.04076   1.19410    0.010
 6951.00    1.09139   1.19556    0.011
 6952.00    1.15923   1.19556    0.011
 6953.00    1.15330   1.19439    0.011
 6954.00    1.12270   1.19542    0.011
 6955.00    1.09831   1.19818    0.010
 6956.00    1.07566   1.19834    0.010
 6957.00    1.06135   1.19595    0.010
 6958.00    1.04897   1.19680    0.011
 6959.00    1.05244   1.20060    0.011
 6960.00    1.05885   1.20056    0.011
 6961.00    1.07939   1.19669    0.010
 6962.00    1.10196   1.19706    0.010
 6963.00    1.13369   1.20159    0.010
 6964.00    1.16638   1.20124    0.011
 6965.00    1.14843   1.19584    0.011
 6966.00    1.12712   1.19555    0.011
 6967.00    1.11421   1.20061    0.011
 6968.00    1.10157   1.20011    0.010
 6969.00    1.09071   1.19358    0.010
 6970.00    1.08060   1.19279    0.010
 6971.00    1.09361   1.19828    0.011
 6972.00    1.10533   1.19792    0.011
 6973.00    1.09778   1.19112    0.011
 6974.00    1.09020   1.19031    0.011
 6975.00    1.08227   1.19603    0.011
 6976.00    1.07950   1.19603    0.011
 6977.00    1.11272   1.18993    0.011
 6978.00    1.14279   1.18956    0.011
 6979.00    1.15602   1.19506    0.011
 6980.00    1.17086   1.19547    0.011
 6981.00    1.19258   1.19074    0.011
 6982.00    1.19783   1.19082    0.011
 6983.00    1.14464   1.19547    0.011
 6984.00    1.10634   1.19617    0.011
 6985.00    1.11244   1.19292    0.011
 6986.00    1.12583   1.19290    0.011
 6987.00    1.15772   1.19613    0.011
 6988.00    1.17997   1.19709    0.011
 6989.00    1.18111   1.19507    0.011
 6990.00    1.16358   1.19419    0.011
 6991.00    1.11066   1.19564    0.011
 6992.00    1.06772   1.19703    0.011
 6993.00    1.04132   1.19597    0.011
 6994.00    1.02317   1.19364    0.011
 6995.00    1.01700   1.19334    0.011
 6996.00    1.05148   1.19548    0.011
 6997.00    1.13783   1.19527    0.011
 6998.00    1.16847   1.19134    0.011
 6999.00    1.13644   1.18953    0.011
 7000.00    1.11645   1.19270    0.011
 7001.00    1.10840   1.19345    0.011
 7002.00    1.08997   1.18812    0.011
 7003.00    1.06248   1.18517    0.011
 7004.00    1.07411   1.18948    0.011
 7005.00    1.11588   1.19130    0.011
 7006.00    1.12916   1.18504    0.011
 7007.00    1.12311   1.18125    0.011
 7008.00    1.09184   1.18657    0.011
 7009.00    1.04559   1.18953    0.011
 7010.00    1.04184   1.18293    0.011
 7011.00    1.06010   1.17865    0.011
 7012.00    1.07224   1.18460    0.011
 7013.00    1.08163   1.18858    0.011
 7014.00    1.06863   1.18236    0.011
 7015.00    1.04698   1.17806    0.011
 7016.00    1.07981   1.18405    0.011
 7017.00    1.13053   1.18864    0.011
 7018.00    1.11933   1.18357    0.011
 7019.00    1.09109   1.17992    0.011
 7020.00    1.07508   1.18530    0.011
 7021.00    1.06183   1.18980    0.011
 7022.00    1.05285   1.18654    0.011
 7023.00    1.04464   1.18427    0.011
 7024.00    1.02799   1.18846    0.011
 7025.00    1.01017   1.19208    0.011
 7026.00    1.08160   1.19093    0.011
 7027.00    1.16189   1.19056    0.011
 7028.00    1.17977   1.19324    0.011
 7029.00    1.19373   1.19539    0.011
 7030.00    1.10698   1.19613    0.011
 7031.00    1.01797   1.19761    0.011
 7032.00    1.08885   1.19877    0.011
 7033.00    1.15583   1.19923    0.011
 7034.00    1.11592   1.20111    0.011
 7035.00    1.08041   1.20370    0.011
 7036.00    1.10666   1.20349    0.011
 7037.00    1.13104   1.20243    0.011
 7038.00    1.13814   1.20436    0.011
 7039.00    1.13667   1.20683    0.011
 7040.00    1.07750   1.20539    0.011
 7041.00    1.03103   1.20314    0.011
 7042.00    1.05097   1.20408    0.011
 7043.00    1.07523   1.20524    0.011
 7044.00    1.11768   1.20279    0.011
 7045.00    1.14249   1.19970    0.011
 7046.00    1.10598   1.19892    0.011
 7047.00    1.07364   1.19820    0.011
 7048.00    1.05352   1.19520    0.011
 7049.00    1.03974   1.19170    0.011
 7050.00    1.04180   1.18907   -2.000
 7051.00    1.06260   1.18669   -2.000
 7052.00    1.12369   1.18393   -2.000
 7053.00    1.17346   1.18059   -2.000
 7054.00    1.20210   1.17649   -2.000
 7055.00    1.20481   1.17317   -2.000
 7056.00    1.16526   1.17152   -2.000
 7057.00    1.15802   1.16907   -2.000
 7058.00    1.19701   1.16423   -2.000
 7059.00    1.19164   1.16067   -2.000
 7060.00    1.13048   1.16061   -2.000
 7061.00    1.13263   1.15959   -2.000
 7062.00    1.20501   1.15471   -2.000
 7063.00    1.22109   1.15121   -2.000
 7064.00    1.18212   1.15260   -2.000
 7065.00    1.14090   1.15309   -2.000
 7066.00    1.09773   1.14852   -2.000
 7067.00    1.10541   1.14495   -2.000
 7068.00    1.15173   1.14708   -2.000
 7069.00    1.18803   1.14859   -2.000
 7070.00    1.21766   1.14423   -2.000
 7071.00    1.26873   1.14020   -2.000
 7072.00    1.33236   1.14218   -2.000
 7073.00    1.35585   1.14396   -2.000
 7074.00    1.35889   1.13951   -2.000
 7075.00    1.31878   1.13467   -2.000
 7076.00    1.25963   1.13576   -2.000
 7077.00    1.22122   1.13727   -2.000
 7078.00    1.19068   1.13268   -2.000
 7079.00    1.16893   1.12708   -2.000
 7080.00    1.15002   1.12695   -2.000
 7081.00    1.16729   1.12801   -2.000
 7082.00    1.19431   1.12373   -2.000
 7083.00    1.21324   1.11801   -2.000
 7084.00    1.23038   1.11681   -2.000
 7085.00    1.18155   1.11745   -2.000
 7086.00    1.12112   1.11425   -2.000
 7087.00    1.09897   1.10948   -2.000
 7088.00    1.08195   1.10768   -2.000
 7089.00    1.14765   1.10786   -2.000
 7090.00    1.22121   1.10623   -2.000
 7091.00    1.16772   1.10346   -2.000
 7092.00    1.10677   1.10170   -2.000
 7093.00    1.08670   1.10116   -2.000
 7094.00    1.06785   1.10091   -2.000
 7095.00    1.07914   1.10063   -2.000
 7096.00    1.08925   1.09951   -2.000
 7097.00    1.07022   1.09794   -2.000
 7098.00    1.05416   1.09828   -2.000
 7099.00    1.07769   1.10021   -2.000
 7100.00    1.09173   1.10006   -2.000
 7101.00    1.02155   1.09738   -2.000
 7102.00    0.96891   1.09746   -2.000
 7103.00    1.03084   1.10073   -2.000
 7104.00    1.08060   1.10144   -2.000
 7105.00    1.06840   1.09793   -2.000
 7106.00    1.04442   1.09734   -2.000
 7107.00    0.97196   1.10101   -2.000
 7108.00    0.93963   1.10202   -2.000
 7109.00    1.04405   1.09803   -2.000
 7110.00    1.13450   1.09699   -2.000
 7111.00    1.18483   1.10049   -2.000
 7112.00    1.19319   1.10105   -2.000
 7113.00    1.09853   1.09666   -2.000
 7114.00    1.05088   1.09569   -2.000
 7115.00    1.10267   1.09910   -2.000
 7116.00    1.13474   1.09875   -2.000
 7117.00    1.13055   1.09372   -2.000
 7118.00    1.13297   1.09311   -2.000
 7119.00    1.14599   1.09696   -2.000
 7120.00    1.14519   1.09599   -2.000
 7121.00    1.12492   1.09007   -2.000
 7122.00    1.16446   1.08958   -2.000
 7123.00    1.27821   1.09442   -2.000
 7124.00    1.31159   1.09378   -2.000
 7125.00    1.25709   1.08716   -2.000
 7126.00    1.19841   1.08612   -2.000
 7127.00    1.13568   1.09200   -2.000
 7128.00    1.10963   1.09287   -2.000
 7129.00    1.11478   1.08624   -2.000
 7130.00    1.13981   1.08396   -2.000
 7131.00    1.17973   1.09029   -2.000
 7132.00    1.20222   1.09343   -2.000
 7133.00    1.21324   1.08765   -2.000
 7134.00    1.15343   1.08379   -2.000
 7135.00    1.05282   1.08968   -2.000
 7136.00    1.02607   1.09509   -2.000
 7137.00    1.03638   1.09082   -2.000
 7138.00    1.09423   1.08550   -2.000
 7139.00    1.17272   1.09018   -2.000
 7140.00    1.18391   1.09730   -2.000
 7141.00    1.17004   1.09478   -2.000
 7142.00    1.14000   1.08842   -2.000
 7143.00    1.10486   1.09149   -2.000
 7144.00    1.08303   1.09962   -2.000
 7145.00    1.06471   1.09878   -2.000
 7146.00    1.07249   1.09182   -2.000
 7147.00    1.08588   1.09318   -2.000
 7148.00    1.08420   1.10170   -2.000
 7149.00    1.07994   1.10240   -2.000
 7150.00    1.12583   1.09526   -2.000
 7151.00    1.17821   1.09484   -2.000
 7152.00    1.13424   1.10320   -2.000
 7153.00    1.08153   1.10541   -2.000
 7154.00    1.08968   1.09853   -2.000
 7155.00    1.10115   1.09630   -2.000
 7156.00    1.04175   1.10385   -2.000
 7157.00    0.98244   1.10749   -2.000
 7158.00    1.06824   1.10144   -2.000
 7159.00    1.15345   1.09764   -2.000
 7160.00    1.22531   1.10375   -2.000
 7161.00    1.29739   1.10845   -2.000
 7162.00    1.37213   1.10369   -2.000
 7163.00    1.41920   1.09880   -2.000
 7164.00    1.23007   1.10313   -2.000
 7165.00    1.05728   1.10840   -2.000
 7166.00    0.98801   1.10498   -2.000
 7167.00    0.95329   1.09945   -2.000
 7168.00    1.09008   1.10205   -2.000
 7169.00    1.20600   1.10746   -2.000
 7170.00    1.23796   1.10509   -2.000
 7171.00    1.23419   1.09906   -2.000
 7172.00    1.11112   1.10019   -2.000
 7173.00    1.02431   1.10561   -2.000
 7174.00    1.03978   1.10402   -2.000
 7175.00    1.07313   1.09741   -2.000
 7176.00    1.14959   1.09722   -2.000
 7177.00    1.18024   1.10280   -2.000
 7178.00    1.11549   1.10208   -2.000
 7179.00    1.10384   1.09497   -2.000
 7180.00    1.18833   1.09345   -2.000
 7181.00    1.18888   1.09923   -2.000
 7182.00    1.05658   1.09988   -2.000
 7183.00    0.99348   1.09278   -2.000
 7184.00    1.02654   1.08988   -2.000
 7185.00    1.03171   1.09556   -2.000
 7186.00    1.00278   1.09800   -2.000
 7187.00    1.01304   1.09178   -2.000
 7188.00    1.06553   1.08766   -2.000
 7189.00    1.06741   1.09265   -2.000
 7190.00    1.02116   1.09687   -2.000
 7191.00    0.98962   1.09242   -2.000
 7192.00    0.97040   1.08748   -2.000
 7193.00    0.97004   1.09096   -2.000
 7194.00    0.98361   1.09633   -2.000
 7195.00    1.02707   1.09431   -2.000
 7196.00    1.08990   1.08941   -2.000
 7197.00    1.08871   1.09086   -2.000
 7198.00    1.05120   1.09621   -2.000
 7199.00    1.08264   1.09669   -2.000
 7200.00    1.14812   1.09290   -2.000
 7201.00    1.18100   1.09253   -2.000
 7202.00    1.19996   1.09665   -2.000
 7203.00    1.18452   1.09900   -2.000
 7204.00    1.15650   1.09732   -2.000
 7205.00    0.98829   1.09611   -2.000
 7206.00    0.77665   1.09837   -2.000
 7207.00    0.78951   1.10146   -2.000
 7208.00    0.86031   1.10217   -2.000
 7209.00    0.88943   1.10138   -2.000
 7210.00    0.90979   1.10198   -2.000
 7211.00    0.92743   1.10478   -2.000
 7212.00    0.94463   1.10749   -2.000
 7213.00    0.96087   1.10802   -2.000
 7214.00    0.97699   1.10755   -2.000
 7215.00    1.04531   1.10938   -2.000
 7216.00    1.11815   1.11334   -2.000
 7217.00    1.07558   1.11544   -2.000
 7218.00    1.02715   1.11452   -2.000
